#   1 NUMBER                 Running object number                                     
#   2 MAG_AUTO               Kron-like elliptical aperture magnitude                    [mag]
#   3 X_IMAGE                Object position along x                                    [pixel]
#   4 Y_IMAGE                Object position along y                                    [pixel]
#   5 X_WORLD                Barycenter position along world x axis                     [deg]
#   6 Y_WORLD                Barycenter position along world y axis                     [deg]
#   7 A_WORLD                Profile RMS along major axis (world units)                 [deg]
#   8 B_WORLD                Profile RMS along minor axis (world units)                 [deg]
#   9 THETA_WORLD            Position angle (CCW/world-x)                               [deg]
#  10 FWHM_WORLD             FWHM assuming a gaussian core                              [deg]
#  11 ELONGATION             A_IMAGE/B_IMAGE                                           
#  12 ELLIPTICITY            1 - B_IMAGE/A_IMAGE                                       
         1 -14.4265    156.8849     56.0725   8.0255341840e+01   3.8897458566e+01     1.349513     1.145457  56.71  0.001002318    1.084    0.078
         2 -14.8282    169.2785     41.1575   7.3599924733e+01   3.7918263531e+01     1.231509      1.11461  13.84  0.004308406    1.318    0.242
         3 -14.9013    189.3418      8.1752   6.1996450461e+01   3.6741076011e+01      2.28232    0.7855589  63.04  0.007821441    2.299    0.565
         4 -11.0668    124.9857    247.0855   1.2929831513e+02   6.2168479512e+00    0.3308651    0.1370308 -56.14  0.001488645    2.855    0.650
         5 -19.8970     63.9859    168.5685   1.3225499182e+02   3.2854173860e+01     19.04992     6.308096 -66.28   0.06937069    2.950    0.661
         6  -9.6074    149.4828    215.5058   1.1966775995e+02   7.7903290657e+00    0.1428092    0.1265472  45.66 -1.459039e-05    1.014    0.013
         7  -9.6787    131.0167    214.0197   1.2346663231e+02   1.1516722600e+01    0.1515056    0.1405822 -89.29  0.000889905    1.135    0.119
         8 -10.9271    207.6588    212.3145   1.0681073428e+02  -2.5138812779e+00     0.130859    0.1097916  71.97 0.0007047571    1.704    0.413
         9 -10.4323    110.7462    211.7306   1.2757957366e+02   1.5613121075e+01    0.1770546    0.1371623  76.64 0.0002925306    1.301    0.231
        10 -10.0223    152.0342    210.0384   1.1820381966e+02   8.3879851022e+00    0.2147127    0.1656203  78.20 0.0005337605    1.610    0.379
        11 -12.5886    106.0039    203.8581   1.2750077560e+02   1.8134007069e+01     0.455518    0.3712573 -75.85  0.001316522    1.243    0.196
        12 -11.4143     30.6142    204.9403   1.4374647316e+02   2.8598166603e+01    0.1693549     0.159804  48.09 0.0004893707    1.439    0.305
        13 -11.5249    157.4277    199.2356   1.1511818634e+02   9.5231025070e+00    0.2838815    0.2441599  60.78 0.0009939568    1.182    0.154
        14 -12.2996    163.2983    202.3270   1.1437137778e+02   7.7477439697e+00    0.4419327    0.3147007  86.06   0.00122785    2.196    0.545
        15 -11.8473    160.2894    197.6396   1.1418680552e+02   9.2845273143e+00    0.2999935    0.2473585  86.05 0.0008080197    1.490    0.329
        16 -12.3791    119.0837    240.9416   1.2971439324e+02   8.3405718324e+00    0.3183141    0.1885242 -67.52  0.001654705    2.021    0.505
        17 -10.1860    153.5227    202.0357   1.1649225049e+02   9.7151970686e+00    0.2098463    0.1469488 -54.06  0.001022956    1.583    0.368
        18 -10.2457    141.4865    198.9068   1.1865862253e+02   1.2699680065e+01    0.2822568    0.2260431 -14.19  0.001409865    1.711    0.416
        19 -10.4265    112.5025    196.5800   1.2492097690e+02   1.8606225571e+01    0.3992146     0.279701   3.81  0.001692741    2.725    0.633
        20 -12.1775    180.6714    193.7045   1.0893672601e+02   6.0164394142e+00    0.3428863    0.2806442 -77.06  0.001336316    1.608    0.378
        21 -11.5151    153.2135    193.5997   1.1504097444e+02   1.1523090203e+01    0.3347326    0.2723924  61.08 0.0008778307    1.265    0.209
        22 -14.4087    165.6466    187.1083   1.1098739570e+02   1.0377628133e+01    0.9504404     0.747743  75.79  0.004629832    1.597    0.374
        23 -12.8621    169.6596    182.4296   1.0915523481e+02   1.0528028752e+01    0.6329075    0.2789328  46.25   0.00209904    2.188    0.543
        24 -12.4331    172.6893    188.6625   1.0971126261e+02   8.6271887034e+00    0.3762535    0.3101328 -35.33  0.001480664    1.307    0.235
        25 -13.0520    176.0158    186.0632   1.0845838429e+02   8.4779206040e+00    0.5403988     0.369072 -48.83  0.001192565    1.578    0.366
        26 -10.8402     22.1120    243.4136   1.4806669907e+02   2.1680969823e+01   0.09877752   0.05450647 -72.33 0.0006120527    1.728    0.421
        27 -11.8236    153.3538    186.2388   1.1362834696e+02   1.3056128825e+01     0.297994     0.238207  58.47  0.000704827    1.271    0.213
        28  99.0000     12.0316    240.4189   1.4956723440e+02   2.3348458876e+01    0.2159852    0.1726766 -17.56  0.001431674    2.903    0.656
        29  -9.7732    126.4545    236.5557   1.2765179682e+02   7.9003275124e+00    0.2581758    0.1009331 -39.96 0.0008071964    5.603    0.822
        30 -13.1441    204.6130    176.4689   1.0033517647e+02   4.5469594104e+00    0.7659619    0.4618838 -60.75  0.003092828    2.507    0.601
        31 -11.4437    201.5213    169.0259   9.9395976593e+01   6.6214444878e+00    0.4315889     0.307171 -79.75  0.001708872    2.404    0.584
        32 -12.2824    204.5122    165.6070   9.8034883760e+01   6.6707824421e+00    0.5982557    0.3995141 -52.03  0.001801975    1.672    0.402
        33 -10.8706    198.8923    178.1614   1.0188498140e+02   5.3780861841e+00    0.2810807    0.2446674 -70.03 0.0006460923    1.412    0.292
        34 -13.0760    193.9902    167.1974   1.0059517871e+02   8.5590507059e+00    0.8156176    0.4595748 -54.96  0.001206643    2.191    0.544
        35 -11.4874    190.0584    155.7876   9.8926234191e+01   1.1727246775e+01    0.5071923    0.4711848 -31.87  0.002686705    1.085    0.079
        36  -9.6598    131.7244    235.3080   1.2639971968e+02   7.2158195536e+00    0.1325025   0.09336137  68.41 0.0002710957    1.551    0.355
        37 -12.4518    142.3029    175.5732   1.1415987236e+02   1.7635297816e+01     1.025658    0.6560056 -10.12  0.003474219    3.610    0.723
        38 -13.6174    137.0160    171.3311   1.1459856283e+02   1.9664147155e+01     0.951161    0.4857335  38.29  0.003379628    1.979    0.495
        39 -12.4384    126.4558    173.0932   1.1752045137e+02   2.1352934038e+01    0.7153125    0.3696223  57.84  0.002662587    2.405    0.584
        40 -10.6933    152.3130    171.3066   1.1091589725e+02   1.6525954327e+01    0.1535069    0.1239041   0.59 0.0002011202    1.621    0.383
        41 -11.5476    230.0800    166.2185   9.3113693264e+01   1.4270067886e+00    0.2743607    0.1861933 -62.23  0.001243455    2.131    0.531
        42 -11.2940     22.7919    166.4594   1.4179530495e+02   3.8030635228e+01    0.3020859    0.2099822  -0.98  0.001531584    2.405    0.584
        43 -11.7093    122.1201    165.2428   1.1707819956e+02   2.4023072820e+01    0.3110434     0.239514  58.11 0.0002125998    1.311    0.237
        44 -10.6660    141.4170    164.2393   1.1208448485e+02   2.0382843096e+01    0.2087806    0.1498402 -64.09  0.000350956    1.556    0.357
        45 -10.2118     13.1424    158.0169   1.4314597812e+02   4.0806281695e+01    0.1747068    0.1308359 -62.94 0.0004218963    1.255    0.203
        46 -11.8092    134.5962    109.0517   1.0076185821e+02   3.4368299893e+01     1.179679    0.1541615 -44.82  0.002288456    7.728    0.871
        47 -14.2448    133.7720    145.0728   1.0985271007e+02   2.6401850041e+01     1.553407    0.5495234 -56.78  0.004414309    3.791    0.736
        48 -13.6498    135.8476    128.0883   1.0531152271e+02   2.9870209361e+01     2.118375    0.3508372 -49.90  0.004100491    7.715    0.870
        49 -10.3968    167.2967    155.6591   1.0402093514e+02   1.6757178519e+01    0.1600145    0.1257725 -89.48  0.000359708    1.662    0.398
        50 -12.4396     15.2729    149.6048   1.4175471063e+02   4.2561566091e+01    0.5630465     0.191012 -72.51  0.001726524    2.421    0.587
        51 -10.8654     16.3938    250.3820   1.4940953980e+02   2.0997058744e+01    0.1046605   0.07652178  75.35 0.0004583331    1.088    0.081
        52 -11.1885    174.2918    148.6825   1.0082043624e+02   1.6716186854e+01    0.3725107    0.2925791 -75.75  0.001462383    1.598    0.374
        53 -13.6871    143.7060    144.5716   1.0721498153e+02   2.4403853496e+01     1.028981    0.5524219 -65.72  0.003459388    2.905    0.656
        54 -13.6565      2.6710    124.0121   1.4199681515e+02   4.9267014851e+01    0.9887679    0.4435322 -61.32   0.00541755    1.666    0.400
        55 -13.3161      3.7756    112.2813   1.4020315580e+02   5.1823131670e+01      0.74597    0.3360555 -78.19  0.003766676    2.092    0.522
        56 -10.1976    150.7001    246.3483   1.2405794970e+02   1.9177150735e+00    0.1828977    0.1213338 -50.04 0.0006910847    1.825    0.452
        57 -13.3040      6.3216    139.3789   1.4282057875e+02   4.5563644959e+01    0.4509239    0.3942088  60.86  0.002431257    1.303    0.232
        58 -10.0642    168.3282    134.6547   9.8886944121e+01   2.1100748170e+01    0.2415433    0.1881523  89.01 0.0006018463    1.666    0.400
        59 -11.9464    160.5241    127.7455   9.9040325583e+01   2.4400506513e+01    0.4692588    0.3348676 -62.14  0.001646933    1.627    0.386
        60 -12.3259     12.4508    110.3554   1.3743803623e+02   5.1725265118e+01    0.5340242      0.21997   1.55  0.002192024    4.593    0.782
        61 -12.9747    113.9815    119.1419   1.0901306563e+02   3.6454291709e+01    0.5794836    0.3413102 -53.57 0.0008844816    1.737    0.424
        62 -10.0656    219.2220    224.0397   1.0665964473e+02  -6.4237769080e+00    0.1589156    0.1043373 -33.17 0.0003403823    1.605    0.377
        63 -10.8254    168.2211    113.0635   9.3507598512e+01   2.5711560389e+01    0.3923412    0.2734528  88.02  0.001522773    2.160    0.537
        64 -11.0276    205.2669    110.5772   8.5115773143e+01   1.7356718270e+01    0.3675396    0.2909558  23.50  0.001014605    1.591    0.371
        65 -13.8299    117.7794    109.9717   1.0559545567e+02   3.7754653165e+01    0.9175501    0.4485419  50.03  0.003441079    2.230    0.551
        66 -10.2336    139.5653    250.0671   1.2678316605e+02   3.2077535689e+00     0.265226     0.144056  53.43  0.001325955    1.722    0.419
        67  99.0000     20.4142    218.5432   1.4673963730e+02   2.6823168630e+01    0.2778279    0.1374175  63.75  0.001069624    1.757    0.431
        68 -10.4794    146.9761     80.7185   8.9685501129e+01   3.7186286190e+01    0.2216045    0.1939123  52.46 0.0004905326    1.099    0.090
        69 -10.0257    124.9542     81.2630   9.5517039661e+01   4.2153855972e+01    0.2121152    0.1945883  33.40 0.0005782619    1.054    0.051
        70 -12.2336     15.9351    218.6205   1.4755897843e+02   2.7275183937e+01    0.3251418    0.1268396 -62.89  0.001688307    2.505    0.601
        71  -8.8632     14.3687    216.2881   1.4768635410e+02   2.7915602712e+01    0.1535615    0.1330156 -87.72  0.001171764    1.321    0.243
        72  -9.7656    159.9971    248.9979   1.2256861102e+02  -1.4137695200e-01    0.1424935    0.1371808  41.94 0.0004162422    1.177    0.150
        73 -10.5537    133.7558    247.7193   1.2763396888e+02   4.6111897933e+00    0.1586644    0.1498398  55.42  0.001059158    1.176    0.149
        74 -13.0336    173.4981     33.6701   7.0817243535e+01   3.7822187360e+01    0.4355866    0.3776727  43.82 0.0009320219    1.239    0.193
        75 -10.7388     13.4709     59.6345   1.2714606203e+02   6.2348683617e+01    0.1978323    0.1527959 -39.82 0.0004155833    1.015    0.014
        76 -10.1045    132.0121     29.0206   7.7304034849e+01   4.8522050714e+01     0.201665    0.1599972 -85.08 0.0003976615    1.591    0.372
