#   1 NUMBER                 Running object number                                     
#   2 MAG_AUTO               Kron-like elliptical aperture magnitude                    [mag]
#   3 X_IMAGE                Object position along x                                    [pixel]
#   4 Y_IMAGE                Object position along y                                    [pixel]
#   5 X_WORLD                Barycenter position along world x axis                     [deg]
#   6 Y_WORLD                Barycenter position along world y axis                     [deg]
#   7 A_WORLD                Profile RMS along major axis (world units)                 [deg]
#   8 B_WORLD                Profile RMS along minor axis (world units)                 [deg]
#   9 THETA_WORLD            Position angle (CCW/world-x)                               [deg]
#  10 FWHM_WORLD             FWHM assuming a gaussian core                              [deg]
#  11 ELONGATION             A_IMAGE/B_IMAGE                                           
#  12 ELLIPTICITY            1 - B_IMAGE/A_IMAGE                                       
         1 -14.4346    161.0091     49.3344   8.1017549015e+01   3.8731159093e+01      1.81951     1.467962  10.22  0.005523928    1.453    0.312
         2 -14.3806    173.2980     33.5862   7.3772845369e+01   3.7602998422e+01      1.04402       1.0004 -22.33  0.003447909    1.133    0.118
         3 -13.6965    177.5168     26.3698   7.0880819601e+01   3.7345882584e+01    0.6912189     0.582432  45.89  0.001387262    1.202    0.168
         4 -13.1919    190.8666     14.8933   6.5664734182e+01   3.5066890509e+01    0.7901922    0.4237185 -85.44  0.003087222    2.265    0.558
         5 -13.8583    189.8022      3.8019   6.2647160352e+01   3.6431779282e+01     1.357977    0.5667816  66.10  0.004341938    2.029    0.507
         6  -9.3375    229.0000    240.9340   1.1180485009e+02  -6.6986022520e+00    0.1556616   0.06409173 -32.58 0.0007650179    2.833    0.647
         7 -19.0019     59.3612    244.1772   1.4306029033e+02   1.9043090535e+01     6.138394     4.879163  49.24   0.04733482    1.311    0.237
         8 -13.5872     11.6885    205.4287   1.4913501035e+02   3.1398652800e+01    0.3761976    0.3242003  43.35   0.00233494    1.499    0.333
         9 -13.7879    194.1559    194.2052   1.1039600894e+02   5.4065124107e+00     1.136062    0.7927171 -64.62  0.004815707    2.443    0.591
        10 -19.2108     47.4799     99.6091   1.2892429767e+02   5.1072973769e+01     17.79294     1.100133 -61.68   0.02924875   15.018    0.933
        11  -9.6452    170.3739    205.2749   1.1709331412e+02   8.0654287430e+00    0.1581737    0.1300339 -59.03 0.0004055787    1.552    0.356
        12  -8.9868     22.7763    205.0468   1.4707690025e+02   3.0392400591e+01     0.185706    0.1260164  42.27 0.0006650484    1.508    0.337
        13 -10.0944    211.0403    202.0380   1.0854679272e+02   1.1463767645e+00     0.196706     0.163009  24.33 0.0003322703    1.026    0.025
        14 -11.4813    137.2124    197.7496   1.2279679322e+02   1.5446918006e+01    0.5344989    0.2774831  61.03   0.00221125    2.599    0.615
        15 -10.8621    178.1083    196.8788   1.1410053661e+02   7.9982574407e+00    0.3287984    0.2541934  49.10  0.001596008    1.259    0.206
        16 -11.0425    180.1607    193.2462   1.1303973648e+02   8.2077409474e+00    0.3722661    0.2855833 -85.24  0.001519973    2.150    0.535
        17 -10.5380    177.7205    189.3545   1.1283946448e+02   9.3253154899e+00    0.2429468    0.1749074  48.74 0.0006279488    1.330    0.248
        18 -11.2478    157.1756    218.8534   1.2184366419e+02   8.2475726589e+00     0.201023    0.1592999  57.37 0.0007286973    1.284    0.221
        19 -10.9921    157.8689    193.1429   1.1766020464e+02   1.2462173625e+01    0.2301328     0.206313  69.06 0.0004235298    1.232    0.188
        20 -10.0220    182.2427    189.2270   1.1188601403e+02   8.4759476378e+00    0.1802119    0.1603324  67.66 0.0007263551    1.363    0.266
        21 -12.2312    207.5115    183.9472   1.0583784630e+02   4.4801771962e+00    0.3768869     0.354717 -61.22  0.001259099    1.414    0.293
        22 -12.1942    210.9654    181.2055   1.0463312616e+02   4.2473152056e+00    0.4348795    0.3043453 -14.92  0.001550695    1.575    0.365
        23  -9.9283     27.8585    179.8965   1.4433153364e+02   3.4953911042e+01    0.1608711    0.1403242 -80.65 0.0006582242    1.267    0.211
        24 -11.3866    197.8234    176.0286   1.0619115135e+02   7.6216218299e+00    0.3964204    0.3182757 -50.93  0.001263859    1.541    0.351
        25 -10.3106    145.5003    178.4835   1.1780188113e+02   1.7549553206e+01     0.143511    0.1283082  45.45 2.900111e-05    1.010    0.010
        26 -10.9446    178.4099    173.2233   1.0963741874e+02   1.1991115483e+01    0.4820776    0.1797811 -33.47  0.001575856    3.829    0.739
        27 -12.3837    204.6175    198.1854   1.0907582539e+02   2.8634822668e+00    0.4454969    0.3086987  -7.87  0.001547385    1.699    0.411
        28 -12.5623    137.2844    171.6562   1.1843523562e+02   2.0482447296e+01    0.7498485    0.4045629  49.03  0.003304094    1.744    0.426
        29 -11.0965    226.1241    167.4065   9.8969911306e+01   3.4686908965e+00    0.3699825    0.2132305 -55.16  0.001503234    3.128    0.680
        30 -11.4539    203.9001    168.1542   1.0337593596e+02   7.7093778516e+00      0.66084    0.5552477  70.28  0.003575929    1.593    0.372
        31 -11.6136    145.1945    168.5314   1.1604688716e+02   1.9565856989e+01    0.3864619    0.2935508  52.92  0.001751206    1.258    0.205
        32 -11.8401    230.3767    167.3973   9.8190707720e+01   2.6633931198e+00    0.4154335    0.2165396 -48.04  0.001764011    2.686    0.628
        33 -10.1504    135.9631    219.2499   1.2613069030e+02   1.1861186404e+01    0.1804353    0.1401636  45.86 0.0001890713    1.051    0.048
        34 -12.7535     22.8879    157.5524   1.4355430267e+02   4.0222027592e+01    0.6703569    0.3881329  12.23  0.002984369    2.860    0.650
        35 -10.6349     27.6378    151.0876   1.4183306185e+02   4.1213195942e+01    0.2060725    0.1587548  42.70  0.001377016    1.413    0.292
        36 -10.1475    113.0762    160.2311   1.2210721019e+02   2.7404273926e+01    0.2424327    0.1493711  63.41 0.0007278582    1.924    0.480
        37 -11.8371    164.3235    156.9246   1.0938360102e+02   1.7939875913e+01    0.3386768    0.3068595  30.47 0.0008892129    1.059    0.056
        38 -10.6586     16.1141    213.2728   1.4875524387e+02   2.9487717051e+01    0.1304646    0.1125294  65.37 0.0005696258    1.326    0.246
        39 -12.6974    133.9481    145.3648   1.1408689026e+02   2.6625042463e+01     1.196462    0.3370489 -54.57  0.003157958    5.025    0.801
        40  -9.4010     13.4954    152.4172   1.4527049694e+02   4.2149687331e+01    0.1134102   0.09139324 -83.80 0.0003113528    1.097    0.088
        41 -11.5493    174.1021    148.6050   1.0540568233e+02   1.7448988943e+01    0.4077514     0.341437 -31.03  0.001362205    1.266    0.210
        42 -10.1174    232.6418    149.3173   9.3910431792e+01   4.9803009229e+00    0.1336043     0.113437 -76.36 0.0007044308    1.755    0.430
        43 -11.2177    190.0376    212.5188   1.1439002804e+02   3.3798565503e+00    0.2116744    0.1094973  40.70  0.001038663    1.609    0.379
        44 -12.5059    144.9161    146.0246   1.1156164270e+02   2.4224746894e+01    0.4714085    0.3806109 -83.77  0.002315558    1.537    0.349
        45 -11.2642      9.7128    143.0524   1.4537152210e+02   4.4495762169e+01    0.4016992     0.226146   8.56   0.00190623    2.886    0.653
        46 -10.3710    160.3195    152.3077   1.0930903593e+02   1.9692588936e+01    0.1521337    0.1174679   9.12 0.0005249354    1.638    0.389
        47 -11.2954     93.7572    142.5641   1.2378922085e+02   3.4695937759e+01    0.2705438      0.21185   6.38  0.001260576    1.811    0.448
        48 -10.1642      2.8453    145.1588   1.4715338664e+02   4.4528449532e+01    0.1650674    0.1351525 -81.95 0.0003956008    1.131    0.116
        49 -11.7035      4.0769    137.6186   1.4626798731e+02   4.6090187275e+01    0.3190421    0.1538838 -86.14  0.001465097    1.746    0.427
        50 -12.7572    118.9371    130.0618   1.1457951532e+02   3.2972738849e+01    0.6822044     0.468541 -33.75  0.003102155    1.740    0.425
        51 -12.0480    125.2345    127.3912   1.1231654546e+02   3.2305286283e+01    0.5154331    0.3189096  65.72   0.00205241    2.241    0.554
        52 -11.6965    106.0899    130.8837   1.1818446777e+02   3.5219356133e+01    0.3838643     0.307514  63.10  0.001200122    1.313    0.238
        53 -11.6084    107.3092    126.5557   1.1691421633e+02   3.5977579053e+01    0.3848471     0.270507 -33.85  0.000995177    1.700    0.412
        54 -12.3327    135.4164    122.3664   1.0847950266e+02   3.1267910485e+01    0.7295781    0.2373191 -50.72  0.002174719    3.527    0.716
        55 -10.6099      7.5250    212.3874   1.5022184823e+02   3.0470755747e+01    0.1105076   0.08701349  53.61 0.0005242588    1.333    0.250
        56 -12.1019     94.7550    136.7859   1.2243220889e+02   3.5852988881e+01    0.3786831    0.2531156 -41.76   0.00181809    1.695    0.410
        57 -11.4546    160.3329    128.2961   1.0381409551e+02   2.4509727584e+01    0.4286471    0.3198342 -43.49  0.002015178    1.394    0.283
        58 -10.0082    239.3128    126.6778   8.7651844782e+01   7.1593570417e+00    0.1373479     0.109914 -63.61 0.0003789013    1.655    0.396
        59 -11.0097    113.1684    119.2352   1.1363223755e+02   3.6517137975e+01    0.2578316    0.2379642 -64.23 0.0002606058    1.087    0.080
        60 -11.3881    182.0096    233.5454   1.1919118138e+02   1.7857291109e+00    0.2183414     0.196146 -15.75  0.001530753    1.335    0.251
        61 -11.3890    167.9137    113.4619   9.8318257661e+01   2.5702304862e+01    0.3867804    0.3192438  81.17 0.0009217817    1.478    0.323
        62 -11.3597    134.5359    104.5373   1.0411295076e+02   3.5250372791e+01    0.6044821    0.1546934 -43.61   0.00165111    3.966    0.748
        63 -11.2244      4.1019    112.3488   1.4390136698e+02   5.1694475122e+01    0.2298189    0.1971523  10.66  0.001320595    1.540    0.351
        64 -10.7559    205.4973    110.2540   8.9662725644e+01   1.7340519200e+01    0.3291149    0.2358756  41.73 0.0009559321    1.407    0.289
        65 -11.5962     91.5936    109.3813   1.1743448361e+02   4.2682795577e+01    0.2758174    0.2484509 -35.72 0.0007211432    1.149    0.130
        66 -10.7527     24.9001    108.8594   1.3749047475e+02   5.1051713754e+01    0.1868529    0.1420299 -49.51 0.0005488262    1.299    0.230
        67 -10.2231    124.8294     94.6987   1.0398914758e+02   3.9442423108e+01    0.2536905    0.1899707  26.72 0.0006978534    1.507    0.336
        68  -9.8989    147.8322     78.8138   9.3272793887e+01   3.7215340562e+01    0.2126985    0.1883012 -74.20 0.0004460278    1.294    0.227
        69 -10.8121     89.7349     78.4374   1.0969798461e+02   4.9807676267e+01    0.2467056    0.2201849 -46.86 0.0004498909    1.114    0.102
        70 -10.7993      1.4126    248.7541   1.5266927452e+02   2.4673386616e+01    0.1058089   0.07118496  86.68 0.0008816571    1.303    0.233
        71 -10.3067    165.5613    207.5049   1.1842887263e+02   8.5823132317e+00    0.2446911    0.2158426  82.32 0.0009196436    1.419    0.295
        72 -10.1020    203.4878    245.4812   1.1699179717e+02  -3.2529365478e+00    0.1210181   0.09078773  30.14 0.0001723384    1.021    0.020
        73 -10.3414     13.5439     59.8366   1.3256809082e+02   6.2734880532e+01    0.1745798    0.1554649 -28.80 0.0003616841    1.195    0.164
        74 -10.4909    126.9842     27.2226   8.0757887676e+01   5.0392288394e+01    0.3740423    0.1959347  70.59  0.001467809    2.440    0.590
        75  -9.9334      2.0394     19.3756   1.2650151616e+02   7.1341243269e+01    0.1408547    0.1099373 -25.16 0.0003349176    1.144    0.126
        76 -10.6344    164.6981    204.3511   1.1809712399e+02   9.2606472094e+00    0.2722167    0.2045246 -74.55  0.001122539    1.959    0.490
