#   1 NUMBER                 Running object number                                     
#   2 MAG_AUTO               Kron-like elliptical aperture magnitude                    [mag]
#   3 X_IMAGE                Object position along x                                    [pixel]
#   4 Y_IMAGE                Object position along y                                    [pixel]
#   5 X_WORLD                Barycenter position along world x axis                     [deg]
#   6 Y_WORLD                Barycenter position along world y axis                     [deg]
#   7 A_WORLD                Profile RMS along major axis (world units)                 [deg]
#   8 B_WORLD                Profile RMS along minor axis (world units)                 [deg]
#   9 THETA_WORLD            Position angle (CCW/world-x)                               [deg]
#  10 FWHM_WORLD             FWHM assuming a gaussian core                              [deg]
#  11 ELONGATION             A_IMAGE/B_IMAGE                                           
#  12 ELLIPTICITY            1 - B_IMAGE/A_IMAGE                                       
         1 -13.9723    200.1611    175.5657   3.2970065861e+01   1.2017168395e+01     1.484168    0.7581924 -61.28  0.007905538    2.055    0.513
         2 -13.9824    218.8918     33.7932   8.3438527296e+00   3.2259054072e+01     1.261373    0.3728117 -65.27  0.005468553    4.301    0.767
         3 -15.4592    220.7722     55.0761   1.1581620048e+01   2.9206081367e+01     1.452626    0.6666853 -64.60  0.009157606    1.797    0.444
         4 -15.8097    244.5227     62.7473   1.0949661943e+01   2.4834072481e+01     1.617534    0.9491801 -45.26   0.01212534    1.698    0.411
         5 -13.6387    203.1458     27.8701   8.4885148254e+00   3.5472575004e+01    0.6238008    0.4212739 -56.86   0.00491531    1.293    0.226
         6 -15.2803    192.2204     39.0538   1.1301536267e+01   3.5870687657e+01      1.29449    0.9445727  86.17  0.007913592    1.280    0.219
         7 -13.8746    179.6909     24.3897   9.7346264570e+00   3.9876240217e+01    0.7113281     0.331626 -75.87   0.00337718    2.043    0.511
         8 -14.3769     44.6643     25.3833   3.6457471510e+01   6.6304969839e+01     1.013904    0.8050095 -45.92  0.006780047    1.525    0.344
         9 -13.3075    240.0343     19.1824   4.8654499963e+00   3.0885729933e+01    0.6077213     0.227188 -52.68  0.003765045    1.763    0.433
        10 -11.9972    223.9552     22.1736   6.1971955386e+00   3.2891822339e+01     0.311699    0.1500738 -65.70  0.001954685    1.484    0.326
        11 -12.5531    187.3175     19.3413   8.1899816178e+00   3.9144729557e+01    0.2909628     0.184575 -83.98  0.001374819    1.209    0.173
        12 -11.6199    227.7592     15.0072   4.8827222989e+00   3.3145440538e+01    0.2813393    0.1441764 -48.70  0.002129229    1.627    0.385
        13  -9.9642    230.3994      9.5314   3.9198649842e+00   3.3363281377e+01     0.419729    0.3763558  33.31  0.003540679    2.950    0.661
        14 -13.2512    142.9927      3.8555   8.9502761975e+00   4.9007230109e+01    0.5563764    0.2938588  82.01  0.003596702    1.510    0.338
        15 -14.4817    161.2968     11.7104   8.8927184860e+00   4.4685083368e+01     1.142203    0.3282845  69.57  0.005695807    2.921    0.658
        16 -14.7303    164.8096      4.4891   7.1511257291e+00   4.4811466630e+01     1.731939    0.5376946  77.38  0.008847928    2.817    0.645
        17 -10.6442    222.2923      4.6500   3.5755356781e+00   3.5110399797e+01    0.1032221   0.04340975 -65.07 0.0007029484    1.673    0.402
        18 -13.5954     81.0669     38.6302   2.8666651973e+01   5.7436560554e+01    0.6980945     0.388357 -50.64   0.00375528    2.020    0.505
        19 -10.8607     85.9989      3.3163   1.6701618539e+01   6.0622252503e+01    0.1712954    0.1193405  72.55  0.001152637    1.108    0.097
        20 -12.5447      3.3457      2.9902   4.9909052106e+01   7.5733116124e+01    0.4786939    0.2368804  27.89  0.002773085    1.688    0.408
        21 -10.4526    217.5157      1.5169   3.3229333723e+00   3.6178314454e+01    0.1589484   0.06362494 -85.27  0.001025364    2.196    0.545
        22 -11.2667    175.6648    180.0912   3.7685052399e+01   1.3915388022e+01    0.2825495    0.1844572  36.47  0.001670314    1.819    0.450
        23 -12.0098     82.9088    238.8536   6.6446589767e+01   1.1334681771e+01    0.2599597     0.179655  25.07  0.001377663    1.345    0.256
        24 -12.4190    185.4262    170.4574   3.4531990544e+01   1.4652884168e+01    0.4960549    0.2405172 -35.61  0.002374138    2.440    0.590
        25 -11.4465    177.5899    169.1153   3.5644555751e+01   1.5861427947e+01    0.2133057    0.1866519   9.99  0.001446905    1.407    0.289
        26 -12.3650     96.6977    166.8666   5.3142896804e+01   2.7443309380e+01    0.4234897     0.171262 -58.13  0.001575061    2.320    0.569
        27 -12.3435    169.7288    162.9136   3.6038415520e+01   1.8099171333e+01    0.5007285    0.2612671 -48.94   0.00258359    1.618    0.382
        28 -13.3757    178.0401    161.4334   3.4349679194e+01   1.7322193553e+01    0.6481732    0.3952514  46.39  0.003703243    1.989    0.497
        29 -14.3439    189.0893    193.8298   3.7428188446e+01   9.7814313841e+00    0.7475635    0.6889632 -20.70  0.005059302    1.186    0.157
        30 -12.6924    140.4642    162.3131   4.1687796154e+01   2.2225757318e+01     0.458754    0.2605886  56.92  0.002067141    2.388    0.581
        31 -11.4836     80.1929    159.2148   5.6628023641e+01   3.1761019664e+01    0.2689391    0.1499129 -27.16 0.0009596767    2.857    0.650
        32 -13.3194    247.6877    155.5068   2.3905016645e+01   1.0567951233e+01    0.4310043     0.199805 -45.93  0.002803857    1.557    0.358
        33 -12.9345    242.4164    144.4406   2.2938482941e+01   1.2863883380e+01    0.4333518    0.2672817 -82.60  0.002718936    2.628    0.619
        34 -13.1890    178.8537    152.9812   3.2849240733e+01   1.8876068600e+01    0.4426019    0.4249367  47.12  0.002304197    1.272    0.214
        35 -12.2712    162.9604    151.2246   3.5336562242e+01   2.1401515651e+01    0.4688061     0.232028 -46.82  0.002279426    1.812    0.448
        36 -11.8535     86.9947    151.2588   5.3264161278e+01   3.2829955616e+01    0.4121049     0.200001 -79.53  0.001314253    3.534    0.717
        37 -12.3757    166.8137    138.2137   3.2424901485e+01   2.3476707142e+01    0.4190362    0.2469252 -76.70  0.001987392    2.379    0.580
        38 -11.3620     39.3637    140.4079   6.7288740325e+01   4.2208044025e+01    0.3686626    0.2834237  13.08  0.001791466    1.374    0.272
        39 -10.6960    101.3342    136.3321   4.6479948518e+01   3.4285519473e+01    0.1481525    0.1135226 -23.67  0.000705222    1.731    0.422
        40 -13.9382    231.8210    225.7742   3.5278148409e+01   6.0749768661e-01     1.209299    0.3797131 -48.22  0.006539122    2.261    0.558
        41 -14.0670    234.2746     46.0032   9.1843526363e+00   2.8446852798e+01    0.6672195    0.4336031 -57.48  0.003798159    1.207    0.171
        42 -13.8306    227.7381    172.3478   2.8632378119e+01   9.7432347422e+00    0.6509516    0.5677323 -46.13  0.004962383    1.197    0.164
        43 -15.7713    244.0914    118.2117   1.9030255109e+01   1.6818369667e+01     1.779201    0.7926573 -49.52   0.01139118    1.592    0.372
        44 -14.9010    243.5267     93.4320   1.5499716572e+01   2.0631804046e+01     1.208092    0.6661888 -64.54  0.008645929    1.464    0.317
        45 -13.8460    247.2511     79.1570   1.3124203524e+01   2.2220291007e+01    0.5677372    0.2914219 -51.38  0.003260193    1.397    0.284
        46 -14.4635    243.6592    222.3138   3.3243509303e+01   3.3878536484e-01     1.242583    0.6457535 -59.24  0.007812392    2.301    0.565
        47 -13.1880     92.7710    200.5485   5.9237257245e+01   1.9469308303e+01    0.6549401    0.4989266 -17.78  0.003176004    1.463    0.316
        48 -12.5848    121.7029    125.0265   3.9129126066e+01   3.3473912592e+01    0.4235007    0.3624093  75.34  0.002441395    1.170    0.145
        49 -12.2022    133.1536    119.8499   3.5550131680e+01   3.2626560738e+01    0.2450428    0.2031869  51.27  0.001284586    1.299    0.230
        50 -12.8393    129.6040    116.8432   3.5725141117e+01   3.3870761497e+01    0.3917931    0.2725272 -42.17   0.00190594    1.610    0.379
        51 -11.7030     95.0012    111.7169   4.3278959815e+01   4.1103441562e+01    0.3841884    0.2481486  88.62  0.001668664    2.171    0.539
        52 -12.0885     98.0164    109.4959   4.1962130520e+01   4.1064525949e+01    0.3022397    0.2149877  38.12  0.001527046    1.502    0.334
        53 -13.1657    149.4253    109.1502   3.0239247966e+01   3.1992989854e+01    0.8920584    0.3780019 -38.79  0.003308146    3.720    0.731
        54 -13.4984    144.2509    101.5907   2.9718194507e+01   3.4351263560e+01    0.7743152    0.4575921 -52.62   0.00336688    1.553    0.356
        55 -12.7673    104.0650    105.1403   3.9396726527e+01   4.0922827609e+01    0.4999389    0.2589374  31.97  0.001997973    2.742    0.635
        56 -13.4440     92.0479    100.6848   4.1703087095e+01   4.4068748373e+01    0.4365085    0.3646925  -2.21  0.002310904    1.728    0.421
        57 -12.1973     46.3101    100.0198   5.7257241137e+01   5.1802292719e+01    0.4009933     0.276009 -64.08  0.001968329    1.527    0.345
        58 -12.8324    112.8950     99.6541   3.5984890059e+01   4.0448278037e+01    0.4053245    0.2758822 -52.28  0.001853461    1.465    0.318
        59 -13.2625     99.1848     94.5081   3.8322064581e+01   4.4058212475e+01    0.3514462    0.2902668 -53.57  0.001510381    1.271    0.213
        60 -11.0662    152.3584     91.8894   2.6347476970e+01   3.4711089878e+01    0.2181905    0.1599399  77.96  0.001317713    1.352    0.260
        61 -12.9399     88.6893     90.7018   4.0372655110e+01   4.6797672051e+01    0.3632972    0.2185136  61.19   0.00168068    1.820    0.451
        62 -12.5893     44.5919     89.9126   5.5700232516e+01   5.4416121707e+01    0.4956375    0.2136978  37.12   0.00200491    2.107    0.525
        63 -11.8672     12.9768     89.2929   6.9946483246e+01   5.8299950040e+01    0.2031604    0.1766421  11.10  0.001170099    1.099    0.090
        64 -12.1563      2.8905     88.2860   7.4785409864e+01   5.9337347455e+01    0.3739975    0.3196991  70.32  0.002173778    1.329    0.248
        65 -13.7341     93.5780     79.3607   3.6254359915e+01   4.8133607782e+01    0.5920411    0.5335047 -57.25  0.003620395    1.221    0.181
        66 -12.3142    220.6237     77.1364   1.5084366203e+01   2.6098570735e+01    0.2942227    0.1373391 -68.45  0.001690314    2.197    0.545
        67 -12.4170    218.9913     71.1720   1.4288677195e+01   2.7206725710e+01    0.2174119    0.1411622 -87.13  0.001164911    1.475    0.322
        68 -11.7591     74.5045     69.3847   3.9361348100e+01   5.3652682909e+01    0.2609058    0.1979831  55.51 0.0009837215    1.198    0.165
        69 -12.0567     84.3351     69.0495   3.6252377080e+01   5.1842657064e+01    0.2800311    0.1860764  57.54  0.001483637    1.393    0.282
        70 -15.8066    246.8836    194.2801   2.9220661849e+01   4.4754521620e+00      2.66113    0.6420786 -52.23   0.01189619    3.407    0.707
        71 -12.5071    195.5451     56.5159   1.4057336944e+01   3.2940680138e+01    0.3164063    0.2795207 -26.54  0.001950393    2.082    0.520
        72 -13.1226    199.0269     51.5297   1.2863291743e+01   3.3070197266e+01    0.3957002    0.2150324 -63.63  0.002437639    1.433    0.302
        73 -12.7733    156.6429    231.0717   4.8606900069e+01   5.7737382977e+00    0.3875648    0.3576596  85.25  0.002674022    1.470    0.320
        74 -12.6984    122.5178     46.8819   2.1747882322e+01   4.7815034331e+01    0.3239016    0.2703946  60.92   0.00217401    1.352    0.260
        75 -12.0696     84.9674     47.7802   3.0264927246e+01   5.5294952302e+01    0.6084355    0.2711347  57.11  0.002823568    2.015    0.504
        76 -11.6367    179.1294    132.3406   2.9372800875e+01   2.2822497112e+01    0.2160126    0.1454706 -48.58  0.000705855    1.311    0.237
        77 -12.7898    105.8299    226.3414   5.9264036472e+01   1.1848361881e+01    0.4756873    0.3096366 -77.27  0.002338953    1.965    0.491
        78 -12.8767    112.0160     37.8681   2.1439924573e+01   5.1216139965e+01    0.2964836    0.2441099  78.41  0.002019821    1.086    0.079
        79 -11.5082    120.5200     56.4963   2.4418427441e+01   4.6767930489e+01    0.2355307    0.1074049  69.65  0.001041562    2.453    0.592
        80 -12.0280     97.1123     36.6048   2.4148265698e+01   5.4446490463e+01    0.2164941    0.1850453 -47.15   0.00140019    1.425    0.298
        81 -13.1363    145.1929    208.0478   4.7787325321e+01   1.1617867662e+01    0.7474425    0.3776526  18.82  0.003513805    2.339    0.572
        82 -11.5902    229.5572     28.8909   6.8948559780e+00   3.1260119319e+01    0.2992128    0.1297641 -47.19  0.002033603    1.869    0.465
        83 -11.3393    234.6440     28.7224   6.5677613146e+00   3.0540298255e+01    0.2058573    0.1411702 -84.62  0.001304105    1.296    0.229
        84 -12.6306    144.1387    203.3671   4.7335360477e+01   1.2733885018e+01    0.8600032    0.3346038  23.58   0.00349193    3.074    0.675
        85 -10.3677    102.6940     25.6676   1.9986068859e+01   5.4714581129e+01    0.1109073   0.08612715  44.78 0.0007039102    1.663    0.399
        86 -12.6623    146.9618    222.5284   4.9434482755e+01   8.4121056474e+00    0.8072802     0.406185 -68.51  0.003518082    2.880    0.653
        87 -13.9885    151.3069    217.9522   4.7909462601e+01   8.9093244125e+00    0.7869245    0.6873657 -64.32  0.005148898    1.298    0.229
        88 -11.5854      3.8006    229.4012   8.7103821846e+01   2.0781231152e+01    0.1951026    0.1278654   0.56 0.0009556598    1.704    0.413
        89 -11.1988     79.4084    225.1826   6.5855555386e+01   1.4913644345e+01    0.1912601    0.1361891 -85.68 0.0008163796    1.700    0.412
        90 -13.1702    221.3003    222.5670   3.6362190289e+01   1.8803945401e+00    0.2257962    0.1950961  31.08  0.001868188    1.609    0.378
        91 -13.3839    211.8192    182.9714   3.2321163349e+01   9.4708147526e+00    0.7265701    0.3210182 -44.57  0.004067876    1.758    0.431
        92 -14.8100    195.0895    211.5294   3.8941982529e+01   5.9332555589e+00     1.754323      1.13709  46.13   0.01092161    2.236    0.553
        93 -14.3681    193.7385    186.4525   3.5587236353e+01   1.0683513866e+01    0.8637304    0.7672515 -78.29  0.004533569    1.366    0.268
        94 -10.7372    141.4533    197.5150   4.7049404358e+01   1.4309690695e+01      0.22717     0.128221  11.21  0.001036891    2.391    0.582
        95 -10.8948    123.3367    187.3167   4.9597991359e+01   1.8843084149e+01    0.1459645    0.1001971 -26.13 0.0007048213    1.698    0.411
        96 -10.7185     97.8394    186.1353   5.5835086324e+01   2.2435758766e+01    0.2113548    0.1648621 -34.27  0.001078671    1.345    0.256
