#   1 NUMBER                 Running object number                                     
#   2 MAG_AUTO               Kron-like elliptical aperture magnitude                    [mag]
#   3 X_IMAGE                Object position along x                                    [pixel]
#   4 Y_IMAGE                Object position along y                                    [pixel]
#   5 X_WORLD                Barycenter position along world x axis                     [deg]
#   6 Y_WORLD                Barycenter position along world y axis                     [deg]
#   7 A_WORLD                Profile RMS along major axis (world units)                 [deg]
#   8 B_WORLD                Profile RMS along minor axis (world units)                 [deg]
#   9 THETA_WORLD            Position angle (CCW/world-x)                               [deg]
#  10 FWHM_WORLD             FWHM assuming a gaussian core                              [deg]
#  11 ELONGATION             A_IMAGE/B_IMAGE                                           
#  12 ELLIPTICITY            1 - B_IMAGE/A_IMAGE                                       
         1 -16.4218    179.3163     78.3731   4.7160647414e+01   2.9844357902e+01     12.86362     5.024382 -57.70  0.005201595    4.479    0.777
         2 -14.1823    248.2836     59.9989   3.4547004125e+01   1.8702037543e+01     3.041423    0.3403801 -40.49  0.006234866    5.657    0.823
         3 -16.3692    236.8306     81.6942   3.9910675581e+01   1.7576808835e+01     7.017733     1.135699 -43.03   0.01823321    4.479    0.777
         4 -16.6469    236.5616     41.3326   3.2065587432e+01   2.3387530826e+01     8.054194    0.8122728  60.65    0.0247754    7.022    0.858
         5 -14.5279    250.0472     26.3962   2.8287468712e+01   2.2754772133e+01     1.364844    0.3070182 -41.35  0.006085762    3.213    0.689
         6 -14.9512    217.4894     67.6274   3.9293818350e+01   2.3445145942e+01     1.704284    0.9661183 -35.12  0.004347076    1.854    0.460
         7 -14.5044    231.5470     61.7735   3.6525734675e+01   2.1548928610e+01     6.648489     1.382762 -45.85   0.01260368    3.717    0.731
         8 -13.6294    232.9973      7.0485   2.5946669241e+01   2.8105593625e+01    0.4754968     0.283191 -33.11  0.001986713    1.976    0.494
         9 -12.3008    231.3726     17.6780   2.8011377864e+01   2.7252715471e+01    0.3409521    0.1886843 -35.90  0.001083091    1.927    0.481
        10 -11.9317    227.8389     14.2085   2.7612998248e+01   2.8324220212e+01    0.2368239    0.1580024 -50.05  0.000592145    1.337    0.252
        11 -11.8721    135.0001     15.4246   3.7708806912e+01   4.8437291463e+01    0.3546678    0.1763291 -11.74  0.001572641    3.330    0.700
        12 -11.9639    125.6783     15.5919   3.9285363132e+01   5.0569419247e+01     0.260267    0.1568487 -26.99  0.001228278    1.960    0.490
        13 -11.8734    214.6455     13.6523   2.8481584322e+01   3.1006342880e+01    0.2710338    0.2148056  37.96  0.001300103    2.010    0.503
        14 -11.2194    143.8154     10.7392   3.5101716398e+01   4.6843504808e+01    0.2872407    0.1849805 -15.47  0.001625839    2.109    0.526
        15  -9.8178    177.6680     10.2890   3.1019234904e+01   3.9219825749e+01    0.2078333   0.09772328 -38.16  0.001096653    2.154    0.536
        16 -12.0471    223.8115      7.9488   2.6714448560e+01   2.9786431219e+01    0.2328485     0.161078 -50.07  0.000805851    1.334    0.251
        17 -10.1717     81.6709     10.0607   4.6779165461e+01   6.0817227528e+01    0.1616458    0.1401918  31.03 0.0003878756    1.109    0.098
        18 -10.8560    242.2366      7.9173   2.5534997141e+01   2.6281048012e+01    0.1667379    0.1224406 -89.58 0.0002680068    1.222    0.182
        19 -11.1481    135.1488      6.3332   3.5080733927e+01   4.9221574609e+01    0.1873848    0.1696384  27.39 0.0009365186    1.344    0.256
        20  -9.7194    217.7079      6.1948   2.6800647472e+01   3.1178076054e+01    0.1317697   0.09551227 -35.87  0.000642071    1.622    0.383
        21 -11.1784    119.9413      4.9881   3.7002401419e+01   5.2807500246e+01    0.2173719    0.1800226 -23.81 0.0004362839    1.468    0.319
        22 -12.6424    249.0094      4.2871   2.4521830973e+01   2.5435212363e+01    0.2517682    0.1784773  89.55 0.0008297353    1.265    0.209
        23  -9.4318     86.3037    146.2380   8.7041123906e+01   3.4529109952e+01     0.147272    0.1184248 -13.50 0.0002422248    1.485    0.326
        24 -12.4240    218.1622    123.0546   5.0936232052e+01   1.4043280642e+01    0.3436626    0.2393651 -30.65  0.001221966    1.485    0.326
        25 -10.6406    212.6870    123.7355   5.1955406053e+01   1.4926930069e+01    0.1865775    0.1490965 -66.37  0.001041924    1.340    0.254
        26 -10.3488    135.0522    120.8115   6.7283782908e+01   3.1372211583e+01    0.3292186    0.1913188 -49.31  0.001115451    1.724    0.420
        27 -11.5018    162.5818    120.4434   6.0680802456e+01   2.5622209354e+01     0.304333    0.2683589 -70.08  0.000844945    1.195    0.163
        28 -11.8281    215.4155    117.1972   5.0130522881e+01   1.5606401951e+01    0.2967569    0.2156659 -52.71  0.001107965    1.258    0.205
        29 -13.4266    216.9816    105.3314   4.7370810164e+01   1.7410490672e+01    0.6634409    0.4504405 -33.90  0.002821344    1.501    0.334
        30 -14.1431    206.9017    108.2483   4.9543887607e+01   1.8847183120e+01    0.7926039    0.7171099  -6.26  0.001865178    1.353    0.261
        31 -12.3237    200.6191    105.8367   5.0025650451e+01   2.0531589076e+01    0.3165725    0.3099948 -46.84 0.0006289231    1.132    0.116
        32 -10.8529    183.5622    212.0025   7.5236463379e+01   2.9044948921e+00    0.3110709    0.1655733  15.43  0.001290021    2.542    0.607
        33 -11.7858    167.3444    114.8521   5.8316564724e+01   2.5748714708e+01    0.4473081    0.4081832  25.25  0.002438603    1.224    0.183
        34 -11.4124    134.8770    108.6904   6.4236109592e+01   3.4020945369e+01     1.123433    0.3098243 -44.37  0.003267016    3.607    0.723
        35 -11.8161    226.7850    113.5217   4.7658749812e+01   1.4168335792e+01    0.2521003    0.1654953 -42.68   0.00104801    1.310    0.237
        36 -10.8765    126.9659    104.5887   6.5191579871e+01   3.6582944885e+01    0.4949697    0.2453565 -58.02  0.001727718    2.753    0.637
        37  -9.6970    142.8071    105.4216   6.1440139109e+01   3.2975732709e+01    0.2152347    0.1421231  35.91 0.0009396903    1.695    0.410
        38 -11.3323    149.7894    101.9228   5.8911681581e+01   3.2143565624e+01     0.344826     0.295831  15.56 0.0006719228    1.401    0.286
        39 -12.1569    191.7301    152.8383   6.1952822916e+01   1.3198426374e+01    0.4010968    0.3200323 -56.51  0.001526791    1.329    0.247
        40 -12.7376    160.1042     96.5936   5.5308408567e+01   3.0887946010e+01    0.7281693    0.3736565  37.30  0.002266017    2.576    0.612
        41 -10.8405    135.3675     98.0490   6.1298295973e+01   3.6096702950e+01    0.2762768    0.2160881  63.04  0.000763552    1.373    0.272
        42 -11.5579    143.5877     92.0337   5.7727556776e+01   3.5442576852e+01    0.3283032    0.2950467  79.44  0.001770368    1.154    0.133
        43 -12.8698    159.3192     86.9051   5.2988127660e+01   3.2849456654e+01    0.3346587    0.2827776 -28.64  0.001419749    1.316    0.240
        44 -11.7512    232.2879    208.0710   6.5142387931e+01  -3.2661171654e+00    0.3152771    0.2178814 -21.68  0.001407971    1.247    0.198
        45  -9.4327    156.3158     81.2865   5.2131030520e+01   3.4524645301e+01    0.1398116     0.113902  21.13 0.0002610037    1.586    0.370
        46 -10.8295    160.9599     79.6933   5.0799019380e+01   3.3745242186e+01    0.2561875    0.1974172 -52.71 0.0004208361    1.289    0.224
        47 -11.2305    225.3232    204.2530   6.5693403432e+01  -1.7164498258e+00    0.4560252    0.2332403 -23.85  0.002139459    2.177    0.541
        48 -10.6567    125.4518     77.4485   5.8010445257e+01   4.2204089827e+01    0.3082258    0.2029316  32.58  0.001216928    1.780    0.438
        49  -9.5408    200.2114     68.4571   4.1676264540e+01   2.6888061299e+01    0.1674304    0.1181008  85.57 0.0003614625    1.485    0.327
        50 -13.9741     19.2723    161.6717   1.0971616853e+02   3.8866432769e+01     2.256137     1.249426 -84.25   0.01069504    1.769    0.435
        51 -11.1296    175.9620    173.3611   6.9498405563e+01   1.1838116990e+01     0.276452    0.1979571 -20.08  0.001148475    1.578    0.366
        52 -12.8306     67.9770    145.6596   9.2556923287e+01   3.7496829658e+01     1.362963     1.023979  24.73  0.003658268    1.432    0.302
        53  -9.9101    195.4930     38.5081   3.5534198394e+01   3.2111798975e+01    0.1859756       0.1239 -23.19  0.001012227    2.059    0.514
        54 -11.9468    124.1878     37.8421   4.6385055666e+01   4.8490833275e+01    0.2972173    0.2199397  77.20  0.001266342    1.413    0.292
        55 -10.3790    190.0164     35.9148   3.5575811381e+01   3.3631999317e+01    0.2310656    0.1600421 -42.37  0.001055389    1.460    0.315
        56 -11.3947    249.7693    203.6677   6.1412865123e+01  -4.7353567408e+00    0.2359878    0.1720158 -33.40   0.00154335    1.189    0.159
        57 -11.1986    172.9775    150.4818   6.5315138712e+01   1.7205828590e+01    0.2408081    0.1958976 -42.68 0.0006007599    1.163    0.140
        58 -12.2815    231.6044    200.2379   6.3854137446e+01  -1.8815566491e+00    0.4464175    0.2506917 -45.03  0.002362397    1.755    0.430
        59 -10.7219    134.0000    147.5770   7.3903517162e+01   2.5485318295e+01    0.5761524    0.1684027 -52.30  0.001606097    3.762    0.734
        60 -11.6984    234.4521    196.2635   6.2638931545e+01  -1.5952136813e+00    0.3155646     0.202293 -43.15  0.001386985    1.488    0.328
        61 -11.0197     46.5480    202.9716   1.0692879312e+02   2.5605936701e+01     0.341444    0.2104776   6.39  0.001548167    2.446    0.591
        62 -11.7600    192.5006    194.7079   7.0210930670e+01   4.7979726147e+00     1.017063    0.5093744 -63.58  0.002768241    6.818    0.853
        63 -10.0410    195.5135     18.9230   3.1214150373e+01   3.4426246758e+01    0.2384044    0.2085969  19.00  0.001621675    1.749    0.428
        64  -9.3877    159.8262     20.1777   3.5469083244e+01   4.2238369489e+01    0.1546359    0.1321953  55.81 0.0002904134    1.262    0.208
        65 -12.1666    240.5904    198.7213   6.2043989262e+01  -2.8033781094e+00     0.411733     0.295229  65.33  0.002118282    3.123    0.680
        66 -11.7692    210.3842    187.4330   6.5318466551e+01   3.3884955678e+00    0.5935135    0.4413392  87.21  0.002768207    2.912    0.657
        67 -10.6700    228.8200    186.8745   6.1876235439e+01   7.7932453203e-01    0.1934984     0.149074 -19.22 0.0003488834    1.161    0.139
        68 -13.6641      3.0341    178.8882   1.1571318701e+02   3.5826548627e+01     0.890294     0.348581 -76.34  0.003934014    2.178    0.541
        69 -13.3117    246.9466    177.2385   5.7087850757e+01  -8.4025073033e-02    0.5723761     0.430869 -24.39  0.003653359    1.141    0.124
        70 -14.2641     34.8934    161.0931   1.0512392589e+02   3.7534234796e+01    0.8111622    0.7120128 -50.85  0.001830527    1.163    0.140
        71 -14.3864     45.2602    155.6854   1.0127144327e+02   3.7812558917e+01      1.10846    0.9078082 -27.94  0.002522627    1.388    0.280
        72 -13.6832    198.8935     76.8716   4.3761573562e+01   2.5845911872e+01     1.085353    0.4229547  42.53  0.003570142    4.713    0.788
        73 -10.7310    242.6108    230.8183   6.7281539391e+01  -8.0430269818e+00    0.1549463   0.09736299 -40.90 0.0004980815    1.644    0.392
        74  -9.8501    132.4643    138.4955   7.2224802462e+01   2.7901271876e+01    0.3027617    0.1519771 -52.22  0.001022381    2.046    0.511
        75 -11.2123    238.7988    217.5593   6.5677824026e+01  -5.5901789366e+00    0.2570665     0.156601 -52.05  0.001371756    2.323    0.570
        76 -11.5029    160.8423    128.5690   6.3002090686e+01   2.4287616809e+01    0.4243211    0.3417472 -55.01  0.002002476    1.248    0.199
