#   1 NUMBER                 Running object number                                     
#   2 MAG_AUTO               Kron-like elliptical aperture magnitude                    [mag]
#   3 X_IMAGE                Object position along x                                    [pixel]
#   4 Y_IMAGE                Object position along y                                    [pixel]
#   5 X_WORLD                Barycenter position along world x axis                     [deg]
#   6 Y_WORLD                Barycenter position along world y axis                     [deg]
#   7 A_WORLD                Profile RMS along major axis (world units)                 [deg]
#   8 B_WORLD                Profile RMS along minor axis (world units)                 [deg]
#   9 THETA_WORLD            Position angle (CCW/world-x)                               [deg]
#  10 FWHM_WORLD             FWHM assuming a gaussian core                              [deg]
#  11 ELONGATION             A_IMAGE/B_IMAGE                                           
#  12 ELLIPTICITY            1 - B_IMAGE/A_IMAGE                                       
         1 -13.0849    181.2662     43.8126   5.5328892804e+01   3.4277051436e+01     1.227175    0.9315087  14.51  0.004425163    1.693    0.409
         2 -12.8028    201.9584     13.6605   4.3835204892e+01   3.2711484274e+01      0.87955    0.8300712 -76.26   0.00512522    1.075    0.070
         3  -9.1126     83.6471    239.6040   1.1800974275e+02   1.5203471171e+01    0.1523596    0.1175991  48.07 0.0007808679    1.226    0.184
         4 -12.1330    247.5268    246.7629   8.9623301166e+01  -1.0803947642e+01    0.6342123    0.3704205   0.53  0.003952274    1.778    0.437
         5  -9.8315     24.0997    205.8570   1.2623250929e+02   2.8894356294e+01    0.3052756    0.1161128  61.03  0.001555999    2.376    0.579
         6 -12.0224     12.2122    204.2081   1.2829103413e+02   3.0401389732e+01     0.314448     0.175795 -69.70  0.001583611    1.723    0.419
         7  -9.0918     87.6669    202.6171   1.1351356843e+02   2.1545613828e+01    0.1718239    0.1542516 -16.16 0.0007807669    1.670    0.401
         8  -9.8300     82.1162    195.5175   1.1383902900e+02   2.3814449258e+01    0.3393852    0.2183998  58.41  0.001912744    1.403    0.287
         9 -11.7906     97.8848    190.6304   1.0987094987e+02   2.2439262655e+01    0.6003249    0.3817074 -31.92  0.002747237    2.856    0.650
        10 -10.8242     70.1840    191.4096   1.1587869702e+02   2.6362208320e+01    0.3444795    0.2516759 -45.85  0.001292561    1.840    0.456
        11 -10.1712      1.3166    193.1833   1.2966203354e+02   3.3587741189e+01   0.08159819   0.07550933 -86.36 0.0006602761    1.467    0.318
        12  -9.9527    149.4053    187.2377   9.8221588435e+01   1.4180797842e+01    0.1865232    0.1338835 -64.31 0.0008777708    1.670    0.401
        13  -9.2316    167.2658    225.0120   1.0061320481e+02   4.4619502600e+00    0.1605845     0.154837  17.26 0.0004687194    1.173    0.147
        14 -10.9666     99.4186    180.8083   1.0816584797e+02   2.4275149881e+01    0.2514974    0.2199991  58.19 0.0006796361    1.083    0.077
        15  -9.4407    131.2844    180.3508   1.0098724454e+02   1.8884919220e+01    0.1348876    0.1112271 -10.37 0.0007019243    1.657    0.397
        16  -9.3428    149.8043    177.9459   9.6491002246e+01   1.5915221749e+01    0.2121078    0.1851975  82.42 0.0007208741    1.283    0.220
        17 -10.0817    187.2071    175.9770   8.8205679256e+01   9.0283247759e+00    0.3070574    0.2782568 -24.29  0.000949727    1.143    0.125
        18 -11.4862    103.7024    172.4890   1.0593739949e+02   2.5380939644e+01    0.3719232     0.239061  71.23  0.001770232    1.855    0.461
        19 -12.7420     75.7571    246.5460   1.1997298925e+02   1.5100065549e+01    0.2929824    0.1722597 -69.01  0.001179014    1.882    0.469
        20 -10.4208     90.2659    213.3584   1.1419631164e+02   1.9043972878e+01    0.3233337    0.1917154  57.61  0.001458706    1.500    0.333
        21 -10.2487     72.5749    167.0104   1.1235844478e+02   3.1390404200e+01    0.2884486    0.1843843  41.47 0.0009378451    1.586    0.369
        22  99.0000      9.4559    212.4844   1.2922231080e+02   2.9050309721e+01    0.2843854   0.08604844  77.58 0.0005693654    4.297    0.767
        23 -11.5010     71.1657    207.7043   1.1738394827e+02   2.2876599277e+01    0.4456379    0.3154198  25.51  0.002626494    1.964    0.491
        24 -10.2714     96.5728    155.3721   1.0481682010e+02   3.0410301750e+01    0.2456175    0.2325591 -40.72 0.0002099602    1.235    0.190
        25  -9.5613    113.2961    151.9645   1.0009397943e+02   2.8306479136e+01    0.2054767    0.1800255 -67.76 0.0003936793    1.122    0.109
        26 -11.3739    101.0503    149.6472   1.0269159520e+02   3.0982250107e+01    0.5563979    0.3692119 -35.33  0.001784657    1.987    0.497
        27 -12.0385     86.1857    149.0125   1.0630869470e+02   3.3543994118e+01    0.4838166    0.3494355 -36.74 0.0009152215    1.762    0.433
        28  -9.6842    134.4988    149.0155   9.4358465940e+01   2.4951270178e+01    0.3496216     0.146537 -56.02   0.00121767    2.756    0.637
        29 -10.5061    110.6471    136.4070   9.7647175738e+01   3.2356536903e+01    0.4093653    0.2394401 -30.77  0.001577582    2.635    0.620
        30 -10.6088    100.0535    135.3956   1.0019453063e+02   3.4473942558e+01    0.2761442    0.2588309  18.87 0.0003994323    1.235    0.190
        31 -10.5230    105.9506    130.9391   9.7709821016e+01   3.4478941401e+01    0.3612013    0.3181283 -79.87  0.001232906    1.136    0.120
        32  -9.4150    117.1532    127.8669   9.4086126512e+01   3.3105810994e+01    0.2068206    0.1831503 -11.67  0.000560297    1.345    0.257
        33  -9.4690    105.0602    123.5565   9.6318832069e+01   3.6362014881e+01     0.269921    0.1982891 -36.25 0.0006245081    1.518    0.341
        34  -8.7770    231.1859    113.8293   6.5878343445e+01   1.0887650057e+01    0.1985073    0.1655166   0.53 0.0009020421    1.299    0.230
        35  -8.7674    167.6717    112.3568   7.7823751735e+01   2.5598258004e+01    0.1650817    0.1254451 -78.25 0.0007044564    1.782    0.439
        36 -19.4376     37.9139    150.2586   1.1846644921e+02   3.9496287036e+01     19.33436     3.623564 -70.69   0.05712181    5.191    0.807
        37 -12.1078    166.1349     58.1480   6.2479890465e+01   3.6008971190e+01     0.548593    0.5042111 -27.54  0.001813857    1.111    0.100
        38 -10.5378     62.6303    206.0133   1.1890479122e+02   2.4356276679e+01    0.2061061    0.1754838  71.54  0.000470092    1.124    0.111
        39 -11.3934    186.3226     37.1102   5.2531275927e+01   3.3888760203e+01    0.4171326     0.342023  35.03  0.000958269    1.372    0.271
