#   1 NUMBER                 Running object number                                     
#   2 MAG_AUTO               Kron-like elliptical aperture magnitude                    [mag]
#   3 X_IMAGE                Object position along x                                    [pixel]
#   4 Y_IMAGE                Object position along y                                    [pixel]
#   5 X_WORLD                Barycenter position along world x axis                     [deg]
#   6 Y_WORLD                Barycenter position along world y axis                     [deg]
#   7 A_WORLD                Profile RMS along major axis (world units)                 [deg]
#   8 B_WORLD                Profile RMS along minor axis (world units)                 [deg]
#   9 THETA_WORLD            Position angle (CCW/world-x)                               [deg]
#  10 FWHM_WORLD             FWHM assuming a gaussian core                              [deg]
#  11 ELONGATION             A_IMAGE/B_IMAGE                                           
#  12 ELLIPTICITY            1 - B_IMAGE/A_IMAGE                                       
         1 -11.9892     77.4947     22.6196   1.3168588631e+01   6.2929058413e+01    0.5456296     0.416804  12.69  0.002835692    1.620    0.383
         2 -10.3124     23.3678     16.6846   3.7647264968e+01   7.4728448612e+01    0.4831812    0.2501503 -62.74   0.00184061    3.992    0.750
         3 -11.0747      3.4708     16.8532   5.5370365798e+01   7.6871783525e+01    0.3131991    0.2407304  -2.59  0.001957277    1.217    0.178
         4 -10.9640     35.1445     13.8349   2.7477250455e+01   7.3272920339e+01    0.2790428    0.2198113 -20.95  0.001047797    1.309    0.236
         5 -10.7315     49.5063     14.1598   1.9657520561e+01   7.0403733958e+01    0.2660587    0.2155118  38.67 0.0008678539    1.116    0.104
         6 -10.5403     45.2143     12.0359   2.0486082124e+01   7.1578341528e+01    0.2538486    0.2138173  70.20 0.0007745447    1.426    0.299
         7 -10.9135     40.7707     10.6059   2.1955838058e+01   7.2665215466e+01    0.3822822    0.2352272  42.05  0.001516445    1.469    0.319
         8 -10.5951     55.6357      7.8618   1.3008373072e+01   6.9831737438e+01    0.5385972    0.1561781 -33.84   0.00197593    3.500    0.714
         9  -9.5387     69.4733      9.5097   8.9510421429e+00   6.6416334783e+01    0.1375458    0.1209298  50.47 6.075197e-05    1.030    0.029
        10  -9.2159    218.7204      8.6907   3.4911177633e+02   3.0335176703e+01    0.0967932   0.09102433  28.60 0.0003103612    1.560    0.359
        11 -10.6680     97.6908      5.7719   8.9793821128e-02   5.9679470325e+01    0.4011808    0.2206639 -39.85  0.001924359    1.915    0.478
        12 -11.1613     85.5928      7.2399   3.3267834423e+00   6.2645450071e+01    0.2617854    0.2388157 -56.18 0.0007382446    1.188    0.159
        13 -10.5191    123.9666      6.7491   3.5633659188e+02   5.2767555241e+01    0.3451681    0.1841563 -84.64  0.001552727    1.966    0.491
        14 -10.8915    175.1679      4.3251   3.5062841747e+02   4.0252875167e+01    0.3059916   0.06321543 -46.05  0.001099736    3.438    0.709
        15  -9.5228    179.0033      1.2493   3.4954131600e+02   3.9651587794e+01     0.155364    0.0941148  85.80 0.0002030028    1.501    0.334
        16  -9.6777    132.7278      1.5913   3.5344096509e+02   5.0964773486e+01    0.1333541   0.09338505  39.10 0.0005056564    1.769    0.435
        17  -9.6461    112.9755      1.4759   3.5579737591e+02   5.6079524251e+01     0.214709    0.1187612  76.59  0.001030387    1.589    0.371
        18 -10.5173     11.5295    106.5017   7.0669023577e+01   5.3885975643e+01    0.3679902    0.1685825 -57.12  0.001545726    2.000    0.500
        19  -9.8405      1.4775    108.5357   7.5077494444e+01   5.3901577247e+01     0.138061    0.1238667 -86.44 1.989927e-05    1.007    0.007
        20 -10.1498      1.8631    104.8623   7.4616733047e+01   5.4883559923e+01    0.2205182    0.1685305 -53.08  0.001208941    1.291    0.225
        21 -10.0996     77.0953    103.1897   4.3181976458e+01   4.6587906147e+01     0.225399     0.212207  -8.38 0.0003056808    1.166    0.143
        22 -11.2306     97.2267     99.4294   3.5242549468e+01   4.3613902423e+01    0.2783068    0.2658607 -42.16 0.0002845144    1.086    0.079
        23 -10.0460     28.7612     99.0283   6.2088003613e+01   5.4542430927e+01    0.1979023    0.1182923 -71.38 0.0004837429    1.596    0.374
        24 -10.5210    102.7529     95.7334   3.2453571302e+01   4.3318609895e+01    0.4159808    0.2394863 -36.68   0.00162188    2.035    0.509
        25 -10.1974      4.6273     97.1515   7.2691675321e+01   5.6846709504e+01    0.4299779    0.1295954 -68.27  0.001555159    2.674    0.626
        26 -11.1668     64.5166     96.2869   4.6211677859e+01   5.0532505362e+01     0.295274    0.2772172  10.57  0.000734355    1.137    0.121
        27 -11.0878     16.2730     94.0023   6.6966822865e+01   5.6984459009e+01    0.2676361    0.2157525 -65.40  0.001452462    1.147    0.128
        28  -9.9380     89.8674     94.1809   3.6216181903e+01   4.6359376839e+01    0.2350424    0.2108394  77.52 0.0004595464    1.174    0.148
        29  -9.8395     12.0517     85.7305   6.7762523095e+01   5.9519007924e+01    0.1866757    0.1770987 -35.19 0.0003986859    1.093    0.085
        30 -12.0367     54.2009     78.6399   4.5723041531e+01   5.6681892679e+01    0.4087135    0.3035221  56.92  0.001040972    1.518    0.341
        31 -10.1641     43.7522     84.3977   5.2112009406e+01   5.6739356770e+01    0.3764119    0.1509855  24.72  0.001313112    2.746    0.636
        32  -9.2481     77.9727     77.8024   3.5538562735e+01   5.2595934178e+01    0.2024432    0.1205694  40.88  0.000833952    1.664    0.399
        33 -12.0179     64.0274     69.5743   3.8468121787e+01   5.7174503277e+01    0.2655801     0.258248  58.38 0.0002665115    1.042    0.040
        34  -9.4023    204.2983     65.6397   3.6320909240e+00   2.6221840533e+01    0.1416626   0.08337671 -58.89 0.0007034572    1.712    0.416
        35 -10.2948     79.9007     64.6513   3.0295271434e+01   5.5099264056e+01     0.379898    0.2410233 -80.70  0.001355415    3.026    0.670
        36 -10.8965     99.8628     62.9575   2.2889035726e+01   5.0948123870e+01    0.4082028    0.2416765 -56.78  0.001528746    1.993    0.498
        37  -9.4991     75.3335     64.6904   3.2066394245e+01   5.6049462237e+01    0.1556035    0.1207948  82.02 0.0007042667    1.674    0.403
        38 -10.5347      4.5710     63.5639   6.8211607203e+01   6.5792544043e+01    0.2390618    0.1980485 -61.91 0.0006802137    1.089    0.082
        39 -10.0696      7.9040     68.9768   6.7236449135e+01   6.4216455000e+01    0.2072358    0.1873787 -59.93 0.0005317276    1.011    0.011
        40 -10.2677    231.5184     60.4515   3.5966079651e+02   2.1715835034e+01    0.1221132   0.09654953 -48.27 5.593543e-05    1.013    0.013
        41 -10.5164      3.2474     58.9445   6.8183494258e+01   6.7036902761e+01    0.2591223    0.1981717 -53.38  0.001478632    1.163    0.140
        42 -12.0002    121.0989     56.1428   1.4754552859e+01   4.7026363590e+01    0.5006241    0.4123024  43.44  0.001643776    1.312    0.238
        43 -11.0724    122.5042     52.5033   1.3178685199e+01   4.7283817229e+01    0.2912463    0.2766711 -69.22 0.0009549284    1.057    0.054
        44 -10.4349     22.0879     57.9742   5.6390620282e+01   6.5955709398e+01    0.2011707     0.198792 -26.12 0.0005758771    1.073    0.068
        45 -10.1950    100.8306     55.1756   1.9774027810e+01   5.2169502492e+01    0.2143297     0.182556  26.22  0.001082676    1.361    0.266
        46  -9.5201     88.4573     52.5992   2.2683982863e+01   5.5569734899e+01    0.1494698    0.1407814  60.13 6.857378e-05    1.018    0.017
        47  -9.1940     23.6781     50.3450   5.3035255302e+01   6.7640136388e+01    0.1409041    0.1046757  62.86 0.0007049972    1.733    0.423
        48 -11.6486     94.0077     48.6160   1.9329810951e+01   5.4969427241e+01    0.2543335    0.2172522 -41.89 0.0002317347    1.223    0.182
        49 -11.6716     40.7368     43.8938   4.0180031197e+01   6.6841733188e+01    0.5460816    0.3488059  15.97  0.002527316    1.874    0.466
        50  -9.9367    249.1866     44.4159   3.5491306689e+02   2.0634894814e+01    0.1502713   0.09413701 -78.09 0.0009583154    1.731    0.422
        51 -10.0869     70.9613     42.6810   2.4978079456e+01   6.1321583594e+01    0.2123969     0.186415  47.67 0.0008006794    1.087    0.080
        52 -11.4650      4.8349     43.9857   6.3857984962e+01   7.0670153939e+01    0.4695516    0.2733428  85.90  0.002208709    2.245    0.555
        53 -10.8677    185.8390     41.5005   3.5967156729e+02   3.3535618091e+01    0.2335937    0.1980122 -53.43 0.0002561415    1.070    0.065
        54 -10.6044    158.9324     39.3388   2.3757275782e+00   4.0148037181e+01    0.2275957    0.1941585 -37.81 0.0002483717    1.229    0.186
        55  -9.4777     95.9885     38.0219   1.4469661683e+01   5.6212117199e+01     0.177043    0.1583179  64.17 0.0003643024    1.046    0.044
        56  -9.9960     60.3505     26.2842   2.1535051499e+01   6.6352287731e+01    0.1455728    0.1025462  23.67  0.000701887    1.656    0.396
        57 -12.4449     55.5602     32.5016   2.6936940302e+01   6.6348010753e+01    0.6917834    0.5458665  51.84  0.003745559    1.281    0.219
        58 -11.8105     40.0470     34.5559   3.6272045174e+01   6.8840388963e+01    0.4659179    0.3273165 -46.23   0.00243813    1.474    0.322
        59 -10.1832    119.1827     34.9240   7.6289447279e+00   5.0783670203e+01    0.2099609    0.1830895 -77.84 0.0003694424    1.110    0.099
        60 -10.5438     17.4584     31.9096   5.0284293440e+01   7.2457476895e+01    0.2966667    0.1822287 -28.60  0.001492186    1.702    0.413
        61 -11.0892      4.2359     30.5223   6.0280009730e+01   7.3852867300e+01    0.3721586    0.2762839 -76.20  0.001829553    1.504    0.335
        62 -10.0630     92.4698     31.0845   1.2535457037e+01   5.8103886008e+01    0.2166698    0.1831589  63.86 0.0003804265    1.099    0.090
        63  -9.8005    129.0502     28.7703   3.5452532752e+00   4.9054543855e+01    0.1973138    0.1643358  79.25 0.0003846492    1.101    0.092
        64 -10.9793     66.0241     28.1310   2.0098960304e+01   6.4822447616e+01    0.3899588    0.2298649  30.86  0.001372522    2.082    0.520
        65  -9.7331    103.9699     28.3061   8.4044046025e+00   5.5575649307e+01    0.2043971    0.1683667  68.91 0.0003377458    1.117    0.105
        66  -9.1092    160.6603     27.2894   3.5855822035e+02   4.1263553614e+01    0.1468542   0.08876882 -66.11  0.000496118    1.643    0.391
        67 -10.9747     47.2398     26.4524   2.7982343312e+01   6.9011813376e+01    0.3271273    0.2412603   5.79  0.001686091    1.646    0.393
        68 -10.5588    136.0897     25.2361   1.1844469726e+00   4.7679291113e+01    0.2738898    0.1858474  49.73  0.001377716    1.610    0.379
        69 -10.1930    111.2599     24.6192   5.3230609388e+00   5.4166500525e+01    0.2162336    0.1687462  65.07 0.0007034058    1.177    0.150
        70 -11.0810    111.4406     20.6065   3.6961491696e+00   5.4595859070e+01    0.3921287    0.2873661 -87.39  0.002035225    1.381    0.276
        71  -9.9487     25.4893    175.9933   7.1850011515e+01   3.4160084512e+01     0.200927    0.1272581 -85.96 0.0008414125    1.558    0.358
        72  -9.3050    128.9938     23.9977   1.8623922389e+00   4.9651888294e+01    0.1693675    0.1470229  86.35 0.0003449677    1.035    0.034
        73 -10.3049     98.2821     22.9606   7.5111813057e+00   5.7706656827e+01    0.2396084    0.1902386  66.05 0.0005378188    1.146    0.128
        74 -10.4830     19.2946     23.0235   4.4541782132e+01   7.4083908703e+01    0.2544338    0.1386655   8.49  0.001136236    2.342    0.573
        75  -9.5463     38.4577     22.5572   3.0804275135e+01   7.1286428662e+01    0.1345132    0.1212637  14.84 8.023543e-05    1.008    0.008
        76 -10.5692     66.7722     20.8078   1.6018450649e+01   6.5700295736e+01      0.20542    0.1726606  35.11 0.0004171343    1.161    0.139
        77  -9.9230    160.3818     20.4227   3.5654007929e+02   4.2131212948e+01    0.3095629     0.117443  71.26  0.001264013    2.450    0.592
        78 -10.3288     21.3659    170.1353   7.2662549176e+01   3.6016702354e+01    0.2170952    0.1833433  17.50 0.0006042465    1.308    0.235
        79 -10.3585     20.3358     15.7015   3.9445100036e+01   7.5327201515e+01    0.2943816     0.186242 -29.47  0.001572128    1.632    0.387
        80  -9.4185     48.4887     19.5194   2.3392795055e+01   6.9858522042e+01    0.1351854    0.1241417  31.47 6.611433e-05    1.032    0.031
        81 -10.5801      3.5787    156.5392   7.7300245027e+01   4.0916631733e+01    0.2622281    0.1964087  57.86 0.0007623233    1.174    0.148
        82 -10.6956     50.7393    155.4336   6.2088669111e+01   3.6718031028e+01    0.2893804     0.127522  31.84  0.001139298    2.068    0.516
        83  -9.6491     39.8576    147.7826   6.4737204159e+01   4.0022863973e+01    0.2110278    0.1539621  59.48 0.0004968728    1.328    0.247
        84  -9.6490     25.0190    146.4416   6.9605579840e+01   4.1886786543e+01    0.2115475    0.1380708  21.96  0.001026025    1.596    0.373
        85 -11.5533      3.7738    143.2805   7.6540771973e+01   4.4382097346e+01    0.5312388    0.2963399  41.30  0.002604273    1.656    0.396
        86  -9.7962    111.1189     13.6992   9.9241685867e-01   5.5432589772e+01    0.2862479    0.1203069  77.97  0.001085397    2.513    0.602
        87 -10.2733     22.0729    141.5712   7.0162606054e+01   4.3463273116e+01    0.2420992     0.180102  78.12 0.0005596477    1.273    0.214
        88  -9.7350     86.0259     15.7781   7.3424275029e+00   6.1655855963e+01    0.1883206    0.1054419  64.47 0.0005147448    1.618    0.382
        89  -9.9780     28.6766    138.0985   6.7498472527e+01   4.3800929053e+01    0.2000016    0.1758173 -78.93 0.0004280116    1.102    0.092
        90 -11.1139     18.9761    132.6585   7.0424422866e+01   4.6148462814e+01    0.3785775    0.2100381  39.45  0.001242527    1.712    0.416
        91 -11.4786    136.0454    125.4241   3.0904125965e+01   2.9705307182e+01    0.3970169    0.2639248  76.68  0.001561666    2.539    0.606
        92 -10.1001     91.1683    116.5005   4.1605283304e+01   4.0644420213e+01    0.2275928    0.2076662 -60.84 0.0005062133    1.102    0.092
        93  -9.5949     13.4280    117.4859   7.1044296678e+01   5.0735274216e+01    0.1418196    0.1280744 -74.15 0.0008051805    1.067    0.063
        94 -10.9968      2.0814    115.0326   7.5330466827e+01   5.2101222466e+01    0.3640803    0.1896576 -68.88  0.001176184    1.715    0.417
        95  -9.1652     79.4903    110.5536   4.4147547892e+01   4.4283294008e+01    0.1555559    0.1519975  69.85  0.000808128    1.010    0.010
        96 -10.5774     27.0555    108.0401   6.4282750169e+01   5.2229025347e+01    0.2455039    0.1596866  61.29 0.0006707852    1.658    0.397
