#   1 NUMBER                 Running object number                                     
#   2 MAG_AUTO               Kron-like elliptical aperture magnitude                    [mag]
#   3 X_IMAGE                Object position along x                                    [pixel]
#   4 Y_IMAGE                Object position along y                                    [pixel]
#   5 X_WORLD                Barycenter position along world x axis                     [deg]
#   6 Y_WORLD                Barycenter position along world y axis                     [deg]
#   7 A_WORLD                Profile RMS along major axis (world units)                 [deg]
#   8 B_WORLD                Profile RMS along minor axis (world units)                 [deg]
#   9 THETA_WORLD            Position angle (CCW/world-x)                               [deg]
#  10 FWHM_WORLD             FWHM assuming a gaussian core                              [deg]
#  11 ELONGATION             A_IMAGE/B_IMAGE                                           
#  12 ELLIPTICITY            1 - B_IMAGE/A_IMAGE                                       
         1 -14.8315    168.2402     40.9269   7.5225616684e+01   3.8338301577e+01     1.225048      1.08297   8.43  0.004149414    1.362    0.266
         2 -13.6385    186.0680     11.7891   6.4704939466e+01   3.7399188642e+01    0.7489613    0.4295735  36.74  0.002884442    2.416    0.586
         3 -14.5941    182.2438      7.9795   6.4205767669e+01   3.8711344163e+01     1.582343    0.7708905  61.29  0.005773081    1.740    0.425
         4 -11.3240    125.0101    247.0705   1.3007715911e+02   6.4920906873e+00    0.2863475    0.1396962 -57.72  0.001431787    2.384    0.581
         5 -19.9332     65.6163    171.4703   1.3258251332e+02   3.1890569216e+01     18.69562     6.387827 -66.01    0.0710174    2.779    0.640
         6 -12.4189    180.6251    193.5719   1.1040810741e+02   6.2863402549e+00    0.3781545    0.2666855 -70.27  0.001604897    1.991    0.498
         7 -11.4778    169.8161    195.1807   1.1298666121e+02   8.1046133042e+00    0.2183625    0.1928984  73.48  0.001202925    1.233    0.189
         8 -10.2969    139.6617    250.2646   1.2770540961e+02   3.4747160982e+00    0.2402925    0.1242522  52.52  0.001210726    1.734    0.423
         9 -13.2597    165.5380    188.8149   1.1270408497e+02   1.0232121617e+01     0.701599    0.3910809  47.34  0.003063316    1.717    0.418
        10 -11.8694    170.3643    183.3415   1.1060376625e+02   1.0376032357e+01    0.4438536     0.255383  50.79  0.001293702    1.750    0.429
        11 -12.9145    173.1097    189.6616   1.1124356576e+02   8.5466426084e+00    0.4315526    0.3857297 -60.90  0.001796883    1.209    0.173
        12 -12.6435    175.2879    185.6922   1.1000955436e+02   8.9027960361e+00    0.5944129    0.3026598 -61.30  0.002148254    3.033    0.670
        13  -8.4500     19.2189    234.7612   1.4798017498e+02   2.3848309507e+01    0.1414301   0.05925509  62.01 0.0002214451    2.011    0.503
        14 -10.5873    153.4945    186.4746   1.1488860705e+02   1.3123936364e+01    0.2516832    0.1419027 -62.15 0.0008192363    2.206    0.547
        15  99.0000     15.6811    232.9113   1.4844988552e+02   2.4591972195e+01    0.2506552    0.1068631  39.22  0.001428499    2.423    0.587
        16 -13.0155    206.2312    178.0358   1.0206721258e+02   4.1602866275e+00    0.6296713    0.4221754 -45.04  0.003061962    1.534    0.348
        17 -12.1065    202.3792    170.1961   1.0119573876e+02   6.4306470206e+00    0.8986772    0.2944062 -48.50   0.00281867    3.558    0.719
        18 -11.6521    205.2649    168.9961   1.0036170432e+02   6.0717557973e+00    0.7584443    0.3132254 -52.80  0.002520486    3.330    0.700
        19 -11.1685    199.4790    179.0209   1.0362699418e+02   5.3234556597e+00    0.3716699    0.2601311 -78.40  0.001587559    2.448    0.591
        20 -12.9787    195.1852    168.6561   1.0233336946e+02   8.2162902971e+00    0.4928632    0.3988502 -42.74 0.0008154259    1.246    0.197
        21 -11.7639    192.5300    163.9513   1.0187164710e+02   9.7106107621e+00    0.4025264    0.3372446  13.38  0.001379561    1.361    0.265
        22 -11.2317     16.4733    250.3125   1.4934945279e+02   2.1203020035e+01     0.128794   0.08129794 -85.88 0.0009246677    1.322    0.244
        23 -12.2828    143.3679    173.9401   1.1476489545e+02   1.7863845734e+01    0.5363815    0.3783476 -16.73  0.001874198    2.326    0.570
        24 -13.1875    134.8328    169.5679   1.1588498109e+02   2.0547504460e+01    0.8056282      0.45526  63.01  0.003128463    2.331    0.571
        25 -11.9912    126.5780    172.8074   1.1843685535e+02   2.1423182407e+01    0.4892353    0.3029805  61.25  0.001636463    1.834    0.455
        26 -10.5206    219.1667    224.1870   1.0840869657e+02  -6.0792650216e+00    0.1574092    0.1514333  49.31 0.0002590043    1.310    0.237
        27 -10.6047    177.0000    169.9784   1.0645143363e+02   1.1756320611e+01    0.2505864   0.08599412 -45.25 0.0008077308    2.979    0.664
        28 -11.6922    230.2109    166.7218   9.5096063570e+01   1.5369161534e+00    0.3578409    0.1793363 -51.88  0.001428617    2.491    0.598
        29 -11.1445    122.8332    165.9167   1.1801093689e+02   2.3722890767e+01    0.2573815    0.2042063  58.15 0.0002847408    1.245    0.197
        30 -10.6114    130.6980    213.4646   1.2437688279e+02   1.1867651649e+01    0.2209861    0.1536081 -76.08 0.0006916275    1.688    0.407
        31 -12.4631    106.6529    206.2209   1.2839096334e+02   1.7608675170e+01    0.5616577    0.2963101 -61.71  0.001032173    1.960    0.490
        32 -10.8505    188.6395    158.3731   1.0146548292e+02   1.1670607497e+01    0.3042688    0.2206615   4.01 0.0009151707    2.027    0.507
        33 -10.6820     14.9635    157.0677   1.4244403926e+02   4.0879688964e+01    0.1779986    0.1416155 -79.02 0.0004450516    1.066    0.062
        34 -13.7943    133.8109    145.0699   1.1101343873e+02   2.6364673446e+01     1.515261    0.4047669 -55.39  0.003613208    5.430    0.816
        35  -9.9169    150.7077    246.4698   1.2510404930e+02   2.2255865453e+00    0.1799538    0.1167444 -52.72 0.0007239896    1.839    0.456
        36 -10.9237    174.4659    148.8428   1.0237860464e+02   1.6755970159e+01    0.3476965    0.2789581 -69.78  0.001362157    1.423    0.297
        37 -13.0994    144.3306    145.7758   1.0861809569e+02   2.4000760966e+01    0.7409302    0.4317148 -68.80  0.002722272    2.510    0.602
        38  -9.9218     22.0104    244.0803   1.4810531936e+02   2.1750022582e+01    0.1574539    0.1023274  79.80 0.0009810893    1.126    0.112
        39 -11.2293     13.3646    143.4534   1.4130929864e+02   4.4106264534e+01    0.1930846    0.1500013 -48.11 0.0006726613    1.434    0.302
        40 -12.1741      9.0946    139.2018   1.4184289698e+02   4.5399484506e+01    0.2614448    0.2146183 -13.40 0.0004564412    1.724    0.420
        41 -12.1476     24.0268    140.6369   1.3836387424e+02   4.3852721569e+01    0.2635898     0.217828  20.54  0.001325618    1.597    0.374
        42 -11.9664    134.6062    106.2061   1.0128838569e+02   3.4896152657e+01     0.531301    0.1491691 -45.87  0.001527799    3.545    0.718
        43 -13.5341    135.6772    128.5069   1.0670216378e+02   2.9757046370e+01     1.562345    0.2667149 -50.02  0.003202554    6.981    0.857
        44 -11.0701    152.6907    139.1248   1.0509790486e+02   2.3687858114e+01    0.2583316    0.1987119 -68.89  0.001182804    1.468    0.319
        45 -12.2131      4.3167    120.7508   1.4079592014e+02   4.9873025020e+01    0.3649735    0.2396682 -13.45  0.002265316    2.218    0.549
        46 -12.3757      2.5748    126.2099   1.4192293892e+02   4.8768805664e+01    0.4000647    0.1493145 -65.27  0.002027792    1.914    0.478
        47 -12.4638     19.1173    128.0194   1.3790645694e+02   4.7165878965e+01    0.4310738     0.221716 -52.29  0.002104715    1.714    0.417
        48 -11.5068    160.5761    127.8934   1.0055500383e+02   2.4393884855e+01    0.4121566    0.2927707 -60.53  0.001590304    1.553    0.356
        49 -11.9177    207.2949    212.4324   1.0856092288e+02  -2.1452692916e+00    0.2664946    0.1195633  37.62  0.001140014    2.114    0.527
        50 -10.8041    168.1460    113.1904   9.5134370211e+01   2.5760122442e+01    0.3671403    0.2458001  87.54  0.001405459    2.367    0.578
        51 -12.3655      3.9057    112.3176   1.3977983423e+02   5.1767137427e+01    0.3443794    0.2484052 -16.95   0.00230961    1.827    0.453
        52  -9.8374    115.6885    209.7208   1.2697840207e+02   1.5308198946e+01    0.1235836    0.1102962   3.75 0.0003670163    1.564    0.361
        53 -12.2705    163.1581    202.5777   1.1573909992e+02   7.9474088780e+00    0.3906839    0.2870944  74.64 0.0008775977    1.750    0.429
        54 -11.4840    157.4888    199.7763   1.1644643705e+02   9.6001514944e+00    0.2742546    0.2145316  73.84 0.0007215757    1.482    0.325
        55 -10.8436    205.4384    110.1718   8.6770307068e+01   1.7556715926e+01    0.3226815    0.2202189  45.38 0.0009376556    1.568    0.362
        56 -11.0865     11.1598    241.1036   1.4966686117e+02   2.3497946290e+01    0.1383834   0.08119601  84.52 0.0009518428    1.275    0.216
        57  -7.8964     13.8134    239.7014   1.4916283080e+02   2.3482231342e+01    0.2201665   0.07939755 -79.01  0.001174477    2.365    0.577
        58 -10.6408    153.6982    195.0840   1.1642451766e+02   1.1290866647e+01    0.3205622    0.2624453 -80.24  0.001694069    1.400    0.286
        59 -10.6595    146.4005     80.7392   9.1272790614e+01   3.7299367602e+01    0.2057402    0.1468781 -27.31 0.0006568413    1.573    0.364
        60 -14.4279    156.0533     55.9566   8.1888074242e+01   3.9176152587e+01     1.263639     1.068653  54.75  0.002476139    1.119    0.106
        61  -9.9639    160.0090    249.0229   1.2368119129e+02   2.0854829628e-01    0.1403293    0.1351249  58.79 0.0004858946    1.169    0.145
        62 -12.9220    172.3961     33.2692   7.2379040664e+01   3.8303661396e+01     0.375735    0.3549201  19.27  0.000932559    1.234    0.190
        63 -10.7203    112.4564    196.4981   1.2569603202e+02   1.8711174483e+01    0.4212834    0.2771892   9.97  0.001639905    3.449    0.710
        64 -10.7862     13.3791     59.8532   1.2678461895e+02   6.2142323055e+01     0.159259    0.1487968 -21.75  0.000436258    1.253    0.202
        65 -10.8184    135.2154     30.3850   7.8376997183e+01   4.7613323075e+01    0.2657004    0.2111067  73.40  0.001492638    1.332    0.249
        66 -10.5373    133.7543    247.7857   1.2850892974e+02   4.8971284068e+00    0.1537992    0.1457295  83.72  0.001056569    1.206    0.171
