#   1 NUMBER                 Running object number                                     
#   2 MAG_AUTO               Kron-like elliptical aperture magnitude                    [mag]
#   3 X_IMAGE                Object position along x                                    [pixel]
#   4 Y_IMAGE                Object position along y                                    [pixel]
#   5 X_WORLD                Barycenter position along world x axis                     [deg]
#   6 Y_WORLD                Barycenter position along world y axis                     [deg]
#   7 A_WORLD                Profile RMS along major axis (world units)                 [deg]
#   8 B_WORLD                Profile RMS along minor axis (world units)                 [deg]
#   9 THETA_WORLD            Position angle (CCW/world-x)                               [deg]
#  10 FWHM_WORLD             FWHM assuming a gaussian core                              [deg]
#  11 ELONGATION             A_IMAGE/B_IMAGE                                           
#  12 ELLIPTICITY            1 - B_IMAGE/A_IMAGE                                       
         1 -14.9832      7.3530    146.9992   1.4399572766e+02   4.3504501682e+01     7.342335     2.658842 -85.31   0.03033377    3.213    0.689
         2 -13.2590    196.2520     29.8176   6.9047069257e+01   3.2634973919e+01     1.422095     1.223357  68.67  0.006856173    1.105    0.095
         3 -13.3699    211.6374      9.6962   6.2283597258e+01   3.1231150090e+01      1.32543     0.910262  45.81  0.007410696    1.764    0.433
         4 -12.8915      3.5839     11.0728   1.1649878363e+02   7.0657526734e+01     1.589281    0.2606802 -44.15  0.006614604    4.075    0.755
         5 -10.4046     51.0847    245.1464   1.4428913273e+02   1.8101807470e+01    0.2190785    0.1380581  80.00  0.001442749    1.310    0.237
         6 -11.9031    243.5356    248.3506   1.0958992303e+02  -1.3222960395e+01    0.6772752    0.3217931  31.16  0.003640895    1.841    0.457
         7 -10.9645    139.8162    249.8892   1.2890460654e+02   3.6642360539e+00    0.3570115    0.1719026  45.54  0.001804358    1.688    0.408
         8 -10.9090    122.8183    250.3831   1.3210771813e+02   6.4287035158e+00    0.4405419    0.1243198  46.87  0.001741849    2.855    0.650
         9 -10.3425    111.7374    250.4917   1.3414413601e+02   8.2188493620e+00    0.2895223    0.1039774  41.54 0.0007421643    2.449    0.592
        10 -10.7095     46.2461    248.4599   1.4534024886e+02   1.8109545644e+01    0.3750916    0.1687691  85.41  0.001656105    2.397    0.583
        11 -10.7002     29.2360    248.6169   1.4809005403e+02   2.0156870658e+01    0.3531603    0.1870817 -69.94   0.00210127    1.863    0.463
        12 -11.8956     34.6887    244.8006   1.4696905539e+02   2.0215924045e+01    0.5845026    0.3680218 -83.36  0.004078342    1.376    0.273
        13 -10.9265     12.3321    249.9005   1.5077197133e+02   2.1817316006e+01    0.2433116    0.1730191  52.37  0.001910611    1.463    0.316
        14 -10.4347      2.6132    249.7305   1.5220926729e+02   2.2862720463e+01    0.2397986    0.1573291  56.16  0.001469227    1.372    0.271
        15 -10.5744      2.8067    246.5905   1.5202692936e+02   2.3408898851e+01     0.248392    0.1505127  52.21  0.001870841    1.494    0.331
        16 -10.8124     22.5149    245.5063   1.4895613073e+02   2.1500694477e+01    0.2009978    0.1285802  65.73 0.0008154463    1.165    0.141
        17 -10.5464     19.6795    242.9541   1.4924831771e+02   2.2289961791e+01    0.2101035    0.1059288  60.68 0.0007920391    1.534    0.348
        18 -11.9622     12.6319    241.8150   1.5028301692e+02   2.3265540147e+01    0.4126428    0.2124318  88.68  0.002204974    1.535    0.349
        19 -11.1709      4.2702    241.0601   1.5152650664e+02   2.4272053729e+01    0.3779188     0.189164  45.31  0.001455835    1.891    0.471
        20 -12.1162     10.0083    233.4020   1.5021513084e+02   2.5120617346e+01     0.574253    0.3082225 -63.57  0.003741181    2.074    0.518
        21 -10.2788    183.3672    239.1305   1.1914625840e+02  -2.1599033988e+00    0.2253183    0.1369924  45.33   0.00104812    1.433    0.302
        22 -10.7123     50.2374    234.2732   1.4357072896e+02   2.0283025433e+01    0.2963914    0.1746824 -58.80  0.001426295    2.033    0.508
        23 -14.1778     92.2169    227.0675   1.3516488669e+02   1.5693973456e+01     7.824155    0.5682044  48.06    0.0153726   11.795    0.915
        24 -10.6739     98.3122    248.3187   1.3633984126e+02   1.0734255802e+01    0.2452672    0.2192824  44.81  0.001288052    1.383    0.277
        25  -9.6885     54.4692    229.4908   1.4241982378e+02   2.0668190950e+01    0.2662072    0.1574642  70.67  0.001553604    1.461    0.316
        26  -8.5083     60.3356    227.6759   1.4119856344e+02   2.0243170169e+01    0.1309743   0.07165177  69.98 0.0007051055    1.714    0.417
        27  -9.7089    173.2697    222.4052   1.1844955271e+02   2.3948526920e+00    0.3303744    0.1529376  41.52  0.001187993    1.905    0.475
        28  -8.2603    152.4891    213.0124   1.2112577125e+02   7.9681149875e+00    0.1758686     0.137948 -55.04 0.0003287486    1.417    0.294
        29 -12.4097      9.7770    206.9092   1.4858687478e+02   3.0375463643e+01    0.6465923    0.4280661  41.65  0.003238915    1.731    0.422
        30 -11.4057     60.2590    198.8078   1.3829047776e+02   2.6285973208e+01    0.2706964    0.2241512 -63.76 0.0005395385    1.365    0.267
        31  -9.4502    192.1852    193.4529   1.0945121403e+02   3.9717527095e+00    0.3953215    0.2243136 -65.00  0.001312767    3.370    0.703
        32 -11.6047     14.8900    196.8806   1.4693594396e+02   3.1958963259e+01    0.2934688    0.1752715  64.25  0.001490491    1.468    0.319
        33 -11.7108     66.6712    190.4566   1.3598228215e+02   2.7251250341e+01    0.2758031      0.22607 -66.38 0.0004944783    1.271    0.213
        34 -12.6177     33.4604    232.8109   1.4633574146e+02   2.2641855540e+01    0.3026932    0.2340866 -73.84 0.0007798782    1.442    0.307
        35 -13.0389     63.6236    175.6973   1.3475125790e+02   3.1015692558e+01    0.5114688    0.2757697 -47.10   0.00168538    2.282    0.562
        36 -10.5862     76.9401    177.5864   1.3202234280e+02   2.8693113030e+01    0.2376788    0.2070735  89.96 0.0003746247    1.033    0.032
        37  -9.3646     97.7424    174.1871   1.2673940224e+02   2.6189535382e+01    0.2942846    0.1747928 -67.44  0.001025164    1.699    0.412
        38 -11.5195     84.3489    168.4340   1.2893107692e+02   2.9689352568e+01    0.6061497    0.5578824 -55.85  0.002209561    1.234    0.190
        39 -13.8849     38.6813    225.5867   1.4489281838e+02   2.3439084858e+01    0.8601171    0.7328299  64.88   0.00288742    1.316    0.240
        40  -9.7666     97.2502    152.4976   1.2303512451e+02   3.1341526476e+01    0.2790477    0.2740769  -1.93 0.0007402789    1.211    0.174
        41 -11.7965     85.8744    151.6214   1.2570802572e+02   3.3408374304e+01    0.2962315    0.2442469 -44.38 0.0005406319    1.335    0.251
        42  -8.9232    100.1347    148.2178   1.2148819735e+02   3.1857522209e+01     0.207321    0.1951596 -29.37 0.0004329433    1.237    0.192
        43 -12.0464     67.3450    143.5384   1.2895518256e+02   3.8045810489e+01    0.6812482    0.4439639  69.75  0.003053242    1.857    0.462
        44 -10.1835     96.3065    134.6902   1.1971315832e+02   3.5705073724e+01    0.2583247    0.2256601 -32.16 0.0003566319    1.291    0.225
        45 -10.5445     31.9322    131.8074   1.3615112198e+02   4.4870824183e+01    0.2957249    0.1927169  52.57  0.001512261    1.754    0.430
        46  -8.6024     79.0596    131.5386   1.2364248560e+02   3.9209212822e+01    0.2092362    0.1081751  58.80  0.000808131    2.774    0.640
        47  -9.0628     87.9444    129.1880   1.2076963064e+02   3.8382423611e+01    0.2080017    0.1773449  81.71 0.0003014405    1.261    0.207
        48  -9.4850    109.2173    137.4429   1.1694221062e+02   3.2768048898e+01    0.4656083    0.2766739 -26.86  0.001540401    2.920    0.658
        49 -11.4792     22.4928    126.7542   1.3784549739e+02   4.6865709017e+01    0.4041541    0.2425762  55.08  0.001653982    1.986    0.496
        50  -8.7645    106.3672    124.0058   1.1466006520e+02   3.6414874897e+01    0.1992168    0.1735193 -53.02 0.0003637971    1.093    0.085
        51  -9.5981    167.8392    112.9272   9.6570350011e+01   2.5690074415e+01    0.3396703    0.2714255 -83.03  0.001566762    1.517    0.341
        52  -9.0588    203.4886    111.5091   8.8825540757e+01   1.7514648816e+01    0.2640715    0.1398913  42.07 0.0008502396    2.131    0.531
        53 -10.6102    154.2511    228.9893   1.2325431119e+02   4.7146485243e+00    0.3499253    0.1518576  35.12  0.001428332    2.500    0.600
        54  -9.0081    157.6801     76.6712   8.8932066334e+01   3.5168718611e+01    0.1565959    0.1200296  16.79  0.000465253    1.687    0.407
        55 -11.4694      1.6839     61.4730   1.3249530868e+02   6.2156634301e+01    0.4906689    0.2106435 -72.91  0.002282603    3.158    0.683
        56  -8.7213     44.6838     68.4663   1.1912717193e+02   5.7430643106e+01    0.2270966   0.09576337  44.04 0.0009562186    3.491    0.714
        57  -8.8428     31.8380     62.0921   1.2186326987e+02   5.9927793287e+01    0.1644871    0.1516742 -53.05 0.0006194331    1.275    0.216
        58 -11.2786     13.5405     54.8366   1.2657593189e+02   6.2730245019e+01    0.2705978    0.1889697  29.97  0.001257992    1.815    0.449
        59 -11.5515      2.8252     48.0759   1.2884500837e+02   6.4626066875e+01    0.3444996    0.1491195 -55.59   0.00197867    1.787    0.440
        60 -11.3885    101.0045    245.9867   1.3560706340e+02   1.0731626758e+01    0.4252768    0.2669325 -81.78 0.0006791523    1.777    0.437
        61 -11.0000    198.0894    245.2567   1.1732481376e+02  -5.6010997848e+00    0.3959465    0.1947687 -48.98  0.001935572    2.708    0.631
