#   1 NUMBER                 Running object number                                     
#   2 MAG_AUTO               Kron-like elliptical aperture magnitude                    [mag]
#   3 X_IMAGE                Object position along x                                    [pixel]
#   4 Y_IMAGE                Object position along y                                    [pixel]
#   5 X_WORLD                Barycenter position along world x axis                     [deg]
#   6 Y_WORLD                Barycenter position along world y axis                     [deg]
#   7 A_WORLD                Profile RMS along major axis (world units)                 [deg]
#   8 B_WORLD                Profile RMS along minor axis (world units)                 [deg]
#   9 THETA_WORLD            Position angle (CCW/world-x)                               [deg]
#  10 FWHM_WORLD             FWHM assuming a gaussian core                              [deg]
#  11 ELONGATION             A_IMAGE/B_IMAGE                                           
#  12 ELLIPTICITY            1 - B_IMAGE/A_IMAGE                                       
         1 -18.9776     72.0892    197.9220   1.0732495535e+02   2.3926856170e+01     5.068817     3.703694 -74.45   0.02171511    1.352    0.260
         2 -17.7050    147.6435    106.9575   6.9516251585e+01   3.1402737771e+01     3.037786     2.477888  83.06   0.01448792    1.529    0.346
         3 -17.3696     92.8533    189.5620   1.0120474182e+02   2.2795834853e+01     2.845465     1.728384  72.72   0.01231593    2.284    0.562
         4 -14.2481     60.8952    129.0182   9.9695886883e+01   4.2220431023e+01    0.4822408    0.3198263  -7.89  0.002162631    2.251    0.556
         5 -10.9618    172.3828    249.7995   9.2599259844e+01  -1.4561374199e+00    0.1567813    0.1094942 -24.76 0.0005141455    1.631    0.387
         6 -10.9339     91.7781    250.0453   1.0885095083e+02   1.0430015163e+01    0.1404922    0.0987412 -70.58 0.0008602858    1.624    0.384
         7 -10.5829     87.3536    250.2233   1.0974953198e+02   1.1014026267e+01     0.110552   0.08768142  19.07 0.0002515391    1.557    0.358
         8 -10.6184     70.0542    251.0000   1.1322004814e+02   1.3202038408e+01    0.1812102   0.05743538  35.92 0.0003639092    2.722    0.633
         9 -12.8096    136.5805    210.6685   9.4216743544e+01   1.1093577378e+01    0.5173159    0.2314326 -45.88   0.00217095    2.456    0.593
        10 -12.2289    106.3422    241.2451   1.0493905442e+02   9.9517821421e+00    0.4414364    0.3490703 -36.91  0.002345533    1.625    0.385
        11 -13.2330    124.1334    206.9240   9.6447184501e+01   1.3929815881e+01    0.2993722    0.2471034  32.62  0.000802713    1.155    0.134
        12 -12.9333    104.9055    233.3847   1.0431487249e+02   1.1652303386e+01    0.6724614    0.3292199  49.93  0.003197142    1.948    0.487
        13 -13.9735    144.3201    210.1627   9.2409737638e+01   9.8932531643e+00    0.7164977    0.4268087 -22.08  0.003007719    2.711    0.631
        14 -13.7156    149.0979    202.5993   9.0079713393e+01   1.0571333442e+01    0.4191051    0.3316267 -64.80   0.00164229    1.533    0.348
        15 -13.2279    145.6054    201.8199   9.0731809009e+01   1.1331019866e+01    0.3788243    0.2222518 -46.08  0.001777906    1.816    0.449
        16 -12.6193    164.9932    209.5211   8.7777975980e+01   6.5200791436e+00    0.3950732    0.2058396 -29.65  0.001650767    2.557    0.609
        17 -13.0782    169.2194    205.8940   8.6237691865e+01   6.4780529689e+00    0.2851247    0.1956546  27.23  0.001470982    1.398    0.285
        18 -12.8547    100.5466    231.5236   1.0501962833e+02   1.2663373396e+01    0.5826646    0.3536731 -23.46  0.002451669    3.585    0.721
        19 -14.6654    153.4292    209.3165   9.0257872388e+01   8.5165608552e+00    0.6568975    0.4857403 -33.49  0.003538762    1.480    0.325
        20 -11.2483      6.6400    204.3918   1.2240623795e+02   2.9865570584e+01    0.2157669   0.09202344 -85.42  0.001091658    2.082    0.520
        21 -11.9760     25.8078    200.6981   1.1811560029e+02   2.8855690071e+01    0.3347164    0.1307639  59.45  0.001456853    2.725    0.633
        22 -11.5478     14.4901    201.4792   1.2059061577e+02   2.9788113667e+01    0.1207187   0.09492669  78.76 3.323381e-06    1.009    0.009
        23 -14.2779    139.2778    197.2146   9.1385111471e+01   1.3370838445e+01    0.5066323    0.3906049 -18.12   0.00192224    1.584    0.369
        24 -12.3549    156.1452    198.1140   8.7717951410e+01   1.0235122181e+01    0.2115801    0.1823173   5.41 0.0002864559    1.191    0.160
        25 -14.6316    124.0582    195.2134   9.4593991723e+01   1.6421949135e+01    0.8630955    0.3872955  44.50  0.003477284    2.149    0.535
        26 -12.6744    130.5138    195.0851   9.3056046985e+01   1.5340414732e+01    0.2356119    0.2058422  88.69 0.0004351776    1.318    0.241
        27 -13.7763    189.6260    194.0713   7.9757731661e+01   5.1597523332e+00    0.4273534      0.27416  16.73   0.00181308    1.798    0.444
        28 -13.7162    191.7439    190.8788   7.8708837229e+01   5.3766122054e+00    0.4452564     0.352452  80.67   0.00223069    2.152    0.535
        29 -14.3328     36.1206    192.9341   1.1514548111e+02   2.9529693779e+01    0.5549281     0.390844  17.89  0.002578732    1.877    0.467
        30 -11.9116     20.5258    191.7015   1.1855401438e+02   3.1408806654e+01     0.300743    0.1651845  75.24   0.00159991    1.767    0.434
        31 -15.0689    150.9211    188.4228   8.7136268194e+01   1.3129408254e+01    0.6794515    0.4767586 -48.19  0.002999475    1.496    0.332
        32 -14.1827    111.2153    188.4149   9.6549110817e+01   2.0093872856e+01     0.682718    0.3978934 -34.11  0.002857735    2.392    0.582
        33 -14.4701    142.9781    189.5737   8.9181164050e+01   1.4315705127e+01    0.5853133    0.3425398  26.97  0.002546739    1.903    0.475
        34 -13.7545    123.7140    187.7496   9.3415284814e+01   1.8110655627e+01    0.5153681    0.3444122  83.70  0.002190137    2.394    0.582
        35 -14.0816    135.8245    188.1888   9.0607305188e+01   1.5885565646e+01    0.4655185    0.3456761 -51.56  0.002232157    1.416    0.294
        36 -11.9191     15.9877    242.1820   1.2278128303e+02   2.1205115148e+01    0.1866356    0.1330075 -87.78 0.0008053828    1.276    0.216
        37 -13.1095    117.0994    190.6360   9.5492996556e+01   1.8606967282e+01    0.4782393     0.285897  11.93  0.001833152    2.930    0.659
        38 -13.5136    128.5911    184.3422   9.1643165814e+01   1.8007043301e+01    0.3210481    0.2800198  40.12 0.0005792551    1.100    0.091
        39 -16.4924    142.0617    173.9806   8.6458377297e+01   1.7835342017e+01     1.802425    0.9759822 -28.05  0.006541478    2.883    0.653
        40 -12.9858    139.0504    165.9560   8.5584177755e+01   2.0178027442e+01    0.3320483    0.2490995  32.49 0.0004020033    1.349    0.258
        41 -12.9024    119.2578    181.3762   9.3385948376e+01   2.0310159039e+01    0.4190383    0.1890853 -49.87  0.001346776    2.264    0.558
        42 -14.3474    119.9958    175.0061   9.2055850031e+01   2.1630454957e+01    0.4509071    0.3418205 -71.00  0.002217486    1.502    0.334
        43 -10.9922     14.0735    237.9076   1.2289972142e+02   2.2229702524e+01    0.1870162    0.1316525  86.72 0.0009555708    1.211    0.174
        44 -13.5331    180.0621    178.5703   7.8733976417e+01   9.7869401137e+00    0.4128166    0.2424885 -55.50  0.001583735    2.161    0.537
        45 -13.9725    174.4695    175.0913   7.9240958483e+01   1.1511588794e+01    0.4244998    0.3236385  17.27  0.001117956    1.413    0.292
        46 -12.5030     19.8016    179.3907   1.1768584747e+02   3.4320573179e+01    0.2435194    0.1690098  57.90 0.0003286141    1.365    0.267
        47 -14.2931    140.2141    161.1179   8.4300964359e+01   2.1038450802e+01     0.476718    0.3397736  57.70  0.002179494    1.627    0.386
        48 -13.8356    121.3971    171.2099   9.0997676081e+01   2.2251721332e+01    0.3310254    0.2617366  63.64 0.0008913569    1.416    0.294
        49 -12.5877    116.4727    238.6577   1.0251998097e+02   8.9150589458e+00    0.3708679    0.2261396 -63.41  0.001383852    1.970    0.492
        50 -12.4439     27.7989    171.0781   1.1497491894e+02   3.5531397497e+01    0.1989121     0.149871  79.81 0.0004286509    1.206    0.171
        51 -13.6188     32.6658    168.4025   1.1347626265e+02   3.5691041762e+01    0.3498239    0.2102988 -59.95  0.001862277    1.545    0.353
        52 -14.3911    132.6084    168.5146   8.7681754161e+01   2.0814604763e+01    0.5935534    0.3358945  41.31 0.0006321621    1.730    0.422
        53 -14.5305    127.6869    165.0592   8.8222374503e+01   2.2516243747e+01    0.5940196     0.401566   1.55  0.002399362    2.404    0.584
        54 -11.8784    205.5105    166.0051   7.0911140189e+01   7.5179954470e+00    0.2183036    0.1314034 -37.88 0.0004777599    1.566    0.361
        55 -12.1042     43.6620    244.9106   1.1781778065e+02   1.7641486101e+01    0.3949521    0.2047901 -64.31  0.002284905    2.071    0.517
        56 -11.6604    201.4600    236.3008   8.4831154843e+01  -3.7035734691e+00     0.216192    0.1140968 -34.15 0.0008166155    1.985    0.496
        57 -14.5752     46.0873    158.6357   1.0878394779e+02   3.6637027021e+01     0.711062    0.4294361   1.34  0.002997408    2.819    0.645
        58 -13.7561     51.1907    154.1870   1.0677001403e+02   3.7145767699e+01    0.3987353    0.2625502  47.29 0.0006795649    1.581    0.368
        59 -15.9298    109.5636    154.7642   9.0853493243e+01   2.8237733759e+01     1.235163    0.7781709  65.47  0.005004221    2.239    0.553
        60 -13.6395    120.6376    146.8855   8.6256669657e+01   2.8070630376e+01    0.4938007    0.2435688  36.63   0.00140545    2.098    0.523
        61 -13.9773    115.3155    144.7534   8.7214229629e+01   2.9576291604e+01    0.5494047    0.3665507 -75.32  0.001291993    2.061    0.515
        62 -14.9180    108.9315    145.0058   8.9001239942e+01   3.0690998398e+01     1.069701    0.4021102 -48.03  0.003655959    2.607    0.616
        63 -16.4165    104.4574    142.5187   8.9701724220e+01   3.2094308262e+01     1.479251    0.9260341 -72.17  0.005846907    2.099    0.524
        64 -14.8882     98.9183    155.8143   9.3919778928e+01   2.9833086887e+01    0.7552395    0.4590934  41.47  0.003104212    1.649    0.394
        65 -14.2904     23.3137    152.7388   1.1414645063e+02   4.0393597134e+01    0.7139307    0.2873079 -56.90  0.003203038    2.169    0.539
        66 -14.0037    150.0422    147.6629   7.8973432299e+01   2.2089565294e+01    0.5350077    0.2224828 -50.37  0.001851265    2.539    0.606
        67 -13.3510    118.4743    152.3204   8.7988973322e+01   2.7195925908e+01    0.2749818    0.2537616  22.71 0.0006630973    1.129    0.114
        68 -13.6203    172.1221    159.6254   7.6507954072e+01   1.5109561409e+01    0.3760698    0.2409101  53.53  0.001655142    1.826    0.452
        69 -14.4755    133.3284    146.3229   8.2828675284e+01   2.5742197669e+01    0.6102837    0.3804592 -22.35  0.002326751    2.432    0.589
        70 -12.2991     19.7638    147.7805   1.1453464399e+02   4.1911830666e+01    0.2939022    0.1994359  39.33  0.001064401    1.608    0.378
        71 -11.4507    127.8920    235.1333   9.9665864569e+01   7.8112012056e+00    0.2057754     0.154871  -1.82  0.001137504    1.786    0.440
        72 -12.9305     34.7384    148.5033   1.1052171761e+02   4.0358975717e+01    0.2922327    0.1878197 -35.11  0.001479487    1.944    0.485
        73 -11.8210     12.3264    149.6805   1.1672615200e+02   4.2046910138e+01    0.1889253   0.07981652  50.66  0.000664178    2.625    0.619
        74 -13.1943     27.4478    154.9052   1.1329690425e+02   3.9486905484e+01    0.3285342    0.2083006  42.35  0.001041172    1.659    0.397
        75 -13.7801    155.0949    144.5430   7.7052357783e+01   2.1741818348e+01    0.3687791    0.2414265 -47.91  0.001628194    1.532    0.347
        76 -12.9161     17.4592    153.5613   1.1578185216e+02   4.0696088764e+01    0.5147337    0.2482761 -72.28  0.002545023    1.730    0.422
        77 -13.5282     82.0146    144.7201   9.6479838137e+01   3.5295349363e+01    0.2852864    0.2561919  49.62 0.0004503316    1.149    0.130
        78 -13.1341     83.0338    140.9445   9.5448631724e+01   3.6071543305e+01    0.3358808    0.2262916 -53.10 0.0006078536    1.408    0.290
        79 -11.9845     40.2950    243.6212   1.1836651516e+02   1.8283392361e+01    0.3274714    0.1472367 -84.63  0.001577274    2.395    0.582
        80 -10.9112     36.7481    244.6444   1.1910460942e+02   1.8492852570e+01    0.1587219     0.103017  37.40 0.0005533627    1.516    0.340
        81 -12.1729     20.0375    233.1538   1.2152393828e+02   2.2565977148e+01    0.2766724    0.1922843 -61.64  0.001854447    1.695    0.410
        82 -15.1292    145.3862    150.6663   8.0778625905e+01   2.2361125662e+01    0.6663218    0.5402038  68.66  0.003219285    1.490    0.329
        83 -11.6255    179.6669    143.3019   7.1212902515e+01   1.6944838202e+01    0.1491183    0.1220376 -86.73  0.000331342    1.655    0.396
        84 -16.0494    136.8360    130.5561   7.8253893228e+01   2.8618821850e+01     1.074419    0.9358549 -88.89  0.002434033    1.354    0.261
        85 -15.6875    142.2175    133.6998   7.7648686349e+01   2.6797934617e+01     1.242104    0.8259001   6.17   0.00471873    2.541    0.606
        86 -11.2944    105.5109    249.0048   1.0598239262e+02   8.6582804098e+00    0.1523791    0.1221439 -63.96 0.0003708905    1.456    0.313
        87 -12.1077     32.1504    231.7559   1.1911308476e+02   2.1555159147e+01    0.2297411    0.1692851 -46.34  0.001471074    1.940    0.485
        88 -11.4176    118.7817    232.1473   1.0120681313e+02   9.7782263072e+00     0.194253    0.1605973  59.38  0.000521016    1.209    0.173
        89 -12.8577     52.4840    124.4695   1.0143084370e+02   4.4403633660e+01    0.2106651    0.1653792  76.06 0.0001142112    1.478    0.324
        90 -13.2114     48.5602    123.0938   1.0240399006e+02   4.5204305034e+01    0.2677741    0.2350738 -60.87 0.0006391836    1.017    0.016
        91 -13.6825     46.2909    117.9751   1.0215813485e+02   4.6724088441e+01    0.3835052     0.289433 -18.50  0.001421323    1.579    0.367
        92 -14.2188     89.5267    120.9351   8.9182187985e+01   3.9908733426e+01    0.5265697    0.3431386  61.19  0.002239058    2.066    0.516
        93 -13.4278     72.7585    121.0222   9.4366112900e+01   4.2544380498e+01     0.382847     0.204104 -42.86 0.0008433963    1.906    0.475
        94 -13.4592     63.9951    121.9614   9.7316021297e+01   4.3554218451e+01    0.2759205    0.2221258  14.99 0.0007005347    1.423    0.297
        95 -12.9090    108.1651    122.0806   8.3961003256e+01   3.6288987816e+01    0.2492143    0.2111394 -18.45  0.001232915    1.314    0.239
        96 -12.7163    113.8140    228.7919   1.0183685664e+02   1.1187120502e+01    0.4060413    0.2818146  37.71  0.001624702    1.277    0.217
        97 -13.8306    101.2904    119.6952   8.5371138565e+01   3.8130616684e+01    0.4521642    0.2477048  38.71  0.001852825    1.879    0.468
        98 -14.0099     31.2625    118.4098   1.0705824739e+02   4.8141022602e+01    0.3943391    0.3188995  21.19   0.00156413    1.438    0.304
        99 -13.4038     27.3110    138.6673   1.1130259753e+02   4.3498400465e+01    0.2900797    0.1895215  66.42  0.001527963    1.724    0.420
       100 -12.4920     10.3497    229.6862   1.2314328554e+02   2.4228485659e+01    0.2916756    0.1551808  61.98 0.0008958168    1.539    0.350
       101 -11.5454    174.3090    235.3467   9.0051744056e+01   5.2222807489e-01    0.1324058   0.09120778   0.25 0.0007044466    1.704    0.413
       102 -11.0695    180.4669    244.4929   9.0219238143e+01  -1.8466581312e+00    0.1262959    0.1032356  17.80 0.0001313064    1.016    0.016
       103 -13.8126     75.5215    110.7749   9.1127267290e+01   4.4603741284e+01    0.4030873    0.2916796 -47.40  0.001096873    1.289    0.224
       104 -13.5441     54.0362    109.9432   9.7977137230e+01   4.7777100973e+01    0.5101613    0.2235655 -42.32  0.001525495    2.355    0.575
       105 -14.2462     88.8087    109.3176   8.6554191401e+01   4.2784391730e+01    0.6711304    0.2458804 -43.21  0.002243877    2.804    0.643
       106 -16.9197    153.9602    128.3954   7.3487258449e+01   2.5480784707e+01     2.152608     1.260782  39.11  0.008906689    1.786    0.440
       107 -13.4916     83.3758    134.3206   9.3997872620e+01   3.7653336912e+01    0.3281399    0.2636977  75.21  0.001445432    1.460    0.315
       108 -13.8418    118.2377    102.9499   7.6101468071e+01   3.8617169975e+01    0.3552257     0.336017  54.46  0.001273255    1.109    0.098
       109 -13.7969     57.7285    100.0099   9.4444312631e+01   4.9679656211e+01    0.4050953    0.3158535 -56.27  0.001007018    1.206    0.171
       110 -13.5814     59.5084     95.5835   9.2728907034e+01   5.0475789285e+01    0.3758593    0.3173662  16.64  0.001861045    1.270    0.213
       111 -12.0356     16.3583    227.2606   1.2187168386e+02   2.4129864860e+01    0.3414514      0.14994  79.99  0.001743079    2.287    0.563
       112 -11.3463    125.9565    224.7360   9.8660467879e+01   1.0068915723e+01     0.194339    0.1720076  12.81 0.0004693284    1.219    0.180
       113 -13.2185     72.1054     98.1195   8.9066224965e+01   4.8089643175e+01    0.3008962    0.2343538  -0.37  0.001491072    1.493    0.330
       114 -12.6899    125.5360    220.7587   9.8189123794e+01   1.0908941719e+01    0.3166807    0.1746364 -47.60  0.001304149    2.033    0.508
       115 -11.0897    108.4954    225.4854   1.0256228204e+02   1.2653312208e+01    0.1316675    0.1161856  47.64 0.0008104726    1.011    0.011
       116 -11.6045    188.7585    222.0028   8.4960931199e+01   4.5349081572e-01    0.1590309    0.1072649 -37.42 0.0004264304    1.564    0.360
       117 -13.9268     52.3248     84.2906   9.2347078289e+01   5.3967967756e+01    0.5461053    0.4234407  31.71  0.002921436    1.411    0.291
       118 -12.6061     75.4459     75.5337   8.1425147535e+01   5.2473487866e+01      0.25448    0.2317819 -20.55 0.0006225524    1.019    0.019
       119 -10.9272    120.2993     81.2924   6.9252981030e+01   4.2625321319e+01    0.1508801     0.117779   7.41 0.0003117349    1.565    0.361
       120 -12.2716     20.2548    133.7086   1.1268346912e+02   4.5322060431e+01    0.2225554    0.1569215 -67.43 0.0006021336    1.184    0.155
       121 -12.3077    125.0713     73.0900   6.5459921284e+01   4.3099926809e+01    0.2298733    0.2234981  32.41  0.001094046    1.020    0.019
       122 -13.7714     99.3840     68.2218   7.1185946319e+01   4.9481420089e+01     0.508074    0.3274912 -48.46  0.002362899    1.709    0.415
       123 -11.3897    195.6795     67.6929   4.9502992652e+01   2.7402107879e+01    0.1373924    0.1107832  22.92 0.0006057183    1.639    0.390
       124 -11.8365     74.2106     66.1616   7.8834242051e+01   5.4532991115e+01    0.1823409    0.1725516 -89.81 0.0004230097    1.369    0.269
       125 -12.0948     23.5271     63.2803   9.7975220933e+01   6.1521197315e+01    0.4784651    0.1846282   6.80  0.001735535    4.411    0.773
       126 -15.9945    152.2085    118.9533   7.1545291971e+01   2.7878543901e+01     2.757465    0.6002955  41.50  0.006442131    5.576    0.821
       127 -11.1956    139.0318    217.7335   9.4773750494e+01   9.3027749528e+00    0.1848602    0.1623574  33.12 0.0003167708    1.024    0.024
       128 -11.5030    138.9673     56.0533   5.6786498441e+01   4.2725129714e+01    0.1706329    0.1699203  24.52 0.0004951174    1.044    0.042
       129 -10.9446     65.2664     52.4203   7.7331045050e+01   5.8523337627e+01    0.1759005    0.1253774  43.05 0.0009379105    1.563    0.360
       130 -13.7362     28.5044    214.0825   1.1857809885e+02   2.5640041903e+01    0.4575011    0.3150669  70.98  0.002906344    1.234    0.190
       131 -11.7278     11.8482     36.1179   9.4913982258e+01   6.7772060057e+01    0.1710617    0.1524043 -35.07  0.001240955    1.270    0.212
