#   1 NUMBER                 Running object number                                     
#   2 MAG_AUTO               Kron-like elliptical aperture magnitude                    [mag]
#   3 X_IMAGE                Object position along x                                    [pixel]
#   4 Y_IMAGE                Object position along y                                    [pixel]
#   5 X_WORLD                Barycenter position along world x axis                     [deg]
#   6 Y_WORLD                Barycenter position along world y axis                     [deg]
#   7 A_WORLD                Profile RMS along major axis (world units)                 [deg]
#   8 B_WORLD                Profile RMS along minor axis (world units)                 [deg]
#   9 THETA_WORLD            Position angle (CCW/world-x)                               [deg]
#  10 FWHM_WORLD             FWHM assuming a gaussian core                              [deg]
#  11 ELONGATION             A_IMAGE/B_IMAGE                                           
#  12 ELLIPTICITY            1 - B_IMAGE/A_IMAGE                                       
         1 -12.4980     19.1789     10.1837   6.2717337309e+01   7.0368646638e+01    0.7313792    0.4346307  24.59  0.004773989    1.797    0.444
         2 -13.0673      7.4470     23.0906   7.3617823023e+01   6.9177559365e+01    0.7326468    0.5666945 -35.81  0.004250103    1.093    0.085
         3 -11.6679      4.1744     14.8873   7.2200026138e+01   7.0778068811e+01    0.4223473    0.2725597 -27.34  0.002724493    1.199    0.166
         4 -12.1045      6.0646      7.6568   6.8285216640e+01   7.1814696035e+01    0.4753815    0.4469257  87.24  0.003762015    1.959    0.490
         5 -11.7524     22.2339     21.3644   6.5985708376e+01   6.8340714983e+01    0.4374901    0.2368914 -14.81  0.002442918    2.032    0.508
         6 -10.2503    107.1929      5.6076   2.8408343927e+01   5.6426113038e+01    0.2051303   0.09974717  47.71 0.0009559697    1.725    0.420
         7 -11.4207     39.3522      2.7117   4.9634177138e+01   6.9113539913e+01    0.4562684    0.2291505  40.41  0.002551046    2.183    0.542
         8 -11.7582    113.0466    231.6332   8.3025385284e+01   1.1916932134e+01    0.6348331    0.3423738  42.05  0.002597125    1.580    0.367
         9 -13.3470    169.4536    247.1923   7.4391300508e+01   6.2389069125e-02    0.8932968    0.4353575  36.98  0.004681503    1.697    0.411
        10  -9.9661    106.0174    250.5045   8.6313746515e+01   9.8727422714e+00    0.2894477   0.09288467  41.98 0.0009734539    2.492    0.599
        11 -11.9179    109.8368    246.9743   8.5277685596e+01   9.8516112633e+00    0.6949249    0.3484354  52.95  0.002517853    1.618    0.382
        12 -15.7991      8.9164    241.9422   1.0191983676e+02   2.3888229167e+01     2.839247     1.900758  56.35   0.01536376    1.272    0.214
        13 -12.1914    103.3648    228.2473   8.4488179205e+01   1.4064847267e+01     0.942107    0.5941668  49.00  0.004829075    1.288    0.224
        14 -10.1415     73.2741    246.6226   9.1700446444e+01   1.5317284434e+01     0.256406    0.1348057  65.58  0.001514232    1.712    0.416
        15 -10.0943     82.2035    249.0102   9.0355334653e+01   1.3655134168e+01    0.2867927    0.2489111   5.57  0.002004375    2.071    0.517
        16 -11.5026     86.5195    239.0930   8.8714165656e+01   1.4721248963e+01    0.5973783    0.2628693  58.40  0.002796081    2.108    0.526
        17 -12.8370    151.5563    227.7455   7.5109182041e+01   6.0475191406e+00     0.808879    0.3316968  45.89   0.00365313    2.014    0.503
        18 -12.3027    140.6209    219.2219   7.6066020695e+01   9.3991747215e+00     0.872323    0.5110834  66.29  0.004121062    2.281    0.562
        19 -11.3880     72.3853    225.6144   9.0056740316e+01   1.9190217120e+01    0.5594527    0.3887625  83.66  0.003654132    1.323    0.244
        20 -11.3257    128.1638    246.6356   8.1912223837e+01   6.9860216496e+00    0.5669258    0.2419413  49.85  0.002825395    1.913    0.477
        21 -14.3620      9.0539    222.7863   1.0097785031e+02   2.7307672259e+01       1.2774    0.6039436  82.41  0.006424888    1.739    0.425
        22 -11.5558     49.6670    204.0131   9.2419137592e+01   2.6428432060e+01    0.4782249    0.3247702  75.86  0.001914043    1.232    0.188
        23  -9.7454     85.1132    229.5621   8.8065297404e+01   1.6624728685e+01    0.2495939    0.1538606  69.51  0.001475811    1.529    0.346
        24 -10.6266     96.2755    197.0451   8.2175608941e+01   2.1190200822e+01    0.4600026    0.2383192  60.46  0.002128182    2.058    0.514
        25 -10.3075     37.3006    196.1455   9.4147635043e+01   2.9516127310e+01    0.2866652     0.198112  74.42  0.001899543    1.172    0.146
        26 -10.4132     33.4248    190.8868   9.4469707538e+01   3.1042074822e+01    0.3909114    0.1968255  67.09   0.00214355    1.879    0.468
        27 -10.2800     29.1076    186.6815   9.4977448549e+01   3.2390128865e+01    0.2513199    0.2163329 -45.51  0.001154237    1.685    0.407
        28  -9.9124     45.7819    195.5676   9.2426261572e+01   2.8637027514e+01    0.2101282    0.1784009 -57.57  0.001444589    1.532    0.347
        29 -12.2201     13.8500    189.4295   9.8153785266e+01   3.3353757516e+01    0.5144353    0.3494546 -81.39  0.002401505    1.235    0.190
        30 -10.0224     86.8386    192.4159   8.3587912646e+01   2.3638572246e+01    0.3239224    0.2334882  19.31  0.001707537    2.122    0.529
        31 -10.1287     46.6676    169.6275   8.9635215573e+01   3.4109838645e+01    0.3307544    0.2022689  83.05  0.001649625    1.602    0.376
        32 -12.0892     50.4469    181.6073   9.0105785599e+01   3.1025483244e+01    0.9450361    0.4669356 -84.15  0.003903436    2.101    0.524
        33  -9.5943      6.6492    171.0385   9.8267952001e+01   3.7836110616e+01    0.2081219    0.1104363 -86.67  0.001260836    1.506    0.336
        34 -11.4915      3.9121    176.9544   9.9221656315e+01   3.6824438921e+01    0.5193748    0.2709354 -83.41  0.002695301    1.501    0.334
        35  -9.8133      1.7239    168.6191   9.9088104721e+01   3.8751569899e+01    0.2624616    0.1231919 -80.29  0.001052042    1.662    0.398
        36  -9.5762     32.8439    178.4023   9.3497400065e+01   3.3751246553e+01    0.2126275    0.1956251 -79.05  0.001562681    1.324    0.245
        37 -10.2228     27.8861    174.7446   9.4201935239e+01   3.5060989525e+01    0.4782524    0.3265061  55.88  0.003130939    1.369    0.269
        38  -9.3027     70.9783    177.1799   8.5116795028e+01   2.9270335560e+01    0.1958887    0.1580597 -10.84  0.001089753    2.077    0.519
        39 -10.5780     14.7753    172.3837   9.6718280325e+01   3.6837448817e+01    0.3290355    0.1987275 -87.85  0.001364099    1.327    0.246
        40 -10.3710     21.1082    162.0656   9.4500027848e+01   3.8488834263e+01    0.3504646    0.1740715  30.03  0.001926983    2.426    0.588
        41  -9.6071     10.1422    157.8993   9.6514118336e+01   4.0366713384e+01    0.1821932    0.1231748  76.18 0.0006951135    1.272    0.214
        42 -10.6050      2.9987    155.6107   9.7865327961e+01   4.1431421326e+01    0.3175339    0.2405769 -74.77  0.002314815    1.190    0.160
        43  -9.2121     21.0040    151.6586   9.3523978807e+01   4.0803569353e+01    0.1599218     0.134833  83.17 0.0007753767    1.109    0.098
        44 -10.0383     24.5604    147.5048   9.2266641431e+01   4.1410337137e+01    0.2560623     0.178506  73.13  0.001435711    1.352    0.260
        45  -9.4582     14.9472    147.6697   9.4519725880e+01   4.2219525134e+01    0.1608107    0.1310324  82.12  0.001024395    1.106    0.096
        46 -11.5818     36.5472    140.2427   8.8498927063e+01   4.1897265137e+01    0.8261651    0.4093715  83.16  0.003632286    2.700    0.630
        47 -10.9109      2.2486    128.0719   9.5613100133e+01   4.7527431695e+01     0.679692    0.2549746 -89.36  0.002945469    3.031    0.670
        48 -12.9639     13.5178    129.5447   9.2974359050e+01   4.6397827237e+01     1.149912    0.5757707 -66.45  0.005800604    1.565    0.361
        49 -11.7595     27.2364    140.0072   9.0776097561e+01   4.2861959873e+01     0.537527    0.3178339 -79.87  0.001974357    1.455    0.313
        50 -12.0575     25.1126    129.2355   8.9987447590e+01   4.5515534955e+01    0.7146536    0.3845168 -75.30  0.002548425    1.579    0.367
        51 -11.6795    246.5351    141.8165   4.0403798214e+01   2.0334373352e+00    0.3068956    0.2420932 -14.00  0.001707441    1.218    0.179
        52 -10.5007     38.5505    120.6417   8.5179403641e+01   4.6231572429e+01     0.413792    0.2379981 -43.97    0.0021513    1.885    0.469
        53 -11.5282    240.3253    119.0011   3.6243697665e+01   6.9870853909e+00    0.3916518    0.1944601 -46.37  0.001616487    2.135    0.532
        54 -10.7709     94.6409    114.1542   6.7993673928e+01   4.0087131713e+01    0.3256194    0.2528786  48.98  0.001668881    1.350    0.259
        55 -10.3151     45.7000    113.1322   8.1902831890e+01   4.7227857608e+01    0.3551597    0.3237006 -89.44  0.002321763    1.118    0.105
        56  -9.7773     35.4641    110.2673   8.4366559313e+01   4.8935386073e+01    0.2296344    0.1819657 -20.40  0.001415818    1.590    0.371
        57 -10.6323     38.4021    103.7070   8.2345717129e+01   5.0159715743e+01    0.4655703    0.2654872 -60.44  0.002274407    1.451    0.311
        58  -9.5680     43.2237    102.5893   8.0678492642e+01   4.9927494063e+01    0.2411065     0.188584  -6.80  0.001295541    1.639    0.390
        59 -11.0892    244.1276    108.3046   3.3137122583e+01   7.9402725966e+00    0.2604445    0.1902976 -22.76  0.001202277    1.384    0.277
        60 -13.1716      4.4139    100.0272   9.1804469013e+01   5.3630721931e+01     1.323409    0.7476214 -56.73  0.006275242    1.425    0.298
        61 -11.2565      2.3042     85.4821   9.0356282275e+01   5.6946293939e+01     0.468965    0.2516299 -69.24  0.001820879    1.450    0.310
        62 -13.1216      8.0524     77.9596   8.7261001891e+01   5.8263285398e+01     1.509153    0.7835766  60.59  0.007431627    3.178    0.685
        63 -12.9507      5.2587     67.7917   8.6325141832e+01   6.0589233464e+01    0.7363577    0.5559636 -72.20  0.005143878    1.247    0.198
        64  -9.8008     23.7005     98.1325   8.5803406529e+01   5.2733123422e+01    0.2329427    0.1352899 -30.83  0.001239382    2.151    0.535
        65 -11.1550    244.9622     95.9781   3.0109851447e+01   9.7557588887e+00    0.3283193    0.2208215  69.43  0.001599691    1.805    0.446
        66 -10.3580     52.5749     93.2801   7.5821446254e+01   5.1014400886e+01    0.3248578    0.2515704 -89.61  0.001602941    1.560    0.359
        67 -10.3809    219.4873     90.9785   3.2883762675e+01   1.6362942847e+01    0.2381354    0.1423347 -35.85 0.0009155943    1.610    0.379
        68 -10.3851     53.5646     80.9992   7.2552382787e+01   5.3624542109e+01    0.3648446    0.2262469  47.88  0.001859174    2.029    0.507
        69 -10.7618     93.0412     79.7530   5.9360291447e+01   4.7959560832e+01    0.3515118    0.2698348  16.45  0.001775741    1.501    0.334
        70 -11.3781     33.4857     78.9384   7.8868320724e+01   5.6180788800e+01    0.7408317      0.37744   7.26  0.003443695    3.013    0.668
        71 -10.4046     27.2439     76.5202   8.0468076215e+01   5.7244205244e+01    0.3603562    0.1832979 -52.17  0.001910325    1.549    0.355
        72  -9.6783    114.6634     75.3354   5.1573189734e+01   4.4596392945e+01    0.1530078    0.1220775 -83.77 0.0007051865    1.746    0.427
        73 -10.5516    237.8548     65.1983   2.3732002665e+01   1.6168186639e+01    0.5081067     0.189655 -35.32  0.001929375    2.455    0.593
        74 -10.3975     27.5812     63.9253   7.7369169557e+01   5.9893882504e+01    0.4337056    0.1711109 -48.58  0.002086968    1.962    0.490
        75 -11.4821    249.4641     58.6600   2.0727588876e+01   1.4491904683e+01    0.7698625    0.1434502 -39.11   0.00236491    3.956    0.747
        76 -11.1064     21.1492     60.4659   7.8898747088e+01   6.1115494485e+01    0.3950412    0.1789748 -26.94  0.001819888    2.864    0.651
        77 -10.7938     20.2791     53.0623   7.7311137589e+01   6.2683956669e+01    0.2922274    0.2096399 -24.44  0.001715405    1.347    0.257
        78 -12.1714      6.9539     50.2630   8.1858469604e+01   6.4103735467e+01    0.4821583    0.4113702 -10.58  0.003674023    1.314    0.239
        79 -11.4039      3.4342     43.3421   8.1542692548e+01   6.5657070688e+01    0.3723778     0.247015 -44.31  0.002572848    1.130    0.115
        80 -10.4000    249.8460     48.0897   1.8240239896e+01   1.5905674010e+01    0.3147662    0.2118697 -52.68  0.001687357    1.353    0.261
        81 -11.7645     31.8985     45.3170   7.0360181122e+01   6.3221667161e+01    0.5526891    0.4615053  13.61  0.003156364    1.334    0.250
        82 -11.7992     17.4027     34.6957   7.3025928378e+01   6.6419700688e+01    0.4945562    0.2116375 -33.01  0.002525008    2.184    0.542
        83 -11.8786     16.5160     29.6125   7.1698846330e+01   6.7401918376e+01    0.3819516    0.2552493  -4.73  0.002458887    1.529    0.346
        84 -10.1019    123.9562    250.2673   8.3078269169e+01   7.0975252062e+00    0.2843612    0.1319567  44.07  0.001149123    1.663    0.399
        85 -11.7984     90.5400    216.6130   8.5685919167e+01   1.8220091265e+01    0.9758604    0.5172895 -77.19  0.004964408    2.236    0.553
        86 -13.3719    147.3368    244.1521   7.8082155153e+01   4.2054593878e+00    0.9977488    0.6499931  42.90   0.00507981    1.207    0.172
        87 -13.6112    131.9854    234.3069   7.9740451467e+01   8.3357270883e+00     1.345702    0.9731187  57.36  0.008174649    1.219    0.180
        88 -11.8925    121.6111    224.9912   8.0583209072e+01   1.1666243438e+01    0.6653193    0.5842677 -62.10  0.004048623    1.367    0.268
        89 -12.4893    111.6961    214.1604   8.1188633606e+01   1.5296157486e+01     1.007976    0.7290175 -51.42  0.005936954    1.678    0.404
