#   1 NUMBER                 Running object number                                     
#   2 MAG_AUTO               Kron-like elliptical aperture magnitude                    [mag]
#   3 X_IMAGE                Object position along x                                    [pixel]
#   4 Y_IMAGE                Object position along y                                    [pixel]
#   5 X_WORLD                Barycenter position along world x axis                     [deg]
#   6 Y_WORLD                Barycenter position along world y axis                     [deg]
#   7 A_WORLD                Profile RMS along major axis (world units)                 [deg]
#   8 B_WORLD                Profile RMS along minor axis (world units)                 [deg]
#   9 THETA_WORLD            Position angle (CCW/world-x)                               [deg]
#  10 FWHM_WORLD             FWHM assuming a gaussian core                              [deg]
#  11 ELONGATION             A_IMAGE/B_IMAGE                                           
#  12 ELLIPTICITY            1 - B_IMAGE/A_IMAGE                                       
         1 -12.0512     43.5611     45.1488   5.7299326727e+01   6.4614940083e+01     1.137698    0.8847015 -81.79 0.0006831764    1.900    0.474
         2 -12.3115    119.7120     38.8997   2.6692409892e+01   5.0522494661e+01    0.9630851    0.4294138 -43.36  0.003096144    2.432    0.589
         3 -11.0534     61.4181     35.8699   4.4954377670e+01   6.3695946473e+01    0.8323286    0.4093622 -20.92  0.002923664    3.446    0.710
         4 -12.1613    104.8573     13.3664   1.9677405122e+01   5.7440033981e+01    0.5097729    0.4135527 -18.09   0.00159978    1.297    0.229
         5 -12.5500    113.7944     25.5940   2.2800084585e+01   5.3809899328e+01    0.9820886    0.4393839  44.87  0.003353047    2.228    0.551
         6 -11.3057    182.9916     25.3520   1.0906211042e+01   3.6046433325e+01     0.503258    0.3950883   9.02  0.002402866    1.621    0.383
         7 -10.1381     12.9842      2.0489   5.4472913138e+01   7.6272954688e+01    0.2661898    0.1750387   5.93  0.001187008    1.495    0.331
         8 -11.8284     25.9852     28.9410   6.0064780257e+01   7.0010961099e+01    0.6130165    0.4272959 -17.11  0.003446429    1.425    0.298
         9 -10.0374     29.3610      1.9929   4.2921306956e+01   7.4240507830e+01    0.2743641    0.1876585   9.98 0.0003964528    1.414    0.293
        10 -11.8933     20.1505     21.8226   6.0415754843e+01   7.2001270053e+01    0.6978795    0.3557278 -33.01  0.001932736    1.839    0.456
        11 -11.0583      6.3411     10.8523   6.4704203808e+01   7.5279215615e+01     0.653637    0.5302819 -57.82  0.003981641    1.404    0.288
        12 -11.9866     36.5501     18.7223   4.8821985144e+01   7.0618419827e+01    0.8056087    0.3972683 -42.05  0.003916125    1.918    0.479
        13 -12.1546     48.3680     12.8882   3.9193503152e+01   6.9679939512e+01    0.6612681    0.3396775  47.02  0.003169814    2.117    0.528
        14 -10.4424     12.7568      8.3102   5.8488199907e+01   7.5219973589e+01    0.3931106    0.2189612 -56.41   0.00115562    2.124    0.529
        15  -9.7875     22.1329      3.1586   4.8494624477e+01   7.5050189666e+01    0.3319439    0.2493615  23.71   0.00167308    1.348    0.258
        16 -12.3193     16.0273     14.3029   5.9424121340e+01   7.3823239324e+01    0.9663994    0.3631959 -32.84  0.004022723    2.903    0.655
        17 -12.0917     22.6471     11.0243   5.3064679902e+01   7.3711693634e+01    0.6006474    0.4126441  -9.44  0.003594748    1.411    0.291
        18 -10.3674    154.5598     23.4607   1.4149995587e+01   4.3556448131e+01    0.8044359    0.4907974  27.68  0.003491632    2.218    0.549
        19 -11.1321    136.3545     22.1590   1.6722776951e+01   4.8450097988e+01    0.7336757    0.4844068  73.03  0.003513403    1.528    0.345
        20 -11.2239    127.5681     16.5029   1.6187687891e+01   5.1350667619e+01    0.6744106    0.4108093 -17.92  0.002097346    1.817    0.450
        21 -11.2632    135.2516     14.8570   1.4182989952e+01   4.9527036808e+01    0.6953179    0.2734727  55.46   0.00272274    2.239    0.553
        22 -12.2891    164.7357     18.1942   1.0966158269e+01   4.1496335684e+01    0.5797057    0.3120795  41.01  0.002488944    2.236    0.553
        23 -11.0423     67.6677     18.8651   3.3936870373e+01   6.5229657662e+01    0.4670158    0.4022878 -73.87  0.002004403    1.671    0.402
        24 -10.1286    147.1288     16.8600   1.3000670741e+01   4.6218655583e+01    0.6397151    0.2213715  41.81  0.001977943    4.040    0.752
        25 -11.4361    228.6876     15.9421   4.0870437469e+00   2.6310246889e+01    0.3300793    0.2243402  66.70 0.0003498179    1.588    0.370
        26 -10.8547    225.6973     13.6897   3.7560020346e+00   2.7205568559e+01    0.2514654    0.2191657 -30.42 0.0004623826    1.226    0.184
        27 -11.0068     85.8380     14.0699   2.5132690118e+01   6.1907441888e+01    0.4059274    0.3008831  -7.39  0.001425628    1.414    0.293
        28 -10.2223    218.6927     12.7369   4.0366084640e+00   2.8871946885e+01    0.2850041    0.1756323 -23.34  0.001525848    1.699    0.411
        29 -10.2851    188.0042      2.4236   3.7207728043e+00   3.7155641343e+01    0.5842543    0.2242613 -58.37  0.002251797    2.926    0.658
        30 -10.4270    191.2415     13.2910   6.5153310848e+00   3.5307934790e+01    0.3172694    0.1573707 -44.43   0.00130906    1.848    0.459
        31 -10.9776    192.8408      7.6800   4.7886942698e+00   3.5475483798e+01    0.4928755    0.2821621  -0.17  0.002206981    2.665    0.625
        32 -11.3600    206.2198      2.6650   2.3746117336e+00   3.2748358417e+01    0.8084583    0.2959514  71.69  0.003476573    2.563    0.610
        33 -11.7942    212.1774      9.4041   3.6816322761e+00   3.0703920994e+01    0.5974751    0.3634676  -8.86  0.002441819    2.190    0.543
        34 -10.7219    218.5513      3.6761   1.7845055514e+00   2.9811628182e+01    0.2911633    0.2467272  85.78 0.0006910654    1.192    0.161
        35 -11.3269    223.7711      2.5753   1.1810604051e+00   2.8749807015e+01    0.5076505    0.2823952 -80.54 0.0004567349    1.787    0.440
        36  -9.3408    121.0879     11.7647   1.5525359045e+01   5.3504374127e+01    0.3534992    0.1658346  73.33  0.001016181    2.296    0.565
        37 -13.0770    105.3655     20.4344   2.2679104981e+01   5.6525305631e+01    0.3490407    0.3313582  83.31 0.0004874357    1.148    0.129
        38 -10.2944    168.6971      9.6996   7.7751149663e+00   4.1337887823e+01    0.5270678    0.1776528  58.04  0.002000757    2.674    0.626
        39  -9.3841    163.4920      9.5368   8.3210306992e+00   4.2693182534e+01    0.2460837    0.1843294 -25.33 0.0007815879    1.416    0.294
        40 -10.0738    163.9223      5.7729   7.0581692937e+00   4.2932654440e+01    0.3976843    0.2280681  29.04  0.001759851    2.410    0.585
        41  -9.6975    145.2604      9.7482   1.0754267063e+01   4.7415558885e+01    0.2433444    0.1878399   8.87 0.0007411231    1.543    0.352
        42 -10.0871      1.1494      7.4089   6.7041360561e+01   7.6282184966e+01    0.3902292    0.0671379 -54.59  0.001439188    3.795    0.736
        43 -10.8920      2.5986      1.9915   6.2886447341e+01   7.7192240706e+01    0.3344606    0.1892464  -7.11  0.001934964    1.841    0.457
        44 -11.6945    242.9362      4.1742   4.3428365122e-01   2.4490886551e+01    0.7932808    0.3278645 -66.15  0.003712552    2.521    0.603
        45 -10.3264    245.9064      1.3910   3.5965580457e+02   2.4154961232e+01    0.2513077    0.1359476 -79.08 0.0003650197    1.836    0.455
        46 -10.4119    232.2164      7.2173   1.7637462403e+00   2.6447732431e+01     0.267198    0.1756746 -49.65 0.0009004526    1.260    0.206
        47 -11.6676    233.5308      2.5599   5.9426638051e-01   2.6625653610e+01    0.4763922    0.2294525 -61.74  0.002438925    1.928    0.481
        48 -10.3930    185.0547      7.4827   5.4331722362e+00   3.7414115792e+01    0.2586862     0.200488  68.46  0.001468856    1.270    0.213
        49  -9.5971    183.6642      4.6775   4.7459731567e+00   3.8024220199e+01    0.2277703    0.1638559 -24.44 0.0009344211    1.477    0.323
        50 -10.0715     77.5784      6.8914   2.4019438622e+01   6.4558855655e+01    0.4868047    0.2406673 -43.96  0.001639255    2.621    0.618
        51 -10.4173    153.9650      6.3461   8.4148378012e+00   4.5459329900e+01     0.352793    0.1907222  38.11  0.001543595    2.233    0.552
        52 -10.5483    122.4073      5.2672   1.2642306199e+01   5.3766465913e+01    0.2552208    0.2289539  33.07 0.0005352979    1.134    0.118
        53 -10.2491     73.1382      3.0650   2.3370467582e+01   6.5927659134e+01    0.6355497    0.2174817  38.27  0.002289469    3.201    0.688
        54 -10.1468     62.3845      6.6071   2.9261835134e+01   6.7840576250e+01    0.2822449    0.1994092  25.25  0.001569735    1.341    0.254
        55 -10.2759    177.0326      5.8575   5.7184649555e+00   3.9578500373e+01    0.3081507    0.1938071 -78.90 0.0007258555    1.618    0.382
        56 -10.1357    141.6333      3.6321   9.0627803467e+00   4.8911018904e+01    0.4135106    0.2224782  73.28  0.001451677    1.729    0.422
        57 -11.5171    133.7708      2.7418   9.8411620667e+00   5.1034789695e+01    0.4517155    0.3143103  66.79  0.002378713    1.299    0.230
        58  -9.3058    128.9384      1.2053   9.9700094420e+00   5.2415800240e+01    0.2115248    0.1318712  72.05 0.0007833811    1.481    0.325
        59 -10.2641     41.5990      3.7476   3.7022837363e+01   7.2075135669e+01    0.3379733    0.2112795  -6.60  0.001205528    1.709    0.415
        60 -10.7645    113.1014      2.7452   1.3268891284e+01   5.6363676728e+01    0.4072386    0.2894374 -84.12   0.00199545    1.635    0.388
        61 -10.7615    105.1103      1.9609   1.4493051915e+01   5.8443952474e+01    0.4003107    0.2510873  88.40  0.001892348    1.955    0.489
        62 -10.0417    152.9450      1.5010   6.8943982677e+00   4.6145080459e+01    0.2549724    0.1494357  75.64 0.0006739835    1.578    0.366
        63  -8.9332     33.7823      1.4338   3.9842854797e+01   7.3649709902e+01    0.1640647    0.1039558  24.90 0.0007775953    1.510    0.338
        64  -9.2697     81.4823      1.0000   1.9716708326e+01   6.4230052989e+01    0.2746757   0.07054086  61.84 0.0008255474    3.634    0.725
        65  -9.4930     47.4720    133.9989   7.6876816545e+01   4.2454205278e+01    0.3767426    0.1234446 -67.64  0.001372288    2.778    0.640
        66  -8.6266     89.3254    250.3453   7.9130151513e+01   1.2713026511e+01    0.1038283   0.08311444   2.02 0.0007050364    1.743    0.426
        67 -10.4254     50.8711    249.8630   8.6390726670e+01   1.7364775036e+01    0.1561798    0.1313253  45.38  0.001232631    1.217    0.179
        68  -9.7320     38.8417    133.5229   7.9439426370e+01   4.3506370787e+01    0.3118292    0.1441709  16.77  0.001274122    2.947    0.661
        69  -9.4411     74.1581    132.0165   6.8430614534e+01   3.9480962970e+01    0.2532604    0.1549215 -36.53  0.001090646    2.091    0.522
        70  -8.8816    103.9837    131.0484   5.9453515326e+01   3.4837714613e+01    0.1745765    0.1711877  80.91 0.0004499422    1.002    0.002
        71  -9.2544     62.6398    131.1808   7.1798396757e+01   4.1298376657e+01    0.2153116    0.1159699 -54.44 0.0009487371    1.782    0.439
        72 -10.8873     10.3249    126.6037   8.7386078540e+01   4.7663353940e+01    0.5652052    0.2608458 -62.49   0.00210628    1.888    0.470
        73  -8.9845     26.5479    127.4900   8.2488957047e+01   4.6190975358e+01    0.1335307    0.1136569 -89.49 9.322138e-05    1.021    0.021
        74  -9.8298     22.8981    127.0234   8.3569022465e+01   4.6617123701e+01    0.1920968    0.1633463 -84.07 0.0003718072    1.019    0.019
        75  -9.7913     33.0108    125.9484   8.0279804849e+01   4.5993603176e+01    0.2310377    0.1409173  68.69  0.001132603    1.768    0.434
        76  -9.7471      2.1404    125.9207   8.9797101863e+01   4.8347167423e+01     0.238558    0.1645051  75.46 0.0009110593    1.286    0.222
        77  -8.9532     81.5373    125.5208   6.4937680436e+01   3.9969276728e+01     0.146884    0.1396699 -84.99 9.528315e-05    1.011    0.011
        78 -12.0423    104.2561    122.2067   5.7410090886e+01   3.6881383111e+01    0.3698374    0.3268013  69.49 0.0004880293    1.212    0.175
        79  -9.7501     19.0717    123.5307   8.4388922292e+01   4.7799569135e+01    0.2107548    0.1517824 -89.51 0.0003336497    1.224    0.183
        80 -10.0141     49.8454    122.8906   7.4463154898e+01   4.4992337840e+01    0.3299836    0.2370104   0.56  0.001567791    1.896    0.473
        81  -9.6973     56.1809    122.1541   7.2297770454e+01   4.4412077221e+01     0.198287    0.1572784  69.83 0.0005081304    1.315    0.240
        82  -9.7823     44.5433    120.0254   7.5729497164e+01   4.6322540440e+01     0.271174    0.1834718 -87.30 0.0007849298    1.508    0.337
        83  -9.8555     43.5217    116.5024   7.5506976138e+01   4.7332953092e+01    0.3523847    0.2498446  31.87  0.001869881    1.524    0.344
        84 -10.3473     36.8250    117.1646   7.7838752859e+01   4.7858058394e+01    0.4361328    0.2642187 -18.52   0.00139451    2.542    0.607
        85 -10.9862     16.1557    109.1178   8.3731776444e+01   5.1651980641e+01    0.6342094    0.2764502 -55.49  0.002912125    2.034    0.508
        86 -11.6335     42.3077     92.5482   7.1539388283e+01   5.3569349576e+01     1.024383    0.5267666  24.40  0.002826577    2.205    0.546
        87 -11.8489     42.7494     85.0399   6.9717968579e+01   5.5406700478e+01    0.9034321    0.4812751  12.13  0.003471741    2.561    0.609
        88 -12.2570     17.5596    100.6206   8.2165233804e+01   5.3707734469e+01    0.3326112    0.2858514 -65.60 0.0005158287    1.073    0.068
        89 -11.8272     21.1637     93.1279   7.9736140007e+01   5.5348154111e+01    0.9049487     0.482783  72.33  0.001727714    2.445    0.591
        90 -11.6242     25.2335    107.4730   8.0385891051e+01   5.1381448147e+01    0.7027904    0.3617369 -50.60   0.00334412    1.859    0.462
        91 -10.8991     34.8134    103.2800   7.6342497703e+01   5.1602219862e+01    0.7335649    0.3501047   6.11  0.002791552    3.415    0.707
        92 -10.5978      7.8395    114.8810   8.7107528201e+01   5.0744407082e+01    0.3818112     0.250855 -53.24 0.0005838553    1.502    0.334
        93 -12.2307      2.6834    111.7472   8.8499566827e+01   5.1822480917e+01    0.4892329    0.2865806 -75.60  0.001995827    1.390    0.281
        94 -11.0809      4.7757    105.2232   8.7196649318e+01   5.3338223725e+01      0.40188     0.315816  26.81   0.00254583    1.497    0.332
        95 -11.6467     21.4997    114.5502   8.2584591596e+01   4.9879850380e+01    0.6867477    0.3272595   6.50  0.001731091    3.104    0.678
        96 -11.1478     28.3013    112.9631   8.0096142652e+01   4.9722734599e+01    0.4027959    0.2994185   6.15  0.001555575    1.689    0.408
        97  -9.4387     57.8102    114.6803   7.0411350081e+01   4.6103624873e+01    0.3573621    0.1879679 -83.46    0.0013605    2.640    0.621
        98  -9.5005     79.3812    114.7365   6.3340344856e+01   4.2982159104e+01     0.276523      0.17651 -48.95  0.001256108    1.533    0.348
        99  -8.9813     67.4923    114.9893   6.7261159782e+01   4.4711340224e+01    0.2084422    0.1244156  89.42 0.0008098779    2.483    0.597
       100  -9.7346    104.5423    112.8839   5.5097050181e+01   3.9030286150e+01    0.2563661    0.2167564  42.63 0.0004333486    1.199    0.166
       101  -8.9087     86.4605    113.5497   6.0815356655e+01   4.2115704298e+01    0.1499057    0.1426169 -86.19 0.0002402756    1.050    0.048
       102  -9.9822     48.8066    112.0893   7.2973776897e+01   4.7867088193e+01    0.3231688    0.2002673  35.31  0.001574828    1.699    0.411
       103  -9.2189    134.8508    109.8378   4.5843800398e+01   3.3541865241e+01     0.205034    0.1840832  89.84 0.0003054185    1.279    0.218
       104  -9.2843    120.1572    109.7891   4.9794123512e+01   3.6649555392e+01     0.218602    0.1842725 -17.28  0.000624484    1.345    0.257
       105  -9.9998    103.1787    108.9142   5.4507363018e+01   4.0223465098e+01    0.5537705     0.313065  16.15  0.001807471    3.480    0.713
       106 -11.4366     80.0192    108.2524   6.1658322163e+01   4.4483616304e+01     0.485131    0.3469326  30.86 0.0008515904    1.503    0.335
       107 -10.9113     87.8977    104.3769   5.8140963484e+01   4.4102403509e+01    0.5930352    0.2778473  47.46  0.001144901    2.375    0.579
       108  -9.7022    181.7169    105.1835   3.3925297321e+01   2.4101363367e+01     0.337086    0.2438323  17.98  0.001551081    1.743    0.426
       109  -9.1872    143.1639    105.7499   4.2635133043e+01   3.2590807429e+01    0.2586495    0.1746067 -85.13 0.0009448003    2.760    0.638
       110  -9.3119     45.7312    105.2959   7.2800901334e+01   4.9952464232e+01    0.3062692    0.1273883 -54.25  0.001034776    2.118    0.528
       111 -10.0289     66.9448     81.7381   5.9404427484e+01   5.3014915907e+01    0.4179745    0.3022181   5.04  0.001975561    1.789    0.441
       112 -11.8605     68.5760     96.1039   6.2636196869e+01   4.9275170458e+01    0.6686788    0.5017021  -7.20 0.0007873025    1.750    0.428
       113 -11.0341     89.9190     88.3351   5.3111671626e+01   4.7541649102e+01     1.228418    0.5732746 -34.24   0.00412298    2.959    0.662
       114 -10.9182     76.0615     79.9772   5.5484285525e+01   5.1952096701e+01     1.155815    0.7977762 -85.36  0.004868923    2.305    0.566
       115 -10.6557     77.8462     96.8275   5.9571646364e+01   4.7639053082e+01    0.4630995      0.30452  48.51   0.00157207    1.665    0.399
       116 -11.0528     79.7373     92.8491   5.7863006616e+01   4.8285568151e+01    0.7751403    0.4356356  45.98  0.003165636    1.932    0.483
       117 -10.7021     52.0570     99.2391   6.9318647928e+01   5.0748556797e+01     0.663106    0.2286558 -49.10  0.001280679    2.737    0.635
       118  -8.7625    120.4716    101.4543   4.7459149976e+01   3.8442802009e+01     0.155481    0.1510726 -12.52 0.0001026661    1.039    0.037
       119 -12.1433      9.6085     96.9924   8.4586439140e+01   5.5134610113e+01    0.4755169    0.4383605 -29.91  0.000468258    1.260    0.206
       120  -8.7398    158.6859     99.7425   3.7316208650e+01   3.0303209314e+01    0.1518672    0.1197555  13.88 0.0001425677    1.532    0.347
       121  -8.9738     33.5420     98.4858   7.5980461875e+01   5.2945872184e+01    0.1376157    0.1209761 -76.15 7.246452e-05    1.042    0.040
       122 -10.7664     27.0959     86.0881   7.6202742331e+01   5.6660133308e+01    0.9800165    0.5842742  49.69  0.004852776    1.969    0.492
       123  -8.9619    140.7252     95.6711   4.0432976432e+01   3.5213225284e+01    0.1569079    0.1237659  -1.51 0.0005164612    1.591    0.371
       124 -10.4020    120.0528     85.1218   4.2798023392e+01   4.2058140223e+01    0.4933525    0.3911854 -49.43  0.002366042    1.276    0.216
       125 -10.8078    125.8267     94.6993   4.4054172083e+01   3.8754543885e+01    0.5141554    0.3425372 -59.16 0.0002285978    1.772    0.436
       126 -10.6240    121.7640     93.9714   4.4968186706e+01   3.9799620041e+01    0.8112048    0.3085528 -52.55  0.002455389    3.301    0.697
       127  -9.5947    115.9556     93.5039   4.6488429148e+01   4.1151831472e+01     0.356231    0.1515831  38.38    0.0012048    2.607    0.616
       128 -11.5683     98.5736     91.0427   5.1067022344e+01   4.5264817906e+01    0.4162159    0.2684102  49.18  0.001816203    1.660    0.398
       129 -11.5497      7.1943     88.6495   8.4446811716e+01   5.7364247613e+01    0.5198153    0.4192417   7.60  0.002329168    1.509    0.337
       130  -9.7889     66.4214     88.8206   6.1549698245e+01   5.1385857803e+01     0.325254    0.2372807  -6.20  0.001089596    1.825    0.452
       131 -10.0789    112.3443     88.3972   4.6033537878e+01   4.3035787848e+01    0.4179861    0.2095168  49.43  0.001576552    2.121    0.529
       132 -10.2207    104.0578     87.1436   4.8176772361e+01   4.5043138997e+01    0.2865949    0.2203148 -43.94  0.001363297    1.271    0.213
       133 -10.8132    143.1915     84.5883   3.6562800979e+01   3.6850100344e+01    0.2754066    0.2701875  -6.36 0.0003301288    1.020    0.020
       134  -9.9830    134.0005     85.0073   3.8989330114e+01   3.8914525448e+01    0.3406408      0.22608  60.21  0.001120797    1.716    0.417
       135 -10.8487    112.6368     83.1325   4.4330025925e+01   4.4105276447e+01    0.5658548    0.3502109  61.79  0.002127076    2.107    0.525
       136  -9.0271     46.8295     74.7263   6.5465156021e+01   5.7470755985e+01    0.6683737    0.2377057 -62.78  0.002328571    2.958    0.662
       137 -11.2894     53.3117     75.6643   6.3043829035e+01   5.6423284573e+01    0.6891511    0.3766958 -62.32  0.003020797    1.851    0.460
       138 -11.0855     58.0476     77.5867   6.1677720284e+01   5.5316561392e+01    0.4508774    0.2870575 -73.80 0.0004432764    1.993    0.498
       139 -10.3764    102.8939     79.5954   4.6194439462e+01   4.6934193654e+01    0.3717101    0.2290975 -38.51 0.0006299357    1.633    0.388
       140  -9.7207    103.4496     74.9785   4.4517831276e+01   4.7799433508e+01    0.3088885    0.2298942  52.62  0.001446148    1.436    0.304
       141  -9.4333      1.4664     80.1807   8.5618998479e+01   5.9747038225e+01    0.1919277    0.1030221 -73.22 0.0009994686    1.502    0.334
       142  -8.9816     88.7415     73.0255   4.8736616262e+01   5.1206853854e+01    0.2112642    0.1908856 -44.83 0.0004931522    1.085    0.079
       143 -10.0740     93.1527     72.8938   4.7183088851e+01   5.0365866802e+01    0.3355414    0.2736439 -73.58 0.0007379541    1.518    0.341
       144 -10.5965     93.2263     76.8408   4.8457572356e+01   4.9496790939e+01      0.66956    0.2871972  39.21  0.002415546    2.461    0.594
       145 -10.6509     87.7334     77.4132   5.0517498724e+01   5.0434755892e+01    0.6497144    0.3422027  48.16  0.002597327    2.099    0.524
       146 -11.3727     14.1377     74.6878   7.9478494377e+01   6.0451125768e+01    0.5069706    0.3137665 -80.83  0.002166864    1.557    0.358
       147  -9.2383     14.0274     67.3808   7.8139803177e+01   6.2255197168e+01    0.4472544    0.2274855  -1.51  0.002099049    2.585    0.613
       148  -9.2606    134.8533     77.4985   3.6437276119e+01   4.0191294831e+01    0.2343989    0.1547915  51.39  0.001014727    1.538    0.350
       149  -9.2186    181.8353     76.2152   2.6012323444e+01   2.9118500752e+01    0.2012216    0.1726887  20.75 0.0004093167    1.323    0.244
       150  -9.1853    158.8176     76.2213   3.0485495647e+01   3.4659742124e+01    0.2049372    0.1785855  14.49 0.0004905892    1.288    0.224
       151  -9.2586    112.6473     75.4171   4.1852710659e+01   4.5712760164e+01    0.2867106    0.1518897  51.21   0.00111062    1.996    0.499
       152  -9.6176     66.4788     74.8280   5.7535054368e+01   5.4715593187e+01    0.2874866     0.184743  52.18  0.001180215    1.909    0.476
       153 -10.0909     24.9195     74.4814   7.4774712682e+01   5.9735558672e+01    0.3092407    0.1810142 -59.82 0.0005668162    1.426    0.299
       154 -10.8389      2.0464     71.5774   8.4197931680e+01   6.1843445631e+01    0.4126954    0.1819276 -70.07  0.001678034    1.785    0.440
       155 -12.6011      6.4960     61.5869   8.0507788253e+01   6.4076813700e+01    0.7913259      0.46387 -35.47  0.003059162    1.687    0.407
       156 -10.1612     81.0830     73.4651   5.1600396794e+01   5.2550017153e+01    0.3526273    0.1970771 -38.77 0.0008754021    1.822    0.451
       157 -10.5437     77.9782     67.4184   5.0718854418e+01   5.4443922220e+01    0.6116065    0.3977808  62.68  0.002578431    2.280    0.561
       158 -11.7354     40.6388     69.8086   6.6769832061e+01   5.9373642749e+01    0.4889086    0.3212323 -63.07  0.001463422    1.443    0.307
       159 -11.3534     35.9388     71.7883   6.9346139624e+01   5.9394502718e+01    0.6111611    0.3701743  12.40  0.002976987    2.007    0.502
       160 -10.0841    153.4351     72.7712   3.0583871482e+01   3.6582608633e+01    0.4499624    0.1936515  46.90  0.001551336    2.397    0.583
       161  -8.8170     19.4753     71.9892   7.6631797766e+01   6.0763240544e+01    0.1929226   0.07475786 -47.41 0.0007992171    2.257    0.557
       162 -11.0986    122.7760     68.8930   3.6796450222e+01   4.4688548020e+01    0.5304356     0.310137  43.16  0.001582758    1.754    0.430
       163  -9.8161    218.4805     66.6470   1.7846553238e+01   2.2196318675e+01    0.4030793    0.1397544  64.88  0.001438728    3.528    0.717
       164  -9.4756     91.7875     57.5698   4.2203886788e+01   5.3781739959e+01    0.2714663    0.2621196  75.20  0.001039697    1.163    0.140
       165 -10.5116     88.2178     55.8333   4.2780815179e+01   5.4856505345e+01    0.7519701    0.2593594 -37.24  0.002447187    3.067    0.674
       166 -10.2893     96.5094     65.1663   4.3395336918e+01   5.1287362228e+01    0.2691451    0.2506394  -4.44  0.001442391    1.077    0.071
       167 -10.8540     92.4240     62.6403   4.3859517131e+01   5.2646556877e+01    0.4807883    0.3102753  52.70  0.002054203    1.720    0.419
       168 -10.6553    201.2409     64.7491   1.9700475147e+01   2.6354144445e+01    0.3106796    0.2382635  83.37 0.0007980217    1.494    0.331
       169  -8.9061    192.4680     65.5105   2.1224439532e+01   2.8294917536e+01    0.1459347    0.1348967 -48.30 0.0008096572    1.019    0.018
       170  -9.6401    170.9948     64.6744   2.4598659641e+01   3.3626352466e+01    0.3650563    0.2404354  85.19  0.001549412    2.058    0.514
       171  -9.0639     51.9799     65.7881   6.0656424222e+01   5.8928817556e+01    0.1775056    0.1152593  28.43 0.0005362458    1.671    0.401
       172 -10.3114    158.3509     63.1672   2.6554387379e+01   3.7008797828e+01    0.5281656    0.2439368  42.68  0.001574566    2.514    0.602
       173  -9.3578    155.4436     60.5700   2.6316502886e+01   3.8160638109e+01    0.2391206    0.2012572 -26.65 8.052447e-05    1.213    0.176
       174  -9.9128    106.2399     63.2428   3.9610263343e+01   4.9560836895e+01    0.4625574    0.2184431  36.10    0.0016392    2.575    0.612
       175  -9.9719    106.3186     58.3838   3.7823869891e+01   5.0464352370e+01    0.4552456    0.2945711 -79.84  0.001602297    3.269    0.694
       176 -10.2901     63.5606     61.0573   5.4178486359e+01   5.8289087888e+01    0.4280855    0.3260891  -5.94  0.002164824    1.543    0.352
       177  -8.8899    113.3282    249.3298   7.4413312562e+01   9.7678350839e+00    0.1095731    0.0818136   6.66 0.0007051274    1.710    0.415
       178 -10.1202     51.9158     48.0695   5.4453970058e+01   6.2846203740e+01    0.3132968    0.2335904  -4.80 0.0008312098    1.512    0.338
       179 -10.4852     51.0798     61.4950   5.9663328950e+01   6.0034069723e+01    0.3675511    0.2963175  41.40  0.001455677    1.398    0.285
       180 -11.1578     40.2913     56.8834   6.3065161762e+01   6.2441076455e+01    0.3232186    0.2339627  27.59 0.0007406049    1.509    0.337
       181 -11.2697     43.1842     61.7489   6.3276779510e+01   6.0982441297e+01     0.483242    0.2357766 -51.13  0.001981662    1.781    0.438
       182 -10.6230     46.4893     59.4734   6.1048009336e+01   6.1096513644e+01    0.3077613    0.2540272 -34.88 0.0008844972    1.111    0.100
       183  -9.7296    234.4928     62.4908   1.4889050473e+01   1.9375126551e+01    0.1339831    0.1144251 -42.04 -3.893084e-05    1.006    0.006
       184  -9.7898    114.1348     61.3520   3.6593549272e+01   4.8122661972e+01    0.3474374    0.2404433 -51.16  0.001504061    1.581    0.368
       185  -9.5258     84.0029     61.2275   4.6302470285e+01   5.4621363108e+01    0.2679269    0.1902887 -56.02 0.0008252629    1.587    0.370
       186 -10.5351    124.7456     56.5742   3.1996072683e+01   4.6455464572e+01    0.3801273    0.3331098  -8.54  0.001059929    1.222    0.182
       187 -11.7769    118.1252     56.0715   3.3573436798e+01   4.8136948541e+01     1.415423    0.8245148 -70.66  0.004481389    3.913    0.744
       188 -11.7552    111.3487     41.3048   2.9816699572e+01   5.2206026192e+01     1.169749     0.603575 -51.83  0.004410132    2.588    0.614
       189 -11.4400    117.7940     44.0631   2.9173237864e+01   5.0211942605e+01    0.6694431    0.2673686 -42.16   0.00237109    2.628    0.620
       190  -9.6350    213.9158    248.4888   5.5714315679e+01  -3.4293193044e+00    0.1677921   0.08397839  29.65  0.001026018    1.571    0.364
       191 -11.0938     31.8084     52.9358   6.5895690803e+01   6.4260882584e+01     1.492532    0.6541963   3.81  0.005001567    4.626    0.784
       192  -8.7838     29.5137     60.4878   6.9261121800e+01   6.2728016570e+01    0.3317028    0.2349121 -63.96  0.001255246    1.324    0.245
       193 -10.2832     25.5208     59.5139   7.0903649769e+01   6.3312870923e+01    0.2770637    0.2404193  25.61  0.001233152    1.320    0.242
       194 -10.4909     25.4039     55.8186   6.9939608920e+01   6.4192286001e+01    0.3769241    0.1891818 -36.26   0.00117329    2.023    0.506
       195 -10.2657     82.7196     46.9797   4.1241029545e+01   5.7647497960e+01    0.4925875    0.2749318 -23.92  0.001526564    2.239    0.553
       196 -12.1563     76.2505     53.4087   4.6247121427e+01   5.7682357234e+01    0.6623788    0.4123374 -32.94 0.0008870463    1.634    0.388
       197 -12.0741     72.8827     47.8159   4.5331103401e+01   5.9404371932e+01     0.523061    0.2941353 -52.34  0.001704013    2.087    0.521
       198  -9.1299    135.8086     59.1438   3.0153609747e+01   4.3300193607e+01    0.2208409     0.183993  13.73  0.001077684    1.383    0.277
       199  -9.8379     80.0683     58.3305   4.6677724145e+01   5.5970706642e+01    0.3447562    0.1987226 -29.36  0.001338879    2.001    0.500
       200 -10.6248    157.1163     54.6839   2.4093646005e+01   3.8675632351e+01    0.5164143    0.3925308 -75.97  0.002379908    1.568    0.362
       201  -9.7224    154.4563     51.0417   2.3422235975e+01   3.9909342682e+01    0.3414139    0.2266442  -7.92  0.001203146    2.016    0.504
       202  -8.7382    237.9743     55.9830   1.2945900347e+01   1.9528329091e+01    0.1566534    0.1282198 -40.35 0.0009525419    1.040    0.039
       203  -8.7641    188.2555     55.3846   1.8997783432e+01   3.0813587024e+01    0.1445713    0.1117042  10.08 0.0006965254    1.672    0.402
       204  -9.3721     66.6682     54.3216   5.0423878693e+01   5.9211888449e+01    0.3404791    0.1774826 -57.86  0.001332238    2.504    0.601
       205  -8.9995    247.3075     54.3438   1.1629724526e+01   1.7861463318e+01    0.1223681   0.09596047   7.85 0.0007043352    1.694    0.410
       206  -9.5786    201.1195     53.3297   1.6599882879e+01   2.8029014518e+01    0.2297964    0.1871713 -18.29 0.0005403701    1.316    0.240
       207 -10.1310    139.3464     54.1433   2.7620929824e+01   4.3248881317e+01     0.385617    0.2232421  65.63  0.001057129    1.933    0.483
       208 -10.8697    132.5553     50.0015   2.7727928875e+01   4.5616749712e+01    0.4602331    0.2895627  66.75  0.001639342    1.768    0.434
       209 -10.6998    138.0653     44.8638   2.4660425884e+01   4.5016447245e+01    0.8522487    0.2649025  46.36   0.00258241    3.496    0.714
       210  -9.6058     55.5510     50.5473   5.3759982306e+01   6.1787248588e+01    0.1998908    0.1279147 -43.74 9.945772e-05    1.440    0.306
       211 -10.2033    186.8101     72.4459   2.4085678746e+01   2.8551847782e+01    0.4162069    0.2853545 -28.39  0.001980709    1.447    0.309
       212  -9.5021     57.9922     61.9183   5.6813326238e+01   5.8957045725e+01    0.3886568    0.2704572 -83.05  0.001339323    2.330    0.571
       213 -10.6172    145.4501     49.6272   2.4754047279e+01   4.2416984732e+01    0.5526006    0.3067244 -13.72  0.001362605    2.617    0.618
       214  -9.7571    240.3492     50.6217   1.1428116542e+01   1.9737273591e+01     0.212446    0.1912574 -21.31 0.0007408739    1.201    0.167
       215 -10.0327     12.1446     48.4379   7.4713686783e+01   6.6886626900e+01     0.601553    0.1234392 -46.32  0.002091796    3.576    0.720
       216  -9.2694     17.8356     41.2215   6.9480370289e+01   6.8137645479e+01    0.1908901    0.1234671 -35.65  0.001065568    1.385    0.278
       217 -10.0936     22.7517     37.1650   6.5283996197e+01   6.8616365121e+01    0.4521588    0.1992554  37.15  0.002042637    2.733    0.634
       218 -10.9661     20.4895     46.4203   6.9679704909e+01   6.6762969559e+01    0.5069124    0.2514418 -49.86   0.00209754    1.634    0.388
       219 -10.2437     26.2685     48.3726   6.7247739722e+01   6.5827723537e+01    0.3340186    0.2257146 -26.73  0.001024634    1.492    0.330
       220 -10.5684     26.7520     43.3361   6.5298378203e+01   6.6905431755e+01    0.5002915    0.3052781  44.98  0.001838064    2.156    0.536
       221  -8.9622    189.0492     49.3054   1.7132244888e+01   3.1485579668e+01    0.1901359    0.1800456 -84.58 0.0004446146    1.060    0.056
       222  -9.3287    175.2292     49.4038   1.9247138858e+01   3.4892267438e+01    0.2071749    0.1405433  79.97  0.000953305    1.668    0.400
       223 -11.0927     61.0441     47.7380   5.0223983538e+01   6.1496407719e+01    0.8664145    0.4152995 -37.08  0.003600353    2.094    0.522
       224  -9.4984      1.9841     48.7928   8.0183803825e+01   6.7320536340e+01    0.2363004    0.1607871 -74.31 0.0008988495    1.343    0.256
       225 -10.3626    200.6479     45.3567   1.4467221445e+01   2.9228304987e+01    0.3810498     0.235255  85.92   0.00144974    1.929    0.482
       226  -9.4184    179.7963     45.1570   1.7259754442e+01   3.4345126995e+01    0.2112054    0.1809403 -57.56 0.0004075919    1.134    0.118
       227  -9.5418    162.1882     44.3636   1.9833611247e+01   3.8912292504e+01    0.2144482    0.1392905  77.70 0.0009512645    1.734    0.423
       228 -10.4791    155.9585     42.6904   2.0383844807e+01   4.0744666072e+01    0.3654986    0.3284528  -0.57  0.001173097    1.233    0.189
       229 -12.2887    152.8705     35.9107   1.8658471235e+01   4.2464126170e+01    0.3363022    0.2968897  74.65 0.0003713834    1.114    0.103
       230  -9.5587     91.3708     41.6249   3.5989565912e+01   5.6761052493e+01    0.2778674     0.225026  84.85 0.0009001755    1.697    0.411
       231  -9.7494     56.7916     41.9193   4.9700493542e+01   6.3339564782e+01    0.2754486    0.1925017  39.02  0.001188759    1.529    0.346
       232 -11.3777      4.9977     35.8195   7.5244734357e+01   7.0154439381e+01     0.451442    0.3360692 -34.26   0.00289807    1.194    0.163
       233 -10.3896     10.3788     31.8414   7.0708585137e+01   7.0720787177e+01    0.5733933     0.200957 -39.29   0.00242011    2.553    0.608
       234  -9.3588      7.2163     30.5954   7.2249958986e+01   7.1183937783e+01     0.306215    0.1812904 -10.56  0.001388757    1.843    0.457
       235 -10.0938    231.4104     39.2583   9.5425574698e+00   2.3038665597e+01    0.3404189    0.1726593 -34.42  0.001411931    1.678    0.404
       236 -10.6181     80.6157     39.5513   3.8868271308e+01   5.9393090529e+01    0.4664047    0.3460467  68.16  0.001575566    1.851    0.460
       237 -11.1879     78.3652     34.4212   3.7416848739e+01   6.0711679280e+01    0.6163958    0.3800143  27.46   0.00280233    1.861    0.463
       238  -9.6741    174.5046    246.4850   6.2455997067e+01   1.9047135353e+00    0.1163873   0.08775327  22.16 -1.126729e-05    1.012    0.012
       239  -9.6940     67.3672     32.2770   4.0741958686e+01   6.3236325360e+01    0.5009097    0.3420512  54.45  0.002492952    1.771    0.436
       240  -9.4452     43.0178     28.0360   5.0089235154e+01   6.8058690616e+01    0.2135498    0.1666066  10.87  0.001241124    1.273    0.214
       241  -9.9129     60.0000     24.3285   3.9993464728e+01   6.5896663762e+01     0.397387    0.1743904 -38.62  0.001182055    2.249    0.555
       242 -11.5284     57.4077     30.8725   4.4409805209e+01   6.5273820006e+01    0.4984455    0.3307198 -41.32    0.0025816    1.504    0.335
       243 -11.3752     48.6539     30.5685   4.8437462890e+01   6.6756164054e+01    0.6858062    0.3081045  32.21  0.002949547    2.392    0.582
       244  -9.0689    206.2203     37.4263   1.1642861661e+01   2.8934794370e+01    0.1764706    0.1259061 -87.11 0.0003934126    1.502    0.334
       245 -10.4414    176.5633     35.7106   1.4867278738e+01   3.6410048715e+01    0.3646747    0.2235245 -45.91 0.0008884959    1.588    0.370
       246 -10.4872    174.9209     31.1231   1.3686639344e+01   3.7399819239e+01    0.5375817    0.2381539  54.26  0.002178451    2.237    0.553
       247  -9.5456    170.2077     30.3944   1.4115342176e+01   3.8691449963e+01    0.2714772    0.2092932 -64.30 0.0006271966    1.327    0.246
       248  -9.1504     12.9766     36.0784   7.0580124563e+01   6.9625383090e+01    0.2588498    0.1348197 -50.83   0.00135833    1.525    0.344
       249  -8.8792     94.3935     36.1644   3.2682094045e+01   5.6969013541e+01    0.2003235    0.1309175 -43.91 0.0008242226    1.657    0.397
       250 -10.1905    168.2142     23.7966   1.2301780084e+01   3.9981342357e+01    0.3360074    0.2190842  58.67  0.001160362    1.496    0.332
       251 -11.3407    160.0317     29.9113   1.5467496060e+01   4.1371944731e+01     0.481067    0.3008478 -35.58 0.0005094308    1.573    0.364
       252 -11.8500    164.3153     27.6750   1.4092649707e+01   4.0534451431e+01    0.3925584     0.320467 -61.10 0.0004354577    1.228    0.186
       253 -11.9226    126.0815    241.2951   7.1097459248e+01   9.2740134351e+00    0.4062864    0.2574694  47.94  0.001983658    1.456    0.313
       254 -11.2314    106.0156     33.0338   2.7910166763e+01   5.4720561832e+01    0.4282202    0.2821048  25.41  0.001260116    1.814    0.449
       255 -10.7947    131.4686    240.7864   6.9981138057e+01   8.6086321442e+00    0.2313818    0.1344146  34.59 0.0009862286    1.357    0.263
       256 -10.0565    240.4249     32.2653   7.0783955785e+00   2.1974672527e+01    0.2964298    0.1861112  53.86  0.001398928    1.911    0.477
       257  -9.2786    139.9151     32.4366   1.9826192588e+01   4.6273728838e+01    0.3739502    0.2106089  54.64 0.0009971928    1.679    0.405
       258 -11.2816    188.9716     28.1935   1.1032513893e+01   3.4225233425e+01    0.5481931    0.4262488  10.23  0.002908523    1.666    0.400
       259 -11.0496     68.0304    240.6075   8.2515477510e+01   1.6949233036e+01    0.3001598    0.1970204  13.07  0.001770084    2.245    0.555
       260  -9.5761    187.4003     22.8279   9.6544932690e+00   3.5233160402e+01    0.2167786    0.1869339  30.06 0.0005204591    1.384    0.278
       261 -11.2154    147.1161    238.0354   6.6589843523e+01   6.8363438106e+00    0.4067334    0.2800673  40.20  0.002625916    1.256    0.204
       262 -10.1818     76.2276    239.6927   8.0832495980e+01   1.6105990752e+01    0.1862244    0.1604363  72.72  0.001397655    1.210    0.173
       263 -10.5382     32.5888     31.0649   5.7192076573e+01   6.8854305622e+01    0.2212946    0.1936728 -14.07  0.000337725    1.068    0.064
       264  -9.9101    167.1903    238.0788   6.2725817838e+01   4.0199541348e+00    0.1775224    0.1350195  12.41 0.0007090931    1.202    0.168
       265  -8.8550    200.2836    234.6800   5.6123445231e+01  -6.6089585714e-02   0.09906222   0.08609705  40.72   0.00049147    1.589    0.371
       266  -9.1283     15.4177    233.7707   9.2262551507e+01   2.3825327451e+01    0.1326958    0.0878493 -74.42 0.0009429046    1.682    0.405
       267  -8.7729    205.6512    233.6896   5.5018922214e+01  -6.5823281077e-01    0.1218133   0.07231397   7.57 0.0004581668    1.713    0.416
       268  -8.9698    189.7862    229.6221   5.7296977966e+01   2.0111282457e+00    0.1575557   0.09286897  36.74 0.0005057984    1.513    0.339
       269  -8.6930    181.2939    228.3257   5.8697035793e+01   3.3766271938e+00    0.1209052   0.07963755   4.81 0.0004352124    1.622    0.383
       270  -9.8894     68.6146    225.8268   8.1273669997e+01   1.9508386632e+01    0.1585858    0.1019936  85.89   0.00095906    1.728    0.421
       271  -9.0745    120.6830    223.6636   7.0180863386e+01   1.2879302020e+01    0.1199869    0.0910129   0.69 0.0007048364    1.699    0.411
       272  -9.0855    152.9878    219.4891   6.2980578188e+01   8.8071681701e+00    0.1945451    0.1041768  34.83 0.0005498461    1.556    0.357
       273  -8.9174    221.9816     30.0009   8.1130845091e+00   2.6218720217e+01    0.1632266    0.1363979 -47.25 0.0009958732    1.052    0.049
       274 -11.9969    125.9798     28.2293   2.1089065804e+01   5.0398704099e+01     0.527509     0.431403  75.48   0.00198498    1.270    0.213
       275  -8.9045    194.7982     37.9240   1.3118052784e+01   3.1602070185e+01    0.1894625     0.142348  43.36 0.0004923842    1.537    0.349
       276  -9.4507    196.9757     29.2731   1.0429305825e+01   3.2137387676e+01    0.2226631    0.1700049 -61.50 0.0009725682    1.251    0.200
       277 -10.6115    201.2111     25.4910   8.9309240714e+00   3.1558175817e+01    0.4681833    0.3034851  13.79  0.002166581    2.433    0.589
       278 -10.1079    230.9935     27.2745   6.6572346515e+00   2.4553460551e+01    0.3371185    0.1753482 -70.60  0.001593253    2.228    0.551
       279  -8.9688     44.5411    215.4737   8.5537001905e+01   2.4301785840e+01    0.1173112   0.09381668  59.17 0.0001801269    1.021    0.020
       280  -9.3512    164.6766    211.9274   5.9508164073e+01   8.2295509212e+00    0.1657618    0.1486361  17.57 0.0004150716    1.106    0.096
       281 -11.2942    143.7547     25.2989   1.6553566950e+01   4.6159545166e+01    0.7269468    0.3990959 -82.05  0.002741262    2.789    0.641
       282 -10.8050    148.5565     22.3521   1.4708087014e+01   4.5247418361e+01    0.4671929    0.2534037  60.73 0.0008252647    1.709    0.415
       283  -8.8560    152.6942    207.6626   6.1322636643e+01   1.0767780274e+01    0.1298713   0.09294493   1.08 0.0005239302    1.675    0.403
       284  -9.4234     17.1392    206.2810   9.0762597615e+01   2.8923763853e+01    0.3026609    0.1072889  85.58  0.001373517    3.003    0.667
       285  -8.6128     97.3398     26.2896   2.7451353096e+01   5.7716529850e+01    0.1520416     0.102765  26.62 0.0007023023    1.644    0.392
       286  -9.3978    212.8051     24.1408   7.4477787865e+00   2.8982190972e+01    0.2124249    0.1588616 -57.00 0.0009426862    1.205    0.170
       287  -9.4331     90.7907     22.9665   2.7891434575e+01   5.9679501712e+01    0.2657738     0.164441  38.85  0.001252929    1.588    0.370
       288  -9.4639    223.7693     22.2877   6.0252961155e+00   2.6702962786e+01    0.2070993    0.1496889  86.53 0.0004534553    1.408    0.290
       289 -10.8123    178.9010     20.7028   9.9978193916e+00   3.7600525599e+01    0.5079106    0.2611721  42.84  0.002144326    2.408    0.585
       290  -9.1626      5.0957     21.9102   7.0505141797e+01   7.3151137002e+01    0.1633736    0.1526448 -37.12 0.0006789924    1.214    0.176
       291  -9.6166    216.4438     20.3384   6.1445843463e+00   2.8570594020e+01    0.2263784    0.1659384 -44.25 0.0008780556    1.199    0.166
       292  -9.3700     61.3339    206.5490   8.1229251509e+01   2.4124047539e+01    0.1550252    0.1110504  27.43  0.000931424    1.494    0.331
       293  -9.8622     74.6030     19.7770   3.1763835130e+01   6.3676123725e+01    0.3160355    0.2144563  15.49  0.001347791    1.667    0.400
       294 -11.2150      5.1796    201.5437   9.3050500314e+01   3.0939019197e+01    0.6645017   0.09997194 -69.21  0.002424272    5.197    0.808
       295 -10.6817    246.7411     19.2721   3.6113924393e+00   2.2143097489e+01    0.2409555    0.1579318 -22.21  0.001405729    1.615    0.381
       296  -9.6515     46.2535     19.9446   4.4235819488e+01   6.8956582237e+01    0.2147613    0.1895261  62.94  0.001292594    1.634    0.388
       297  -8.8709      1.4970     20.5505   7.2481713795e+01   7.3629512738e+01    0.1236055   0.09339694 -39.71 0.0003695266    1.043    0.041
       298  -9.7029     78.4657    203.9445   7.7150362074e+01   2.2461599792e+01    0.2381855    0.1417609  48.70 0.0004847143    1.456    0.313
       299  -9.1283     80.8734     19.3276   2.9333828336e+01   6.2383739357e+01    0.2162788    0.1100674  43.81 0.0009488005    1.851    0.460
       300 -11.4873    239.5161     16.5018   3.4603709476e+00   2.3932958641e+01    0.3654349    0.2176238  72.17  0.002067365    1.789    0.441
       301  -9.5537    233.7135    197.0865   4.4157075969e+01   1.3042450178e-01    0.1769559    0.1371587 -30.45 0.0009981625    1.461    0.316
       302  -8.6139     53.3220    190.3171   8.1629619673e+01   2.8481490520e+01    0.1165151   0.09643763 -32.46 0.0007042643    1.665    0.399
       303  -8.8634    198.5477     17.5487   7.0096879539e+00   3.3080983575e+01    0.1329436    0.1197418 -66.64  0.000209074    1.019    0.018
       304 -12.0818      5.1017    185.7546   9.2415898904e+01   3.4249839151e+01    0.5583717    0.3794214  89.14  0.003561954    1.263    0.208
       305 -10.0239    186.8848     15.1743   7.4857488783e+00   3.6190155537e+01    0.2209017    0.2003354 -70.94 0.0004867994    1.008    0.008
       306  -8.7969    174.2767     15.9716   9.0933755383e+00   3.9281790676e+01    0.1569939     0.118718 -32.23 0.0003194393    1.335    0.251
       307  -9.3589    120.6175     15.6921   1.7218294593e+01   5.3224727248e+01    0.2357241    0.1514349  32.48 0.0008933759    1.726    0.421
       308 -10.8704      3.0000    181.9908   9.2721682460e+01   3.5228345955e+01    0.3074949    0.1415694 -76.94  0.001684014    1.940    0.485
       309  -9.6966     28.0118    176.2327   8.6534272365e+01   3.4330397932e+01    0.2347413    0.1620757 -74.18  0.001009823    1.389    0.280
       310 -10.0317     15.8816    174.3156   8.9333750180e+01   3.5871571346e+01    0.2212031    0.1400658  81.44   0.00132293    1.358    0.264
       311  -9.5717     51.5331    172.9564   8.0404487796e+01   3.2564063950e+01     0.409382    0.1581344 -85.03  0.001469834    3.661    0.727
       312  -9.3031     39.4134    173.7492   8.3527858145e+01   3.3737810201e+01    0.1727639    0.1068766 -65.40 0.0006651488    1.609    0.378
       313 -12.8032      9.9605    165.1824   9.0232045799e+01   3.8437601380e+01     1.405948    0.6686272 -49.28  0.006851968    2.726    0.633
       314 -10.4212     14.0776    159.0121   8.8807472926e+01   3.9540757481e+01    0.2848715    0.2202962 -71.86 0.0006577901    1.270    0.213
       315 -11.3518     16.6897    147.8681   8.7305658072e+01   4.1981165028e+01    0.4864821    0.2834586  86.59  0.000882935    1.540    0.351
       316 -11.4574     21.2936    150.6944   8.6278120829e+01   4.0917103225e+01    0.2296625     0.182886  81.26 0.0003815321    1.062    0.059
       317 -11.9862     23.5544    148.4640   8.5468685441e+01   4.1260128967e+01    0.3093748    0.2312296 -70.84 5.112081e-05    1.252    0.202
       318 -10.4144     19.1334    164.9304   8.7925121885e+01   3.7736086056e+01    0.3165575    0.2591558  12.38  0.002056496    1.578    0.366
       319 -10.0325    205.0518    163.2482   4.2807517360e+01   9.4345000957e+00    0.2462234    0.1947213  -8.20 0.0006358179    1.173    0.147
       320 -10.3344     28.1283    161.5565   8.5361984657e+01   3.7709675364e+01    0.3477797    0.2542812 -69.57  0.001831682    1.328    0.247
       321  -8.8860    214.7045    161.6359   4.0713831067e+01   8.0495369658e+00    0.1405199   0.09253816  -1.69 0.0004024362    1.714    0.417
       322  -9.3870     65.5875     10.4840   3.0215953017e+01   6.6734323285e+01     0.256329    0.1239909  50.99 0.0009666476    1.997    0.499
       323 -10.7180      9.4132    155.2780   8.9767995601e+01   4.0782501272e+01    0.2747741     0.196531 -87.71  0.001137219    1.179    0.152
       324  -9.4721    104.3679    155.1170   6.4052394606e+01   2.9163890995e+01    0.2522205    0.2018374  26.20  0.001316366    1.323    0.244
       325 -10.4400     30.5090    152.4988   8.3925465713e+01   3.9646096931e+01    0.3478017     0.249329 -78.49  0.002036051    1.253    0.202
       326 -10.4729      4.0893    153.5172   9.1039726809e+01   4.1583747098e+01     0.264366    0.1508518  55.49  0.001020913    1.569    0.363
       327 -11.1427     46.9632    147.4831   7.8790720580e+01   3.9157202124e+01    0.6838112    0.3784856 -50.33  0.003257144    1.967    0.492
       328  -9.8260     61.4922    151.7059   7.5235591015e+01   3.6370575168e+01    0.2504154    0.2113545  53.44 0.0008304269    1.135    0.119
       329 -10.4240      3.0894    147.5395   9.0952574644e+01   4.3062575103e+01    0.2995639    0.1530414 -77.13  0.001043135    1.649    0.393
       330 -10.8986      8.4790    148.4809   8.9573342160e+01   4.2462104790e+01    0.4079028    0.1407457 -71.37  0.001811989    2.395    0.583
       331 -10.8760      5.9234    142.7123   8.9882994329e+01   4.4023837253e+01    0.3334948    0.2192971  67.90  0.001004659    1.352    0.260
       332 -11.0377      2.2854    141.4003   9.0796667019e+01   4.4579819076e+01    0.4213162    0.1933576 -79.96  0.002133199    1.808    0.447
       333  -9.2323    104.1612    147.1519   6.2647526074e+01   3.1030661958e+01    0.2083627    0.1947776 -16.26 0.0002359006    1.188    0.158
       334 -10.8660     33.0667    144.3340   8.2397059440e+01   4.1391602924e+01     0.295909    0.2488425  81.87 0.0007265197    1.040    0.039
       335 -10.3415     15.5345    140.5298   8.7036397857e+01   4.3854308006e+01     0.318431    0.1699773  83.76  0.001603775    1.764    0.433
       336 -11.0279     12.2138    136.2060   8.7632292447e+01   4.5161841576e+01    0.5550203    0.3097973 -53.02  0.002756883    1.875    0.467
       337  -8.8137    227.6882    140.2948   3.3992083600e+01   9.1146931141e+00     0.121878    0.1033015 -57.72 0.0003118238    1.594    0.373
       338 -10.4077     80.1524    138.3235   6.7783177328e+01   3.7031154949e+01    0.3244264    0.2788678  57.78  0.000798263    1.150    0.131
       339 -10.3389     40.4241    138.0689   7.9534363703e+01   4.2202916160e+01    0.2779922     0.215537 -80.41 0.0006446032    1.162    0.140
       340  -9.5139     32.2247    137.6799   8.1919666420e+01   4.3120710289e+01    0.3530188    0.2144481  30.22 0.0007640822    1.754    0.430
       341 -10.9367     30.0593    132.9292   8.2032438875e+01   4.4510440060e+01    0.4481377    0.3609191  16.10  0.001793196    1.502    0.334
       342  -9.5420     27.3430    137.2916   8.3318289575e+01   4.3668470245e+01    0.2539013    0.1193343 -70.72 0.0006370984    1.847    0.459
       343 -11.0497     23.8012    137.0143   8.4331326519e+01   4.4047329121e+01    0.5954784    0.3222307  53.28  0.002438613    1.835    0.455
       344  -9.0956    217.4748    138.5528   3.5327149875e+01   1.1193265399e+01    0.1362025    0.1197069 -14.18 0.0001648154    1.033    0.032
