#   1 NUMBER                 Running object number                                     
#   2 MAG_AUTO               Kron-like elliptical aperture magnitude                    [mag]
#   3 X_IMAGE                Object position along x                                    [pixel]
#   4 Y_IMAGE                Object position along y                                    [pixel]
#   5 X_WORLD                Barycenter position along world x axis                     [deg]
#   6 Y_WORLD                Barycenter position along world y axis                     [deg]
#   7 A_WORLD                Profile RMS along major axis (world units)                 [deg]
#   8 B_WORLD                Profile RMS along minor axis (world units)                 [deg]
#   9 THETA_WORLD            Position angle (CCW/world-x)                               [deg]
#  10 FWHM_WORLD             FWHM assuming a gaussian core                              [deg]
#  11 ELONGATION             A_IMAGE/B_IMAGE                                           
#  12 ELLIPTICITY            1 - B_IMAGE/A_IMAGE                                       
         1 -14.2263    158.3246     52.8236   8.1821235649e+01   3.8930348388e+01     1.291631     1.061431  23.05  0.004839812    1.399    0.285
         2 -14.3795    170.4912     37.1667   7.4988281084e+01   3.8109353948e+01     1.093539    0.9577918  16.72  0.003932208    1.348    0.258
         3 -14.0585    186.6716      6.0823   6.4206016078e+01   3.7636154089e+01    0.9523138    0.7697847  82.17  0.004790326    1.062    0.058
         4 -11.6017    163.5179    204.0125   1.1732603565e+02   7.5890736688e+00    0.3303202    0.2451061 -50.79  0.001098163    1.480    0.324
         5 -18.8889     73.0326    243.1235   1.4034045781e+02   1.5479775744e+01     6.697125     5.445262  70.39   0.04059797    1.117    0.105
         6 -11.6699    160.9704    198.2905   1.1685007661e+02   9.1951286278e+00    0.3172152    0.2343976  70.62  0.001350234    1.626    0.385
         7 -11.7435    178.3274    226.4875   1.1811546749e+02   7.7527106632e-01    0.2264211    0.2123958   5.75 0.0007714073    1.153    0.133
         8 -13.9034    137.5831    198.7439   1.2191815509e+02   1.3605847052e+01    0.7878087    0.4710927  56.01  0.003662406    1.685    0.406
         9 -12.5942    155.1213    196.8357   1.1783366479e+02   1.0626152299e+01      0.43194    0.2938903 -83.28  0.001936861    2.194    0.544
        10 -11.2603    174.9978    193.7536   1.1306166392e+02   7.3142216966e+00    0.3332663    0.2005288 -65.13  0.001385273    2.475    0.596
        11 -10.9322    180.0425    192.4296   1.1175629720e+02   6.5657816726e+00    0.2577933    0.2058784 -69.44 0.0007071783    1.552    0.356
        12 -10.4921      5.1982    199.1339   1.4886250593e+02   3.2407154976e+01   0.07618685   0.06506532  85.20            0    1.289    0.224
        13 -12.4433    167.5702    190.6693   1.1405051916e+02   9.3978658127e+00    0.4139422    0.3250077  23.46  0.001624932    1.438    0.304
        14 -11.8048    208.1615    196.6398   1.0687287110e+02   3.1590763489e-01    0.2266097    0.1965648 -45.64  0.001206479    1.288    0.223
        15 -11.3126    176.4359    187.8555   1.1163271246e+02   8.1727713528e+00    0.3148018    0.2084512 -53.70  0.001109034    1.690    0.408
        16 -11.0657    184.3767    186.7678   1.0975472951e+02   6.7831641319e+00    0.2553564      0.20736  38.89 0.0007861161    1.170    0.145
        17 -11.1173    198.5743    222.7661   1.1353928690e+02  -2.2751624538e+00    0.2414975    0.1634523  39.75  0.000478228    1.308    0.236
        18 -10.5534      9.7315    216.0993   1.4920520749e+02   2.8522361104e+01    0.2768793    0.1146925 -54.37  0.001369739    3.498    0.714
        19 -18.9957     54.1176     91.1798   1.2195225562e+02   5.1706485463e+01     18.57496     1.072345 -55.27   0.02863535   17.026    0.941
        20 -12.4005     39.9868    183.4748   1.4078491469e+02   3.2205158732e+01    0.2431635    0.2018071 -66.69 0.0007334198    1.302    0.232
        21 -12.2432    205.5090    180.4777   1.0416980214e+02   3.7215794834e+00    0.5445344    0.3584592  40.02  0.001984149    1.478    0.323
        22 -12.3270    208.6852    178.6588   1.0316300642e+02   3.4225970180e+00    0.4506094    0.3813912  23.43  0.002049464    1.175    0.149
        23 -12.5632    196.1691    171.9135   1.0427752367e+02   7.2389113100e+00    0.7168047    0.4316582 -50.80  0.002148138    1.838    0.456
        24 -14.0120    137.4027    171.9341   1.1714958269e+02   1.9397730969e+01    0.8898789    0.5394332  51.96  0.003320778    1.643    0.391
        25 -11.3803    163.1791    210.1850   1.1845759842e+02   6.4846945205e+00    0.2389675     0.194653 -59.40 0.0009724532    1.386    0.279
        26 -10.8448     25.2250    165.6923   1.4202101636e+02   3.7764066960e+01    0.2075841    0.1748305  12.68 0.0008658059    1.754    0.430
        27 -10.8810    194.4962    166.4605   1.0346044793e+02   8.6519861996e+00    0.2664455    0.2394355 -86.27  0.001066366    1.302    0.232
        28 -10.7392    223.7609    163.9075   9.7117671745e+01   3.1046182727e+00    0.2551032    0.1911568 -55.05 0.0005563584    1.550    0.355
        29 -11.8852    114.7454    161.0243   1.2037746471e+02   2.6236892169e+01    0.4918511    0.2063784  56.65  0.001590198    3.399    0.706
        30 -10.8402    237.5175    159.4973   9.3637037209e+01   1.1855130295e+00    0.1402386    0.1299235 -20.64 -1.537032e-05    1.025    0.025
        31 -12.1787     24.5186    156.7111   1.4118561896e+02   3.9862915811e+01    0.5248776    0.3336486  48.77     0.001862    1.690    0.408
        32 -12.1865     28.8068    151.6277   1.3960070950e+02   4.0613142402e+01    0.3914359    0.1910118  61.65  0.001882629    2.508    0.601
        33 -11.0926    140.0903    156.6830   1.1344506254e+02   2.2267403420e+01    0.2160131    0.1906413  51.49  0.000456629    1.117    0.104
        34 -12.9958    143.9479    168.0524   1.1488283560e+02   1.8941506619e+01    0.6800616    0.4045992 -79.14  0.002416454    3.068    0.674
        35 -11.7521    162.3207    154.1165   1.0773645914e+02   1.8129309672e+01    0.2964416    0.2678873  23.92 0.0007893278    1.204    0.169
        36 -13.8674    133.8531    145.6012   1.1255198883e+02   2.6064200254e+01     1.259916    0.4788809 -56.06  0.004010539    3.095    0.677
        37 -11.6269     16.2649    150.3892   1.4234255511e+02   4.2030460923e+01    0.2724496    0.2209888 -28.52  0.001054047    1.727    0.421
        38 -11.1016    174.8170    148.9440   1.0378027329e+02   1.6496307559e+01      0.28937    0.2206329 -66.74 0.0007794512    1.539    0.350
        39 -12.7325    144.5916    145.9580   1.1004156806e+02   2.3741375337e+01    0.5343657    0.3820676  70.24  0.002358008    1.714    0.417
        40 -11.2083     14.5334    146.1028   1.4225896530e+02   4.3139992751e+01    0.1849001   0.09337922 -72.81  0.001015043    1.546    0.353
        41 -11.9463      9.3416    111.2914   1.3909343327e+02   5.1309480646e+01    0.4051559    0.1967267   1.74  0.001989196    3.602    0.722
        42 -12.1782      2.5079    113.2626   1.4119566908e+02   5.1308572187e+01    0.5013461    0.1917159 -70.00  0.002525142    1.998    0.499
        43 -13.0509      5.2175    139.5726   1.4369283532e+02   4.5314057322e+01    0.5195571    0.4396191  89.81  0.002518367    1.158    0.137
        44 -13.4921      3.2493    127.2912   1.4276945087e+02   4.8173458250e+01     1.109904    0.4082964 -66.71   0.00549688    1.945    0.486
        45 -12.6737    104.7628    138.1256   1.1823869518e+02   3.3418486684e+01    0.4075167    0.3223622  85.25 0.0004854642    1.441    0.306
        46 -12.3434     21.4757    141.1818   1.4003553125e+02   4.3670315789e+01    0.3330472    0.1528268  19.72  0.001609167    3.279    0.695
        47 -10.0565    171.4831    137.5452   1.0186568802e+02   1.9662238464e+01    0.1563484    0.1515671  89.41  0.000109266    1.034    0.033
        48 -13.2128    115.1342    138.0234   1.1555167684e+02   3.1523572642e+01    0.7239951     0.537147  -6.33  0.003185024    2.142    0.533
        49 -12.4529    106.0327    130.7646   1.1629718050e+02   3.4910256317e+01    0.4209401    0.3538803 -69.68  0.001299836    1.186    0.157
        50 -11.6637    108.4151    125.2518   1.1440554957e+02   3.5749529980e+01    0.3191411    0.2580283 -32.76 0.0007520125    1.364    0.267
        51 -12.6013    119.4724    129.6503   1.1253757903e+02   3.2620848124e+01    0.4647417    0.3728428 -50.78  0.001333581    1.210    0.173
        52 -13.0750    125.1003    127.1329   1.1049487195e+02   3.2071390341e+01    0.7323157    0.4471901  76.25  0.002565279    3.067    0.674
        53 -12.6791    135.7780    122.4303   1.0663751563e+02   3.0902613226e+01    0.6070648     0.319544 -57.02  0.002278383    2.189    0.543
        54 -11.5448    160.6391    128.0017   1.0202160543e+02   2.4171781054e+01    0.3924186    0.2493958 -51.99  0.001653036    1.627    0.385
        55 -11.6158    113.6820    118.6066   1.1141097315e+02   3.6270343926e+01    0.2726688    0.2538324  87.79 0.0004647874    1.118    0.106
        56 -11.1564    167.9847    113.2480   9.6620659197e+01   2.5589523976e+01    0.4316447    0.3092349 -86.62  0.001357426    1.997    0.499
        57 -11.1770     17.4946    129.4949   1.3950059814e+02   4.6651630749e+01    0.1222277   0.09480064 -69.74  0.000810482    1.029    0.028
        58 -10.7015    205.6626    110.1180   8.8070306484e+01   1.7270153106e+01    0.2867771    0.2263649  46.07 0.0006986803    1.329    0.248
        59  99.0000     33.0658    206.4600   1.4433902697e+02   2.8016287322e+01    0.1336262     0.102897  57.90 0.0003682878    1.287    0.223
        60 -12.6703     85.6180    109.5201   1.1695645528e+02   4.3290105807e+01    0.4508545     0.274918 -54.67  0.002125016    1.537    0.350
        61 -11.6813    158.7609    204.7293   1.1844324106e+02   8.3668751173e+00    0.3560241    0.2119299  58.08  0.001308949    1.862    0.463
        62 -10.3868    125.0214     81.5107   9.8272154310e+01   4.1777820633e+01    0.2272231    0.1461821  47.36 0.0005784161    1.563    0.360
        63  -9.9287    147.2639     79.6467   9.2172094465e+01   3.7113098426e+01    0.1537981    0.1180967 -70.46 0.0004051169    1.621    0.383
        64  -9.8850    121.2953     79.3214   9.8609233955e+01   4.2987973164e+01    0.1497536    0.1156354   2.58 0.0003235248    1.616    0.381
        65 -11.3587     13.5012    244.5004   1.5029913504e+02   2.2676557089e+01    0.2698483    0.0557854 -66.82  0.001195485    4.079    0.755
        66  -9.5650     22.7745    240.3544   1.4859850223e+02   2.2431046776e+01    0.1183491   0.08140212  61.01 0.0004512026    1.228    0.186
        67 -12.6892    174.3946     30.0774   7.2344342034e+01   3.8032658113e+01      0.42733    0.3312785  34.64  0.001061051    1.482    0.325
        68 -10.4927     13.9940     59.4256   1.2759648050e+02   6.1830379628e+01    0.2438277    0.1223631 -37.91  0.001055254    1.671    0.401
        69 -10.3714    132.2194     29.1031   7.9910304743e+01   4.8328037244e+01    0.2511094    0.1732678  87.36  0.000875431    2.048    0.512
