#   1 NUMBER                 Running object number                                     
#   2 MAG_AUTO               Kron-like elliptical aperture magnitude                    [mag]
#   3 X_IMAGE                Object position along x                                    [pixel]
#   4 Y_IMAGE                Object position along y                                    [pixel]
#   5 X_WORLD                Barycenter position along world x axis                     [deg]
#   6 Y_WORLD                Barycenter position along world y axis                     [deg]
#   7 A_WORLD                Profile RMS along major axis (world units)                 [deg]
#   8 B_WORLD                Profile RMS along minor axis (world units)                 [deg]
#   9 THETA_WORLD            Position angle (CCW/world-x)                               [deg]
#  10 FWHM_WORLD             FWHM assuming a gaussian core                              [deg]
#  11 ELONGATION             A_IMAGE/B_IMAGE                                           
#  12 ELLIPTICITY            1 - B_IMAGE/A_IMAGE                                       
         1 -13.6184    208.5004     34.4200   5.2549497018e+01   2.8084935953e+01     1.344643     1.292194  48.87  0.005706483    1.111    0.100
         2 -13.9240    226.4268     16.9639   4.5831080656e+01   2.5622063396e+01     1.092897    0.9089508  20.95  0.001465272    1.410    0.291
         3 -13.1848      4.4948      7.5319   1.1187722950e+02   7.6018145569e+01     1.147892    0.4478945 -55.55  0.005754562    1.874    0.466
         4 -11.6607    150.3292    247.3132   1.0667139577e+02   8.8030122257e+00    0.2518208    0.2282752  70.67  0.002182043    1.539    0.350
         5 -11.1417    161.3547    250.1651   1.0508238069e+02   7.0271410350e+00    0.3262646    0.1021101  33.06  0.001591239    2.633    0.620
         6 -11.1162    143.9985    249.9960   1.0802139403e+02   9.3293413204e+00    0.2968003    0.1526797  51.11  0.001865895    1.978    0.494
         7 -13.4109    125.6722    240.4860   1.1034383267e+02   1.2912367597e+01    0.9146006    0.2915139  36.49  0.004594659    2.311    0.567
         8 -12.0583    122.5135    248.8653   1.1164233397e+02   1.2263775119e+01    0.5678002    0.3091259  28.80  0.003543841    1.687    0.407
         9 -14.6015     86.7663    242.4598   1.1748417278e+02   1.7609141724e+01     3.100561    0.9830698  35.51   0.01604738    2.387    0.581
        10 -15.0639     20.9434    219.6957   1.2836947751e+02   2.8312618595e+01     1.201939    0.8190916  57.21  0.009635489    1.018    0.018
        11 -11.5368    116.6050    239.0485   1.1184438313e+02   1.4297586993e+01    0.2851987    0.1969714 -26.22  0.001918861    2.488    0.598
        12 -10.4257    113.5192    230.0812   1.1161094072e+02   1.5933410891e+01    0.1868391    0.1246736  26.11 0.0008298399    1.532    0.347
        13 -10.6591     56.7128    228.1493   1.2209364010e+02   2.3260376055e+01    0.2254386    0.2042253  69.64  0.001045849    1.344    0.256
        14 -13.4145    101.9473    238.4449   1.1444882148e+02   1.6278246415e+01    0.9482135    0.7020123 -54.64  0.005679799    1.880    0.468
        15 -11.1895     78.7308    226.6174   1.1786559566e+02   2.0918171406e+01    0.3403577    0.2413536 -73.75  0.002544086    1.736    0.424
        16 -11.8041     90.4288    224.9982   1.1552521747e+02   1.9702660039e+01    0.4287949    0.2819794  40.68  0.003013065    1.164    0.141
        17  -9.4321     65.0922    223.7545   1.2026071792e+02   2.2996776244e+01    0.2432139    0.1273573 -49.43  0.001419791    3.118    0.679
        18 -10.5870     71.6436    219.6522   1.1873497579e+02   2.2874591619e+01    0.3186658    0.1885896  48.28  0.002154711    1.239    0.193
        19  -9.1573     60.0726    220.4538   1.2101654557e+02   2.4107161362e+01    0.1567408   0.08018728  39.68 0.0003367321    1.477    0.323
        20 -10.5063     50.8871    218.7630   1.2268186920e+02   2.5416053208e+01    0.2244172    0.1161303  60.01 0.0008849508    1.591    0.371
        21 -13.8565     35.1848    205.8281   1.2508976902e+02   2.9283816968e+01     1.709522    0.7716884  62.62   0.01026653    1.860    0.462
        22 -14.2991      3.3990    225.7892   1.3168880261e+02   2.8882702267e+01     3.119568    0.3964599 -82.56   0.01195158    7.382    0.865
        23  -9.7362     88.1552    212.9223   1.1497869672e+02   2.1888345360e+01    0.2105716    0.1392854  81.01  0.001022478    1.766    0.434
        24 -10.1593     56.0132    208.7754   1.2109410340e+02   2.6520364270e+01    0.3169405    0.1487508 -75.38  0.001874385    2.385    0.581
        25 -14.0975     25.3194    247.8077   1.2846182411e+02   2.3524463280e+01     2.067653    0.8266713  27.04   0.01194588    2.919    0.657
        26 -10.9611     62.8373    209.2716   1.1975931942e+02   2.5643480882e+01    0.3048798    0.1456488  45.14  0.001827165    1.536    0.349
        27  -9.9605     67.2081    206.0101   1.1864727063e+02   2.5679340356e+01    0.2753963    0.0902114  51.83  0.001023075    2.587    0.613
        28  -9.8055    106.8297    203.4279   1.1031742043e+02   2.0890366459e+01    0.1815551    0.1659652 -65.20 0.0005657857    1.374    0.272
        29  -9.7299    250.2815    200.7297   8.3935933101e+01  -3.6059474985e-02    0.1552797   0.09496226  11.17  0.001048596    1.353    0.261
        30  -9.7916     73.9498    200.7484   1.1685460078e+02   2.5759425877e+01      0.16348    0.1187214  50.06 0.0002918631    1.059    0.055
        31 -11.3509     45.5685    198.5121   1.2259509894e+02   2.9493081315e+01    0.3709177    0.2198751  25.93  0.002289044    1.916    0.478
        32 -14.0181    115.0205    249.2406   1.1298340658e+02   1.3176742031e+01     2.372756    0.4095757  35.63  0.008559395    4.783    0.791
        33 -10.0818    250.4672    194.0203   8.2818109331e+01   5.6581068497e-01    0.1593862    0.0929741 -18.94  0.001044022    1.631    0.387
        34 -14.3862      7.0741    244.5373   1.3142276231e+02   2.5673075109e+01     1.456319    0.9327358  24.23   0.01152843    1.957    0.489
        35 -12.0999     49.1383    191.6581   1.2141832726e+02   3.0354862267e+01    0.2842531     0.251075 -23.90 0.0006904903    1.746    0.427
        36 -10.2901    198.0425    245.4674   9.8482265381e+01   2.6869022507e+00    0.1662418   0.07354788  34.77 0.0007553466    1.598    0.374
        37 -10.0986     19.9516    191.0757   1.2753844213e+02   3.3426757600e+01    0.4063311    0.1214155  67.57  0.001833421    3.313    0.698
        38 -10.6972     35.8887    191.9969   1.2424981774e+02   3.1709547373e+01    0.3231735    0.1192586  37.65   0.00123834    2.073    0.518
        39  -8.9999    191.5326    191.5091   9.2162176810e+01   9.5817958122e+00    0.1219925   0.09610619  24.09  0.000138283    1.002    0.002
        40  -9.5282    109.1685    191.1898   1.0848159246e+02   2.2593899299e+01    0.1702022    0.1407219  39.12 0.0002685647    1.109    0.098
        41  -9.3380     15.4786    189.9957   1.2842330756e+02   3.4030194690e+01    0.1516894   0.08920603 -89.79  0.001025814    1.575    0.365
        42  -9.3227     68.2283    187.7813   1.1699579280e+02   2.8818919539e+01    0.3413056    0.1804044  15.35  0.001454433    3.866    0.741
        43 -12.2826     56.0857    184.1362   1.1937469397e+02   3.0977347656e+01     0.293471    0.1983782  42.75 0.0008188255    1.253    0.202
        44 -10.9269    180.5025    243.4703   1.0113288657e+02   5.1980471206e+00    0.2306219   0.07589755  37.47  0.001208381    2.163    0.538
        45 -12.4306     21.8471    226.7112   1.2842818140e+02   2.7085463033e+01    0.2640751    0.1806795  73.55 0.0006097158    1.280    0.219
        46 -10.1194     37.0931    180.6448   1.2334620278e+02   3.3744290346e+01    0.2821305    0.1782976  73.88  0.001390236    1.381    0.276
        47  -8.4891    110.3654    178.3044   1.0664440945e+02   2.4677517668e+01     0.122473   0.09583096   7.09 0.0003885617    1.740    0.425
        48  -9.5968     58.9119    176.9413   1.1816262365e+02   3.2035365540e+01     0.384141   0.09528725  42.25  0.001597441    2.840    0.648
        49 -13.0986      9.4233    165.6304   1.2883747999e+02   3.9276466528e+01    0.7277286    0.6191942  26.25  0.005586779    1.475    0.322
        50 -11.7023    248.4838    172.3399   7.9382277314e+01   2.9986326451e+00    0.3958535    0.2600274   0.34  0.002574247    1.337    0.252
        51 -10.9625     68.6546    172.2157   1.1548218771e+02   3.1759818525e+01    0.2252922    0.1948524  72.73 0.0002868967    1.106    0.096
        52 -10.4908      3.0971    172.9439   1.3049354997e+02   3.8317486758e+01     0.239204    0.1314948  32.17 0.0006884462    1.749    0.428
        53 -10.9432     53.2914    171.0921   1.1897585925e+02   3.3862201985e+01    0.2616937    0.2334298  48.49  0.001000414    1.215    0.177
        54 -10.9101     27.0353    171.7609   1.2509912644e+02   3.6497396475e+01    0.2314703    0.1898798  21.10 0.0004587499    1.559    0.359
        55 -11.4359     19.6080    168.9569   1.2665239530e+02   3.7743916478e+01    0.3525876    0.1943841 -59.34  0.002097849    2.199    0.545
        56 -12.2838     76.8312    164.2680   1.1270587356e+02   3.2274302948e+01    0.5160387    0.4574822  69.19  0.001981394    1.083    0.077
        57 -11.5114    247.7392    157.3771   7.6721213623e+01   4.7063009721e+00    0.6523107    0.3231416  55.15  0.002999487    3.451    0.710
        58  -8.7918     37.2837    162.6709   1.2213121397e+02   3.7342080556e+01    0.1267846   0.06890276  62.63 0.0005362193    1.608    0.378
        59 -10.5265     23.9139    161.9515   1.2528676227e+02   3.8788850423e+01    0.1711585    0.1378436  66.78  0.000436219    1.052    0.049
        60  -8.8234     49.5127    161.4145   1.1906613273e+02   3.6281948085e+01    0.1218862   0.09883166  62.47 9.961287e-05    1.016    0.015
        61  -8.7374     42.9521    161.0278   1.2063548984e+02   3.7088401157e+01    0.1439717    0.1148762  63.11 0.0003544102    1.016    0.016
        62 -10.9071     40.3466    168.2138   1.2179386782e+02   3.5881264837e+01    0.2961233    0.2267568  43.99  0.001202731    1.221    0.181
        63 -11.8082      9.0311    156.4671   1.2856820008e+02   4.1188284844e+01    0.4105425    0.1185467  59.87  0.001837624    2.908    0.656
        64 -10.9892     21.6403    156.6541   1.2553820826e+02   4.0100272331e+01    0.2574483    0.1734906 -69.46  0.001398465    1.561    0.359
        65 -11.2209     26.3445    155.9438   1.2434588371e+02   3.9824174342e+01    0.2618465     0.188531  46.03  0.000745952    1.249    0.199
        66  -8.4102    228.3004    155.3107   7.9364842930e+01   8.0743043123e+00    0.1287027   0.08191156  10.97 0.0003768147    1.604    0.376
        67  -9.3080     16.3499    155.2646   1.2675117656e+02   4.0848839390e+01   0.09954478   0.08538138 -44.52 0.0004011198    1.615    0.381
        68 -11.4145    245.1513    162.2532   7.8035066488e+01   4.5739883279e+00    0.2603232    0.1725055 -15.29  0.001246413    1.363    0.266
        69 -11.1351     12.7249    153.2424   1.2753603168e+02   4.1572620008e+01    0.2303707    0.1579539  79.32  0.001064012    1.192    0.161
        70 -11.0676    249.6381    150.9876   7.5205118817e+01   5.1115673517e+00    0.2940413    0.2113871 -20.45  0.001911797    1.299    0.230
        71 -11.1187     91.8242    149.7726   1.0713736636e+02   3.3093676395e+01    0.3013032     0.270934  63.87 0.0009653587    1.034    0.033
        72 -11.5583     23.6378    150.0703   1.2465540289e+02   4.1325077257e+01    0.2927413    0.2266034  52.53  0.001353127    1.157    0.135
        73 -10.6194     79.8935    148.5856   1.1001673448e+02   3.5113047183e+01    0.2301837    0.2027116  55.84 0.0003714376    1.058    0.055
        74 -10.0722     38.9876    148.8861   1.2065120380e+02   4.0101863276e+01    0.1992248    0.1912686  22.94 0.0003850875    1.349    0.259
        75 -11.6899     68.4411    143.6465   1.1237048724e+02   3.7766942586e+01    0.6308258    0.3074094  63.67  0.002076537    2.486    0.598
        76 -13.3209      9.3661    142.1523   1.2785407865e+02   4.4209882000e+01    0.8982223    0.2322582 -79.73  0.003748393    3.307    0.698
        77 -12.7060      4.2542    142.3099   1.2916665304e+02   4.4545251168e+01    0.5188801    0.3477662 -73.00   0.00199598    1.482    0.325
        78 -12.9682    241.4770    120.2365   7.0044176328e+01   1.0073327737e+01    0.8046226    0.7113434  89.88  0.005051053    1.750    0.429
        79  -9.7237     44.9412    139.6934   1.1824096312e+02   4.1500531888e+01    0.1974659    0.1540975 -75.20 0.0003070937    1.261    0.207
        80 -10.2238    105.9089    135.3559   1.0119459988e+02   3.3840997269e+01     0.422898     0.289892  -4.87  0.001813955    2.786    0.641
        81 -13.9426      8.2486    109.7271   1.2635076854e+02   5.1620005228e+01     1.265425    0.5713962 -63.75  0.006527653    2.043    0.510
        82 -13.2294     14.9815    121.9308   1.2515792248e+02   4.8320609800e+01    0.8116741    0.2254437 -71.07  0.002511361    2.934    0.659
        83 -12.5206      2.6773     92.4026   1.2699103162e+02   5.6030020643e+01     1.052194    0.2326497 -89.60  0.003254838    5.083    0.803
        84 -12.7131      2.5035     77.8429   1.2593920963e+02   5.9524908039e+01    0.6736803    0.2103751 -76.37  0.002899922    2.495    0.599
        85  -9.2561    235.9991    146.0158   7.6297301148e+01   7.9021406923e+00    0.1517052    0.1232517   4.36 0.0004541879    1.013    0.013
        86  -9.5984     44.3837    130.1684   1.1740658819e+02   4.3724961172e+01    0.1761673    0.1067163  88.61 0.0005149044    1.611    0.379
        87 -12.9012    248.1626    113.6444   6.7639341323e+01   9.6730540971e+00    0.8863828    0.4891985 -34.62   0.00465295    1.737    0.424
        88 -13.1297    248.3976    101.9746   6.4984891509e+01   1.1030554442e+01    0.8655071    0.6008806 -13.74  0.004998988    1.295    0.228
        89 -11.8726     16.6186    132.7761   1.2541275021e+02   4.5726601538e+01    0.3213579    0.1859682  33.62  0.001898885    1.717    0.418
        90 -12.2503    248.0120    142.2592   7.3714207671e+01   6.3506392126e+00    0.5654504    0.4084118  15.00  0.003593714    1.227    0.185
        91 -12.8707    248.2172    134.7778   7.2156062222e+01   7.1749805906e+00    0.9891227    0.4130791 -20.66    0.0044906    2.434    0.589
        92  -9.4185     95.5156    145.5179   1.0556431107e+02   3.3410287769e+01    0.1967848     0.128785 -77.80 0.0005148877    1.801    0.445
        93  -9.7032    162.3261     80.3036   7.3931232993e+01   3.2978553644e+01    0.1581124    0.1179249  18.10 0.0002638513    1.643    0.391
        94 -13.9216      4.2052    124.6506   1.2839278050e+02   4.8448431189e+01     1.192733    0.5022496 -74.77  0.006207738    2.044    0.511
        95  -9.7665     52.2486    231.6286   1.2310026586e+02   2.3211305510e+01     0.153186    0.1211763  67.12 0.0007062347    1.213    0.175
        96 -11.4875    154.4949    246.7889   1.0590292011e+02   8.3093159508e+00    0.2820596     0.203617 -34.90  0.002001179    1.918    0.479
