#   1 NUMBER                 Running object number                                     
#   2 MAG_AUTO               Kron-like elliptical aperture magnitude                    [mag]
#   3 X_IMAGE                Object position along x                                    [pixel]
#   4 Y_IMAGE                Object position along y                                    [pixel]
#   5 X_WORLD                Barycenter position along world x axis                     [deg]
#   6 Y_WORLD                Barycenter position along world y axis                     [deg]
#   7 A_WORLD                Profile RMS along major axis (world units)                 [deg]
#   8 B_WORLD                Profile RMS along minor axis (world units)                 [deg]
#   9 THETA_WORLD            Position angle (CCW/world-x)                               [deg]
#  10 FWHM_WORLD             FWHM assuming a gaussian core                              [deg]
#  11 ELONGATION             A_IMAGE/B_IMAGE                                           
#  12 ELLIPTICITY            1 - B_IMAGE/A_IMAGE                                       
         1 -11.9297     14.9179     59.7622   1.0984164376e+02   6.2574020357e+01     1.566571     1.407715  74.10   0.01122898    1.429    0.300
         2 -12.1871     31.5265     22.9511   9.0142508813e+01   6.8306769969e+01    0.9444025    0.3703615 -41.60  0.003760981    2.143    0.533
         3 -11.2257     23.7894     24.7803   9.4664068919e+01   6.8765636217e+01     1.035179    0.3388368 -42.38  0.004768682    2.395    0.583
         4 -12.0581     32.0825     41.9352   9.7348945555e+01   6.4856320143e+01    0.8423286    0.5026872 -32.48  0.003662702    1.473    0.321
         5 -12.0223     43.6126     15.0792   8.0860093832e+01   6.8049242386e+01     1.314864     1.108677 -53.25  0.008540486    1.851    0.460
         6 -11.7965     57.2437      5.9976   7.0531770470e+01   6.7148405152e+01     1.020917    0.5262228  17.60  0.003500276    2.368    0.578
         7 -13.3385     72.3532     32.0155   7.6924500655e+01   6.1141910514e+01     2.802417     1.826249  46.52    0.0148738    1.723    0.420
         8 -11.1191    155.5336     42.9195   5.8343522063e+01   4.1018393690e+01    0.9551816    0.7590985  -6.90  0.004795633    1.453    0.312
         9 -11.5223     67.5815     73.9847   9.3860149169e+01   5.4046358235e+01     1.707495    0.8338743 -44.30  0.004271218    1.837    0.456
        10 -11.1739     91.4537     10.3713   6.1146571732e+01   6.0213143337e+01    0.8356413    0.5117481  18.68  0.002655418    1.766    0.434
        11 -10.1086    102.6914     11.0247   5.8399062184e+01   5.7707104676e+01     1.054117    0.4699438  17.58  0.003445414    4.418    0.774
        12 -11.5552     99.7285      6.3508   5.7166750869e+01   5.8813126904e+01    0.5746206    0.3202066  29.83 0.0006147797    1.833    0.454
        13 -12.0128    117.0830     14.3340   5.6274629263e+01   5.4064577800e+01     1.027137    0.5471517  33.66  0.004596775    2.010    0.502
        14 -10.6480    111.1085      7.8459   5.5048751456e+01   5.6094354585e+01    0.8325242    0.3420914  68.37  0.003162436    2.979    0.664
        15 -11.3878    113.8068     23.5913   6.0700525874e+01   5.3807141153e+01     0.491881    0.4470167 -25.10  0.002093541    1.182    0.154
        16 -10.8813    210.2807     31.8762   4.6505740628e+01   2.8405607561e+01    0.8604736    0.5269902  42.23  0.004000503    2.023    0.506
        17 -10.8682    215.3041     25.2592   4.4196246592e+01   2.7981849092e+01    0.5154576    0.4186933  26.83  0.002079524    1.612    0.380
        18 -12.1032     25.0521      6.6539   8.5600872969e+01   7.1502568281e+01    0.6330014    0.3464513 -36.65  0.003818838    1.618    0.382
        19 -12.3423     13.0970      4.6896   9.1077768421e+01   7.2958800085e+01    0.6533002    0.4698258 -21.81  0.003004875    1.028    0.027
        20 -11.3910      5.1925     26.1231   1.0446663008e+02   6.9905978175e+01    0.4579059    0.2240403 -24.94  0.002604506    2.007    0.502
        21 -10.8935     18.7040     13.6713   9.2385671503e+01   7.1074459863e+01    0.4698145    0.2744444 -36.02  0.002240447    1.360    0.265
        22 -13.1439      4.4952      9.1040   9.8095004738e+01   7.2928488795e+01     2.624699      1.05272 -60.08   0.01050495    4.838    0.793
        23 -11.3859      2.3472     18.5154   1.0318187169e+02   7.1450201889e+01    0.3057789    0.1541311 -42.34 0.0006529885    1.433    0.302
        24  -9.8590     86.3701      7.5124   6.1331635509e+01   6.1558819951e+01    0.4586637    0.2273379  36.05  0.001790009    1.905    0.475
        25 -11.5337    192.9000     32.2538   4.8852048613e+01   3.2763293719e+01     0.510693    0.4141944  15.48 0.0005198446    1.566    0.361
        26  99.0000    188.2590     19.5911   4.5857862749e+01   3.5472973414e+01     1.233298    0.6472183 -70.21  0.004980631    2.523    0.604
        27 -10.7468    164.1927      5.3616   4.4769258651e+01   4.3133104860e+01     1.176512    0.6712261  68.41   0.00530814    1.552    0.356
        28 -10.2099    158.1430     19.8615   5.0308268498e+01   4.3242178451e+01     0.776683    0.3618055 -39.36   0.00325302    2.237    0.553
        29 -10.4410    176.6009     19.4637   4.7381074583e+01   3.8500269433e+01    0.4822634    0.3163706  81.28 0.0009909925    1.536    0.349
        30 -10.4577    163.7266     15.6240   4.8066594906e+01   4.2251051331e+01    0.5467217    0.3671542  27.91  0.001806178    1.821    0.451
        31 -10.9219    169.3645     13.5749   4.6604708792e+01   4.1003457010e+01    0.7222806    0.4239771  81.91  0.002147771    1.783    0.439
        32 -10.6199    154.1202     17.1599   5.0084453509e+01   4.4569546003e+01    0.5869197    0.3525645   7.73 0.0007677954    2.400    0.583
        33 -10.5536    149.9053     15.6185   5.0276841371e+01   4.5811446146e+01    0.6691052    0.3520566  28.98  0.002707135    2.590    0.614
        34 -10.1063    147.6332     11.3295   4.9205515372e+01   4.6819922795e+01    0.3851551    0.2951845 -19.20  0.001326031    1.447    0.309
        35 -11.4142     11.6762     25.7686   1.0107145454e+02   6.9561262279e+01    0.5038657    0.2038256 -32.32  0.001472211    2.301    0.565
        36  -9.3720    126.0097     15.5293   5.4776941016e+01   5.1801204361e+01    0.2663692    0.2457338   9.59 0.0004029537    1.113    0.102
        37  -9.9370    131.9418     13.4495   5.2795333461e+01   5.0556769672e+01    0.4081651    0.3123614 -88.11 0.0008358473    1.558    0.358
        38 -10.2421    124.1999     22.3075   5.7731494786e+01   5.1501478162e+01    0.6130373    0.3322441  27.04  0.002529721    2.362    0.577
        39 -11.0807    131.5373     19.8595   5.5228913241e+01   4.9986442937e+01    0.5247551    0.3181026  58.22  0.001884966    1.506    0.336
        40  -9.9053     71.9968     17.3964   7.0563856885e+01   6.3239688071e+01    0.4574755    0.2849072  22.91  0.002226464    1.627    0.385
        41 -10.3905    231.0091     18.4988   4.0936161187e+01   2.5001753754e+01    0.4129574    0.3628975 -33.69  0.002587803    1.260    0.206
        42  -9.9292    211.3850     17.1959   4.2532401783e+01   2.9894344759e+01    0.4513315     0.211605  62.60  0.002027273    1.996    0.499
        43 -10.0407    212.1799     11.9565   4.1104293215e+01   3.0278318046e+01    0.6188529    0.2789869  78.20   0.00267665    2.199    0.545
        44 -11.0441    221.6673     12.2332   4.0271866873e+01   2.7937556431e+01    0.3238668    0.2578164 -81.93 0.0007254052    1.121    0.108
        45  -9.2860    226.1426      8.5492   3.8980126291e+01   2.7269292758e+01    0.2295275    0.1882603  12.83  0.001353948    1.716    0.417
        46  -9.7890     31.6126     11.9594   8.4971866109e+01   7.0004635147e+01    0.2484876    0.1341143 -32.58 0.0008425993    1.571    0.364
        47 -10.0757    232.8325     10.9712   3.8989245082e+01   2.5430798807e+01    0.3101126    0.2117874 -76.88 0.0008855082    1.355    0.262
        48  -8.6391    233.5115      7.4639   3.8114214893e+01   2.5656761279e+01    0.1290648    0.1090452 -73.03 -2.226813e-06    1.016    0.016
        49 -10.6208    200.0042      5.3719   4.0598429799e+01   3.3989416629e+01    0.6311582    0.3616821 -38.42  0.002682366    1.720    0.419
        50  -9.3285     77.6848      8.7204   6.4571734288e+01   6.3172620437e+01    0.2978987    0.1915824   9.39  0.001608025    1.614    0.380
        51  -9.1549     77.4863      5.5220   6.3120310720e+01   6.3537375995e+01    0.2466399    0.1424435 -10.69 0.0006912309    1.793    0.442
        52 -10.4659    244.0286      5.4880   3.6862077980e+01   2.3470063649e+01    0.4877606    0.2272635 -30.30  0.001909001    2.145    0.534
        53  -9.7176    133.7970      5.4014   4.9512488573e+01   5.0847044821e+01    0.8919694     0.455299  89.26  0.003408784    3.123    0.680
        54  -9.6704    138.9535      4.4846   4.8289382021e+01   4.9639718025e+01     0.311842    0.2165142  84.54   0.00128547    1.565    0.361
        55  -9.8581    138.9996      1.4474   4.7212395805e+01   4.9882790189e+01    0.2833687    0.2157425  83.27 0.0003590742    1.352    0.261
        56  -8.4203    238.2501      7.3334   3.7711208121e+01   2.4578848400e+01    0.1117672   0.09789985  30.93 0.0002204543    1.556    0.357
        57  -9.4702    211.5872      4.2305   3.9198390936e+01   3.1232475912e+01    0.3593178    0.2427971  15.25  0.001329313    2.322    0.569
        58 -10.5200    207.3906      3.3086   3.9348291696e+01   3.2356710139e+01    0.3970771    0.2310477 -46.22  0.001398646    1.640    0.390
        59  -8.5891    190.5149      7.4802   4.2172233611e+01   3.6177110336e+01    0.1901767    0.1205184 -41.41 0.0005650304    1.584    0.369
        60  -9.5780    217.8051      5.3456   3.8922560969e+01   2.9605134202e+01    0.2984883    0.2243918  43.15  0.001705149    1.648    0.393
        61 -10.0893    181.3320      4.6574   4.2413679557e+01   3.8794745407e+01    0.4257442    0.2630684  64.51   0.00179065    1.444    0.307
        62  -8.8283    175.9465      3.8036   4.2799610637e+01   4.0254415235e+01     0.269135    0.1037333  68.16 0.0003997748    2.233    0.552
        63  -8.4695     71.8577      4.8155   6.4619858503e+01   6.4686844177e+01    0.3272997    0.2796347 -62.60  0.001715447    1.829    0.453
        64  -8.6293     67.6875      5.3313   6.6308378191e+01   6.5405431918e+01     0.209627    0.1431727 -18.47 0.0008309137    1.406    0.289
        65  -8.8071     29.7159      5.8527   8.2792942157e+01   7.1085741788e+01    0.1706708    0.1168684 -10.35 0.0007075802    1.211    0.174
        66  -8.6342    248.5279      1.4590   3.5663298462e+01   2.2901370197e+01    0.1217741    0.1033661 -72.14 8.895274e-05    1.076    0.070
        67 -10.6344     52.3926    132.7882   1.1168660724e+02   4.2198253190e+01    0.4682878    0.2487541  30.27  0.002250906    2.195    0.544
        68  -9.0231    211.5056    250.4720   9.5129220155e+01  -6.4788590280e+00    0.1184404   0.08916195  24.07 0.0008099772    1.010    0.010
        69  -8.9815    124.7508    249.9858   1.1081631452e+02   7.1399501783e+00    0.1930722    0.1198701  14.21 0.0008903799    3.467    0.712
        70  -8.9858    118.5251    250.0421   1.1195665025e+02   8.0862140198e+00    0.1554434   0.09203196  82.54 0.0008098551    2.580    0.612
        71 -10.1655    142.1644    243.8574   1.0689579290e+02   5.3503695828e+00     0.280416    0.1725066  27.66  0.001563625    1.804    0.446
        72  -9.3793    237.2803    135.5563   6.8565620485e+01   5.8528421919e+00    0.2559029    0.1417403  53.00  0.001142863    2.100    0.524
        73  -9.1894     91.2843    244.6368   1.1637536523e+02   1.3023712597e+01    0.1219302   0.07121926  67.34  0.000701931    1.685    0.407
        74 -10.0677     22.8197    137.0627   1.2010509743e+02   4.4181938579e+01    0.2634634    0.1457057 -43.06  0.001364403    2.254    0.556
        75  -9.9432     64.3073    113.8074   1.0485106734e+02   4.5298437070e+01    0.4098395    0.1866206  52.89  0.001569135    3.019    0.669
        76  -9.6821     68.6769    116.3206   1.0406624320e+02   4.4100562155e+01    0.2603302    0.1971677  87.24 0.0006563824    1.503    0.335
        77  -9.7954     68.6134    120.1770   1.0486371895e+02   4.3178276959e+01    0.3224363    0.2731465 -48.03  0.001537728    1.183    0.154
        78 -10.8083     66.0665    128.6992   1.0720746657e+02   4.1462267293e+01    0.3948354     0.243512 -49.07 0.0007383862    1.603    0.376
        79 -10.9258     65.8541    124.4595   1.0648578144e+02   4.2517750605e+01    0.5714141    0.3604256  31.98  0.002848819    1.806    0.446
        80  -9.4447     73.0769    129.4843   1.0539135656e+02   4.0298227352e+01    0.2592336    0.1890624 -63.78  0.000462155    1.247    0.198
        81 -10.5404     55.9751    125.9280   1.0955924246e+02   4.3427084590e+01    0.3978566    0.2235629 -60.59 0.0008367252    1.541    0.351
        82  -9.0086     81.0488    125.1299   1.0229355405e+02   4.0166247164e+01     0.215375    0.1865317 -34.18  0.000951662    1.297    0.229
        83  -8.7024     74.5306    124.9303   1.0410332526e+02   4.1189874116e+01    0.2072894     0.128554 -59.28 0.0003232126    1.464    0.317
        84 -10.3991     90.5908    121.2856   9.8766123233e+01   3.9560784702e+01    0.5080934    0.4363491 -83.30  0.001954272    1.202    0.168
        85 -11.6032     75.5486    120.0862   1.0283119185e+02   4.2210696102e+01    0.2570467    0.2507226  75.68 0.0003703661    1.106    0.096
        86  -9.7995     60.5371    120.3878   1.0725327813e+02   4.4199609687e+01    0.3286309     0.220726   3.67  0.001559904    2.344    0.573
        87 -10.2540    105.2495    116.8093   9.3582493509e+01   3.8035407762e+01    0.4235646    0.3191791 -85.15  0.001416367    1.675    0.403
        88  -9.9015    116.0905    116.4580   9.0491742557e+01   3.6032716795e+01    0.2780812    0.2348497 -46.89 0.0004872165    1.158    0.136
        89 -10.1143     91.3441    113.5153   9.6773987079e+01   4.1283517768e+01    0.4978171    0.3682889 -71.53  0.001906603    1.470    0.320
        90  -8.9728    133.4701    110.7331   8.4365471260e+01   3.3702656386e+01    0.2243269    0.1496293 -33.35  0.000945633    1.648    0.393
        91  -9.6513     62.1058    109.3791   1.0459971051e+02   4.6651618027e+01     0.337554    0.2248115  15.39  0.001659258    2.023    0.506
        92  -9.5697     23.6162    108.9521   1.1621525760e+02   5.0759644250e+01    0.3336089    0.1543535  35.53  0.001675662    2.442    0.590
        93  -9.1481    149.1531    106.9095   7.9366049638e+01   3.1007083483e+01    0.4449648    0.2037344 -31.81  0.001443196    2.831    0.647
        94  -9.1956    113.4874    107.8872   8.9018979702e+01   3.8511070857e+01    0.2355634    0.1479307 -47.99 0.0004661421    1.539    0.350
        95  -8.3165    103.7013    108.7141   9.2012436448e+01   4.0208060510e+01    0.1478279    0.1189325 -13.94 0.0003107679    1.552    0.356
        96  -9.2700     74.8296    107.1196   1.0021015264e+02   4.5424833697e+01    0.2421876     0.213555  -7.78 0.0009373332    1.333    0.250
        97 -10.7190     69.2157    105.0995   1.0147419533e+02   4.6713951122e+01    0.5543212    0.2907627 -36.89  0.002290727    2.342    0.573
        98  -9.5059     57.1897     85.5649   1.0067450668e+02   5.2869142618e+01    0.4398446    0.2685687 -10.05  0.001916311    2.671    0.626
        99  -9.0159     54.4831    100.5185   1.0509034053e+02   4.9715021586e+01    0.2991925    0.2094453 -52.54  0.001058839    1.246    0.198
       100  -9.5977     51.9772     86.0105   1.0256845576e+02   5.3397825221e+01    0.3422503    0.2572342  -6.74  0.001086526    1.649    0.394
       101  -9.2094     52.8653     82.0783   1.0127215949e+02   5.4189262466e+01    0.2384612    0.2132064 -55.88 0.0008500189    1.079    0.073
       102  -9.7939     39.1971     96.8802   1.0925563334e+02   5.2236042022e+01    0.3419994     0.208188 -35.18   0.00120786    1.854    0.461
       103 -11.1947     47.3209     99.4269   1.0715168832e+02   5.0792838798e+01     1.100834    0.4981497 -74.16  0.003576745    2.902    0.655
       104 -10.9707     51.1838     94.8087   1.0490034843e+02   5.1448102823e+01       1.3958    0.5437843 -66.12  0.005224348    2.843    0.648
       105  -9.8986     39.5022     92.4743   1.0825513447e+02   5.3239753909e+01    0.2331774    0.1921954 -37.63 0.0006320739    1.227    0.185
       106 -11.3139     34.2123     91.2573   1.0976612583e+02   5.4023797459e+01     1.000005    0.4912559  -0.76  0.003941835    4.093    0.756
       107  -8.7141    118.4582    105.4923   8.6997607327e+01   3.8047568144e+01    0.1540906      0.14924 -47.73 0.0003587375    1.004    0.004
       108 -11.3468    142.3826    101.5835   7.9578800604e+01   3.3687054186e+01    0.5797488    0.3357983  32.64  0.001234202    2.142    0.533
       109  -9.6309    133.8571    102.3658   8.1989446380e+01   3.5442303821e+01    0.3342273    0.2553557 -46.37  0.000663969    1.293    0.227
       110  -9.4665    132.2514     97.4978   8.1040203340e+01   3.6842421445e+01    0.3651398    0.2190695 -47.70  0.001504553    1.673    0.402
       111  -8.5866     95.9854    103.0171   9.2802552613e+01   4.2933878146e+01    0.1692805    0.1681556 -56.90 0.0003446277    1.054    0.051
       112 -10.3478     78.0914    101.6033   9.7891113500e+01   4.6236180263e+01    0.5221114    0.2975982  30.19  0.001675012    2.041    0.510
       113  -9.6004     62.0424    102.8139   1.0319910091e+02   4.8226897138e+01    0.2686594    0.1993242 -54.79     0.000247    1.186    0.157
       114  -9.5241     63.0366     98.4923   1.0189697978e+02   4.9118373273e+01    0.3138549    0.2686014  50.76  0.001519126    1.318    0.241
       115  -8.3888    105.5602    102.5075   8.9852689070e+01   4.1280803002e+01    0.1520037    0.1436679 -40.01 9.664573e-05    1.034    0.033
       116 -10.0297    110.9385    100.5793   8.7779505822e+01   4.0668078456e+01    0.2662305    0.2115303 -43.92 0.0002439657    1.215    0.177
       117 -10.5313      4.4611     85.8689   1.1870214958e+02   5.7380468793e+01    0.6762527    0.2792976 -56.46  0.003537466    1.784    0.439
       118 -10.4815      4.9031     99.3733   1.2048219219e+02   5.4267137872e+01    0.5659248    0.1934519 -52.21  0.002664489    2.378    0.580
       119  -9.2430      3.0216     94.4764   1.2040330669e+02   5.5494065358e+01    0.3811175   0.04690426 -58.09  0.001385515    3.636    0.725
       120  -9.4976    156.0925     96.3821   7.4761796540e+01   3.1545827352e+01    0.4592249    0.2380272 -31.37  0.001671796    2.206    0.547
       121  -9.3529     87.8568     97.1829   9.3734802251e+01   4.5688755315e+01    0.2223828    0.2027873 -80.50 0.0006637777    1.183    0.155
       122  -8.8082     81.9425     97.4369   9.5639477941e+01   4.6602884738e+01    0.2037762    0.1438815  38.47 0.0003744141    1.533    0.348
       123 -10.6387     70.9948     94.9223   9.8472031653e+01   4.8853254434e+01    0.4676976    0.3013178 -69.97 0.0003433582    1.800    0.444
       124  -9.8664    245.0041     96.0072   5.8072274265e+01   1.0756626220e+01    0.2313224    0.1723132   8.24  0.001154179    1.783    0.439
       125 -10.6263    115.9728     95.1020   8.4809845282e+01   4.0859458875e+01    0.6261427    0.3602388  49.85  0.001939861    1.865    0.464
       126 -10.8463    124.3551     92.1917   8.1630304127e+01   3.9708201710e+01    0.6955606    0.3750377  48.68  0.002148737    1.927    0.481
       127  -8.5403    150.8223     95.6559   7.5812534986e+01   3.2947756425e+01    0.2251748    0.1490285  59.71 0.0006380823    1.681    0.405
       128  -9.3975    177.8622     93.7648   6.9186887579e+01   2.6765034284e+01    0.2768107    0.2544226  -7.74 0.0004430777    1.159    0.138
       129  -9.4589    104.3453     92.2375   8.7362178022e+01   4.3815126334e+01    0.4693059    0.2766001  15.60  0.001634328    3.213    0.689
       130  -9.4011    106.6777     87.2001   8.5197031941e+01   4.4455024908e+01    0.3927816    0.2110099 -38.91 0.0008933042    1.870    0.465
       131  -9.4675    108.9975     84.0146   8.3551529894e+01   4.4668249627e+01     0.274157    0.2202391 -39.96 0.0006366419    1.200    0.166
       132 -10.4986     74.8481     89.9585   9.5933619973e+01   4.9425322758e+01    0.7352759    0.3436721  45.30  0.002992183    2.500    0.600
       133 -10.7366     83.3718     90.0051   9.3198540214e+01   4.8069510557e+01    0.3352456    0.2497455  33.36  0.001709035    1.460    0.315
       134  -9.6761     82.8168     85.7704   9.2185975541e+01   4.9108884489e+01    0.3770508    0.2283911 -28.12  0.001614591    2.067    0.516
       135  -8.7062    193.9362     89.4937   6.4818436272e+01   2.3606364803e+01    0.2235886    0.1526773  53.26 0.0004057228    1.497    0.332
       136  -9.0437    187.3998     89.3593   6.6035199753e+01   2.5236039717e+01    0.2323223    0.1827051  85.20 0.0002762682    1.541    0.351
       137 -10.3675    112.9203     86.4375   8.3140024056e+01   4.3353577642e+01     0.552637    0.2157305 -34.88  0.001716133    3.252    0.693
       138 -10.5164     89.0800     88.7293   9.1031026597e+01   4.7392537923e+01    0.6456011    0.4589945 -22.12  0.002306449    1.713    0.416
       139  -9.4319    145.4262     87.4329   7.4728546572e+01   3.5881139748e+01    0.4375914    0.2978925  19.89   0.00130582    2.070    0.517
       140  -9.8460    146.5298     82.4986   7.2974709609e+01   3.6585376476e+01    0.6040732    0.2736147 -24.95  0.001777667    3.678    0.728
       141  -9.4163    155.3331     86.1092   7.1959098659e+01   3.3755908406e+01    0.3738304    0.2374843  28.34  0.001465766    2.086    0.521
       142 -10.1359    118.8407     86.6603   8.1517704935e+01   4.2062735796e+01    0.3771763     0.259404  44.61  0.001512077    1.490    0.329
       143 -10.9486    135.7612     81.8180   7.5467459173e+01   3.9266657179e+01    0.7606382    0.5279052  -0.55  0.003066996    2.190    0.543
       144  -9.6185     40.5331     79.4381   1.0495967731e+02   5.6138087862e+01    0.3395694    0.2294403 -66.65  0.001608023    1.434    0.303
       145  -9.7270     36.9634     78.7202   1.0606214421e+02   5.6648918749e+01     0.729538     0.400034  86.05  0.002607048    4.553    0.780
       146 -10.1511    163.0395     81.2868   6.8780820832e+01   3.2772295710e+01    0.5396085    0.3071661  43.73  0.001742942    1.833    0.454
       147  -9.7239    106.2798     76.6282   8.2059494097e+01   4.6750662265e+01    0.4281757    0.2461904  48.78  0.001818937    1.870    0.465
       148 -10.5212    103.4022     80.9086   8.4270307010e+01   4.6438337773e+01    0.3971994     0.303507  21.97 0.0006010407    1.496    0.332
       149 -10.1687     98.7656     77.2121   8.4538160410e+01   4.8109426303e+01    0.3756847    0.3361872  67.40 0.0009578752    1.314    0.239
       150  -9.4273    168.9586     78.7662   6.6756256778e+01   3.1756104657e+01     0.268273    0.2174455  80.41 0.0003005122    1.416    0.294
       151  -9.4231    152.0670     76.6720   6.9875706203e+01   3.6342736166e+01    0.4299678    0.2583579 -22.30  0.001034385    2.092    0.522
       152  -8.5075    155.5176     73.5238   6.8114921522e+01   3.6065331308e+01    0.2221218    0.1549673 -21.40 0.0009564754    1.651    0.394
       153 -10.9520    150.1978     66.1807   6.7027276781e+01   3.8690835992e+01    0.6440254    0.4192275 -37.68  0.002841975    1.539    0.350
       154  -9.2227     90.6815     77.3352   8.7128881303e+01   4.9583751964e+01    0.4608366    0.2817335  -3.37   0.00164843    3.313    0.698
       155 -10.7332     82.4666     76.3014   8.9489505350e+01   5.1228242850e+01    0.4571993    0.3556307 -72.37  0.001184295    1.657    0.396
       156  -9.9608     76.0290     74.6795   9.1154167243e+01   5.2620776105e+01    0.3517201    0.2855472 -42.02  0.001228245    1.121    0.108
       157  -9.7284     61.4409     76.7822   9.6832308423e+01   5.4290332544e+01    0.3810635    0.2873563  35.03  0.002116227    1.488    0.328
       158  -9.6812    214.6002     76.2666   5.7699288981e+01   2.0842699553e+01    0.2779224    0.2723548  64.26 0.0009166412    1.085    0.078
       159  -9.3015     76.1905     84.0480   9.3863543819e+01   5.0551355821e+01    0.2277234    0.2058078  37.30  0.001079465    1.217    0.178
       160  -9.7978    146.8180     75.1047   7.0631371048e+01   3.7917898404e+01    0.2049117    0.1783408   8.63            0    1.281    0.219
       161  -8.9070     45.8153     76.7990   1.0240458626e+02   5.6179648382e+01    0.3076809     0.145075  41.75 0.0009127715    2.606    0.616
       162  -9.7789      4.9196     77.0368   1.1711589709e+02   5.9348096313e+01    0.1935757    0.1681028  38.21 0.0009304933    1.469    0.319
       163  -9.9785      3.3870     73.0689   1.1696762091e+02   6.0309121491e+01    0.4572058    0.1641864 -42.81  0.001882647    2.503    0.600
       164  -9.5547    247.7546     75.7663   5.2869407375e+01   1.3339108311e+01    0.2388054   0.08531315 -43.12 0.0008920757    2.469    0.595
       165  -9.7399    107.1737     59.6462   7.6106456656e+01   4.9842056854e+01    0.2457825    0.2337304  63.74 0.0004932693    1.195    0.163
       166 -10.5385    103.7594     68.3898   8.0133194092e+01   4.8902771002e+01    0.9645158    0.4960687  42.69   0.00398651    1.997    0.499
       167 -11.8788    117.1829     69.7683   7.6647022987e+01   4.5810121003e+01    0.9231082    0.7550344  28.29  0.004660255    1.277    0.217
       168 -11.6881    111.7605     63.5227   7.6101127471e+01   4.8158222358e+01     0.299343    0.2720701 -18.79 0.0002820016    1.068    0.063
       169 -10.2700    204.2983     73.9114   5.8733870736e+01   2.3737995021e+01    0.4615122    0.3395752  22.60  0.002119469    1.806    0.446
       170  -8.8805    164.0760     75.1533   6.6721338185e+01   3.3632391849e+01    0.4630784    0.2626747  34.26  0.001737218    2.278    0.561
       171  -9.5331    166.3902     62.9267   6.2513948978e+01   3.5152907967e+01    0.3616804    0.2319257 -38.46  0.001222662    1.556    0.357
       172  -8.8628    170.9172     70.4807   6.3886721307e+01   3.2724700508e+01     0.332276    0.1516628  55.80  0.001212529    2.173    0.540
       173 -10.2543    166.2404     68.7661   6.4330114940e+01   3.4207026377e+01    0.3884436    0.3466119 -46.26 0.0009532385    1.127    0.113
       174 -10.1072    131.6541     74.0196   7.4088979562e+01   4.1733651904e+01    0.3269062    0.3119702  44.15 0.0008998993    1.059    0.056
       175  -9.5934    124.7004     74.6352   7.6143934737e+01   4.3205402672e+01    0.4961377    0.2204938  49.44  0.001810352    2.300    0.565
       176  -9.6115    129.1852     60.9960   7.0447856370e+01   4.4687602139e+01    0.6620574    0.3918334  78.11  0.002239032    3.420    0.708
       177 -11.2068    138.9142     69.2316   7.0698292835e+01   4.0908911023e+01    0.8267519    0.4221729  49.89  0.002519835    1.933    0.483
       178  -9.6161    131.5448     67.2271   7.1914426027e+01   4.3023612312e+01    0.3436681    0.2676813  29.49 0.0002548045    1.382    0.276
       179 -10.2180    137.2911     60.0315   6.8080524199e+01   4.2919710330e+01    0.5963803    0.3695835   3.55  0.001218741    2.868    0.651
       180  -9.4337    177.8039     69.4360   6.2212832303e+01   3.1150881970e+01    0.5285889    0.3398245  86.86  0.002082576    2.273    0.560
       181  -8.5954    181.4996     68.5198   6.1240366183e+01   3.0363478564e+01    0.2296631    0.1525756  72.56 0.0009824735    1.728    0.421
       182  -8.6454     84.2931     67.3352   8.6012182107e+01   5.2776395258e+01     0.186283    0.1319316  47.87 0.0002996711    1.611    0.379
       183  -8.4812    238.6584     65.6526   5.1587441998e+01   1.6880077392e+01    0.1408841    0.1087747  17.39 0.0007045613    1.793    0.442
       184  -8.2685    159.3979     65.7610   6.4852514928e+01   3.6455066136e+01    0.1574737    0.1199148 -86.99 0.0006920406    1.669    0.401
       185 -10.9153    123.9966     66.9030   7.3807477475e+01   4.4827603038e+01     1.048904    0.6676332 -78.14  0.003593534    3.488    0.713
       186  -9.1751    188.5176    243.5630   9.8252221441e+01  -2.0638980784e+00    0.1225636   0.09507719  29.53 9.316913e-05    1.025    0.025
       187  -9.2849    207.2805     61.2531   5.4821687883e+01   2.5018194985e+01    0.2798798    0.2168364 -63.53 0.0007780955    1.339    0.253
       188  -9.6545    173.9972     57.4507   5.9357311122e+01   3.4082212389e+01    0.4915253    0.2729958 -11.07   0.00171912    3.013    0.668
       189  -9.8854    172.7018     47.6319   5.6599762433e+01   3.5904297687e+01    0.4129098    0.3835445 -80.24  0.002257295    1.082    0.076
       190  -9.2807    186.6307     61.3441   5.8221012649e+01   3.0221006429e+01    0.3496406    0.2331414 -71.15 0.0006563138    1.938    0.484
       191 -10.7600    192.9101     54.2216   5.5116216071e+01   2.9713916370e+01    0.5584425    0.4440958  37.20  0.002812678    1.425    0.298
       192 -10.3053    194.0096     50.0201   5.3745279319e+01   3.0054476918e+01    0.5159364    0.4030327  89.63   0.00158227    1.361    0.265
       193  -9.8223    177.5064     50.9432   5.6752333297e+01   3.4171483058e+01    0.3356076    0.2642024 -17.46 0.0009711013    1.432    0.302
       194 -10.5477    185.3742     55.8291   5.6833438968e+01   3.1402762365e+01    0.3887413    0.3113874  61.66  0.001025442    1.231    0.188
       195 -11.2212    183.3669     51.7313   5.5972623647e+01   3.2538955668e+01    0.5161064    0.3303558  51.65 0.0004800275    1.556    0.357
       196  -8.1260    227.2514     60.2577   5.1723799004e+01   2.0324512896e+01    0.1264253    0.1099812  17.54            0    1.427    0.299
       197  -9.7920    201.4643     59.9529   5.5364878357e+01   2.6672176855e+01    0.2967536    0.2342648  65.49 0.0005851553    1.276    0.217
       198  -9.5407    151.8448     59.9084   6.4648139479e+01   3.9343702685e+01    0.2765753    0.2183975  54.76 0.0007730392    1.244    0.196
       199 -10.1717    243.9942     56.2838   4.8669659144e+01   1.7054889301e+01    0.4277434    0.2048128 -36.72  0.001914919    1.837    0.456
       200 -11.0142    142.2911     43.3624   6.1264312366e+01   4.4314273723e+01    0.6761349    0.4133724 -11.08  0.001421679    2.163    0.538
       201 -10.1356    166.5590     54.0558   5.9734506622e+01   3.6528426712e+01    0.5779536    0.3004344 -32.47  0.002328871    1.959    0.490
       202 -10.5758    160.5584     52.2558   6.0354108736e+01   3.8348907045e+01    0.5318481    0.4670158   0.12  0.002767612    1.269    0.212
       203 -10.3196    147.9990     34.9503   5.7190610787e+01   4.4034170933e+01    0.8035019     0.289371  61.48   0.00270485    2.707    0.631
       204  -9.9184    155.9176     31.1626   5.4403666084e+01   4.2490323256e+01    0.3860798    0.2557668  -9.11  0.001773573    1.879    0.468
       205  -9.9661    140.6554     52.3329   6.4689827939e+01   4.3361291666e+01    0.4324677    0.3001848  31.90  0.001319419    1.608    0.378
       206 -12.1222    147.5557     53.3610   6.3463864858e+01   4.1480462126e+01    0.5832017    0.4233704  16.45  0.002641502    1.751    0.429
       207 -10.3880    145.0069     49.0294   6.2586360228e+01   4.2791922267e+01    0.3228903    0.2617569  26.18 0.0003263569    1.336    0.251
       208  -9.5122    222.6814     56.0100   5.1243930929e+01   2.2041851029e+01    0.3266282    0.2428579 -77.18   0.00158062    1.457    0.314
       209 -10.1067    133.1094     55.1519   6.7463303626e+01   4.4745535849e+01    0.4662723    0.2987038 -14.86  0.001710963    1.970    0.492
       210 -10.2129    234.0626     55.5253   4.9668327274e+01   1.9426301636e+01    0.3727291    0.2508149  59.03  0.001908851    1.576    0.366
       211  -9.1932    118.2083     42.4408   6.6764297050e+01   5.0255217026e+01    0.5723774    0.1266759 -35.98  0.001643514    4.233    0.764
       212 -10.4328    121.0694     53.9072   7.0142902401e+01   4.7781187053e+01    0.4810713    0.4172955   9.77  0.002548489    1.192    0.161
       213  -9.6739    116.0044     51.0248   7.0496680920e+01   4.9408353259e+01    0.3645294    0.2970651 -30.03  0.001902819    1.225    0.183
       214  -8.7963    118.7723     47.9681   6.8637041770e+01   4.9273816819e+01    0.2130362    0.1990515 -37.09 0.0004606447    1.136    0.120
       215 -11.6851    101.6884     55.7424   7.6377104061e+01   5.1680696816e+01     1.605058    0.9754217   8.23  0.006116853    2.850    0.649
       216  -9.7217    211.7223     51.8953   5.1654432901e+01   2.5316951995e+01    0.3817831    0.2868349   2.58  0.001847545    1.839    0.456
       217 -11.4843     58.2461     48.6925   8.8929542117e+01   6.0488548338e+01    0.5602405    0.5360219 -73.10  0.003465966    1.385    0.278
       218  -8.6576    119.6649    239.3279   1.1058944493e+02   9.6465052086e+00    0.1276798   0.07868528  64.22 0.0007051837    1.723    0.419
       219 -10.3123     14.4194    237.1381   1.2914661461e+02   2.3886537068e+01      0.26085    0.1347789  88.25  0.001009369    1.604    0.376
       220  -9.3189    228.5573     49.8203   4.8918819806e+01   2.1533364721e+01    0.2275648    0.1868374  77.63 0.0002954172    1.237    0.192
       221  -9.5579    201.8417     48.3975   5.2110405554e+01   2.8295878004e+01    0.2252776    0.2019789  13.37 0.0003883009    1.329    0.247
       222 -10.1296    207.0491     46.0919   5.0740124733e+01   2.7311471913e+01    0.4247793    0.1904915  59.58 0.0009952568    2.157    0.536
       223 -10.0634    100.4961     41.6318   7.1472003961e+01   5.4277902878e+01     1.290272    0.8483153  37.25  0.006356462    1.498    0.333
       224  -8.8348     55.4547    237.7464   1.2222391061e+02   1.9091898153e+01     0.141182   0.09480982 -65.97 0.0009479563    1.726    0.421
       225  -8.7605     20.9790    232.3183   1.2782632601e+02   2.4081244068e+01    0.1478462    0.1047294  64.78 0.0006233578    1.089    0.082
       226  -9.1303     12.8692    231.9583   1.2915727405e+02   2.4983225768e+01    0.2218681   0.07827657  57.79  0.001242551    2.145    0.534
       227 -10.2852    110.4830     17.6363   5.9158830539e+01   5.5252766396e+01    0.2489983    0.2334846  41.25 0.0006697904    1.099    0.090
       228  -8.3480    226.6987    231.6743   8.9511176695e+01  -6.5093731067e+00    0.1241294   0.07787096   9.64 0.0003444122    1.638    0.389
       229  -9.0974    219.4304    230.7306   9.0652685369e+01  -5.2735675377e+00    0.1619016    0.1444901  57.44 0.0005616389    1.658    0.397
       230  -9.3343    202.2176    228.9605   9.3508082169e+01  -2.3001134594e+00    0.2052268    0.1480028  32.23 0.0003516768    1.142    0.124
       231 -12.3189    105.7180     33.7341   6.6858872563e+01   5.4321787434e+01    0.3134819    0.2481303  40.18 0.0003095872    1.195    0.163
       232 -11.5118    111.6506     31.3532   6.4298182992e+01   5.3322910271e+01    0.7305771    0.5297868  84.06  0.003483866    2.055    0.513
       233 -10.9507     66.7625     44.2663   8.3986448607e+01   6.0039427984e+01    0.3924493    0.3107355 -28.83  0.001778141    1.132    0.117
       234  -9.7995     75.5243     46.1454   8.1486797157e+01   5.8281755403e+01    0.3657888    0.2465161  15.21  0.001838863    1.717    0.418
       235 -10.1843     76.5447     41.5364   7.9320222391e+01   5.8894617007e+01    0.2850798    0.2275426 -16.42 0.0006331091    1.159    0.137
       236  -9.0671    191.8209     44.7929   5.2590123486e+01   3.1364087800e+01    0.2205748     0.193678  47.22 0.0006419068    1.208    0.172
       237  -9.1885    179.1034     44.9993   5.4688860436e+01   3.4621767121e+01    0.2177207    0.2158193  61.68  0.000394653    1.065    0.061
       238  -8.7773    129.6888     45.6830   6.5009959706e+01   4.7064612824e+01    0.4530451    0.2409406  -5.56   0.00145119    3.812    0.738
       239  -8.7603    131.6949     38.9585   6.2131491838e+01   4.7559905600e+01    0.4157444    0.2539543   6.47  0.001389814    2.502    0.600
       240  -9.1445     16.0970     44.7483   1.0531517247e+02   6.5619890560e+01    0.2508694    0.1820734 -15.28  0.001660293    1.410    0.291
       241  -9.4836    249.0290     44.1373   4.5250218748e+01   1.7628046610e+01    0.1876596    0.1809265  15.45 0.0004427497    1.299    0.230
       242  -8.9358    219.7749     43.0035   4.8259690498e+01   2.4593255679e+01    0.1864379    0.1108872 -33.50 0.0008162142    1.635    0.388
       243 -10.1455    215.1075     39.8075   4.8006042546e+01   2.6170854727e+01    0.5570109    0.3132943 -25.74  0.001430319    1.951    0.487
       244  -9.2942    137.3737    224.7628   1.0538474386e+02   9.2390277367e+00    0.1580116    0.1198592 -40.23 0.0006768828    1.665    0.400
       245  -9.3566     41.0847    221.3276   1.2363689594e+02   2.3915299955e+01    0.1843464    0.1357966 -77.16 0.0009823175    1.384    0.277
       246  -9.4212    214.4951     21.5018   4.3315643453e+01   2.8629594258e+01    0.3114084    0.1953793  56.77  0.001190875    1.640    0.390
       247  -9.9133    136.1891     41.8423   6.2110473525e+01   4.6048918129e+01     0.359143    0.2680539 -72.43  0.001687789    1.791    0.442
       248  -9.6346     27.0022    212.2994   1.2560963231e+02   2.7263069919e+01    0.1635194    0.1203242  65.56  0.001176954    1.102    0.092
       249  -8.9427    233.8161    199.6685   8.2597738021e+01  -3.4311752509e+00    0.1834646    0.1432338  -2.61  0.001128233    1.148    0.129
       250  -9.5971     27.8623    193.8897   1.2417421989e+02   3.0934029871e+01    0.2243705    0.1340171 -88.90  0.001383285    1.399    0.285
       251  -9.8594     11.1117    192.3196   1.2733742800e+02   3.2908378161e+01    0.2518813    0.1549058  46.94  0.001687182    1.551    0.355
       252  -9.8865     24.2542     13.7664   8.9546894819e+01   7.0529921900e+01    0.1834889    0.1473592  12.79 0.0005740211    1.330    0.248
       253  -8.5401      7.7750    186.0007   1.2759563413e+02   3.4529384854e+01    0.1409498   0.07300644 -82.42            0    1.540    0.351
       254 -11.6629     15.3746     30.9135   1.0112825615e+02   6.8352971308e+01    0.5489264    0.4337493 -34.42 0.0007771176    1.055    0.053
       255  -9.3038     11.6752    184.6665   1.2674268108e+02   3.4463802377e+01    0.1997756    0.1787447  85.73 0.0005113254    1.306    0.235
       256  -8.6409    224.5371     41.9842   4.7422708997e+01   2.3579939289e+01    0.2011857    0.1312379 -33.32 0.0004392421    1.501    0.334
       257  -8.5652    197.2852     41.7322   5.0912156661e+01   3.0388543095e+01    0.1451982    0.1044019 -68.02 0.0001990807    1.496    0.332
       258  -9.5928    173.0465     39.0294   5.3894823678e+01   3.7022268189e+01    0.3883633    0.3345942 -84.16  0.001897292    1.195    0.163
       259  -8.4471    167.6581     41.7248   5.5671111054e+01   3.8053734262e+01    0.1539465     0.108787  34.50 0.0002030282    1.618    0.382
       260  -8.3455    148.6792     41.6697   5.9321428434e+01   4.2945530650e+01    0.1575533    0.1105068  26.42 0.0007048774    1.693    0.409
       261 -10.5736     25.9669    177.0203   1.2323986113e+02   3.4759962366e+01     0.395181    0.2785428 -64.33  0.002567823    1.459    0.314
       262  -8.9220    235.6729     39.8512   4.5633176564e+01   2.1234233401e+01    0.2035862    0.1690247 -15.34  0.001158785    1.448    0.310
       263 -10.4940     30.4459    172.2541   1.2185983374e+02   3.5364159522e+01     0.335034    0.2264986 -69.56  0.001867299    1.355    0.262
       264  -8.5546    126.6674     38.8074   6.3279204738e+01   4.8795879780e+01    0.2106761    0.1264211 -39.84 0.0005428983    1.763    0.433
       265  -9.3099    202.6199     37.8001   4.9079914971e+01   2.9561953474e+01    0.3072017    0.1825245  59.91 0.0007563155    1.637    0.389
       266 -10.8652    220.0137     33.8268   4.5870216188e+01   2.5755771375e+01    0.4878573     0.376533 -33.73  0.001570633    1.316    0.240
       267 -10.7202    226.3982     28.8892   4.3925938443e+01   2.4841087785e+01    0.6572134    0.3210781 -35.37  0.002330332    1.903    0.475
       268  -8.9596    198.3890     35.7990   4.9097781907e+01   3.0901057447e+01    0.2891206    0.1776249 -27.49 0.0009601221    1.734    0.423
       269  -8.8970    198.5127     32.4728   4.8155425610e+01   3.1298707670e+01    0.2277785    0.1375757 -31.89 0.0006641347    1.682    0.405
       270 -10.3431    244.7793     33.5922   4.3212838226e+01   1.9969820638e+01    0.6904026     0.307125  79.40   0.00292969    2.640    0.621
       271  -9.9384    234.7619     33.4480   4.4175488790e+01   2.2286024701e+01    0.3065952    0.2015564  53.38  0.001037487    1.712    0.416
       272 -11.3386    236.2647     28.2756   4.2780923646e+01   2.2591916537e+01    0.5965851    0.4155477  39.65  0.002811042    1.937    0.484
       273  -9.6419    182.6017     34.0196   5.0852131275e+01   3.5198392546e+01    0.6393592    0.1747873  54.84  0.002068192    3.203    0.688
       274  -9.6435    134.9400     34.1379   5.9666981525e+01   4.7419811010e+01    0.3495712    0.2398288  17.30  0.001208537    1.799    0.444
       275  -8.9213    138.5337     31.5099   5.7953084163e+01   4.6867532547e+01    0.2341169    0.1433052 -27.93 0.0006341048    1.714    0.417
       276  -8.2742    123.9318     36.0000   6.2919351710e+01   4.9839962472e+01    0.2402063   0.07932971  56.03 0.0007978191    2.911    0.656
       277 -10.8960      6.4104     20.4041   1.0174715808e+02   7.0872211683e+01    0.3091828    0.1778588 -30.38 0.0009699998    1.410    0.291
       278  -8.7779      2.9418     34.8585   1.0837721398e+02   6.8362473771e+01    0.3325139    0.0933734 -35.99  0.001401811    3.337    0.700
       279 -10.0146      1.7487    178.4935   1.2832715570e+02   3.6626349862e+01    0.2953417    0.1198848 -85.96  0.001570136    2.010    0.502
       280  -8.7874     36.9453    179.4602   1.2110516547e+02   3.3074103675e+01    0.1797519   0.07062923  55.63 0.0008087615    2.518    0.603
       281  -9.8909    173.4236     31.2437   5.1438894388e+01   3.7937141274e+01    0.4125379    0.3127208   1.13  0.001838006    1.663    0.399
       282  -9.8570    185.6107     24.6887   4.7678443934e+01   3.5569091172e+01    0.4400266    0.2145162 -38.70  0.001180541    2.017    0.504
       283 -10.2571      7.8122    176.8559   1.2700492134e+02   3.6472107757e+01    0.2882788    0.1659186  55.18  0.001198877    1.563    0.360
       284 -10.1077    176.9936     15.0388   4.6001390796e+01   3.8876805753e+01    0.4328912    0.2142865  70.52 0.0004408672    1.879    0.468
       285 -11.3065    178.0695     26.3970   4.9254299127e+01   3.7321246801e+01    0.6484573    0.4385695  80.08  0.003164198    1.503    0.335
       286  -8.8684     80.0410    176.6752   1.1114781895e+02   2.8163298686e+01    0.1896159    0.1665142  62.47  0.001161862    1.102    0.093
       287  -8.3877     65.4678    173.4754   1.1409354144e+02   3.0944187959e+01    0.1321386    0.1116201  82.37 0.0001282904    1.002    0.002
       288 -10.6062     32.1601    166.3337   1.2092336777e+02   3.6521580234e+01    0.2342741    0.1943347  65.73 0.0003911804    1.173    0.148
       289  -9.7813     18.9245    165.8356   1.2383094113e+02   3.7913874611e+01    0.1747458    0.1447982 -72.90  0.001228918    1.256    0.204
       290 -10.3629      2.1388    159.3271   1.2699912893e+02   4.0753745194e+01    0.3901755    0.1607027  89.63  0.001968433    2.138    0.532
       291  -8.8154     28.9363    158.2961   1.2087132397e+02   3.8679925996e+01     0.162266    0.1370879  75.49 0.0003842522    1.126    0.112
       292 -10.3309     30.5365    151.8354   1.1982028160e+02   4.0016994039e+01    0.2708212     0.179177 -72.11  0.000737396    1.268    0.212
       293  -9.1917    203.3362     28.9324   4.6564657173e+01   3.0518794788e+01    0.2965798    0.1976189 -16.18   0.00111084    1.851    0.460
       294  -9.5730    204.8015     24.3938   4.5161344043e+01   3.0701264655e+01    0.3498103    0.2112195 -43.53  0.001710843    1.591    0.372
       295  -8.9789     54.9592     29.5437   8.2616495508e+01   6.4287838203e+01    0.1809905    0.1480346 -19.65 1.038673e-05    1.071    0.067
       296  -8.9236    167.2523     29.2477   5.1817105246e+01   3.9790217595e+01    0.3386723    0.1546506  59.54  0.001368761    1.976    0.494
       297  -9.5986    145.9717     29.0431   5.5575608458e+01   4.5300742557e+01    0.4091885    0.2483988  57.56  0.001896722    1.515    0.340
       298  -9.7898    147.3437     23.9053   5.3551400115e+01   4.5562476215e+01    0.2728421    0.2282031  50.03 0.0008451864    1.116    0.104
       299  -9.4240    153.2427     24.5311   5.2687642269e+01   4.3979242216e+01     0.340569    0.2227014 -37.46  0.001651507    1.608    0.378
       300  -8.9643    139.7607     25.6117   5.5615682134e+01   4.7283731670e+01    0.3513668    0.1313342 -20.56  0.001197099    3.360    0.702
       301  -8.6393    166.7755     25.6298   5.0755290493e+01   4.0348883590e+01    0.2120134     0.131173  78.84 0.0009512027    1.730    0.422
       302 -12.8966     10.2946    145.4143   1.2403709670e+02   4.3265149610e+01     1.244746    0.8301424  57.98  0.008026979    1.488    0.328
       303 -13.2869     36.7772    119.2860   1.1394664126e+02   4.7132468268e+01     1.838528     1.627061  60.51  0.008566102    1.244    0.196
       304 -12.9793     13.0664    127.1004   1.2152210720e+02   4.7293043478e+01    0.8342369    0.6202217  70.94  0.001777513    1.332    0.249
       305 -10.8663    129.1867     23.2210   5.6967004418e+01   5.0185654099e+01    0.2868093    0.2294369  42.76 0.0004374943    1.157    0.136
       306 -12.7780     13.9184    104.7739   1.1850415484e+02   5.2455822516e+01     2.157296    0.6132115 -45.92  0.007753817    3.795    0.737
       307  -9.4091     96.9502     22.3732   6.4746895266e+01   5.7702477050e+01     0.342894    0.1905337  29.95  0.001563456    1.951    0.487
       308 -12.3751     19.9568     83.8916   1.1314614572e+02   5.6877984539e+01    0.9592214    0.7049434 -15.73  0.003593899    1.650    0.394
       309 -10.2082     67.2071     21.6728   7.4278741073e+01   6.3521062891e+01    0.4259889    0.3174108  72.81  0.002180552    2.616    0.618
       310  -8.4043     64.5117     17.4639   7.3346632239e+01   6.4540507806e+01    0.2181152    0.1377696  28.25 0.0005250738    1.514    0.340
       311  -9.3848     81.5024     19.8655   6.8433050490e+01   6.1152417639e+01    0.3564444    0.3065228  77.43  0.002104568    1.699    0.411
       312 -10.1038    236.1738    249.4142   9.0695009171e+01  -9.9390151226e+00    0.3084343    0.1165722  44.07  0.001465548    2.824    0.646
       313 -10.1085    245.9418     18.9035   3.9726691070e+01   2.1521561087e+01    0.3788315    0.1780391  73.85  0.001813712    2.120    0.528
       314 -11.9363     30.8648     72.0129   1.0667359302e+02   5.8704104898e+01    0.7603295    0.3117501 -45.67  0.003515933    2.051    0.512
       315  -9.4445    205.6427     15.5387   4.2706683481e+01   3.1508775314e+01    0.3413883    0.2130476  42.34  0.001658689    1.971    0.493
       316 -11.5351     39.3678     65.9389   1.0187541980e+02   5.9239412440e+01    0.8282622    0.6528678 -17.75   0.00408463    1.325    0.245
       317  -9.1847    198.4606     16.1074   4.3653317249e+01   3.3254498369e+01    0.2244902    0.1768088  59.94  0.001254251    1.266    0.210
       318  -8.1489    239.2795     15.3296   3.9464476965e+01   2.3448438533e+01    0.1173703   0.09945553  32.94 0.0001935966    1.601    0.375
       319  -9.4712    243.0770     13.0252   3.8626742101e+01   2.2848093780e+01     0.263476    0.1686883  74.20  0.001266856    1.525    0.344
       320 -12.3047     88.3134     58.0336   8.1471325242e+01   5.3866034484e+01     1.898039    0.9373616  29.56  0.006515252    2.575    0.612
       321 -11.5356     36.6154     27.2078   8.9599139565e+01   6.7038155344e+01    0.2424627    0.1894943  -6.74 0.0003023019    1.147    0.128
       322  -9.0835     67.7396     13.2129   7.0128830856e+01   6.4513776592e+01    0.1968308    0.1575534  42.49 0.0005824887    1.364    0.267
       323  -9.3778    183.2155    249.6054   1.0006849554e+02  -2.0237221584e+00    0.1787479    0.0901234  32.67 0.0009539293    1.693    0.409
       324  -9.2081    108.3541    249.3197   1.1372913493e+02   9.7384825234e+00    0.1077832   0.08786003  17.05 0.0007046651    1.751    0.429
       325 -10.9443     41.6301     53.9549   9.7378449974e+01   6.1510923518e+01    0.2835786    0.2376934  34.45 0.0003412086    1.445    0.308
       326 -11.7091     42.2975     49.8036   9.5729034376e+01   6.2267124085e+01     1.153518    0.3912943  32.90   0.00482713    3.243    0.692
       327  -8.8638      3.5059    246.4658   1.3125962372e+02   2.3332365934e+01    0.1631514   0.06807207 -69.85  0.001025734    2.465    0.594
       328 -12.6290     48.1982     38.9722   8.9316034430e+01   6.3607545873e+01    0.6100585    0.4327454  34.73 0.0007863804    1.612    0.380
       329 -11.8780     56.5378     37.6073   8.5342649283e+01   6.2725344601e+01    0.4597361    0.3652814   2.93 0.0008443097    1.207    0.171
       330 -11.7326     56.5289     69.6798   9.6528212108e+01   5.6476165837e+01    0.7772701    0.3614441  18.52  0.003044559    3.314    0.698
       331 -12.0281     54.8177     64.7039   9.5651056811e+01   5.7749669821e+01    0.8535448    0.4555642 -40.01  0.002409386    1.696    0.410
       332 -11.5803     33.2308     59.0640   1.0232447026e+02   6.1296115173e+01    0.5516809    0.3543352 -21.16  0.001328007    1.714    0.416
       333  -8.3423     45.8860    150.4013   1.1588436110e+02   3.8737477162e+01    0.1456559    0.1278278   9.56 0.0003997268    1.554    0.356
       334  -9.2137     67.4777    148.0102   1.1006528660e+02   3.6618137832e+01    0.2145179    0.1232082 -66.47  0.001032774    1.594    0.373
       335  -9.9547     46.4682    144.3498   1.1494385869e+02   4.0107314026e+01    0.3945064    0.2596079 -17.76  0.001896781    2.767    0.639
       336  -9.8862     53.7313    142.4094   1.1278901251e+02   3.9724244196e+01    0.5514455    0.2556971  61.41  0.002204845    2.965    0.663
       337  -9.3448     47.7526    139.4882   1.1393562439e+02   4.1123566206e+01    0.3347504     0.200965 -76.98  0.001731496    1.525    0.344
       338  -9.8093     40.5028    146.4620   1.1673643484e+02   4.0260056667e+01    0.2629339    0.2179641 -42.54   0.00105773    1.478    0.324
       339 -10.8295     38.2996    143.0831   1.1687031581e+02   4.1291980748e+01    0.3691993    0.2945197  -8.41 0.0005088518    1.854    0.461
       340 -10.8200     30.7767    142.3956   1.1869781730e+02   4.2204156629e+01    0.3178077    0.2147776 -48.01   0.00127775    1.665    0.399
       341  -8.9041     80.1526    141.1729   1.0560608203e+02   3.6437595905e+01    0.2015583    0.1842795 -47.04   0.00050652    1.210    0.174
       342  -9.4949     55.2104    136.8029   1.1155161193e+02   4.0892501707e+01    0.2375365    0.1393938 -50.06 0.0007791016    1.728    0.421
