#   1 NUMBER                 Running object number                                     
#   2 MAG_AUTO               Kron-like elliptical aperture magnitude                    [mag]
#   3 X_IMAGE                Object position along x                                    [pixel]
#   4 Y_IMAGE                Object position along y                                    [pixel]
#   5 X_WORLD                Barycenter position along world x axis                     [deg]
#   6 Y_WORLD                Barycenter position along world y axis                     [deg]
#   7 A_WORLD                Profile RMS along major axis (world units)                 [deg]
#   8 B_WORLD                Profile RMS along minor axis (world units)                 [deg]
#   9 THETA_WORLD            Position angle (CCW/world-x)                               [deg]
#  10 FWHM_WORLD             FWHM assuming a gaussian core                              [deg]
#  11 ELONGATION             A_IMAGE/B_IMAGE                                           
#  12 ELLIPTICITY            1 - B_IMAGE/A_IMAGE                                       
         1 -11.8651     82.0669     36.6230   9.4108266208e+01   5.7916548579e+01    0.3656746    0.2865196   9.64    0.0014197    1.214    0.176
         2 -10.3681     20.0943     15.5717   1.0928798154e+02   6.9121237664e+01     0.223367    0.1755302 -26.52  0.000345041    1.262    0.208
         3 -11.2405     23.8955     20.8395   1.0974989177e+02   6.8028332613e+01    0.3379034    0.1624274 -29.49  0.001198101    1.803    0.445
         4 -10.7203      4.1011     19.6106   1.1818892325e+02   6.9808050886e+01    0.2968768    0.1229517 -37.42  0.001771202    1.815    0.449
         5 -10.8024    216.9592     16.6504   6.2083906402e+01   2.9498151754e+01    0.5853165    0.1566787  54.61  0.002039369    3.953    0.747
         6 -12.2657    131.7830     15.1785   7.3881011802e+01   5.0137419733e+01    0.5651627    0.5043721  45.46  0.003633946    1.049    0.046
         7 -10.8149     75.4776     17.4850   8.8847604410e+01   6.1436483414e+01    0.3470362    0.2054618   6.55 0.0009600421    2.011    0.503
         8 -11.5791     78.6773     11.9134   8.5636522053e+01   6.1454030584e+01    0.4565533    0.2830904   2.40  0.001900848    1.773    0.436
         9 -11.7140     81.3188      6.0566   8.2517926451e+01   6.1526107667e+01    0.2293844    0.1904975  15.86  0.000285631    1.074    0.069
        10 -12.2836     26.0194     13.5574   1.0581548068e+02   6.8807250360e+01    0.2503585    0.1576754 -15.86 0.0003306947    1.334    0.250
        11  -9.6776     50.7465     12.8538   9.5440123196e+01   6.5855750856e+01     0.352442    0.1343326 -20.99  0.001518546    3.355    0.702
        12 -10.7637     61.4650     11.1930   9.0877600107e+01   6.4433284040e+01    0.3185821    0.2333537  67.16  0.001396269    2.531    0.605
        13  -9.3388    107.7183     10.0178   7.7241839962e+01   5.5936341526e+01    0.1407464    0.1093772 -14.95 0.0007315804    1.406    0.289
        14 -10.3683     23.4429      9.0766   1.0501160751e+02   6.9643167913e+01    0.2749259     0.131554 -33.95  0.001678776    1.828    0.453
        15 -12.3212     26.4838      3.7480   1.0125956130e+02   6.9955211714e+01    0.2641705    0.1831817  18.34  0.000518531    1.297    0.229
        16 -11.2068     31.5261      2.5191   9.8508295323e+01   6.9511153150e+01    0.2189247    0.1713869  28.78 0.0009332341    1.482    0.325
        17  -9.2609    122.3392      9.1291   7.3769151106e+01   5.2840196552e+01    0.1637165    0.1114985 -36.07  0.000576151    1.697    0.411
        18  -9.6553     37.1512      8.4810   9.8865703855e+01   6.8160717788e+01    0.1463555   0.09296713  25.59 0.0003466827    1.434    0.303
        19  -9.8800      8.9425      7.7325   1.1115008310e+02   7.1143958565e+01    0.3064562    0.1467974   1.81  0.001700714    2.504    0.601
        20  -9.6559    182.5376      7.5066   6.3760692424e+01   3.8749864883e+01    0.1312404    0.1097612  83.28 -3.306255e-05    1.018    0.018
        21 -11.0644     75.4264      4.6376   8.3656937106e+01   6.2721636259e+01    0.3470426    0.1965916  -6.64  0.001366572    1.936    0.484
        22  -9.9930     15.5783      6.1958   1.0733041620e+02   7.0769281929e+01    0.2120144    0.1724096   8.84  0.001207032    1.358    0.263
        23 -10.2294     18.7959      3.6252   1.0467250968e+02   7.0776813286e+01    0.1790289     0.111476   2.75 0.0008363405    1.403    0.287
        24  -9.1926    155.6529      6.2889   6.7072451591e+01   4.5354898258e+01    0.1315542   0.09100586 -76.98 0.0003833762    1.659    0.397
        25 -10.3848    115.1275      4.6755   7.3735091987e+01   5.4810871077e+01    0.2246878    0.1793583   4.00  0.001431964    1.369    0.270
        26 -10.8418     99.0475     12.7426   8.0333962277e+01   5.7475862115e+01    0.2691027     0.229712 -45.60 0.0008178799    1.484    0.326
        27 -10.6860     98.2093      3.8187   7.7221303962e+01   5.8440765048e+01    0.3079451    0.1267592  51.22  0.001062155    1.959    0.489
        28 -10.1103     92.0581      4.0390   7.8830426625e+01   5.9651590330e+01    0.1818543    0.1440165  30.43 0.0003500051    1.065    0.061
        29  -9.9860    129.2152      3.2148   7.0501319306e+01   5.1797395800e+01     0.211412    0.1320665 -68.44  0.001050251    2.373    0.579
        30  -9.2664    124.4526      1.4578   7.0806995914e+01   5.3012200293e+01    0.1248599    0.1061847  54.84 3.917267e-07    1.031    0.030
        31  -9.2488    249.3537    227.2577   1.0312312616e+02  -1.1480994903e+01    0.1251205   0.08071076  10.05 0.0003416858    1.610    0.379
        32 -11.0297    247.0862    250.1058   1.0745823351e+02  -1.4107149685e+01    0.3428843    0.2046028  18.29  0.002049876    1.579    0.367
        33 -11.0881    250.5093    244.7094   1.0595747482e+02  -1.3926606796e+01    0.5210224     0.188143 -39.19    0.0024347    3.085    0.676
        34 -10.9486    181.5622    248.3403   1.1918692690e+02  -3.5328109326e+00    0.4333255    0.1981474 -34.20  0.001938836    3.089    0.676
        35  -9.8741    127.9837    249.5136   1.2955694001e+02   5.4234408621e+00    0.1814575    0.1609174 -85.10  0.001220849    1.246    0.198
        36  -9.9927     72.6611    250.0916   1.3979424023e+02   1.4014486281e+01    0.1745347    0.1616187  39.49  0.001257805    1.575    0.365
        37 -10.1236     31.4622    250.2724   1.4681232212e+02   1.9415524671e+01    0.1549258   0.08068255  85.50 0.0009453493    1.649    0.394
        38 -10.7807     10.7895    250.3524   1.5009343293e+02   2.1745984408e+01    0.3535759    0.1554226  42.08  0.002176893    2.190    0.543
        39 -11.5399     14.2590    244.7411   1.4924329242e+02   2.2419314206e+01    0.3697962    0.1567643 -86.71  0.002076146    2.021    0.505
        40 -12.2370     21.2645    249.0108   1.4837565445e+02   2.0839524796e+01    0.4955286    0.1890612  47.86  0.002850646    2.095    0.523
        41 -11.6324     27.9495    246.2860   1.4712963194e+02   2.0581997897e+01    0.4225724    0.1783796 -79.56  0.002386587    2.111    0.526
        42 -11.0755      6.2481    245.1442   1.5052361804e+02   2.3194374581e+01    0.3092469    0.1590492  78.75  0.001065155    1.475    0.322
        43 -11.6852      9.1349    242.1405   1.4991098971e+02   2.3458614161e+01    0.4839796    0.1885494  75.04  0.002580825    2.368    0.578
        44 -10.2771    130.0390    226.9055   1.2620092120e+02   9.2200161887e+00    0.3554133    0.1579674  52.42   0.00151738    2.161    0.537
        45 -10.3355     88.1338    227.1358   1.3460621281e+02   1.6174471055e+01    0.1835002    0.1696814  68.07  0.001121177    1.261    0.207
        46 -10.2451      6.0791    226.7276   1.4953652651e+02   2.6759224209e+01    0.2456544   0.08832996  54.80  0.001339685    2.262    0.558
        47 -10.4232     66.3833    226.2507   1.3871815814e+02   1.9590342222e+01    0.2777465    0.1468042  49.98  0.001001659    1.636    0.389
        48 -10.4711    180.8656    224.1307   1.1550441137e+02   5.1924497868e-01    0.2235669    0.1816505 -32.73 0.0006335849    1.390    0.281
        49 -10.1715     81.4063    224.5483   1.3563685976e+02   1.7737858046e+01    0.2545374    0.1641712  88.84  0.001109006    1.546    0.353
        50 -11.2714    141.3708    221.4371   1.2309465920e+02   8.2442782852e+00    0.2973328    0.2371022  16.23  0.001396222    1.648    0.393
        51  -9.5030     51.4991    222.5544   1.4118435916e+02   2.2381347776e+01    0.1224395   0.09535963  77.46 0.0001066447    1.031    0.030
        52 -10.5492     13.1635    222.0035   1.4804930832e+02   2.6982867302e+01     0.173489     0.131083  70.22 0.0004006692    1.161    0.139
        53  -9.8646    174.1621    219.9154   1.1614702953e+02   2.4871454638e+00    0.2057979    0.1763504  60.32 0.0006759957    1.224    0.183
        54  -9.7551    250.3121    219.0719   1.0147308631e+02  -1.0488512949e+01    0.1725146    0.1398516 -11.45 0.0006133724    1.106    0.096
        55 -10.9634    123.2856    221.5230   1.2682457949e+02   1.1464164358e+01    0.2896965    0.2279625  56.16 0.0009544118    1.103    0.093
        56 -10.4772    191.5101    216.9609   1.1215531235e+02  -1.8847188833e-01    0.2231205    0.1803518  17.31  0.001035719    1.275    0.216
        57  -9.5243     37.8083    217.4062   1.4329552415e+02   2.5174870249e+01    0.1375796     0.110481  40.29  0.000418902    1.574    0.365
        58 -10.3357     24.5314    216.8951   1.4568936847e+02   2.6812820860e+01    0.2436598    0.1085826  56.32   0.00133482    1.947    0.486
        59 -10.4925    234.4177    216.2388   1.0380526726e+02  -7.5592951231e+00    0.1703988    0.1179375 -44.70 0.0006984925    1.695    0.410
        60 -10.3547    201.5286    215.9733   1.1000047903e+02  -1.8405943937e+00    0.2157815    0.1717142  12.15  0.001227803    1.309    0.236
        61  -9.9690     31.1011    215.8602   1.4441094522e+02   2.6287756612e+01    0.1965265    0.1250017  74.08  0.001244112    1.273    0.215
        62  -9.2219    179.6795    215.6977   1.1431200884e+02   2.2183980343e+00    0.1370465    0.1041091   9.64 0.0007026979    1.628    0.386
        63  -9.5542    137.1790    215.6340   1.2308254701e+02   1.0145334101e+01    0.1995002    0.1213477  34.90 0.0009429901    1.731    0.422
        64 -10.2705    208.9677    212.1701   1.0785918500e+02  -2.5427189997e+00    0.2133739    0.1898622 -18.14 0.0004624414    1.146    0.128
        65  -9.7687    170.4007    213.2065   1.1577899811e+02   4.4119603470e+00    0.1809983      0.13414 -62.03 0.0009431366    1.623    0.384
        66 -10.8578     10.0233    217.0480   1.4827205147e+02   2.8310167192e+01    0.2762279     0.154827  66.14 0.0009300002    1.448    0.309
        67 -10.9610     20.6539    211.6590   1.4600310718e+02   2.8325865994e+01    0.3043887    0.1543184  75.44  0.000938301    1.765    0.433
        68  -9.5102    212.8538    211.8789   1.0705395574e+02  -3.1877502784e+00    0.1686898     0.159944  71.04 0.0005212213    1.326    0.246
        69 -12.1669      4.2426    207.4509   1.4866582224e+02   3.0847928007e+01    0.4903531     0.261534 -89.41  0.003078617    1.447    0.309
        70  -9.3075    218.6323    206.6734   1.0497477234e+02  -3.3560393625e+00    0.1436597   0.09802647   6.67 0.0007035541    1.808    0.447
        71  -9.2050    238.3920    201.2856   1.0026129555e+02  -5.9095128437e+00    0.1390154    0.0930573   8.10 0.0004030827    1.760    0.432
        72  -9.5643    223.7271    201.6004   1.0304058755e+02  -3.4213641338e+00    0.1800805    0.1229186  49.99 0.0005816117    1.645    0.392
        73  -9.7053    218.2654    201.3678   1.0403546791e+02  -2.4052378299e+00    0.1387973   0.09962615  -3.39 0.0006988415    1.655    0.396
        74 -10.2482    205.9912    201.2458   1.0639949890e+02  -1.3221614311e-01    0.2016242    0.1457477 -15.46 0.0006937453    1.628    0.386
        75  -9.2706     34.6578    200.7536   1.4244478141e+02   2.9111770029e+01     0.102756   0.09038249 -53.58 0.0002496868    1.568    0.362
        76 -10.2703    227.3307    196.6594   1.0140433783e+02  -3.2402776816e+00    0.2848088    0.2054932   3.36 0.0008587029    1.594    0.373
        77 -11.6133    191.9453    195.0697   1.0803760658e+02   3.6643934625e+00    0.3439804    0.2536617 -59.28  0.001735439    1.649    0.393
        78  -9.4068     56.6522    197.7049   1.3767430742e+02   2.7065523662e+01    0.1158164   0.09821889 -42.13 0.0007032377    1.674    0.403
        79  -9.6627    203.0160    195.9778   1.0597699565e+02   1.3652526268e+00    0.2180813    0.1652268   3.12 0.0008199576    1.581    0.367
        80 -10.4024    184.4614    208.9741   1.1215530601e+02   2.5346189487e+00    0.2596495    0.1831544  26.49 0.0007059281    1.502    0.334
        81 -11.2090    215.4433    194.0211   1.0315180596e+02  -6.2667636576e-01    0.3692765    0.1835984 -39.65  0.001627081    2.042    0.510
        82 -10.3911    232.2956    191.3443   9.9433278992e+01  -3.2351463860e+00    0.2736558    0.1905576   0.28  0.001388548    1.740    0.425
        83 -10.0558    163.0000    191.4814   1.1345270894e+02   1.0093792916e+01    0.3146612    0.0841529 -48.14 0.0009387593    3.967    0.748
        84  -9.6947    250.4703    190.0237   9.5907826378e+01  -6.1468399250e+00    0.1980323    0.1181832 -35.83 0.0005678625    1.570    0.363
        85  -9.7001    246.3466    190.3103   9.6688434095e+01  -5.5017283672e+00    0.1379456   0.09491559   2.78 0.0007045234    1.707    0.414
        86  -9.4688    205.5146    190.0597   1.0431812759e+02   1.9609877388e+00    0.2052453     0.137712 -39.18  0.000566303    1.524    0.344
        87 -10.5582    226.2087    188.7754   1.0005555303e+02  -1.7022095054e+00    0.2374885    0.1534254   2.17  0.001063091    2.232    0.552
        88 -10.4354    167.9001    184.1223   1.1098278704e+02   1.0620639900e+01    0.4562323    0.2407244  64.24  0.001556441    3.237    0.691
        89  -9.5863     61.6329    184.7963   1.3508013325e+02   2.9330370056e+01    0.1937335    0.1097418 -80.02 0.0009501823    1.717    0.417
        90 -11.7430     16.1805    183.0053   1.4455356604e+02   3.4970793281e+01    0.3984665      0.20237  89.43  0.001799715    1.749    0.428
        91 -10.7776    248.5139    182.7435   9.4796230535e+01  -4.6434064740e+00    0.3905427    0.1735344  26.76  0.001402547    3.723    0.731
        92  -9.6654      6.6093    183.7072   1.4652437596e+02   3.5693761718e+01    0.2778736   0.06463901  38.17  0.001227508    3.745    0.733
        93  -9.7645    236.2244    182.3997   9.6916388782e+01  -2.4283385100e+00    0.1803244    0.1292142  51.36 0.0009441603    1.619    0.382
        94 -10.2204      2.0213    180.0853   1.4714684138e+02   3.6877013924e+01    0.1762244     0.128822  89.70 0.0005397933    1.008    0.008
        95 -11.2972    244.6226    177.9405   9.4504588612e+01  -3.1711940718e+00     0.306413    0.1562084 -27.05  0.001330884    2.179    0.541
        96 -11.2657    224.3630    178.4178   9.8298323767e+01   4.5676838756e-01    0.2783512    0.2583044  22.17 0.0005505779    1.077    0.071
        97  -9.5861     36.0720    178.5062   1.3994275172e+02   3.3934628992e+01    0.1598842    0.1170021  46.61 0.0004966596    1.468    0.319
        98 -10.4887    200.1708    176.7826   1.0269764379e+02   5.5091666542e+00    0.2024802    0.1699147   5.59 0.0006262722    1.329    0.247
        99  -9.4967     70.2100    177.5979   1.3219121987e+02   2.9808220020e+01    0.1588458    0.1321147  31.23 0.0004807714    1.498    0.332
       100  -9.6198    241.7067    173.6376   9.4136037995e+01  -1.9207560018e+00     0.142309    0.1008093  -4.60 0.0005870422    1.705    0.413
       101  -9.8476    183.4911    173.0131   1.0537882701e+02   9.6865141142e+00    0.2112972    0.1309783 -20.38 0.0007316711    2.515    0.602
       102  -9.7224     59.6151    171.7365   1.3382939742e+02   3.2647415103e+01    0.1919453    0.1123852 -78.70 0.0009455808    1.636    0.389
       103  -9.7030     74.6669    171.4246   1.3025758686e+02   3.0615389325e+01    0.1622209    0.1356978  32.61 0.0008654828    1.447    0.309
       104 -11.1376     12.8637    171.0323   1.4416557966e+02   3.7947677986e+01    0.2285125      0.12945  84.93 0.0009457466    1.575    0.365
       105 -10.0005    196.6775    169.3187   1.0184268040e+02   7.6826957353e+00    0.1486498    0.1193315 -88.67 0.0005631975    1.670    0.401
       106  -9.7243      4.5190    168.0103   1.4565229147e+02   3.9330280149e+01    0.1877521   0.08883587 -75.88  0.001040094    1.614    0.380
       107  -9.6732    210.0089    166.3015   9.8515501554e+01   5.5251860647e+00    0.2039451    0.1881912  29.13 0.0004749428    1.086    0.080
       108 -10.3555     41.3679    165.6349   1.3726361720e+02   3.6321030092e+01    0.1978296    0.1255384  75.15 0.0006107563    1.612    0.380
       109  -9.2061     21.6345    166.6991   1.4184548569e+02   3.8123858860e+01    0.1179248   0.08194604 -47.87 0.0001048579    1.731    0.422
       110 -10.6214     51.6618    164.2898   1.3468052991e+02   3.5421664421e+01    0.4082057    0.2273494 -33.44  0.001676721    3.476    0.712
       111  -8.9286    229.4947    164.5425   9.4430679774e+01   1.9717913616e+00    0.1418127    0.1306381 -12.38 9.432472e-05    1.037    0.036
       112 -10.5405     45.1695    164.0035   1.3617144525e+02   3.6267237136e+01    0.2250108    0.1278616  83.51  0.001085991    1.981    0.495
       113  -9.4913    200.0613    162.9614   9.9784221269e+01   8.2355842475e+00    0.1804221    0.1680499  40.60 0.0004427344    1.079    0.073
       114 -10.8248     36.5068    160.8555   1.3780031740e+02   3.7974372811e+01    0.5420548    0.1287671 -62.45   0.00201875    3.125    0.680
       115 -10.7539    246.5131    162.4821   9.0970770132e+01  -8.7229542555e-01    0.2360801    0.1246897 -38.62 0.0002037073    1.735    0.424
       116 -10.9438    247.8325    159.0508   9.0022460802e+01  -5.1919887047e-01    0.2680836    0.2291102 -72.08  0.001526187    1.497    0.332
       117 -10.0686     10.1156    165.1785   1.4420718703e+02   3.9500695224e+01    0.1635683    0.1096942  80.82 0.0003651183    1.297    0.229
       118  -9.9129    238.6054    158.1702   9.1430472424e+01   1.3654608927e+00    0.2088789    0.1242459 -28.02 0.0009479604    1.775    0.436
       119  -9.3661      8.3342    158.2950   1.4393794400e+02   4.1197900053e+01    0.1140513   0.07558445 -51.88 0.0007027613    1.643    0.391
       120 -11.0780     22.6093    155.6681   1.4042179751e+02   4.0565376458e+01    0.3900011    0.2900704 -69.61  0.002534162    1.145    0.127
       121  -9.4498    216.9920    155.0000   9.4702353854e+01   6.2549522676e+00    0.2419648   0.08379354  47.30 0.0008099222    2.995    0.666
       122 -10.0103    197.1983    153.6152   9.8307227807e+01   1.0717077187e+01    0.2186364    0.1409435  37.04 0.0009526224    1.674    0.403
       123  -9.3462    151.6841    153.3374   1.0826214554e+02   2.0691679616e+01     0.162331    0.1223387  88.04 0.0005526087    1.699    0.411
       124  -9.4103     31.0674    153.0179   1.3810804504e+02   4.0368756545e+01    0.1475149    0.1212054 -81.86 0.0003682293    1.031    0.030
       125 -10.3192     12.2451    153.1904   1.4253994262e+02   4.2036563419e+01    0.2438225    0.1518112  16.73  0.001439084    2.371    0.578
       126 -10.3853    178.1981    151.4517   1.0183641446e+02   1.5319396911e+01    0.3356529    0.2715777  78.32  0.001601569    1.467    0.318
       127  -9.5223     46.1418    151.1227   1.3417473757e+02   3.9199294603e+01    0.1782829    0.1345849  77.96  0.000388458    1.316    0.240
       128  -9.2279    235.6706    154.6996   9.1202120387e+01   2.5564035928e+00    0.1430444     0.108405   2.45 0.0007031486    1.644    0.392
       129  -9.3760     92.6709    148.2973   1.2184120644e+02   3.3329582377e+01    0.1507147    0.1082941  77.53 0.0006600033    1.636    0.389
       130 -10.3126    207.0094    145.9941   9.4618920598e+01   1.0119954011e+01    0.2254194    0.2243836 -27.36 0.0006441383    1.026    0.026
       131 -10.3930      2.9377    143.8471   1.4371433097e+02   4.4861656801e+01    0.1819301    0.1264021 -59.58 0.0009705556    1.325    0.245
       132 -11.0265      8.4794    144.9935   1.4253673118e+02   4.4196776447e+01    0.2060859    0.1855187  44.90  0.001536244    1.398    0.285
       133  -9.6055     49.6079    141.7018   1.3186665570e+02   4.1036768491e+01     0.201395    0.1391244 -39.78 0.0005555233    1.704    0.413
       134 -10.5483    236.5273    138.7814   8.7565214710e+01   5.2917346830e+00    0.2467235     0.224461 -87.68 0.0004678967    1.253    0.202
       135 -10.8488     57.5593    138.5437   1.2925635132e+02   4.0825107919e+01    0.3276855    0.2231579  76.20 0.0006768825    1.734    0.423
       136 -11.3258      2.8149    137.2604   1.4304352579e+02   4.6351335446e+01    0.3822714    0.1255827 -66.03  0.001084561    2.152    0.535
       137 -12.2789      8.8590    136.5132   1.4148879386e+02   4.6092873250e+01    0.3548428    0.2290872  72.66 -0.000204276    1.641    0.390
       138 -10.3557     40.5056    135.6451   1.3329134981e+02   4.3483329985e+01    0.2040032    0.1868394  65.44 0.0007378221    1.214    0.176
       139 -10.5176     21.9018    135.2947   1.3806860709e+02   4.5338079343e+01    0.3808199    0.1631774 -63.85  0.001889399    1.797    0.443
       140  -9.9528    138.2495    135.4079   1.0741923873e+02   2.7642639736e+01    0.2948455    0.1515822  39.79 0.0008609714    2.082    0.520
       141  -9.6478     68.0000    134.9777   1.2581587830e+02   4.0300993711e+01     0.242404   0.07164687 -59.42 0.0008126172    3.013    0.668
       142 -12.0144     37.1867    131.1358   1.3346327898e+02   4.4884942151e+01    0.3381275    0.2850952 -29.32   0.00141831    1.441    0.306
       143 -10.7366     34.6968    128.2838   1.3368048898e+02   4.5798101839e+01    0.1954611    0.1781176 -82.80 0.0002769331    1.125    0.111
       144 -10.2157    249.4709    129.9422   8.3485967071e+01   4.3017748823e+00    0.2057817    0.1966089  68.04  0.001085163    1.168    0.144
       145  -9.9511     74.0161    129.3615   1.2307433893e+02   4.0788037342e+01    0.2435354    0.1775131 -49.88 0.0007593253    1.294    0.227
       146  -9.4468    243.0279    128.4689   8.4192463112e+01   5.8521121224e+00    0.1922742    0.1423245  53.32 0.0004537536    1.492    0.330
       147  -9.9855      1.5863    126.4895   1.4212262464e+02   4.8847249442e+01    0.2287301    0.1196925 -76.82 0.0009709668    1.533    0.348
       148 -10.2214    219.7625    124.5645   8.7272557836e+01   1.1505702539e+01    0.2638953    0.1984419 -41.22 0.0005888159    1.258    0.205
       149 -10.3805     41.7631    124.9722   1.3119895744e+02   4.5856505203e+01    0.2406182    0.1880722   7.69 0.0006489967    1.695    0.410
       150 -11.2692     10.5275    122.9161   1.3935897269e+02   4.9052860636e+01    0.2695209    0.2670236  69.65  0.001949815    1.297    0.229
       151 -11.8459     16.7470    117.4904   1.3691231655e+02   4.9826520256e+01    0.5429168    0.2238056 -50.37  0.002676729    2.091    0.522
       152 -10.2084     19.9779    112.9967   1.3531321946e+02   5.0594879424e+01    0.2208176    0.1308819 -65.32 0.0005267537    1.338    0.252
       153 -12.3729     16.7402    108.2615   1.3547504079e+02   5.1901522510e+01    0.3731675    0.2911881  -6.62  0.002493469    1.648    0.393
       154  -9.3908     20.5495    121.4899   1.3646925826e+02   4.8621897382e+01    0.1246921   0.09765346 -65.28  1.39509e-05    1.034    0.033
       155  -9.6891    221.6197    120.1709   8.5917634560e+01   1.1930515334e+01    0.2131776    0.1367451 -30.04 0.0008297034    1.700    0.412
       156 -10.0442    179.2267    116.3710   9.3215886655e+01   2.2476423592e+01    0.2339819    0.1925739  39.35 0.0005804991    1.303    0.233
       157  -9.3974     86.3059    116.6508   1.1684978664e+02   4.1888221746e+01    0.1478567    0.1114154  87.16  0.000704227    1.703    0.413
       158 -11.6391     35.9721    111.0080   1.3034934699e+02   4.9661206775e+01    0.5113347    0.2476268 -59.92  0.001660805    1.672    0.402
       159  -9.1410     11.2622    113.6688   1.3786203295e+02   5.1080780877e+01    0.1158551   0.07945198  84.98 0.0003011744    1.572    0.364
       160  -8.8088    212.5221    112.4770   8.5713889302e+01   1.5444333548e+01    0.1500618    0.1431783 -54.80 0.0008095959    1.033    0.032
       161  -9.4462    167.2605    109.0031   9.3934641191e+01   2.6829948142e+01    0.2035176    0.1356566 -42.94 0.0005609347    1.494    0.331
       162 -10.2846    241.7638    108.0454   7.9819974356e+01   9.7837973014e+00    0.2801152    0.1756883 -89.73  0.001168385    2.548    0.608
       163 -12.1208     62.0564    107.2981   1.2180978797e+02   4.7574298556e+01    0.2619556    0.2168985 -48.43  0.000300629    1.082    0.076
       164 -11.6070     23.9111    106.8538   1.3314521692e+02   5.1664560795e+01    0.3257792    0.2452522  88.92   0.00176759    1.465    0.317
       165  -9.4397    133.4576    107.5125   1.0163635336e+02   3.4901587711e+01    0.1532959    0.1507612 -29.42 0.0001668456    1.049    0.047
       166 -11.1027      3.4782    100.7069   1.3813137658e+02   5.4430152068e+01    0.2618515    0.2187202 -87.90 0.0009799043    1.258    0.205
       167 -10.2582      6.3983    106.1965   1.3812139208e+02   5.3055785037e+01    0.2353671    0.1468651 -57.89 0.0007168283    1.242    0.195
       168 -10.6190      2.8442    105.1715   1.3898188455e+02   5.3493354563e+01    0.2367157    0.1477507 -75.71  0.001166958    1.363    0.266
       169 -10.3327     76.3624    105.7870   1.1716739158e+02   4.5919395353e+01    0.2113435    0.1161551 -45.39 0.0009503005    1.694    0.410
       170  -9.7962    223.3392    103.9546   8.1809044525e+01   1.4569846990e+01    0.2131254    0.1748781 -46.91 0.0005074879    1.138    0.121
       171 -10.7616     11.4116    103.1257   1.3619156348e+02   5.3410800958e+01    0.3743373    0.1435165  41.88  0.001756564    3.355    0.702
       172 -11.3275     70.4606    102.5137   1.1814941559e+02   4.7512671102e+01    0.3476688    0.2474084  20.29 0.0005542196    1.691    0.409
       173 -10.5556    247.9909    102.3001   7.7607907783e+01   9.4823171509e+00    0.1947646    0.1805011 -78.44 0.0007422789    1.100    0.091
       174  -9.6139    120.0247    101.4704   1.0354053951e+02   3.9052746717e+01    0.2104267    0.1338833  19.77 0.0008085793    2.439    0.590
       175  -9.3261     91.5534    101.4525   1.1157141008e+02   4.4448871424e+01    0.1444478    0.1335465 -35.21 0.0001048273    1.049    0.047
       176 -10.3138     35.9917    101.2154   1.2844135554e+02   5.1865171654e+01    0.2463972    0.1632009  37.92  0.001413527    1.787    0.440
       177 -10.1647     27.8723    100.9759   1.3088039786e+02   5.2647010927e+01    0.1786383     0.144661 -54.45 0.0002969017    1.032    0.031
       178 -11.4792     50.5184     99.3359   1.2354143082e+02   5.0768140577e+01    0.2305572    0.2031433 -53.69 0.0002726165    1.039    0.037
       179 -10.4765     63.6949     98.5528   1.1926252714e+02   4.9319044865e+01    0.4664232    0.2096576  24.62  0.001877798    3.025    0.669
       180 -11.2996     20.6984     96.3629   1.3220865443e+02   5.4236726387e+01     0.580427    0.1414348 -61.89  0.002234475    3.088    0.676
       181 -10.3214      4.4090     85.8112   1.3537577185e+02   5.7565393308e+01    0.3338675    0.2185576 -18.87  0.002169708    1.809    0.447
       182  -9.6186      7.2606     88.6988   1.3499201033e+02   5.6791401085e+01    0.1661923    0.1353966 -72.10 0.0002610868    1.187    0.157
       183 -10.9721      8.3255     94.7084   1.3571366995e+02   5.5441212495e+01    0.3055376    0.1910214 -30.34  0.001889704    1.771    0.435
       184 -11.2593     11.0181     91.0487   1.3423722751e+02   5.6059479257e+01    0.2784643     0.203094   1.47  0.001150135    1.724    0.420
       185 -10.3822      1.4854     94.1327   1.3769184517e+02   5.5959019482e+01     0.252704   0.07240828 -61.39  0.001074272    2.312    0.567
       186  -9.5702    227.2207     93.4174   7.8697458287e+01   1.5587990587e+01     0.191535    0.1377356  76.71 0.0004981636    1.551    0.355
       187  -9.3866    170.8422     91.3974   8.8483373434e+01   2.9465923402e+01    0.2285201    0.1403897  43.43 0.0009495048    1.736    0.424
       188 -10.6701     96.4959     90.2371   1.0706528299e+02   4.5980443037e+01    0.3490005    0.2186443   0.98  0.001304322    3.132    0.681
       189 -10.0790     26.4449     90.6924   1.2927624490e+02   5.5014694522e+01    0.2147712    0.1589145  11.92  0.001365785    1.644    0.392
       190  -9.4796     37.9934     90.4569   1.2550562333e+02   5.4032175767e+01    0.1517762    0.1248489  13.79  1.28443e-05    1.419    0.295
       191 -10.2431     73.0038     88.6924   1.1381623447e+02   5.0149504095e+01    0.1757124    0.1675088  -1.58 0.0002555664    1.101    0.092
       192 -10.0038     45.4434     87.4360   1.2237332972e+02   5.3918335571e+01    0.2211456    0.1080896 -53.54 4.675959e-05    1.725    0.420
       193 -10.3006     49.3506     88.1666   1.2127657302e+02   5.3332362429e+01     0.256907    0.1746974 -66.86 0.0003582636    1.598    0.374
       194 -10.7560     47.0977     83.9689   1.2096999698e+02   5.4471342806e+01    0.5460585    0.3241396 -70.08  0.002662894    2.186    0.542
       195  -9.2130    103.5232     88.5490   1.0453282479e+02   4.5029044245e+01    0.1434775    0.1389522 -31.68 0.0001566814    1.024    0.024
       196  -8.6880     14.3007     83.6788   1.3177634451e+02   5.7409674924e+01    0.2213978    0.1559021 -71.41  0.001421482    1.381    0.276
       197 -11.7898     19.4362     81.3024   1.2958281569e+02   5.7549192783e+01    0.5418659    0.3580686  87.60  0.001131164    2.247    0.555
       198 -11.3647     23.5582     80.2004   1.2795736121e+02   5.7467709678e+01    0.3502071    0.2450324 -65.02  0.001619528    1.359    0.264
       199 -10.8407     67.2036     85.0937   1.1468535306e+02   5.1732979631e+01    0.2155281    0.1670588 -27.72 0.0006833355    1.280    0.219
       200 -10.7854    117.9758     83.3610   9.8960557401e+01   4.3183796480e+01     0.308742    0.2573616  -2.52 0.0009085906    1.388    0.280
       201  -8.8640    196.6921     82.7125   8.1157222442e+01   2.4731396424e+01    0.1449703    0.1197412  23.06 0.0003159608    1.572    0.364
       202  -9.1816    133.4482     82.5258   9.4649966445e+01   3.9989432764e+01     0.148179    0.1461301  16.92 5.099531e-05    1.019    0.018
       203 -11.0689     85.2294     80.7529   1.0774480993e+02   4.9864591345e+01    0.2899661     0.218046 -34.58 0.0008572789    1.269    0.212
       204 -10.1296     75.5024     80.4429   1.1071729755e+02   5.1476753699e+01    0.2941156    0.1238379 -46.57   0.00121186    2.180    0.541
       205 -11.4909     72.0283     78.5176   1.1127785892e+02   5.2384040477e+01    0.5160276    0.3156208 -13.92  0.001260024    2.469    0.595
       206 -11.1452     77.8303     71.8872   1.0742591480e+02   5.2793784438e+01    0.3929823    0.2537384  50.51  0.001113678    1.922    0.480
       207 -10.1033      2.4150     71.7650   1.3334998670e+02   6.0567177059e+01    0.2339321    0.1002805 -41.40  0.001024026    1.950    0.487
       208 -11.9756      3.1849     77.6396   1.3425365204e+02   5.9331169111e+01    0.3633247    0.2319948 -68.52 0.0008748359    1.389    0.280
       209 -12.1804      7.3902     76.8955   1.3270069486e+02   5.9249581696e+01     0.498515    0.2027594 -54.63 0.0006805554    1.755    0.430
       210 -11.4936    150.9801     78.4319   8.9238975181e+01   3.6684717870e+01     0.308687    0.2713651 -68.18 0.0005625781    1.214    0.177
       211  -8.9991     81.3295     79.2344   1.0851714887e+02   5.0805553456e+01    0.1331594    0.1020384  -2.11 0.0002337818    1.527    0.345
       212  -9.9189     93.0125     77.9941   1.0453818930e+02   4.9067425137e+01    0.2669475     0.148709 -22.65 0.0009212336    2.672    0.626
       213  -9.7476     29.9506     81.7242   1.2615456210e+02   5.6624117731e+01    0.1604885    0.1384149 -45.95 0.0004371136    1.064    0.060
       214  -9.6232     64.2550     68.3019   1.1081346670e+02   5.5486440410e+01    0.1296401   0.09070771 -20.46 0.0001564587    1.506    0.336
       215 -12.1223     61.6293     73.4991   1.1325029869e+02   5.4838791934e+01    0.5822232    0.4200212 -13.91  0.001707658    1.545    0.353
       216  -9.8791    121.6144     76.1934   9.5837733072e+01   4.3776514944e+01    0.2063326     0.138652 -28.70 0.0009431474    1.630    0.386
       217 -10.5575    108.4823     75.4161   9.9213547044e+01   4.6638312121e+01    0.3546072    0.2252939  -7.68  0.001417045    2.627    0.619
       218 -12.1166     48.5772     71.7187   1.1719945228e+02   5.6802300989e+01    0.7053736    0.3126332 -42.86  0.002400279    1.957    0.489
       219 -10.9048     31.2440     66.4899   1.2188879987e+02   5.9593688154e+01    0.2710854    0.1772946 -53.25 0.0008701518    1.355    0.262
       220 -11.3896     40.2690     72.4925   1.2030427796e+02   5.7544505810e+01    0.4973873    0.2367825 -43.19  0.000838141    1.776    0.437
       221 -10.9771     36.6179     68.6118   1.2054000397e+02   5.8676116375e+01    0.3559677    0.2261897 -38.74   0.00125156    1.334    0.250
       222 -10.1507    102.6089     72.9372   1.0013916025e+02   4.8250022545e+01    0.2447841    0.1874271  28.24 0.0006723864    1.366    0.268
       223 -10.0601     16.9934     72.4984   1.2845699657e+02   5.9532336808e+01    0.2011237    0.1443724 -71.13   0.00081981    1.502    0.334
       224 -10.2572    175.0690     71.1643   8.2106945392e+01   3.2081293396e+01    0.2530592    0.2122476 -40.07 0.0004748036    1.234    0.190
       225  -9.9428    152.1780     72.2029   8.7166706359e+01   3.7506926700e+01    0.2107884     0.177939 -87.35  0.001065542    1.332    0.249
       226 -10.3043     94.8505     71.0599   1.0185542324e+02   5.0051583436e+01    0.3041349    0.1870427 -58.45 0.0009423469    2.200    0.545
       227 -10.7108     95.2141     66.8529   1.0041760416e+02   5.0750866578e+01    0.2982172    0.2504994  37.35 0.0009197549    1.208    0.172
       228  -9.9515    145.2717     71.6405   8.8573805425e+01   3.9249643119e+01    0.1523715     0.115426 -70.99 0.0006999761    1.650    0.394
       229 -10.4559     68.7695     67.6927   1.0910762495e+02   5.4960822471e+01    0.3965948    0.1585898 -42.07  0.001066014    2.297    0.565
       230 -10.5877     26.6805     69.3813   1.2428285770e+02   5.9418104996e+01    0.2622713    0.1922079  85.33  0.001527441    2.207    0.547
       231 -10.3477    159.7295     69.4214   8.4722813780e+01   3.6156176188e+01    0.3007775    0.1453214  60.66  0.001143575    2.168    0.539
       232 -10.7788    130.2649     69.0009   9.1406176481e+01   4.3168989211e+01    0.4173031    0.1596868  37.98  0.001301935    3.547    0.718
       233 -10.6115      6.3269     67.6863   1.3112122574e+02   6.1170825379e+01    0.2196813    0.1522169 -50.63 0.0009886052    1.089    0.082
       234 -11.7896      4.0477     64.0119   1.3111704187e+02   6.2021875919e+01    0.2990287    0.2631905 -75.34 0.0007421024    1.354    0.261
       235 -11.2051     21.1460     66.1444   1.2544588477e+02   6.0496725728e+01    0.2522022    0.1932217  20.28  0.001256061    1.539    0.350
       236 -10.1686    156.1862     65.5890   8.4368767814e+01   3.7661926902e+01    0.2880296    0.1096597 -38.94  0.001015217    2.655    0.623
       237  -9.5545    146.7664     66.0258   8.6566565026e+01   3.9855356790e+01    0.1839154     0.124269 -37.47 0.0002793772    1.533    0.348
       238  -9.8718    138.6250     65.7505   8.8371587694e+01   4.1815317843e+01    0.1988411    0.1355013 -46.99 0.0003226906    1.564    0.361
       239 -10.0333    130.1588     64.5314   9.0057406618e+01   4.3956617506e+01    0.2713691    0.1010306 -39.81 0.0006870786    2.727    0.633
       240 -11.1197    120.8775     63.6329   9.2149710840e+01   4.6156807819e+01    0.5161545    0.3140217  -7.07  0.001995063    2.869    0.651
       241 -11.1548     84.0314     62.6771   1.0253022312e+02   5.3470712765e+01    0.4068728    0.2934866 -54.20  0.001690135    1.657    0.397
       242 -10.2713     86.0322     58.2447   1.0043921788e+02   5.3894541525e+01    0.2662956    0.1915323 -35.80 0.0004156035    1.346    0.257
       243 -10.6425     76.5837     65.0389   1.0568974925e+02   5.4266525204e+01    0.2457533    0.1899198  54.93  0.001361325    1.669    0.401
       244 -10.5331    174.1224     63.7742   8.0250576990e+01   3.3541857179e+01     0.267213    0.2289647 -73.43  0.000714338    1.200    0.167
       245 -10.0180     41.5012     64.4552   1.1762176968e+02   5.8988068755e+01    0.1234304    0.1034157 -32.61 7.938169e-05    1.023    0.022
       246  -9.4070    141.5440     63.5178   8.7010098076e+01   4.1505554284e+01    0.1458565    0.1395561  80.24 3.639927e-05    1.075    0.070
       247 -10.7436     56.5842     62.7034   1.1172926325e+02   5.7558047570e+01    0.2171412    0.1499885 -49.98 0.0008521718    1.459    0.315
       248 -10.6187     51.6783     62.3907   1.1336335518e+02   5.8227456222e+01    0.2546904    0.1845836 -24.38  0.001355174    1.291    0.225
       249 -11.2112     10.9695     62.6247   1.2827728027e+02   6.1888873653e+01    0.2190685    0.1630648 -46.26  0.000402721    1.035    0.034
       250 -10.0533     93.0912     61.2527   9.9249644431e+01   5.2122982349e+01    0.2263315    0.1740921 -23.89 0.0005607973    1.291    0.225
       251 -10.5966     46.0729     46.9721   1.1041830554e+02   6.1625039975e+01    0.2099452    0.1546221 -39.29 0.0003034858    1.266    0.210
       252 -11.5728     38.1092     51.6914   1.1498785231e+02   6.1691348436e+01    0.7211791     0.385967 -36.28  0.004009035    1.609    0.378
       253 -10.5631     44.7722     51.9649   1.1257217445e+02   6.0919189191e+01    0.2308031    0.1854347 -28.73 0.0003487269    1.052    0.050
       254 -11.4399     33.6004     60.0924   1.1923750812e+02   6.0603206927e+01    0.2734071    0.1946905 -14.23 0.0003582251    1.425    0.298
       255 -11.0882     27.2824     61.2757   1.2191030399e+02   6.0946200030e+01    0.3376324    0.1830144  17.20  0.001703643    2.152    0.535
       256 -11.5494     64.9845     59.7445   1.0787171197e+02   5.6960188749e+01    0.5771593      0.22201  42.56  0.002390142    3.018    0.669
       257 -10.8502    115.4775     58.7521   9.2023821076e+01   4.8119037534e+01    0.3607457    0.1886045 -47.92  0.001518829    2.241    0.554
       258  -9.9040     18.2846     59.8398   1.2486561013e+02   6.1930218649e+01    0.1733037    0.1309606 -65.96   0.00062643    1.490    0.329
       259 -10.4328     70.1470     58.7103   1.0577612584e+02   5.6388744512e+01    0.3596924    0.2043691 -38.89  0.001228691    1.634    0.388
       260  -9.7632    137.1436     57.8074   8.6288643555e+01   4.3452873094e+01    0.1939265    0.1613136  27.21  0.001022237    1.282    0.220
       261 -10.8422    122.9740     56.5764   8.9362971277e+01   4.6851442676e+01    0.2838334    0.2254954 -83.65  0.001386626    1.720    0.419
       262 -11.2093     98.9481     56.0621   9.5780907210e+01   5.1893692984e+01    0.4045115    0.2218353  41.68  0.001091491    1.788    0.441
       263  -9.4974     80.9662     57.0382   1.0164956321e+02   5.4961633143e+01    0.1583739    0.1379615 -19.39  0.000409412    1.062    0.058
       264 -10.1807     43.8981     57.1447   1.1454921364e+02   6.0092919943e+01    0.1879034    0.1560074 -25.71 0.0003324566    1.009    0.009
       265 -11.9872    127.9154     51.9603   8.6653279077e+01   4.6464179911e+01    0.5011588    0.3251837 -24.75  0.001425398    1.724    0.420
       266 -11.0368      4.5706     52.8026   1.2823657787e+02   6.4138311350e+01    0.3847142    0.1636047 -26.99   0.00200051    2.582    0.613
       267  -9.9837     87.1531     52.6163   9.8188348306e+01   5.4628374718e+01    0.1958483    0.1591684  46.27  0.001052553    1.350    0.259
       268 -11.3839     12.8248     50.6820   1.2446361530e+02   6.4024308288e+01    0.3953252    0.1597836 -45.94  0.002149309    1.827    0.453
       269 -12.2302      9.0279     45.1636   1.2440629819e+02   6.5268822504e+01    0.6133757    0.3263496 -15.62  0.003644342    2.081    0.519
       270  -9.7562    157.7620     52.0448   8.0086681157e+01   3.9403408482e+01    0.1917352     0.185891  61.10 0.0002667424    1.051    0.049
       271 -10.2521     73.2024     51.3873   1.0228067974e+02   5.7161480306e+01    0.2745738    0.2249001  41.59  0.001675043    1.380    0.275
       272  -9.8841     76.5064     50.4872   1.0087160704e+02   5.6779523405e+01    0.2158909    0.1219148  37.69  0.001085847    1.780    0.438
       273 -10.7184     50.8405     51.1978   1.1007549634e+02   6.0333062138e+01    0.3667699    0.1929461 -13.54 0.0006283065    3.086    0.676
       274  -9.2489    179.7466     50.9785   7.5722221955e+01   3.4116212037e+01    0.1706467     0.124486 -36.38 0.0002835448    1.457    0.314
       275 -10.1757     98.7138     44.5869   9.1936542979e+01   5.3706551905e+01    0.2617722    0.1897773   5.02 0.0007307209    1.572    0.364
       276 -10.5926    100.6459     48.9240   9.2875685151e+01   5.2685421609e+01      0.37458    0.2084015 -31.67   0.00177933    1.842    0.457
       277  -9.4292    104.3289     46.2913   9.0931279746e+01   5.2345919188e+01    0.2240127    0.1707278  19.24 0.0005891439    1.368    0.269
       278  -9.7518     83.4349     51.0910   9.8836216904e+01   5.5522561175e+01    0.1989156    0.1222976 -35.27 0.0006223009    1.582    0.368
       279 -10.3582      7.0148     40.8884   1.2397638605e+02   6.6148838021e+01    0.1781817    0.1179863 -42.54 0.0008070653    1.151    0.131
       280 -10.1298    135.1907     49.9529   8.4292819388e+01   4.5101103680e+01     0.219345    0.1929117 -84.79 0.0009904248    1.308    0.235
       281 -10.3890    114.7887     49.1114   8.9047360507e+01   4.9764981805e+01    0.3069963    0.2020508 -25.23  0.001529844    1.636    0.389
       282 -11.0986    142.6440     46.3581   8.1510698641e+01   4.3872108245e+01    0.3010372    0.2819773 -21.19 0.0009052614    1.149    0.130
       283 -10.0104     22.9516     46.3267   1.1917732387e+02   6.4048481139e+01    0.1527183    0.1189709 -23.62 0.0004842809    1.076    0.070
       284  -9.3518    233.3592     45.2308   6.6721721358e+01   2.1938751580e+01    0.1814333    0.1099077 -48.94 0.0004649791    1.506    0.336
       285 -10.0569    151.6526     45.3309   7.9320864886e+01   4.1857261137e+01    0.1490645    0.1078093 -75.70  0.000704939    1.763    0.433
       286 -10.4873    122.9912     44.0820   8.5301676838e+01   4.8707713813e+01    0.3252878    0.2673266  17.38  0.001819838    1.290    0.225
       287  -9.7770     86.2494     45.0219   9.5827975079e+01   5.5968838632e+01    0.2181754    0.1320218  41.45  0.000760202    1.616    0.381
       288 -10.8390    163.0184     42.4505   7.6290623848e+01   3.9475938007e+01    0.2375989    0.2097724 -36.94 0.0004078275    1.230    0.187
       289 -10.5881     81.1388     42.3342   9.6482739910e+01   5.7263050859e+01    0.2136616    0.1668601  -0.94  0.000478977    1.253    0.202
       290 -11.7383    234.1178    240.5067   1.0814890482e+02  -1.0967570707e+01    0.5907356    0.3148658  12.26  0.002730382    2.716    0.632
       291 -10.3441     56.4771     42.2859   1.0491617113e+02   6.1069896503e+01    0.1674099    0.1544813 -83.05  0.001074562    1.707    0.414
       292  -9.1915     52.3202     42.3118   1.0645331635e+02   6.1615994915e+01    0.1269177   0.08269777  -8.99 0.0002613363    1.648    0.393
       293 -10.4572     23.8027     41.8401   1.1740179917e+02   6.4752148285e+01    0.2053114    0.1700525 -50.79   0.00104335    1.411    0.291
       294 -10.0418     19.8411     37.7413   1.1766810892e+02   6.5772102872e+01    0.2057428    0.1439671  -8.75  0.000904305    1.346    0.257
       295 -11.1757     24.3288     35.4134   1.1501250304e+02   6.5772351572e+01    0.2362753     0.224123 -30.18 0.0009897223    1.434    0.303
       296  -9.0846    110.9405     42.0000   8.7668284165e+01   5.1598243891e+01    0.2205288   0.07285613  51.60 0.0004471065    2.867    0.651
       297 -10.6348     95.4669     40.2936   9.1369488339e+01   5.4945758165e+01      0.29637    0.2329589  71.69  0.001638202    1.795    0.443
       298 -10.3638     44.2552     39.9328   1.0864678174e+02   6.2989352149e+01    0.2807772    0.1701412 -45.23  0.001451835    1.679    0.404
       299  -9.5081    235.5601     40.5501   6.5432774190e+01   2.2095189893e+01    0.1324606    0.1137216 -77.49 0.0006455999    1.047    0.045
       300 -10.4561     88.5812     38.7548   9.2868132170e+01   5.6452428280e+01    0.3445975    0.2563802 -85.91  0.001299052    2.748    0.636
       301 -10.4558    226.4159     40.2962   6.6414747988e+01   2.4247453567e+01    0.2484495    0.1948066 -75.54 0.0004096444    1.131    0.116
       302 -10.1059    159.0934     39.0743   7.6031754671e+01   4.0892161842e+01    0.2062641    0.1907765  73.28 0.0003167505    1.026    0.025
       303 -11.5057     70.1671     36.2985   9.7886307613e+01   5.9950197726e+01    0.4492503    0.2790216  -8.88  0.001474342    1.873    0.466
       304 -10.1523    135.8325     38.1251   8.0407225819e+01   4.6588879386e+01    0.1950902    0.1559846  26.84  0.001067499    1.336    0.252
       305 -10.5538     13.8751     33.4511   1.1873530206e+02   6.6943832217e+01    0.1700555    0.1538296 -36.01 0.0006581045    1.369    0.269
       306 -10.2384      9.4010     33.2276   1.2057490725e+02   6.7297510116e+01    0.1696828    0.1149739 -32.83  0.000629277    1.104    0.094
       307 -10.9053      9.0687     26.1669   1.1830892909e+02   6.8458862351e+01    0.4855103    0.1719788 -33.34  0.002469535    2.504    0.601
       308 -10.4558      1.7951     37.7973   1.2523275549e+02   6.6990606001e+01    0.2503337    0.1113117 -29.51 0.0005520678    2.052    0.513
       309 -10.7956      2.5470     32.3308   1.2324131085e+02   6.7876976658e+01    0.2740564    0.2211842  37.31  0.001623682    1.833    0.454
       310  -9.9967    102.2844     36.9103   8.8238274662e+01   5.4066078503e+01     0.283925    0.1629454  52.59  0.001091507    1.744    0.426
       311 -10.4777    106.3442     34.2273   8.6196324417e+01   5.3588009645e+01    0.2558406    0.2351856 -84.29  0.001124172    1.387    0.279
       312  -9.8168     56.6353     35.8430   1.0248978100e+02   6.2028457652e+01    0.1640614     0.104512 -42.47 0.0008909659    1.692    0.409
       313 -10.3611    111.0680     35.0527   8.5250153537e+01   5.2496788765e+01    0.1935709    0.1790008  31.24 0.0003668288    1.047    0.045
       314  -9.8891     33.2304     34.0407   1.1086793484e+02   6.5134471010e+01    0.2283198    0.1278075  25.41  0.001366858    1.862    0.463
       315 -10.2443     77.2586     33.5798   9.4514376159e+01   5.9161663942e+01    0.1801119    0.1055845  30.98 0.0009449994    1.668    0.401
       316  -9.3782     90.0404     31.6696   8.9843434927e+01   5.7126588281e+01    0.1757205    0.1466268  32.27 0.0004056956    1.106    0.096
       317 -10.0735     19.3275     31.9279   1.1588771199e+02   6.6762081078e+01    0.1699631    0.1451047   8.90 0.0007926016    1.346    0.257
       318  -9.8191    142.1640     36.2032   7.8463962973e+01   4.5348712442e+01    0.1825202    0.1572693 -80.00 0.0003988001    1.312    0.238
       319  -9.8742     55.5828     30.6184   1.0088432133e+02   6.2924408731e+01    0.1907533    0.1602428  25.25  0.001306403    1.273    0.214
       320  -9.2768     78.6705     30.2887   9.2818585615e+01   5.9354157188e+01    0.1108522    0.1022842 -86.14 0.0007015311    1.619    0.382
       321 -10.3827     64.0153     41.4345   1.0190908816e+02   6.0135105339e+01    0.2113936    0.1626876 -43.11 0.0003252131    1.472    0.321
       322 -10.3487    124.9260     27.9389   7.9504497849e+01   5.0336536636e+01     0.196878    0.1692235  38.57            0    1.066    0.062
       323 -11.1608     70.9487     26.0988   9.3721628493e+01   6.1188668869e+01    0.4205698    0.2574909  29.91  0.001847136    1.535    0.348
       324 -10.3183     50.4901     27.1770   1.0144147023e+02   6.4095330792e+01    0.2544909   0.09878292 -30.51  0.001173433    2.564    0.610
       325  -9.0890     14.4192     28.4865   1.1677886396e+02   6.7700177000e+01    0.1107935   0.08137415 -25.78 -6.685183e-05    1.016    0.015
       326  -9.6463     24.7189     27.0152   1.1179464485e+02   6.7047513008e+01    0.1529439    0.1151545 -23.85 0.0004049776    1.066    0.062
       327  -9.9553    148.0017     27.0000   7.4489819034e+01   4.5070606009e+01    0.2356879   0.07036954  61.34  0.000808961    2.988    0.665
       328  -9.5714     90.5295     26.5310   8.7793757801e+01   5.7668244837e+01    0.2053753    0.1203159  59.28 0.0006602141    2.106    0.525
       329 -11.5276     60.8050     23.7652   9.6289106823e+01   6.3078198602e+01    0.4114602    0.1991112 -46.01  0.001923798    3.058    0.673
       330  -9.5104    112.8899     24.8847   8.1266698357e+01   5.3329179168e+01    0.1708585    0.1510586  73.40 0.0009628828    1.305    0.234
       331  -9.8876    119.3514     23.6035   7.9307305572e+01   5.2066215475e+01    0.2602118     0.195077  17.12  0.001082687    1.455    0.312
       332 -10.5062     53.9706     23.3421   9.8601792173e+01   6.4127805864e+01    0.2119127    0.1469629 -14.55 0.0005463859    1.296    0.228
       333  -9.2181     17.3611     24.2899   1.1395122963e+02   6.8109910973e+01    0.1156448   0.06524473 -16.74  0.000702641    1.694    0.410
       334  -9.3836    129.2817     23.6560   7.7145478113e+01   4.9831833874e+01     0.128921    0.1006337 -68.63 0.0007012807    1.636    0.389
       335 -10.9624     84.4022     22.2219   8.7964764811e+01   5.9313645523e+01    0.2406895    0.1638975  19.46  0.001035599    1.451    0.311
       336 -10.8268     35.0193     21.6920   1.0537163216e+02   6.6749834518e+01    0.3019364    0.1362182 -32.36  0.001166134    1.962    0.490
       337  -9.4812     18.0184     19.0000   1.1160928371e+02   6.8829597028e+01    0.1933488   0.08022688  25.36  0.001080603    2.506    0.601
       338 -12.1424    232.6756    247.2041   1.0952842310e+02  -1.1633253933e+01    0.5776662      0.28432  29.26  0.003024649    1.880    0.468
       339 -11.8500    224.8111    247.0560   1.1092435534e+02  -1.0412052073e+01    0.6031179    0.3575786  -2.39  0.003094356    2.350    0.575
       340 -10.2408     27.7633     19.5907   1.0757442886e+02   6.7819465460e+01    0.1773245    0.1642863  -3.51  0.000743586    1.480    0.324
       341  -9.8642    124.1396     21.8241   7.7641141413e+01   5.1193929467e+01    0.1808141    0.1349085  34.28 0.0002749302    1.299    0.230
       342 -10.2509    100.0249     21.7269   8.3389753333e+01   5.6357265742e+01    0.2680076    0.1804919  21.59   0.00148652    1.547    0.354
       343  -9.9585    104.2411     18.8456   8.1256952144e+01   5.5803617397e+01    0.2307309     0.144886  14.97  0.001062935    1.892    0.471
       344 -10.8758     65.5800     21.4667   9.3698955238e+01   6.2623476634e+01      0.28711    0.1780441  22.38 0.0006059153    1.564    0.361
       345  -9.8967      8.1485     21.1644   1.1690638202e+02   6.9295219938e+01    0.1326061    0.1098794 -33.58 0.0004187179    1.317    0.241
       346  -9.6623      1.4008    245.0139   1.5126521233e+02   2.3715181622e+01    0.1476812   0.07608206 -85.36  0.000334341    1.522    0.343
       347  -9.0205    224.2274     18.9754   6.1862370112e+01   2.7520417545e+01    0.1481096      0.10005 -42.27 0.0008338399    1.502    0.334
       348 -10.1539    148.2887    244.3306   1.2499870589e+02   2.8517864263e+00    0.1200945   0.09811998  10.40 0.0003233678    1.622    0.383
       349 -10.1697     50.2444     18.9591   9.8204682024e+01   6.5200316617e+01     0.169122    0.1230203  -1.90 0.0003386249    1.183    0.155
       350  -9.5632    115.5117    244.5141   1.3132395223e+02   8.3958624490e+00    0.1285841    0.1042895  59.77 5.720992e-05    1.008    0.008
       351 -10.0794    109.7445    243.0566   1.3225142257e+02   9.6133676007e+00    0.2890475    0.1539632  63.50  0.001228969    1.993    0.498
       352 -11.7647     74.1045    238.3434   1.3844733807e+02   1.6053137064e+01    0.4271769    0.3239686  74.55  0.002504739    1.062    0.059
       353  -9.4446    168.6425    250.6813   1.2198183715e+02  -1.6953079740e+00    0.1274142   0.09161714  15.35   0.00070448    1.757    0.431
       354 -10.0914    108.0748     17.0528   7.9670546749e+01   5.5187340346e+01    0.1869085    0.1666303  39.43 0.0004002784    1.059    0.056
       355  -9.6906     81.9797     16.6485   8.6525291967e+01   6.0369990034e+01    0.1706469    0.1385097  25.58  0.001118052    1.044    0.042
       356 -10.1293     10.0731     15.9460   1.1401357448e+02   6.9921392881e+01    0.1874245    0.1188016 -11.36 0.0009447845    1.355    0.262
       357 -11.6482     34.9891    241.5215   1.4564087399e+02   2.0655540401e+01     0.597585    0.2210556  46.35  0.003181431    2.223    0.550
       358  -9.5821     24.4607    232.4770   1.4680647812e+02   2.3660262030e+01    0.1901389    0.1167855  59.47   0.00102082    1.324    0.245
       359  -9.2158     90.0769     13.0095   8.2798361515e+01   5.9222661605e+01    0.1461181    0.1194672  32.00 0.0004593644    1.039    0.037
       360  -9.4090    175.3379     12.3253   6.5943850542e+01   4.0015625701e+01    0.1366483   0.08935609  42.39 0.0007051411    1.723    0.420
       361 -10.2331     31.8187    237.3234   1.4588547153e+02   2.1852617640e+01    0.2760061    0.1578866  82.08  0.001043387    1.436    0.304
       362  -9.8117    119.6938     11.7087   7.5186467277e+01   5.3193102909e+01    0.1327042   0.08340883  34.46 0.0002319135    1.576    0.366
       363 -10.2567     29.0496    233.0215   1.4605855351e+02   2.3025838549e+01    0.2690701    0.1350016  60.83  0.001129034    1.631    0.387
       364 -11.5462    156.3813    241.3300   1.2300840657e+02   1.9525407730e+00    0.2237533    0.2096474 -77.85 0.0009059066    1.234    0.189
       365 -11.7849     19.1557    238.7551   1.4809864005e+02   2.3025786494e+01    0.4611645    0.2977553  53.42  0.003271929    1.394    0.283
       366  -9.3764     50.3058    240.3318   1.4291232752e+02   1.8957478992e+01   0.09990479   0.08875307 -60.27  0.000534881    1.661    0.398
       367  -9.8992    195.7442    238.6812   1.1498422858e+02  -4.4707262423e+00    0.2356184    0.1384531  36.36  0.001056473    1.479    0.324
       368 -11.4623    177.5662    234.8060   1.1788509786e+02  -6.8986775492e-01    0.3247413    0.2381629   8.41  0.001443715    1.765    0.434
       369 -10.4606    159.9055    235.8565   1.2151954201e+02   2.2685470938e+00    0.2031192    0.1669087  27.84 0.0006122494    1.259    0.206
       370 -10.7442     73.7428    232.9808   1.3799061203e+02   1.7167410412e+01    0.3070482    0.1683955  51.33  0.001394605    1.541    0.351
       371 -10.1280     86.2301    233.3753   1.3566125321e+02   1.5216618384e+01    0.2250188    0.1351564  83.37  0.001193799    1.800    0.445
       372 -10.5170    166.9164    233.7064   1.1980989582e+02   1.3892039529e+00     0.204805    0.1839305 -15.91 0.0008702237    1.316    0.240
       373 -10.0590    127.4926    233.4988   1.2761054026e+02   8.4099975018e+00    0.1317295    0.1131571  54.88 -2.84542e-05    1.059    0.056
       374  -9.9263     79.5717    231.2782   1.3671242646e+02   1.6646169818e+01    0.2206147    0.1458782  51.10 0.0006194389    1.319    0.242
       375 -10.3315     11.9363    238.1512   1.4923930905e+02   2.3924765267e+01    0.2239518    0.1180573  69.11  0.001439367    1.458    0.314
       376 -10.1602    137.0308    247.6790   1.2760684900e+02   4.2121338970e+00    0.1828133    0.1405254  48.58 0.0004477158    1.080    0.074
       377 -10.6706    153.4283    233.7320   1.2248773974e+02   3.7942487625e+00    0.2376236    0.1930141  -0.64 0.0008464503    1.695    0.410
       378 -10.4606    190.3502    226.7902   1.1407306398e+02  -1.6365105691e+00    0.2866356    0.1786444 -44.10  0.001094197    1.814    0.449
       379 -10.7500    115.9943    226.4954   1.2898244889e+02   1.1741283289e+01    0.2953186    0.1646297 -67.66  0.001443776    2.051    0.512
