#   1 NUMBER                 Running object number                                     
#   2 MAG_AUTO               Kron-like elliptical aperture magnitude                    [mag]
#   3 X_IMAGE                Object position along x                                    [pixel]
#   4 Y_IMAGE                Object position along y                                    [pixel]
#   5 X_WORLD                Barycenter position along world x axis                     [deg]
#   6 Y_WORLD                Barycenter position along world y axis                     [deg]
#   7 A_WORLD                Profile RMS along major axis (world units)                 [deg]
#   8 B_WORLD                Profile RMS along minor axis (world units)                 [deg]
#   9 THETA_WORLD            Position angle (CCW/world-x)                               [deg]
#  10 FWHM_WORLD             FWHM assuming a gaussian core                              [deg]
#  11 ELONGATION             A_IMAGE/B_IMAGE                                           
#  12 ELLIPTICITY            1 - B_IMAGE/A_IMAGE                                       
         1 -11.3417    114.8215     85.8975   9.4965002592e+01   4.2744337373e+01    0.6800652    0.1082928 -44.65  0.001552661    6.046    0.835
         2 -13.9434    186.9170     30.3304   6.1751176725e+01   3.4490298665e+01     1.754462     1.059488  12.18  0.007102963    2.521    0.603
         3 -10.3925     57.3740      6.5932   8.3528681480e+01   6.6761352136e+01    0.2126012    0.1174604  58.65 0.0009636595    3.264    0.694
         4 -11.7572    209.1088      2.0022   5.0850064467e+01   3.1829169156e+01    0.6579418    0.2116942  69.30   0.00225529    2.777    0.640
         5 -11.4615    245.1736      1.6579   4.7762268649e+01   2.3153593088e+01    0.7552677    0.1673804  74.15  0.002480882    4.486    0.777
         6 -11.4602     61.2444    215.6601   1.2917258881e+02   2.4000077936e+01    0.3754433    0.1624841  58.82  0.001497108    2.075    0.518
         7  -9.6154    159.4744    250.0182   1.1543033724e+02   4.4803954489e+00     0.133077    0.0927746  -7.66 0.0008090512    2.460    0.593
         8 -19.3666     22.3464    134.2390   1.2974450127e+02   4.4747668819e+01     17.79829     3.892659 -73.79   0.06248987    4.207    0.762
         9  99.0000     54.6953    235.0435   1.3170787229e+02   2.1471649093e+01     3.595483     1.389229  48.36   0.01462726    1.931    0.482
        10  -9.5938    164.3424    205.9695   1.0873274843e+02   9.8794470390e+00    0.1600454    0.1531703  23.18 0.0004065959    1.150    0.130
        11 -10.1470     40.9304    220.1880   1.3303968707e+02   2.5604618651e+01    0.1948017    0.1102254  57.71 0.0006994898    1.363    0.266
        12 -11.6227     45.7599    203.9826   1.3105734271e+02   2.7991968928e+01    0.1731631    0.1273167  59.99 0.0003023933    1.142    0.124
        13 -11.7477     46.5047    216.4327   1.3182893264e+02   2.5633940568e+01    0.3338856    0.1345672  53.45  0.001896552    1.983    0.496
        14 -11.2395    193.7795    193.9285   1.0125538864e+02   6.4844493822e+00    0.5711696    0.3781493 -51.93  0.003092254    2.022    0.505
        15 -12.0895     73.5944    192.0197   1.2467877029e+02   2.6803048071e+01    0.5703721    0.5252826  42.86   0.00269783    1.367    0.269
        16 -10.1499     68.4736    196.5519   1.2613990136e+02   2.6609452386e+01    0.1335811    0.1027501 -74.42 0.0002583048    1.319    0.242
        17  -9.0741    180.1923    192.4083   1.0354757841e+02   9.1679123610e+00    0.1802733    0.1109453  50.92 0.0004911019    1.604    0.376
        18  -9.4351     61.0331    190.6071   1.2701869309e+02   2.8714693304e+01    0.2583427    0.1475242 -74.17  0.001533077    1.670    0.401
        19 -10.1470    184.2246    216.3826   1.0664463824e+02   4.9543444263e+00    0.1792846   0.09790971  47.95 0.0009526685    1.667    0.400
        20  -8.9316     65.7096    194.3547   1.2646376789e+02   2.7390660248e+01    0.2262577    0.1206347  63.10 0.0007359112    1.782    0.439
        21 -10.5741    206.9625    181.4761   9.6566898710e+01   5.9123369181e+00    0.2512338    0.2055286  46.45  0.001507498    1.275    0.216
        22 -10.6542    211.1508    179.1105   9.5352753539e+01   5.4863001564e+00    0.3554207    0.2157255  28.63  0.001702516    1.633    0.388
        23 -10.1191     99.5596    180.5964   1.1800393336e+02   2.5280218490e+01    0.2190199    0.1899556  65.10 0.0005525345    1.031    0.030
        24 -11.4413     84.1269    176.8957   1.2077765219e+02   2.8337867694e+01    0.3961029    0.2467377 -41.59  0.002053489    2.339    0.572
        25 -11.6062     87.2219    172.5845   1.1955724544e+02   2.8765980779e+01    0.3171337    0.2592436 -73.72  0.001436643    1.203    0.169
        26 -10.7645    195.9951    170.9833   9.6607844714e+01   9.5769267992e+00    0.3352558    0.2998856  -1.13  0.001079605    1.115    0.103
        27  -9.5686    193.9393    165.1868   9.5855058249e+01   1.0906845993e+01    0.2458799     0.198927 -65.53  0.001328732    1.690    0.408
        28 -11.0822    114.5577    172.9612   1.1371021979e+02   2.4368016739e+01    0.4469913    0.1844849 -60.79  0.001834731    2.804    0.643
        29 -11.0009    104.7907    172.6072   1.1576337320e+02   2.6046981600e+01    0.2388382    0.1826485  51.52 0.0009964736    1.199    0.166
        30 -11.0521     93.1747    163.8462   1.1702594297e+02   2.9680614922e+01    0.3754136    0.2650852 -42.42  0.001868659    1.787    0.440
        31  -8.9943    141.6211    158.4788   1.0533609673e+02   2.2373821672e+01    0.1360875    0.1291101  68.27 0.0001459376    1.039    0.037
        32 -11.2939     98.8242    155.7099   1.1448804175e+02   3.0508671011e+01    0.5796977    0.3862163 -34.51  0.002855791    2.169    0.539
        33 -11.5046     63.5793    155.5329   1.2257456449e+02   3.5641622716e+01    0.3137927    0.2076555  54.19 0.0008543267    1.451    0.311
        34 -10.3093    133.9827    145.3441   1.0449031382e+02   2.6463821202e+01    0.8406835    0.1863676 -54.40  0.001820131    8.132    0.877
        35 -10.9923    109.3607    140.3038   1.0929067417e+02   3.2049522807e+01    0.4839295    0.2835572 -38.81  0.002164533    2.133    0.531
        36 -11.4920     97.8334    140.7526   1.1216597344e+02   3.3898174630e+01    0.2444457     0.241937 -63.94 0.0004651272    1.161    0.139
        37 -10.6980     79.9934    139.9746   1.1639775549e+02   3.6822924616e+01    0.2177279    0.1478449  77.12  0.000728797    1.681    0.405
        38  -8.9553     10.6336    213.7777   1.3775230793e+02   2.9861285654e+01   0.07836924   0.07398705  79.82 0.0006864293    1.580    0.367
        39  -9.9093     82.6091    133.7773   1.1469079159e+02   3.7820809218e+01    0.1849408    0.1198481 -72.72 0.0003177634    1.574    0.365
        40 -11.3579    116.4298    130.4568   1.0559136385e+02   3.2908930146e+01    0.4383736    0.3591138  12.03  0.002073419    1.587    0.370
        41 -10.5896    104.0635    127.0939   1.0797655510e+02   3.5854200093e+01    0.3000829    0.2604488 -30.20 0.0007921425    1.344    0.256
        42  -9.7419    162.0031    129.1540   9.4636980146e+01   2.3977647655e+01    0.2508513    0.1771767  76.44  0.001086928    2.051    0.512
        43 -10.3533    105.9959    130.9875   1.0828609346e+02   3.4662985446e+01    0.3414473     0.285235  81.35  0.001039849    1.265    0.209
        44 -10.4977    110.8665    119.5035   1.0460646172e+02   3.6310553189e+01     0.247456     0.199785 -54.27 0.0005363816    1.203    0.169
        45 -12.0665     68.3916    116.2032   1.1521735004e+02   4.3810424778e+01    0.3466509    0.2699661  47.42  0.001588654    1.375    0.273
        46  -9.5753    168.0941    112.8876   8.9327284824e+01   2.5757953637e+01    0.3231268    0.2266728 -79.64  0.001324429    2.299    0.565
        47  -9.5108     72.0876    211.0417   1.2681491916e+02   2.3438454424e+01    0.2279146    0.1020944  58.43  0.001129138    2.079    0.519
        48 -11.5744    114.7883    104.2660   9.9946226892e+01   3.8881384220e+01    0.7761273    0.1218214 -44.89   0.00172495    6.584    0.848
        49  -9.5083     67.6602    211.0180   1.2762525832e+02   2.4020409272e+01    0.2496942    0.1791093  24.89  0.001145618    2.056    0.514
        50  -9.3499    205.7771    110.2078   8.1090877145e+01   1.7624099640e+01    0.2055829    0.1695048  11.52 0.0004589253    1.314    0.239
        51 -11.9387     64.0505    206.3025   1.2787877082e+02   2.5345802142e+01    0.4140899    0.3471768 -41.33  0.001307104    1.858    0.462
        52  -8.8465    168.2971    248.3157   1.1374574088e+02   3.3407739633e+00     0.107912   0.07564042  20.88 0.0002269085    1.607    0.378
        53 -11.4004    172.9462     71.8576   7.6896551718e+01   3.2027648955e+01     0.501107    0.3379298 -82.48  0.000952119    2.335    0.572
        54 -12.1808    172.2539     45.6428   6.8937804810e+01   3.6275973720e+01    0.4546325    0.4211583 -25.43 0.0008389741    1.093    0.085
        55 -10.7938    171.5440    239.5428   1.1210405081e+02   3.9426007952e+00    0.2475372     0.160062  69.00  0.001383944    2.489    0.598
        56  -8.6473      1.4102    238.3962   1.4019930166e+02   2.6544445132e+01   0.08899511   0.06596241  74.12 0.0007878046    1.194    0.163
        57 -10.0272      4.9406    236.4768   1.3960573515e+02   2.6529494160e+01    0.1069757   0.07464662  54.13 7.692733e-06    1.313    0.239
