#   1 NUMBER                 Running object number                                     
#   2 MAG_AUTO               Kron-like elliptical aperture magnitude                    [mag]
#   3 X_IMAGE                Object position along x                                    [pixel]
#   4 Y_IMAGE                Object position along y                                    [pixel]
#   5 X_WORLD                Barycenter position along world x axis                     [deg]
#   6 Y_WORLD                Barycenter position along world y axis                     [deg]
#   7 A_WORLD                Profile RMS along major axis (world units)                 [deg]
#   8 B_WORLD                Profile RMS along minor axis (world units)                 [deg]
#   9 THETA_WORLD            Position angle (CCW/world-x)                               [deg]
#  10 FWHM_WORLD             FWHM assuming a gaussian core                              [deg]
#  11 ELONGATION             A_IMAGE/B_IMAGE                                           
#  12 ELLIPTICITY            1 - B_IMAGE/A_IMAGE                                       
         1 -12.2185    162.5858     38.9072   4.5151207564e+01   3.9565530041e+01     1.423599    0.9897856  56.26  0.007449579    1.352    0.260
         2 -13.1338    146.1615     64.6326   5.5976726705e+01   3.9836172435e+01     1.998305     1.392387 -25.48  0.009433948    1.608    0.378
         3  -9.8452    182.1909     10.7896   3.4875029317e+01   3.7998099784e+01    0.3475488    0.2599615   3.76  0.001551026    1.958    0.489
         4  -8.6800    120.0019      8.9085   4.3223336708e+01   5.3123322276e+01    0.2060704    0.1734691  59.83 0.0007196209    1.036    0.035
         5  -8.5306    163.7805      6.4814   3.5835888501e+01   4.2799748983e+01    0.2245361    0.1633965  12.83  0.001269425    1.926    0.481
         6  -9.8351    178.9894      2.6561   3.3154055921e+01   3.9522328645e+01    0.4471955    0.2167992  50.30  0.002182764    2.241    0.554
         7  -7.8914    167.4552      1.4578   3.4056705168e+01   4.2360465914e+01     0.126433    0.1056248  83.57 4.674658e-05    1.003    0.003
         8  -8.3202     10.5022    232.4286   1.2304531703e+02   2.3121241608e+01     0.242892   0.09513689  57.39 0.0008633439    2.136    0.532
         9 -15.5938     74.6951    241.9685   1.1094996462e+02   1.3701944790e+01      1.94888    0.5470768  46.97  0.007578035    3.058    0.673
        10 -15.8272    120.9569    219.1601   9.8078449333e+01   1.1450733618e+01     2.699853     1.065452 -59.94   0.01034721    3.145    0.682
        11 -17.4615     57.8657    210.5569   1.1151819876e+02   2.2567841427e+01     5.625926     1.994197 -68.86   0.01976503    2.815    0.645
        12 -16.4178     69.0982    218.0536   1.0976098937e+02   1.9430207373e+01     1.557711    0.6943254 -70.95  0.006964415    2.415    0.586
        13 -19.0653     90.9051    206.3531   1.0330877862e+02   1.8916156198e+01     5.029955     4.604763 -55.54   0.02423088    1.202    0.168
        14  -8.8321    204.0372    200.5135   7.6588489550e+01   1.1834301799e+00    0.2131708    0.1728087 -22.72 0.0007430638    1.149    0.130
        15  -8.0890     16.3682    138.9866   1.1426676440e+02   4.4360712506e+01    0.2709498    0.1114684 -80.79  0.001106739    2.427    0.588
        16  -9.3161      4.7037    231.5546   1.2408895825e+02   2.3848367073e+01    0.5620773    0.1755415  74.15  0.002236112    3.907    0.744
        17  -9.4567     34.4664    136.5764   1.0858123267e+02   4.3426302783e+01    0.3215276    0.1484036  16.30  0.001329481    2.869    0.651
        18  -8.5751     34.9567    132.7325   1.0784980846e+02   4.4361386885e+01    0.2521254    0.1682534 -67.14 0.0005272087    1.301    0.231
        19 -11.6093     46.8407    127.0326   1.0314979338e+02   4.4589075003e+01    0.8755504     0.698718 -73.57  0.004802822    1.198    0.165
        20  -9.9518      2.5706    132.6957   1.1754941504e+02   4.6850763804e+01    0.4747336      0.12049 -65.73  0.001864653    2.689    0.628
        21  -8.6865      4.8559    198.8297   1.2227144731e+02   3.0856692720e+01    0.2053091    0.1462359  88.40  0.001340782    1.131    0.116
        22  -9.5090     39.2646    130.0319   1.0607588704e+02   4.4626791902e+01    0.2445139    0.2099395   9.17 0.0001857787    1.364    0.267
        23  -7.8930    207.9725    192.0585   7.4158295918e+01   2.0286229920e+00     0.164384    0.1412955  -8.64 0.0003411166    1.015    0.015
        24  -9.5619     11.5624    186.3892   1.1995571426e+02   3.3144806221e+01    0.4084171    0.1995946  36.24  0.002165919    2.045    0.511
        25 -10.1775    152.8798    130.5438   7.2746602594e+01   2.5208684412e+01    0.4251486    0.3171548  78.16 0.0007337789    1.929    0.482
        26  -9.7125     14.8867    178.9718   1.1860268602e+02   3.4615122933e+01    0.5396046     0.225215 -60.72  0.001896956    2.163    0.538
        27  -8.6644    218.6764    231.2027   7.9285457110e+01  -5.9498180567e+00    0.2014906    0.1502945  29.72 0.0007165619    1.363    0.266
        28  -9.8425     31.2215    121.9704   1.0731805658e+02   4.7445977305e+01    0.5067312    0.2489828 -29.21  0.002045093    2.884    0.653
        29 -10.5421    173.3888    176.7175   7.8389783440e+01   1.1066312732e+01    0.4426217    0.4353513  69.47  0.001533424    1.195    0.163
        30  -9.7799    113.1288    120.4261   8.0854350685e+01   3.5855117984e+01    0.3071997    0.2475776 -17.86 0.0007697818    1.421    0.296
        31  -8.5216     13.9601    119.2875   1.1247395199e+02   4.9470232081e+01    0.1741774    0.1567227 -62.87 0.0004993788    1.096    0.088
        32  -9.7000    126.6159    118.0100   7.6389413472e+01   3.3661979503e+01    0.2999028    0.2368696  49.04 0.0007885656    1.321    0.243
        33  -8.8425     47.6596    115.9227   1.0075877711e+02   4.7317999143e+01    0.2095829    0.1644725 -59.25 0.0007095692    1.138    0.121
        34  -9.7342    168.1024    113.5642   6.4842836665e+01   2.5474369953e+01    0.4212741    0.3265602 -74.64  0.001392185    1.655    0.396
        35 -11.8990    116.7983    112.9903   7.7834806541e+01   3.6853691325e+01    0.6470267    0.5556052 -48.03  0.002440862    1.156    0.135
        36  -9.3895    190.5616    174.8034   7.4236018656e+01   8.2702116555e+00    0.2615539    0.1902714 -43.08 0.0007364715    1.385    0.278
        37 -11.0224    127.4136    110.8699   7.4258256042e+01   3.5108765538e+01    0.6878467    0.4091375  51.08  0.001934476    1.826    0.452
        38  -8.2761     10.9882    172.9783   1.1904531999e+02   3.6380657728e+01    0.2041435    0.1207024  69.58 0.0005326626    1.626    0.385
        39  -8.9466      6.6625    169.0032   1.1977254879e+02   3.7677868611e+01    0.2579616    0.1757557  71.69 0.0009054511    1.346    0.257
        40 -10.9695     75.4645    107.4512   8.9373623036e+01   4.5694780919e+01    0.6878338    0.4096383  24.86  0.002973643    1.906    0.475
        41 -11.0032     65.1793    108.2669   9.3078463981e+01   4.7016256964e+01    0.5824588     0.440424  20.78  0.001890555    1.451    0.311
        42 -11.4163    106.3301    106.6960   7.9231394809e+01   4.0404627532e+01    0.4784485    0.4489406 -17.15  0.001677992    1.052    0.049
        43 -10.8634    110.6134    108.2032   7.8354477859e+01   3.9207286268e+01    0.3867047    0.2765494 -40.57   0.00156849    1.377    0.274
        44 -10.1447    114.0121    107.0000   7.7015934327e+01   3.8792087524e+01    0.2465324    0.2397167  42.38 0.0006173764    1.071    0.066
        45  -9.9607     49.5616    106.2369   9.8047154468e+01   4.9515128487e+01    0.2601033    0.2455744  29.72 0.0003852578    1.186    0.157
        46  -9.8995    165.7580    166.4225   7.7965779841e+01   1.4681524583e+01    0.4925257    0.2562496 -35.25 0.0009796666    2.092    0.522
        47  -7.7735     24.6765    103.7375   1.0636378765e+02   5.2550101292e+01    0.1362931   0.08650964 -36.61 0.0002968058    1.558    0.358
        48  -9.3736     65.0196    100.9679   9.1320791616e+01   4.8807458391e+01    0.2380692    0.1656228 -23.70 0.0006226824    1.629    0.386
        49  -9.2688     97.3256     97.6686   7.9498577381e+01   4.4198059245e+01    0.4647926    0.1405474 -48.19  0.001394188    3.274    0.695
        50  -7.4774    235.3021    224.3004   7.4975626207e+01  -7.2011251715e+00    0.1275257   0.07935009  -2.96 0.0002378773    1.586    0.370
        51 -16.6576    109.2661    212.2847   9.9793441694e+01   1.4761968920e+01      2.18717    0.5830322 -49.01  0.007013089    4.189    0.761
        52  -8.2392      6.2247    154.4319   1.1864950206e+02   4.1255516449e+01    0.1594727    0.1081367  46.26 0.0004225041    1.569    0.362
        53  -9.2386    185.8985     95.2613   5.6413461227e+01   2.4986078458e+01    0.3274516    0.2482063  47.09 0.0009023607    1.392    0.281
        54  -9.9558    113.8701     95.0777   7.3656624302e+01   4.1452907511e+01    0.2950244    0.2161556 -35.29  0.001015596    1.376    0.273
        55 -10.2492      2.4972    149.8160   1.1921382744e+02   4.2639442802e+01    0.3488356    0.1774643 -70.53  0.001197124    1.561    0.359
        56  -8.9054     85.3573     89.2209   8.0967526487e+01   4.8274427634e+01    0.2391774    0.2165066  27.98 0.0005023468    1.135    0.119
        57  -8.0955    104.2652     88.6659   7.4645952129e+01   4.4799487988e+01    0.1484302    0.1236285 -79.61 0.0002457787    1.583    0.368
        58  -8.4174    104.4750     84.5539   7.3317734237e+01   4.5614295180e+01    0.1524989    0.1448884  -0.19 4.801014e-05    1.005    0.005
        59  -9.7346     30.6607    247.7315   1.2011538361e+02   1.7979027046e+01    0.3787608    0.1572246  68.78  0.001641556    2.526    0.604
        60  -8.3981     21.6133    244.4356   1.2161312154e+02   1.9597259693e+01    0.2683703    0.1095676  57.18  0.001421116    2.038    0.509
        61 -11.6423    151.1285     51.5674   5.0971204167e+01   4.0647019042e+01    0.9948589    0.4096147 -31.94 0.0009109935    2.603    0.616
        62 -12.0717    157.8335     52.6750   5.0002789301e+01   3.8842864038e+01    0.9479599    0.6722488 -34.16  0.002641368    1.481    0.325
        63 -10.6674    233.9759     55.1800   3.9689094370e+01   2.0863409362e+01    0.4034615    0.2607616 -44.20  0.001428946    1.355    0.262
        64 -11.1235    238.9626     52.9234   3.8674535858e+01   2.0155833269e+01    0.5278486    0.4227475 -56.11  0.002719023    1.053    0.050
        65  -9.5550    161.9759    139.9414   7.2844998594e+01   2.1199968505e+01    0.6167314    0.2750918 -39.09   0.00203727    2.296    0.564
        66  -8.3628    221.7907     40.1262   3.7653505665e+01   2.5521765728e+01    0.2014336    0.1448019 -62.87 0.0006102934    1.243    0.196
        67  -9.1730    249.4134     30.8036   3.3159454627e+01   2.0984157894e+01    0.1565437    0.1074016 -29.92  0.000860034    1.692    0.409
        68  -8.1245    229.0066     28.3068   3.4362452868e+01   2.5467751418e+01    0.1699142    0.1397648 -78.31 0.0006471969    1.056    0.053
        69  -8.6349    167.0438     21.9809   3.9689141621e+01   4.0475705431e+01    0.1981196    0.1786067  63.37  0.000497861    1.120    0.107
        70  -8.5914     12.3123     17.6327   8.6714827657e+01   7.1455691896e+01   0.09548561   0.09504348  51.81 0.0004437361    1.766    0.434
        71  -9.0349    189.6587     15.3572   3.5217916670e+01   3.5773849109e+01    0.2219503    0.2082346  86.91  0.000749646    1.163    0.140
        72  -9.9276    157.7338    133.7946   7.2368991155e+01   2.3448674907e+01    0.6310197    0.4294791 -46.71  0.002501062    1.455    0.313
        73  -8.0765    196.8615    218.8525   8.1425017315e+01  -8.1235653880e-01    0.1644646    0.1477741  28.93  0.000264118    1.277    0.217
        74  -9.5931    185.1176    229.5252   8.5671462736e+01  -7.7042650316e-01    0.5156078    0.3009747 -57.02  0.002395493    2.771    0.639
        75  -9.3898    137.9155    140.2663   7.8913008968e+01   2.6153954059e+01    0.4038576    0.3083475 -86.91  0.001569805    1.856    0.461
