#   1 NUMBER                 Running object number                                     
#   2 MAG_AUTO               Kron-like elliptical aperture magnitude                    [mag]
#   3 X_IMAGE                Object position along x                                    [pixel]
#   4 Y_IMAGE                Object position along y                                    [pixel]
#   5 X_WORLD                Barycenter position along world x axis                     [deg]
#   6 Y_WORLD                Barycenter position along world y axis                     [deg]
#   7 A_WORLD                Profile RMS along major axis (world units)                 [deg]
#   8 B_WORLD                Profile RMS along minor axis (world units)                 [deg]
#   9 THETA_WORLD            Position angle (CCW/world-x)                               [deg]
#  10 FWHM_WORLD             FWHM assuming a gaussian core                              [deg]
#  11 ELONGATION             A_IMAGE/B_IMAGE                                           
#  12 ELLIPTICITY            1 - B_IMAGE/A_IMAGE                                       
         1 -10.2682    239.1763     22.4446   3.5747501558e+01   2.3482695937e+01    0.2984454    0.2235582 -82.15 0.0007939728    1.191    0.160
         2  -9.8369     21.8192     27.4953   8.9441854849e+01   6.8793373081e+01    0.5434754     0.116729 -41.86  0.002030061    3.674    0.728
         3 -10.7354     30.2948     23.2228   8.3336765891e+01   6.8592283555e+01    0.5933523    0.2157304 -34.49  0.002679781    2.543    0.607
         4  -9.7774     29.5295     18.2304   8.1400017539e+01   6.9434306245e+01    0.4007001    0.1664666 -30.30  0.001809437    2.295    0.564
         5 -11.3528     57.4311     13.9136   6.6852891430e+01   6.5960879294e+01    0.7345072     0.405902   5.65  0.003107834    2.328    0.570
         6 -11.6055    111.8106     19.1361   5.2606328906e+01   5.4316348575e+01    0.5281198    0.3998222  34.81  0.002991863    1.247    0.198
         7 -11.9256    122.5253     11.2932   4.7438126382e+01   5.2560136781e+01     0.627994    0.3119995  56.04 0.0005702153    1.691    0.409
         8 -11.1361    149.9435     18.5203   4.5014047296e+01   4.5160077151e+01    0.3182686     0.300221  -5.45 0.0004961465    1.203    0.169
         9 -11.1606    155.0521     14.7428   4.3056133870e+01   4.4273004795e+01    0.8233747    0.4089206  -7.66  0.003347787    3.185    0.686
        10 -10.6398     86.7286     16.4727   5.8078928440e+01   6.0118756492e+01    0.5408195    0.2710343 -40.83  0.001510828    2.487    0.598
        11 -10.8469    102.0470     16.3842   5.3892831225e+01   5.6819051656e+01    0.4761054    0.3547273  31.56  0.001458016    1.255    0.203
        12  -9.6282     43.8623     14.9007   7.2998470130e+01   6.7992065524e+01      0.29867    0.1779632  -8.15  0.001385628    1.759    0.431
        13 -10.2811     47.6785      8.6953   6.8238616564e+01   6.8157939753e+01    0.4152242    0.2338484  15.98   0.00171013    1.890    0.471
        14 -10.1644     17.4009      3.4020   8.0276102624e+01   7.2858343651e+01    0.3922902    0.2418943  16.58  0.002065264    1.473    0.321
        15 -10.2315     22.7369     16.1149   8.3870692207e+01   7.0509240284e+01    0.2820024     0.263705  -5.86  0.001698238    1.488    0.328
        16 -10.9739      4.4787      3.5300   8.7960368150e+01   7.4072061866e+01    0.6077937    0.3338266   5.64  0.002709566    1.772    0.436
        17 -10.0169     19.4692     10.9117   8.3065016321e+01   7.1612762778e+01    0.2507513    0.1786987  14.32 0.0006765361    1.315    0.239
        18  -9.5944     16.0086      8.4664   8.3735623025e+01   7.2315321236e+01    0.3299842    0.1440345  23.35  0.001390848    2.307    0.567
        19  -9.8087     11.9927      6.6393   8.5085624582e+01   7.2965202057e+01    0.2573662    0.1683602  22.65  0.001416605    1.575    0.365
        20 -10.1104     10.6919     15.1970   9.0004750842e+01   7.1795998238e+01    0.3096883    0.2359183 -13.17  0.002246313    1.074    0.069
        21 -10.3500    186.0014     13.5120   3.8719196928e+01   3.6754417278e+01    0.2946808    0.2440533  59.16  0.001299065    1.242    0.195
        22 -11.2473    181.5693     13.2458   3.9152962669e+01   3.7863867556e+01    0.8972564    0.3530385  46.79   0.00349975    3.108    0.678
        23 -11.0071    127.3200      4.9180   4.4306609374e+01   5.1962637255e+01    0.3829665    0.2545222  45.86  0.001088912    1.374    0.272
        24  -9.6816    216.4811      7.9196   3.4401613012e+01   3.0140269390e+01    0.2900139    0.1928254 -49.74   0.00131071    1.370    0.270
        25 -10.8189    211.0001     10.5750   3.5488654583e+01   3.1117649881e+01     0.427187    0.3033824 -66.05  0.001404418    1.261    0.207
        26 -10.3177    212.7600      5.5288   3.4160955692e+01   3.1237346956e+01    0.3148806    0.1973339 -35.95  0.001808446    1.620    0.383
        27  -9.4109     92.5738     10.0594   5.3749144269e+01   5.9513073020e+01    0.2721821    0.1725557  66.52 0.0007365045    1.766    0.434
        28  -9.9082     25.3127      7.4301   7.8148817217e+01   7.1430908020e+01    0.2307486    0.1576298 -22.54 0.0004854154    1.257    0.204
        29  -9.3468    102.5948      7.7972   5.0353075613e+01   5.7501563599e+01    0.2970535    0.1728783  30.10  0.001339458    1.783    0.439
        30  -9.8463     78.1709      6.7605   5.6361624777e+01   6.2826347936e+01    0.3255723    0.2671608  39.36  0.001952771    1.106    0.096
        31 -10.4513    107.2225      4.3813   4.7985077840e+01   5.6734888615e+01    0.4888974    0.3269816 -49.17   0.00252628    1.915    0.478
        32  -9.1375    102.2319      1.5993   4.7973278975e+01   5.8088828152e+01    0.1904357    0.1643499  60.43  0.000632184    1.141    0.124
        33 -10.5250     90.1774      3.3876   5.1558423754e+01   6.0609175088e+01    0.2766955    0.2573367  60.28 0.0009124428    1.224    0.183
        34 -10.7700     84.8054      1.3804   5.2090793708e+01   6.1914478867e+01    0.3448153     0.159372  64.75 0.0005976283    2.402    0.584
        35  -8.7529     64.9259      5.5014   6.0037688804e+01   6.5512837244e+01    0.1781118    0.1083273  46.95 0.0004782986    1.513    0.339
        36  -9.9777     38.5382      4.9044   7.0300019993e+01   6.9976621515e+01    0.2726513      0.16226  38.45 0.0009608537    1.661    0.398
        37  -8.6960     41.5693      1.5567   6.7142733552e+01   6.9883384102e+01    0.2546394    0.1409717  47.56  0.001427576    2.058    0.514
        38  -9.3327    158.4843      7.4547   4.0379597313e+01   4.4113756286e+01    0.2024677    0.1872103  77.89 0.0006877959    1.065    0.061
        39 -10.1027     23.8604      2.7360   7.6383698250e+01   7.2199219762e+01    0.2570241    0.1132535  26.82  0.001367297    2.210    0.547
        40  -8.6203     69.4335      2.4521   5.7076365416e+01   6.4934985172e+01    0.1661301    0.1055778   4.91  0.000126227    1.620    0.383
        41  -9.8287     64.9156      1.3416   5.8023451119e+01   6.5892913196e+01    0.3625849    0.1092843  53.49 0.0009004521    3.091    0.676
        42  -9.2162     55.0328      1.7468   6.1745470088e+01   6.7649695925e+01    0.2288592    0.1221263  42.86 0.0008643834    1.642    0.391
        43  -9.0778    185.5122      1.8685   3.5731385055e+01   3.8009150721e+01    0.1682317    0.1259609 -29.81 0.0006295981    1.510    0.338
        44  -8.1786    228.6817      1.3269   3.2010333314e+01   2.8099825590e+01    0.1321186   0.07070599 -63.45 0.0007046135    1.679    0.404
        45  -9.1759    194.5185      1.5012   3.4784514300e+01   3.5890409985e+01     0.270496    0.1104277  75.18  0.001213904    2.178    0.541
        46  -9.0483    137.2453      1.3741   4.1498018916e+01   4.9845081916e+01    0.1826624    0.1118011  80.54 0.0004765862    1.631    0.387
        47  -8.0497     34.6386      1.7043   7.0394293326e+01   7.0895025469e+01    0.1245173   0.07233202  10.77 0.0007032103    1.708    0.415
        48 -10.7696     20.7155    109.9899   1.1172033990e+02   5.1182593447e+01    0.4081715    0.2767868  58.67  0.001898966    1.764    0.433
        49  -9.5549     62.9392    111.5038   9.8306550101e+01   4.6375955934e+01    0.2002686    0.1448815  28.63 0.0004406149    1.542    0.351
        50  -8.8858     28.1252    110.1610   1.0936224461e+02   5.0538933009e+01      0.29105    0.1089007 -46.17 0.0008162564    2.555    0.609
        51  -8.9333    128.7535    109.2992   7.7938150519e+01   3.5111483055e+01    0.3220052    0.2320049   1.46  0.001317924    2.064    0.516
        52 -10.5299      7.3750    108.2226   1.1569887542e+02   5.2517952947e+01    0.3991796    0.3132908 -82.26  0.002022485    1.160    0.138
        53  -9.5330      8.5251    103.4919   1.1465847965e+02   5.3578402031e+01    0.2034719    0.1571891 -90.00 0.0009352815    1.294    0.227
        54  -9.3700     11.6231    102.1780   1.1344688205e+02   5.3699737229e+01    0.2613095    0.1665634 -51.12 0.0009741764    1.344    0.256
        55  -8.7977    100.2759    109.0359   8.5984116451e+01   4.0936339121e+01     0.220567    0.1878466 -48.02 0.0009296434    1.126    0.112
        56  -9.3430     61.2676    106.6083   9.7740776118e+01   4.7790353404e+01    0.2452629     0.150712 -39.70  0.000540755    1.651    0.394
        57 -10.1583     61.8650    101.0491   9.6223955415e+01   4.9045537021e+01    0.4327032    0.1362566 -53.45  0.001505766    2.717    0.632
        58 -10.6080     79.9841    103.7349   9.0918632421e+01   4.5721762704e+01    0.4222922    0.3045407  13.82  0.001460261    1.720    0.419
        59  -9.6431    108.2432    103.3143   8.2067048131e+01   4.0714289985e+01    0.3580689    0.2489077  27.72 0.0006706112    1.643    0.391
        60  -9.3201     64.8826    103.9623   9.5920255838e+01   4.7935884086e+01    0.2173169    0.1734067 -36.02            0    1.238    0.192
        61  -9.3446     17.3696    103.8502   1.1181866759e+02   5.2911926327e+01    0.2357987    0.1521962 -23.58  0.001293111    1.887    0.470
        62  -9.8604     45.1141    101.8151   1.0208625745e+02   5.0909068512e+01     0.269443    0.2232296  56.61  0.000920899    1.422    0.297
        63 -10.3301     53.3397     99.2811   9.8700108501e+01   5.0563514715e+01    0.4617481    0.2191465 -54.05  0.002010056    1.812    0.448
        64  -9.8309     69.0581     96.6461   9.2682180812e+01   4.9071059374e+01    0.3513895    0.2016099 -56.18 0.0009044678    1.668    0.400
        65  -8.3491    107.4828     97.5060   8.0656058060e+01   4.2163663704e+01    0.1540947    0.1477163 -24.76 -7.140121e-05    1.014    0.013
        66 -10.1065     34.8443     95.3145   1.0424461016e+02   5.3513217346e+01     0.522746    0.2502612 -29.72  0.001774203    2.882    0.653
        67 -10.2928     16.6747     95.6366   1.1065723483e+02   5.4920276183e+01     0.326238    0.2178829  62.77  0.001363862    1.932    0.482
        68  -9.5468    116.4906     93.4898   7.6864441742e+01   4.1180452128e+01    0.2813855    0.2492737 -86.38   0.00141503    1.335    0.251
        69  -8.4077      1.3505     94.2580   1.1567314689e+02   5.6151957461e+01    0.1721781    0.0963238 -78.84 0.0006501044    1.614    0.380
        70  -9.1193    132.1050     93.5301   7.2592775765e+01   3.7753410281e+01    0.2356542    0.1547884  47.57 0.0004371093    1.541    0.351
        71 -10.3236     87.5613     90.1197   8.4713205214e+01   4.7560919865e+01    0.6706808    0.3892338 -66.78  0.002034438    2.687    0.628
        72  -9.6559     79.4226     94.9046   8.8744849081e+01   4.7866654212e+01    0.3726225    0.2621967 -32.89  0.001781725    1.470    0.320
        73  -8.5236     73.4994     92.5563   9.0079980708e+01   4.9345927835e+01    0.1466235    0.1325679 -31.73 0.0003488177    1.041    0.039
        74  -8.6519     51.9581     91.4817   9.7287610767e+01   5.2571268045e+01    0.1743267    0.1125591  57.44 0.0004108072    2.200    0.545
        75  -9.6935     35.9358     89.4962   1.0257074593e+02   5.4780178070e+01    0.4224605     0.231836   7.09  0.001954359    2.502    0.600
        76  -8.7353    139.9092     88.7569   6.9185542907e+01   3.6931820148e+01     0.210934    0.2066541  70.21 0.0006047574    1.048    0.046
        77 -10.7105    120.5344     87.7575   7.4012371566e+01   4.1511313639e+01    0.3553907    0.3505268  82.15   0.00049601    1.076    0.070
        78  -9.3800    124.4413     85.4939   7.2247715994e+01   4.1110297624e+01    0.2571835     0.151977  45.28 0.0009951289    1.701    0.412
        79  -9.9184    109.6397     88.5030   7.7367892750e+01   4.3669874513e+01    0.2934962    0.1890695 -46.33  0.001028974    1.541    0.351
        80  -8.3668     62.6569     89.6430   9.3025442379e+01   5.1605164784e+01    0.1547669    0.1008309 -24.59 -2.373558e-05    1.826    0.452
        81  -9.3403     56.9722     89.0070   9.4866204024e+01   5.2514545779e+01    0.2060304    0.1696099  76.55 0.0005835386    1.597    0.374
        82  -9.6301     47.9393     88.9970   9.8103509304e+01   5.3624507356e+01    0.2072907    0.1756871 -40.54 0.0002949812    1.053    0.050
        83 -11.1179    131.6793     86.6656   7.0668890681e+01   3.9244101599e+01    0.2884805    0.2647809 -32.04 0.0002982982    1.085    0.078
        84  -8.7313     15.7189     86.4596   1.0929633801e+02   5.7137911965e+01    0.2180184   0.09396039 -64.83 -5.545993e-05    1.903    0.475
        85  -9.6761     28.4322     85.4893   1.0441642132e+02   5.6395387153e+01    0.3198911    0.2007916  12.94  0.001190711    1.910    0.476
        86  -9.1971     33.5322     83.9849   1.0217241296e+02   5.6286334452e+01    0.3156071    0.2056622  63.98  0.001544728    2.372    0.578
        87  -9.1380     81.8746     84.8118   8.5022472727e+01   4.9713540576e+01    0.2141255    0.1873024 -13.12 0.0003188754    1.156    0.135
        88  -9.3122     39.1192     85.1796   1.0038240199e+02   5.5465395919e+01    0.2060978    0.1530562 -36.74 0.0005155366    1.244    0.196
        89  -8.3519    173.7233     84.7012   6.0413045817e+01   2.9615889941e+01    0.1483696    0.1212846  11.36 0.0001682871    1.535    0.349
        90 -10.4600    112.9254     81.5070   7.4254754796e+01   4.4421983915e+01     0.372669    0.2594726 -32.33  0.001709935    1.476    0.323
        91  -9.7316    108.4376     80.8142   7.5354913975e+01   4.5506366939e+01    0.2762852     0.220317  14.57 0.0008162855    1.426    0.299
        92 -11.3425    104.9794     78.1635   7.5552305797e+01   4.6753726418e+01    0.5806721    0.4411527  -4.45  0.001553579    1.613    0.380
        93  -9.4518     80.0529     80.9555   8.4468758846e+01   5.0855033762e+01      0.21457    0.1953819 -25.88  0.001200187    1.015    0.014
        94 -10.1446     76.0016     83.1690   8.6527729364e+01   5.1047592983e+01    0.2937256    0.2661173 -63.17 0.0004149127    1.229    0.186
        95 -10.4184     71.2418     83.1010   8.8160516758e+01   5.1815674407e+01    0.3245015    0.2888076  54.43  0.001296981    1.331    0.249
        96  -9.3719     48.9004     77.7206   9.4752133882e+01   5.6067818506e+01    0.3707503    0.1722374 -37.61  0.001566489    2.196    0.545
        97 -10.0375     55.2256     80.4550   9.3159756615e+01   5.4674488517e+01    0.3686951    0.2833401 -10.22  0.002011898    1.433    0.302
        98  -9.8212     55.9053     74.0394   9.1030390316e+01   5.5987862035e+01    0.5960719    0.3629005 -21.41  0.002756126    2.026    0.506
        99 -10.2530      6.7703     80.1802   1.1140201801e+02   5.9125179494e+01    0.4367528     0.271763 -35.29   0.00180764    1.549    0.354
       100  -9.2605      4.5378     75.5754   1.1137325115e+02   6.0285878434e+01     0.216919    0.1423268 -56.29 0.0004843077    1.168    0.144
       101  -9.0680      2.0537     73.2080   1.1187667185e+02   6.0939251169e+01    0.1958324    0.1690746   3.60 0.0004240934    1.401    0.286
       102  -9.7006     97.0209     80.9499   7.8895618801e+01   4.7773882228e+01    0.2450615    0.2065772 -34.99 0.0003044658    1.142    0.125
       103  -9.9957     98.7763     76.3676   7.6885666403e+01   4.8363413147e+01     0.311812    0.2650217 -19.67 0.0005359981    1.183    0.154
       104 -11.4410     97.4365     69.5550   7.5066507226e+01   4.9963959137e+01    0.4680373    0.3044681 -42.87  0.000658715    1.534    0.348
       105  -9.7541    101.6758     68.5567   7.3412713010e+01   4.9296859513e+01    0.3063313    0.2138974 -65.03 0.0007804277    2.088    0.521
       106  -8.7741    139.3691     83.2866   6.7689207630e+01   3.8127571935e+01    0.1616408      0.12117  17.01 0.0007020503    1.705    0.414
       107  -8.7117     36.1543     77.5716   9.9585259701e+01   5.7491283942e+01    0.2312984    0.1433495 -57.89 0.0006919495    1.450    0.310
       108  -7.9413     22.3053     80.3695   1.0557365945e+02   5.8068464208e+01    0.1421956   0.07537145 -39.02  0.000703415    1.753    0.430
       109  -9.0171    154.6167     79.5010   6.2964797815e+01   3.5197937753e+01    0.3036194    0.1515316  53.55 0.0007341158    2.006    0.502
       110  -8.0524     61.6621     79.2817   9.0457558528e+01   5.4065609728e+01    0.1321802    0.1112711  75.21 0.0004920588    1.623    0.384
       111 -10.7187     78.4827     74.8421   8.3091277141e+01   5.2407279825e+01    0.4753132    0.3116422  11.87  0.002140953    2.008    0.502
       112 -10.5790     74.4916     75.4432   8.4677061235e+01   5.2944296898e+01    0.3468293    0.3086854 -26.77  0.001085193    1.026    0.025
       113  -9.9938     45.5972     73.0839   9.4696025598e+01   5.7472584834e+01     0.347446    0.1858765 -48.00   0.00134759    1.601    0.375
       114 -10.0104    152.4509     73.6293   6.1699035094e+01   3.6779754059e+01    0.2973972    0.2547698 -66.52  0.001200939    1.275    0.216
       115  -8.8717     30.8419     72.8443   1.0042999881e+02   5.9046731530e+01    0.1631875    0.1436925 -71.27 0.0003774129    1.288    0.223
       116  -8.9203     38.9467     71.6309   9.6888060791e+01   5.8520575527e+01    0.2057575    0.1450783 -17.78 0.0006820154    1.512    0.339
       117 -11.0028    137.0325     69.5306   6.4021949357e+01   4.1220580557e+01    0.4293215    0.2961572  37.88  0.000396607    1.529    0.346
       118  -9.2617    142.9406     68.7390   6.2366042593e+01   3.9943046991e+01    0.2636374    0.2166165  53.18  0.000457743    1.198    0.165
       119 -10.1574     64.1257     70.6510   8.6898746270e+01   5.5552105279e+01    0.3533108    0.2473161  36.99  0.001157885    1.553    0.356
       120 -10.1619     59.7789     66.2410   8.7105214307e+01   5.7088819042e+01     0.380549    0.2472119 -19.89 0.0006776063    1.754    0.430
       121  -9.5335     17.6992     70.0819   1.0499909958e+02   6.0716364770e+01    0.3345169    0.1495155 -50.59  0.001125776    1.711    0.416
       122  -8.4104     76.8500     70.2190   8.2157936222e+01   5.3627062680e+01    0.2010625    0.1566941  -9.10  0.000765962    1.382    0.277
       123  -8.9943     51.8533     69.7626   9.1275818055e+01   5.7425633774e+01    0.1995045    0.1610773 -27.57 0.0005189138    1.123    0.109
       124  -9.2223    119.5709     68.9811   6.8358520755e+01   4.5365981954e+01    0.2994212    0.1989587  33.78 0.0008400839    1.625    0.384
       125 -10.2945     92.0754     64.9865   7.5229406093e+01   5.1881590366e+01    0.6765096    0.4870222   9.14  0.003243388    1.689    0.408
       126  -9.0885     88.5340     60.7804   7.4924041599e+01   5.3338805091e+01    0.2791193    0.2445702 -87.36 0.0005467855    1.575    0.365
       127  -8.3102    194.5173     67.5541   5.1980701696e+01   2.7506440586e+01    0.1429172    0.1380347 -73.00 0.0008073947    1.051    0.049
       128  -9.4038     70.7159     66.5426   8.3127421137e+01   5.5372535445e+01    0.2369577    0.1991465 -22.14 0.0004888906    1.100    0.091
       129  -8.7478    108.4676     62.5381   6.9334667589e+01   4.8965125313e+01    0.2377362    0.1894788  54.64 0.0008597168    1.343    0.255
       130  -8.8071    111.1988     65.9960   6.9717878094e+01   4.7756989501e+01     0.200513    0.1727468 -56.37 0.0003301676    1.319    0.242
       131  -8.5523    111.7019     62.7135   6.8462520016e+01   4.8231404401e+01    0.2152814    0.1870293 -27.34 0.0001922173    1.151    0.131
       132  -8.5042     49.4594     65.5257   9.0888472982e+01   5.8613715205e+01    0.1357067    0.1163691 -29.17  0.000139344    1.004    0.004
       133 -10.8627     43.8340     62.8519   9.2297825125e+01   5.9843543103e+01      0.43248    0.3282906 -31.30  0.001879488    1.152    0.132
       134  -9.7738     32.6051     64.1926   9.7320015341e+01   6.0754502168e+01    0.2954295    0.2236284 -24.06  0.001088395    1.239    0.193
       135 -10.7171      3.4519     60.0499   1.0853843478e+02   6.3753653406e+01    0.5290277    0.2247626 -61.24  0.001159366    1.843    0.457
       136 -11.7129      7.9436     56.6999   1.0578669299e+02   6.4225188395e+01    0.2309308     0.172218 -50.67 0.0002160431    1.083    0.077
       137  -9.6747     70.8935     62.1918   8.1576350666e+01   5.6196417914e+01    0.3399295    0.2261171  54.54  0.001167698    2.086    0.521
       138  -9.4665     67.2807     62.4342   8.2994033735e+01   5.6726402260e+01    0.3506331    0.1958784 -30.73 0.0005338725    1.871    0.465
       139  -8.4516     16.9942     63.5074   1.0365391746e+02   6.2198710365e+01    0.1575033    0.0938289  47.73 0.0008096139    2.473    0.596
       140  -8.5862    172.5009     62.4763   5.4356237314e+01   3.3707234919e+01     0.146128    0.1424148  75.11 -6.060236e-06    1.042    0.041
       141  -9.1291    121.2664     60.5245   6.5091112866e+01   4.6463012813e+01    0.3222122    0.2147654  22.27 0.0009161521    1.921    0.479
       142  -9.4797     51.3600     60.0221   8.8330118593e+01   5.9489116657e+01    0.3279583    0.1992539  46.19  0.000958662    2.177    0.541
       143 -10.7770     95.4018     57.5431   7.1550143463e+01   5.2567881221e+01    0.5537342    0.4826378  17.85  0.003068924    1.107    0.097
       144 -11.6968    150.0944     56.6323   5.7001240854e+01   4.0187511988e+01    0.7000896    0.4613087 -56.76  0.003148717    1.798    0.444
       145 -10.5104     59.3388     57.6952   8.4369613639e+01   5.8842732054e+01    0.4683759    0.3752473 -21.34  0.002648044    1.133    0.118
       146  -9.5324     34.6452     57.7445   9.4497469224e+01   6.1891643773e+01    0.2167912    0.1805458 -41.29 0.0003945722    1.113    0.101
       147  -9.4946    212.5138     49.6892   4.4810887091e+01   2.5921509285e+01    0.3012075     0.203715  86.46  0.001539931    1.577    0.366
       148  -9.6118    200.1544     56.3887   4.8181753008e+01   2.7874107926e+01    0.4019772    0.2740772  20.50  0.001345915    2.399    0.583
       149 -10.4089    205.7944     53.5503   4.6660560064e+01   2.6947224290e+01    0.9373348    0.4454059 -70.52  0.003037708    4.082    0.755
       150  -9.1382    207.4033     49.8143   4.5498220069e+01   2.7103230964e+01    0.2440593    0.2213571 -79.62 0.0006918588    1.033    0.031
       151  -9.4055    160.1364     56.6177   5.4966667648e+01   3.7698140500e+01    0.2978429    0.2427897  28.68 0.0008742128    1.406    0.289
       152 -10.0357    162.5773     52.3399   5.3216946094e+01   3.7735698822e+01    0.5029313     0.277262 -39.53  0.002191973    1.823    0.451
       153  -8.8736     68.9349     56.5868   8.0314325714e+01   5.7574210786e+01    0.3646826    0.1651124 -44.46  0.001532716    2.158    0.537
       154  -8.3137    184.6583     56.6844   5.0630245304e+01   3.1597702674e+01    0.1475088    0.1113975  28.48 1.449454e-05    1.708    0.415
       155  -9.3699    112.2052     55.9446   6.5985947378e+01   4.9271786493e+01     0.245785     0.205455  45.08 0.0006190808    1.169    0.144
       156  -8.7677    105.5007     56.4250   6.8074984265e+01   5.0656059324e+01    0.2476996    0.1265204  38.31 0.0008203052    2.036    0.509
       157  -8.9733     26.2470     56.4668   9.7713229241e+01   6.2950117298e+01    0.1626854    0.1197427  13.91 0.0009935118    1.483    0.326
       158  -9.3590     22.2891     55.6612   9.9199928074e+01   6.3450406986e+01    0.2707604    0.1344645 -48.40 0.0004104845    1.599    0.374
       159  -9.0470    125.5483     55.0082   6.2123738767e+01   4.6374326936e+01    0.3372634    0.1877203  58.85  0.001349609    1.901    0.474
       160 -10.2076     80.8495     53.6180   7.4940785826e+01   5.6050915506e+01    0.5526131    0.3251077 -22.72  0.002494223    1.953    0.488
       161  -9.6112     84.8881     47.2918   7.1185992330e+01   5.6358246692e+01    0.3478048    0.2358249  -0.97   0.00109206    1.812    0.448
       162 -10.2104    174.0957     51.7008   5.0980002042e+01   3.4954828443e+01    0.5456722    0.1876647 -36.27  0.001936769    2.785    0.641
       163  -9.2035    170.0346     48.0439   5.0614741380e+01   3.6495547798e+01     0.253539    0.1991521  65.29 0.0004936816    1.220    0.181
       164  -8.6519     86.1989     54.2345   7.3344901981e+01   5.4945831180e+01    0.1836098    0.1725296 -77.24  0.001057338    1.370    0.270
       165  -9.1497    223.2162     56.1733   4.5060180690e+01   2.2536106053e+01    0.2937876    0.1887511  76.62  0.001493943    1.665    0.399
       166  -9.3296    136.1338     52.7775   5.8833301438e+01   4.4199371921e+01    0.2927043    0.1954199   5.98  0.001238229    2.223    0.550
       167  -9.6398     29.1336     52.6544   9.5249289226e+01   6.3458980929e+01     0.216951    0.1470872 -39.16 0.0003376779    1.212    0.175
       168  -7.8717     42.5230     45.4722   8.6845877673e+01   6.3384285544e+01    0.4211594     0.141884 -45.98  0.001547965    2.675    0.626
       169  -8.6908     44.4688     52.4772   8.8561598653e+01   6.1834131257e+01    0.3546775    0.2829767  83.94  0.001424081    2.268    0.559
       170  -9.8524     49.2225     49.5524   8.5513248012e+01   6.1781548028e+01    0.2558897    0.1865534 -13.05 0.0006601754    1.341    0.254
       171 -10.1908     46.0000     47.2355   8.6010809832e+01   6.2626862534e+01    0.2913979    0.2123079   0.07 0.0002038828    1.387    0.279
       172  -9.7883    126.5634     50.3326   6.0285030639e+01   4.6861669287e+01     0.282624    0.2323566  20.11 0.0002795665    1.313    0.238
       173 -10.1839    114.0311     50.4993   6.3570662929e+01   4.9734752474e+01    0.6461093    0.3308961  56.01  0.002069685    2.042    0.510
       174 -10.7028    106.2134     50.4147   6.5720903452e+01   5.1481806292e+01    0.3643174    0.2958725  77.84  0.001878662    1.624    0.384
       175  -9.2053     92.4420     50.8547   7.0056004751e+01   5.4294719076e+01    0.3147593    0.1723288  60.34   0.00124827    2.711    0.631
       176  -9.7958     17.8195     50.5560   9.9656634127e+01   6.4840595420e+01    0.2693677    0.1935211  -4.60  0.001099682    1.440    0.306
       177  -8.8932    233.7663     50.1581   4.2431419718e+01   2.1056891099e+01    0.2288083    0.1378502 -51.64 0.0007049792    1.482    0.325
       178  -8.3720     73.4641     50.4580   7.6381664369e+01   5.7913307606e+01    0.1384373    0.1223657  -4.36 3.352992e-05    1.001    0.001
       179  -9.1966     55.4717     49.9844   8.3109955955e+01   6.0842728089e+01    0.2429854    0.1583673 -25.09  0.001254821    1.492    0.330
       180 -10.1360     59.4437     47.1416   8.0443911202e+01   6.0766369177e+01    0.3934509    0.2315523 -24.07  0.001921296    1.797    0.443
       181 -10.4656      5.6529     48.4265   1.0461657753e+02   6.6067465132e+01    0.2813437    0.1483083 -37.47 0.0001290774    1.549    0.354
       182  -9.4263    121.9879     48.9340   6.0942108241e+01   4.8147471687e+01    0.2137603    0.2119169  69.38 0.0005690603    1.089    0.082
       183  -9.7021     25.8114     48.2226   9.5276305016e+01   6.4641664308e+01    0.2996021    0.1863948  17.24  0.001220582    1.738    0.425
       184  -8.7215    187.5584     48.4816   4.7929193047e+01   3.2083160195e+01    0.1415034    0.1310083 -79.33 9.640131e-05    1.006    0.006
       185  -9.1669     95.1478     47.1783   6.7834279902e+01   5.4335496611e+01    0.4258353    0.1603609 -45.90  0.001457099    3.456    0.711
       186  -9.1925     34.3391     46.4707   9.0821797159e+01   6.4136972291e+01    0.2402426     0.183159 -55.67  0.001450098    1.520    0.342
       187  -9.9901    154.0779     46.3823   5.3009247982e+01   4.0720195948e+01     0.482613    0.2011239  45.71  0.001374049    2.546    0.607
       188 -10.5640    142.7521     43.9735   5.4507340743e+01   4.3867915215e+01    0.4891813    0.3776164   3.02  0.001514146    1.596    0.374
       189 -10.5644    166.9715     43.3561   4.9761866782e+01   3.7915138387e+01    0.4685074    0.2781776  64.33  0.002162186    1.613    0.380
       190  -9.2722     69.5572     43.5031   7.5130797043e+01   5.9753937049e+01    0.3389523    0.1958622 -12.46  0.001286374    2.352    0.575
       191  -8.9609      1.3774     44.9556   1.0565348762e+02   6.6993996182e+01    0.1668361   0.09047193 -57.36 0.0003178229    1.499    0.333
       192 -10.5350    108.7643     43.5323   6.2499687383e+01   5.1965042573e+01    0.2941531    0.2631921  48.17 0.0003846215    1.121    0.108
       193  -9.0663     76.0530     44.1453   7.3019256014e+01   5.8510313388e+01    0.2123028    0.1643286   9.97 0.0003494133    1.284    0.221
       194  -9.0958     19.6173     43.6422   9.6603613040e+01   6.6063578963e+01    0.2159401    0.1735051  64.36  0.001330742    2.075    0.518
       195 -10.0500     63.1488     40.8604   7.6513721874e+01   6.1248284956e+01    0.3572147    0.2083819  40.00  0.001218094    1.773    0.436
       196  -9.8445     62.2790     36.5430   7.5085561964e+01   6.2075891523e+01    0.2830161    0.2147476  27.36  0.001223561    1.265    0.209
       197  -9.8449     56.7143     41.7373   7.9421695573e+01   6.2105645965e+01    0.2377208    0.1868204  -2.03 0.0002031029    1.179    0.152
       198  -8.0952     10.6569     43.2531   1.0073445484e+02   6.6798946549e+01   0.09988435   0.09119602  56.11 0.0002090705    1.580    0.367
       199  -9.1445    100.5654     41.2735   6.3979591972e+01   5.4086630854e+01     0.423082    0.2520367  48.62  0.001393258    1.604    0.376
       200 -10.1770     36.2608     39.6045   8.7387883028e+01   6.5182720269e+01    0.4174084     0.200004 -42.08  0.001192191    1.821    0.451
       201 -10.9240     33.3909     35.2026   8.6968784920e+01   6.6278219584e+01    0.4536971    0.3527599 -50.90 0.0005590665    1.561    0.360
       202  -8.9627    151.6563     41.3298   5.1894614130e+01   4.2021066640e+01     0.398195    0.1854229  75.66  0.001366494    3.185    0.686
       203  -8.6853    148.7596     37.9386   5.1372890940e+01   4.3191322209e+01    0.1853022    0.1632944 -71.16 0.0004994004    1.210    0.174
       204  -9.2766     28.0747     41.1834   9.1762621031e+01   6.5767627391e+01    0.1845985    0.1331683 -22.29 0.0002375679    1.190    0.160
       205  -9.9365    112.4768     39.2417   5.9933297152e+01   5.1736249460e+01    0.2550424      0.23654  20.63  0.000587924    1.032    0.031
       206  -8.3845     40.8150     38.8855   8.5052820046e+01   6.4767312138e+01    0.1481194    0.1360005 -23.14            0    1.260    0.207
       207  -8.9468      2.9706     39.3458   1.0325485093e+02   6.8023313852e+01    0.2272378    0.1038813  12.31  0.001229442    2.465    0.594
       208  -8.4486    181.9622     38.2740   4.5950644825e+01   3.4854601240e+01    0.1880039    0.1678738  85.08 0.0003465933    1.038    0.036
       209  -9.3623    161.9414     37.5045   4.8871509924e+01   3.9952780557e+01    0.2088911    0.1961928 -39.79 0.0009653411    1.134    0.118
       210  -8.6119    140.8017     38.1798   5.3015877378e+01   4.5130769264e+01    0.2003158    0.1617778  27.51  0.001058902    1.353    0.261
       211  -9.1256    133.0128     38.4821   5.4757745810e+01   4.6996092216e+01    0.3004777    0.1991537  65.16  0.001301681    1.528    0.345
       212 -10.0124    127.3223     36.4828   5.5335133609e+01   4.8630554225e+01    0.3698383    0.2551805  63.48  0.001482255    1.450    0.310
       213  -9.7069     75.6221     22.4830   6.4174038208e+01   6.1656664834e+01    0.3092877    0.2445678  77.80  0.001710284    2.032    0.508
       214 -11.5334     79.4043     32.1847   6.7022525963e+01   5.9674045094e+01    0.6203973    0.4433987 -62.23  0.003051634    2.419    0.587
       215 -10.1451     80.9716     26.4911   6.4118200469e+01   6.0122126045e+01    0.3817458    0.2931063 -36.49  0.001531309    1.471    0.320
       216  -9.3317     48.4582     36.9847   8.0936755928e+01   6.4088454255e+01    0.2870117    0.1962355 -59.35  0.001468131    2.388    0.581
       217  -9.7791     71.5268     37.0305   7.1794197261e+01   6.0428621712e+01    0.3079986     0.256236 -63.57 0.0007214926    1.814    0.449
       218  -9.5290     68.3617     36.6794   7.2817645850e+01   6.1035315488e+01    0.3486007    0.2097263 -45.98  0.001723887    2.011    0.503
       219  -8.9399    215.6852     35.0686   4.0863003756e+01   2.7157615132e+01    0.1829962    0.1590012 -63.82 0.0005334709    1.047    0.045
       220  -8.8470    191.4533     34.5098   4.3621074251e+01   3.3002643509e+01    0.2642056    0.1617253  63.50 0.0006950941    1.548    0.354
       221  -8.8588    194.0000     33.0342   4.2903974780e+01   3.2568095252e+01    0.2300155    0.1763566 -36.28   0.00128002    1.351    0.260
       222  -9.4743    106.9336     35.0650   5.9851159257e+01   5.3549116249e+01    0.2051908    0.1826534  32.23  0.001194552    1.023    0.022
       223  -8.9235    106.9260    247.1783   1.0817533921e+02   9.0371116673e+00    0.2102431    0.1562764 -27.31  0.001233358    2.098    0.523
       224  -9.7179    237.4721     26.4651   3.6762977484e+01   2.3362533298e+01    0.2495949    0.1954207 -59.19 0.0005818613    1.076    0.071
       225  -9.1839    137.3147     32.9602   5.1993859490e+01   4.6651742529e+01     0.213605    0.1798964  74.72 0.0003172673    1.206    0.171
       226  -9.7317    114.6226     32.1518   5.6786399539e+01   5.2174530604e+01    0.2491738    0.2158778  55.72 0.0003236756    1.134    0.118
       227 -10.1795    110.2728     29.2696   5.6799653109e+01   5.3528445516e+01    0.3649305    0.2977402  49.46  0.001181091    1.137    0.120
       228  -8.6112    143.5240     31.4833   5.0289599645e+01   4.5301638828e+01    0.1414435    0.1284516  51.91 1.100696e-05    1.046    0.044
       229 -10.4604     47.7437     28.4512   7.7605048955e+01   6.5537931603e+01    0.2781025    0.2455744  -7.16  0.001017742    1.173    0.148
       230  -9.9760     43.1178     29.1213   7.9940790811e+01   6.6077471967e+01    0.2415693    0.1742273 -27.85  0.000285705    1.239    0.193
       231  -9.3775    197.8959     30.0574   4.1651153111e+01   3.1994068862e+01    0.1995143    0.1812245 -80.75 0.0005050728    1.043    0.041
       232  -8.6790    124.9494     30.3229   5.3709257801e+01   4.9969596085e+01    0.2030378    0.1631344  49.55  0.001028724    1.134    0.118
       233  -8.9727     65.2007     29.9593   7.1168717052e+01   6.2565991881e+01    0.1931534     0.146419 -54.65  0.001056237    1.979    0.495
       234 -12.3587     76.0791    219.2285   1.1148009744e+02   1.8913793326e+01     1.024618    0.6574093  50.65   0.00546924    1.350    0.259
       235  -9.2956    215.5306     28.4563   3.9293560773e+01   2.8023746411e+01    0.2402479    0.1230928 -32.54 0.0006413588    1.973    0.493
       236 -10.4068    181.9595     27.5098   4.2981968045e+01   3.6194024928e+01    0.5714763     0.271508  49.90  0.001733686    2.225    0.551
       237 -10.2278     15.6137     28.2092   9.2915602693e+01   6.9225358264e+01    0.3597874    0.1761858 -21.81  0.001675618    2.165    0.538
       238  -9.8394    120.6131     26.3941   5.3275740619e+01   5.1462893133e+01    0.5725195    0.2059287  49.81  0.002213883    2.404    0.584
       239  -9.9312    206.7915     26.0926   3.9642126863e+01   3.0351675632e+01    0.2677449    0.2295484 -27.25  0.001182718    1.357    0.263
       240  -8.4645     39.2950     27.3242   8.0887066606e+01   6.6859290358e+01    0.1288132   0.08141029  -9.32 0.0007020433    1.621    0.383
       241 -11.0387     69.1898    217.5081   1.1275721189e+02   2.0227205637e+01    0.4304853    0.3202401 -88.88  0.001295259    1.293    0.227
       242  -8.0832    132.4516    210.5372   9.8078495399e+01   1.1842349208e+01    0.1367595      0.12328  43.55 0.0001091676    1.003    0.003
       243  -8.1113     67.2777     26.6714   6.8960377407e+01   6.2657829962e+01    0.1152024    0.1039102 -57.20  0.000247172    1.595    0.373
       244  -8.2170     55.6471     26.2974   7.3316806644e+01   6.4660011215e+01    0.1112692    0.1050291  87.35 0.0007034997    1.691    0.409
       245  -9.6469    227.1309     23.1956   3.6951160620e+01   2.6025939332e+01    0.4025668    0.2060254 -77.09  0.001611605    2.215    0.548
       246  -8.8860    222.1776     20.1890   3.6715441030e+01   2.7491506173e+01    0.1804394    0.1630247  82.16 0.0006452142    1.192    0.161
       247  -9.9019    178.8629     22.9387   4.2130475562e+01   3.7487467442e+01    0.2815927    0.2517635  60.68 0.0009117661    1.150    0.131
       248  -9.0466     98.6965     23.4422   5.7573551470e+01   5.6800554689e+01     0.234932    0.1934895 -13.55 0.0007044338    1.259    0.206
       249  -8.1580     95.4343     24.5311   5.8912710675e+01   5.7381549319e+01    0.1363854     0.116946  25.66 4.370483e-05    1.042    0.041
       250 -10.0247    164.4294     21.9795   4.3848561592e+01   4.1182181068e+01    0.3592673    0.2145144  52.87 0.0009211334    1.596    0.373
       251  -9.2579     50.6651     21.8547   7.3363393072e+01   6.6052215146e+01    0.2622919    0.1893911 -11.85 0.0008031163    1.244    0.196
       252  -9.3741     91.2374    214.7352   1.0771799565e+02   1.7639922043e+01    0.2845054    0.1348855  42.08 0.0009844473    1.850    0.459
       253  -9.1320    217.8860     21.9401   3.7519941572e+01   2.8263249798e+01    0.2239009    0.1650179  78.40 0.0006217305    1.273    0.214
       254  -9.8105    142.0856     21.0998   4.7164772941e+01   4.6837057548e+01    0.3072392    0.2666246 -62.83  0.001070888    1.256    0.204
       255  -9.4416      1.3767    185.1634   1.2444036336e+02   3.4804125202e+01    0.3294648   0.08688418 -76.37  0.001346462    3.001    0.667
       256  -9.5486      7.0828    177.1371   1.2267051841e+02   3.6147258403e+01    0.1795901    0.1462675 -74.72  0.001244347    1.221    0.181
       257  -8.1406     92.2483     22.3634   5.8938302419e+01   5.8312228651e+01    0.1366196   0.09199733  16.57 0.0006947633    1.613    0.380
       258  -8.9634    205.8726     21.1245   3.8517426049e+01   3.1151099730e+01    0.1904508    0.1496097 -73.98            0    1.142    0.125
       259  -9.9408     13.1497    174.1204   1.2107967952e+02   3.6327069290e+01    0.1815746    0.1499571 -68.41  0.001231006    1.266    0.210
       260  -9.8960      6.8834    168.7237   1.2208590345e+02   3.8100810562e+01    0.2183112    0.1362146  56.36 0.0009659431    1.531    0.347
       261  -9.1967    130.9132     20.0188   4.8870801441e+01   4.9688443020e+01    0.2158494    0.1921022  57.53 0.0008295182    1.020    0.019
       262 -10.3849      7.0350    163.7260   1.2165553630e+02   3.9253631314e+01    0.2071379    0.1649803  13.18 0.0007535309    1.730    0.422
       263  -8.8857     69.5379     19.6741   6.5032510145e+01   6.3138091679e+01    0.2171709    0.1190881 -21.76   0.00098834    1.869    0.465
       264  -9.2422    118.9415     18.8231   5.0896070168e+01   5.2681747065e+01    0.2398076    0.1880961  67.39  0.001354242    1.267    0.211
       265 -10.1079     17.7966    160.4050   1.1877796641e+02   3.9152102535e+01    0.1523524    0.1235996  -0.08 0.0009560375    1.751    0.429
       266 -10.8936    236.7032     31.2891   3.7890347952e+01   2.2929351692e+01    0.5291877    0.3541521 -73.56  0.003054382    1.409    0.290
       267  -9.8459     38.7682     16.2642   7.5987324563e+01   6.8534876628e+01    0.3477377    0.1790144  22.65  0.001088734    2.013    0.503
       268  -9.6070     26.4182    157.9948   1.1638410167e+02   3.8950867530e+01    0.1779303    0.1590205  71.01 0.0002182118    1.156    0.135
       269 -10.6612      8.3094    155.5572   1.2065962217e+02   4.1080365589e+01    0.2885269    0.1609331  15.76  0.001388635    2.492    0.599
       270 -11.1291      2.8207    152.9473   1.2177939573e+02   4.2101580006e+01    0.4292111    0.2418812 -56.97  0.001912412    1.698    0.411
       271 -10.0318     11.8105    145.0883   1.1878303546e+02   4.3317678903e+01    0.1857637    0.1754569 -77.13  0.000284531    1.219    0.180
       272  -9.4653     36.5918    141.7392   1.1168807144e+02   4.1943919903e+01    0.2796842    0.1829547 -43.64 0.0009430213    1.689    0.408
       273 -10.3331     16.4670    141.5487   1.1717515130e+02   4.3811800731e+01    0.3019594    0.1657023  64.10  0.001527235    2.029    0.507
       274 -10.7022      4.6097    140.9076   1.2024959154e+02   4.4839986733e+01     0.460939    0.3133055 -12.13  0.002722031    2.171    0.539
       275 -10.0247     21.7150    141.8767   1.1579716948e+02   4.3298994775e+01    0.2495405    0.1730126  38.91 0.0003862886    1.606    0.377
       276  -8.5522     77.9438     16.5050   6.0784778841e+01   6.1895812610e+01    0.1876102    0.1152974  47.31 0.0003064468    1.500    0.333
       277  -9.1779      8.4709     22.8371   9.4544812568e+01   7.0711049969e+01    0.2013805    0.1309628  31.17  0.001280879    1.954    0.488
       278 -10.4873     29.3407    138.4099   1.1326191341e+02   4.3472849538e+01    0.3344115    0.2711183 -41.48  0.001107136    1.387    0.279
       279 -10.5527     16.0424    133.2283   1.1633209914e+02   4.5871436637e+01    0.4736117    0.1402862 -74.70  0.001754675    3.063    0.674
       280 -12.3556    228.1072    135.7040   6.3098255590e+01   8.2331799301e+00    0.6509504    0.4672285  53.20  0.003347091    1.627    0.385
       281  -9.2971     36.0792    132.1288   1.1044796620e+02   4.4382436837e+01    0.2028947    0.1620361 -47.57 0.0006394472    1.279    0.218
       282  -9.0621    144.1621     14.2400   4.4587593388e+01   4.7020578206e+01    0.2067254    0.1622321  44.77 0.0006647011    1.252    0.201
       283  -8.6015     78.1124     13.1293   5.9234793600e+01   6.2220574686e+01    0.1561296    0.1508587  54.80 0.0004449856    1.313    0.238
       284  -8.9902     67.1035     12.9248   6.2799611635e+01   6.4355758442e+01    0.2322834    0.1555915  29.52 0.0008647782    1.315    0.240
       285  -8.5056     40.3038    130.3391   1.0892994356e+02   4.4397447083e+01    0.1414866   0.09115283 -41.95 0.0007039472    1.674    0.403
       286 -10.6646      6.5796    124.8676   1.1802944543e+02   4.8565719144e+01    0.6518605    0.2028635 -46.61  0.002353395    3.415    0.707
       287  -9.0096     13.2622    136.3343   1.1746120144e+02   4.5326293752e+01    0.1281974   0.07772432 -52.63 0.0002152839    1.579    0.367
       288 -12.3334    230.8921    124.2119   6.0026480001e+01   9.7126583787e+00    0.8683927    0.4546009 -47.24  0.003811445    1.896    0.472
       289  -9.9824     27.9999    125.8927   1.1190193583e+02   4.6686325492e+01    0.3841917    0.1719154 -62.13  0.001780117    1.794    0.443
       290  -8.9668     30.7053    123.3904   1.1071221020e+02   4.7060897434e+01    0.2512654    0.1454412 -80.21 0.0007500762    1.713    0.416
       291 -10.2275     48.7427    125.5114   1.0558092634e+02   4.4677423896e+01    0.3672354    0.2585776   1.40  0.001329111    1.957    0.489
       292  -9.4192     37.7105    124.9314   1.0883520530e+02   4.6007762604e+01    0.4403828    0.1558201 -67.47  0.001688949    2.532    0.605
       293  -9.1552     23.4905    125.0254   1.1311728779e+02   4.7286554598e+01    0.2143816    0.1680003  60.80   0.00058457    1.395    0.283
       294  -9.7585      1.8146     21.6566   9.7747680505e+01   7.1361784675e+01    0.2373732    0.1331881 -48.14 0.0008364706    1.488    0.328
       295  -9.8434     13.9864    123.0331   1.1565736503e+02   4.8507704968e+01    0.3561397     0.145608 -43.75  0.001553848    2.686    0.628
       296  -9.2500     93.9816    122.7219   9.1275648962e+01   3.8811598171e+01    0.2610863    0.2044087 -54.83 0.0004975125    1.220    0.180
       297  -8.4965     78.0379    123.0307   9.6131381123e+01   4.1358754572e+01     0.170624    0.1664529  42.49  0.000405158    1.103    0.093
       298  -8.6742     73.5078    121.9533   9.7279301250e+01   4.2309643117e+01    0.2164384    0.1356989 -57.64 0.0004524021    1.472    0.321
       299  -9.7057     61.3559    120.7255   1.0077737650e+02   4.4315440080e+01    0.3090447     0.248859  13.19 0.0009203654    1.484    0.326
       300 -10.1384     57.1988    117.8152   1.0148690087e+02   4.5572669577e+01    0.3241666    0.2821115 -28.50  0.000828706    1.249    0.199
       301  -9.4295     98.4644    117.3127   8.8640554761e+01   3.9315481561e+01    0.2482492    0.2298283  20.38 0.0003364673    1.153    0.133
       302  -9.2641     69.6744    118.1628   9.7640135381e+01   4.3804089272e+01     0.243592    0.1996989  50.97 0.0007705411    1.339    0.253
       303 -10.2839     25.9167    116.4427   1.1109816042e+02   4.9191019281e+01    0.3052193    0.2317614  29.91  0.001551741    1.549    0.354
       304  -9.8879     39.6017    115.5675   1.0663558295e+02   4.8134446947e+01    0.3676555    0.1978508  48.90  0.001697333    2.248    0.555
       305 -10.5900     11.3462    114.7868   1.1536153665e+02   5.0688861744e+01    0.2699426    0.1931718 -49.34 0.0006806399    1.321    0.243
       306  -9.9567      2.3442    112.4438   1.1780263211e+02   5.1800262902e+01    0.2721541    0.1756762 -86.16  0.000917431    1.404    0.288
       307  -9.1455     45.8366    112.8562   1.0412434392e+02   4.8140550544e+01    0.1836439    0.1561956  78.45 0.0009128551    1.303    0.232
       308  -9.5219     49.9424    111.6888   1.0255981546e+02   4.7962221757e+01    0.2661725    0.1879688 -71.18 0.0007153775    1.387    0.279
