#   1 NUMBER                 Running object number                                     
#   2 MAG_AUTO               Kron-like elliptical aperture magnitude                    [mag]
#   3 X_IMAGE                Object position along x                                    [pixel]
#   4 Y_IMAGE                Object position along y                                    [pixel]
#   5 X_WORLD                Barycenter position along world x axis                     [deg]
#   6 Y_WORLD                Barycenter position along world y axis                     [deg]
#   7 A_WORLD                Profile RMS along major axis (world units)                 [deg]
#   8 B_WORLD                Profile RMS along minor axis (world units)                 [deg]
#   9 THETA_WORLD            Position angle (CCW/world-x)                               [deg]
#  10 FWHM_WORLD             FWHM assuming a gaussian core                              [deg]
#  11 ELONGATION             A_IMAGE/B_IMAGE                                           
#  12 ELLIPTICITY            1 - B_IMAGE/A_IMAGE                                       
         1 -12.4777    214.0754     22.5935   4.2172918815e+01   2.8864966553e+01     1.143525    0.8277242  35.74  0.006099778    1.833    0.455
         2 -12.5473    201.1905     35.8370   4.7149827224e+01   3.0381408820e+01     1.269512     1.001341  44.11  0.006069629    1.442    0.306
         3  -9.4737     12.6228     14.1647   9.3367867251e+01   7.1583521211e+01    0.1722127   0.07712351 -36.99 0.0009265611    1.751    0.429
         4  -8.3164     33.0000      2.9925   7.7100582193e+01   7.1009170647e+01    0.1839019   0.05684671 -33.30 0.0006310651    2.937    0.659
         5  -9.1512    238.4681      1.5871   3.5091372119e+01   2.5529312837e+01     0.432051    0.1396303  74.85  0.001817208    2.910    0.656
         6 -10.9027    161.1225    227.7595   9.9381007804e+01   4.5875926307e+00    0.5616882    0.3406161   2.51  0.002335097    3.559    0.719
         7 -12.4724     86.2845    228.2865   1.1418449281e+02   1.6373623191e+01     1.883782    0.8779683  64.13  0.007377238    2.566    0.610
         8 -13.6419     67.0063    247.3950   1.1943580263e+02   1.5552159211e+01     4.039606    0.8278297  37.51   0.01485629    4.486    0.777
         9 -11.8451     10.9139    188.9971   1.2576488968e+02   3.3460256145e+01    0.5577854    0.4969776   1.27  0.001095608    1.786    0.440
        10 -12.5814     42.1506    205.2758   1.2075315500e+02   2.6771155542e+01    0.8720975    0.7407658  63.92  0.002485981    1.189    0.159
        11 -13.1180     50.8925    195.3472   1.1808827861e+02   2.7833136936e+01     1.867268     1.072609  63.14  0.008589823    1.613    0.380
        12 -10.0613     33.0862    204.0873   1.2244863667e+02   2.8045703305e+01    0.3242962    0.1607585 -77.37  0.001304498    1.792    0.442
        13 -12.7271     46.9236    222.2578   1.2117070848e+02   2.2767292374e+01      1.34684     1.259615   0.72  0.001198962    1.718    0.418
        14  -8.6793    192.6837    194.0272   8.7466541892e+01   4.6727670356e+00    0.2069159     0.110288 -61.12 0.0007048412    4.321    0.769
        15 -14.6132      3.0587    184.6060   1.2704774081e+02   3.5082391020e+01     14.09682          nan -75.48   0.03130624   11.804    0.915
        16  -7.6260     99.6679    180.7264   1.0545385603e+02   2.4101596132e+01    0.1279595    0.1108378  -8.68 0.0002592886    1.595    0.373
        17 -10.2424     66.2680    178.9468   1.1292437816e+02   2.9492832089e+01    0.3598896    0.2727549 -36.50  0.001377523    1.862    0.463
        18 -10.3475     71.3205    173.3005   1.1102523250e+02   3.0090647819e+01    0.3758657    0.2792644 -36.94  0.001229934    1.845    0.458
        19  -9.4440     94.0792    220.7537   1.1185401970e+02   1.6660451437e+01    0.2141607    0.1749885  67.30 0.0005844805    1.060    0.057
        20  -9.9367    102.2770    172.5033   1.0355387723e+02   2.5514156226e+01    0.3544685     0.216648  60.88  0.001631336    1.820    0.450
        21 -10.9717     87.2304    156.7360   1.0464020229e+02   3.1614392542e+01     0.809598    0.5705144   6.16   0.00147176    2.364    0.577
        22 -12.0924     68.6819    144.4764   1.0740135636e+02   3.7297050242e+01     1.060291    0.6336555  84.59  0.004673531    2.209    0.547
        23 -11.0056     80.8188    163.4874   1.0732717890e+02   3.1002121412e+01    0.5180882    0.3461549  42.27 0.0007570405    1.508    0.337
        24 -11.8700     68.2724    159.3477   1.0981645834e+02   3.3780679214e+01    0.6630235    0.4672604 -35.18  0.001675952    1.953    0.488
        25  -9.5722     31.4146    156.8736   1.1855985636e+02   3.8727890697e+01    0.3506512    0.1507406  59.39  0.001544101    2.684    0.627
        26 -10.5246     22.1705    148.1163   1.1987768220e+02   4.1655208729e+01    0.4268532    0.1744161 -78.56  0.001954754    2.171    0.539
        27  -9.0860    133.6205    141.1926   8.9791852926e+01   2.6869452328e+01    0.4605052    0.1451842 -54.93  0.001264679    4.111    0.757
        28  -9.1654    101.2566    141.5236   9.8192316870e+01   3.2917325893e+01    0.4978995    0.3198165 -27.01  0.002048362    2.412    0.585
        29 -10.5900     88.8564    141.2937   1.0144647241e+02   3.5052124321e+01    0.2962782     0.250785 -53.50 0.0003472053    1.172    0.147
        30  -8.3600     83.4706    142.9889   1.0320315935e+02   3.5493310877e+01    0.2198062    0.1333439 -62.29 0.0005656956    1.556    0.358
        31 -10.5911     59.0667    133.2018   1.0812336645e+02   4.1314191325e+01    0.4886934     0.223284 -77.17  0.001843361    2.821    0.645
        32  -8.2437     35.0259    139.5111   1.1559207449e+02   4.2493751789e+01    0.1710413    0.1265336  36.56 0.0007433042    1.547    0.354
        33  -8.5770    110.8131    131.3111   9.3464530202e+01   3.3612281541e+01    0.2853586    0.1928825 -27.67  0.001017652    1.992    0.498
        34  -8.3484    106.1522    130.9098   9.4630410810e+01   3.4568803433e+01    0.2383307    0.2021351 -85.16  0.001217941    1.267    0.211
        35  -9.2974     98.2011    127.4537   9.6042489586e+01   3.6812781028e+01    0.2926528    0.2433428 -20.82 0.0006383104    1.467    0.318
        36 -10.5597     21.6196    118.5162   1.1645786344e+02   4.8740255282e+01     0.501614    0.0926861 -68.38  0.001605905    4.079    0.755
        37  -8.2732    107.3909    119.8902   9.1737655590e+01   3.6941737850e+01    0.2115505    0.1799407 -48.91 0.0004636633    1.133    0.117
        38  -8.1078    168.2119    113.0662   7.4597834635e+01   2.5397441661e+01     0.269358    0.1812117 -65.86  0.001083283    2.020    0.505
        39  -8.2527    205.2538    110.5542   6.6407185468e+01   1.7338838649e+01    0.2100882    0.1425094  39.39 0.0009507308    1.617    0.382
        40 -13.5642      8.8149    207.1102   1.2724988069e+02   2.9889605919e+01     2.013956     1.274899 -45.60  0.005599629    2.628    0.620
        41  -8.5080    248.6772    100.9938   5.7050835138e+01   9.6462073918e+00    0.2267312    0.1107805 -15.66 0.0007049286    4.293    0.767
        42  -7.5358     32.6956    100.3484   1.1015173920e+02   5.2138547056e+01    0.1310204   0.09251967  79.48 0.0007041192    1.697    0.411
        43  -8.5591    134.5806    106.2004   8.0848166968e+01   3.4492101919e+01     0.233162     0.148497 -34.12 0.0009625719    1.687    0.407
        44  -8.7483     41.3679     91.5409   1.0548950933e+02   5.3381137027e+01    0.2505685    0.1751623 -53.25 0.0006184948    1.198    0.165
        45 -10.9118    187.9357     50.5279   5.3154463033e+01   3.1682141770e+01    0.5309975     0.386162 -81.11   0.00256032    1.577    0.366
        46 -10.3262    121.2730    223.5990   1.0673284509e+02   1.1884295661e+01    0.3946994    0.2940448  19.06  0.001904346    1.746    0.427
        47 -12.5682    133.9586    232.8145   1.0539480690e+02   8.2183562810e+00     1.446607    0.7726029  27.01  0.006838185    2.375    0.579
        48 -11.2970    192.6499     42.3452   5.0117353890e+01   3.1650325422e+01    0.4744766    0.4044408 -52.19  0.001129882    1.139    0.122
        49 -11.3007    126.3808    229.7943   1.0649900337e+02   9.9576271306e+00    0.5502386    0.3645254  46.74  0.003222541    1.262    0.208
        50  -8.8733    143.2802     48.1754   6.0777805718e+01   4.3324064933e+01    0.2739117    0.1920134 -86.41 0.0007461219    2.014    0.503
        51  -8.3175     74.2474    231.2326   1.1676874800e+02   1.7512471600e+01    0.1728743     0.110077  63.64  0.000945288    1.354    0.262
        52  -8.4001    145.8382     42.4930   5.8329302852e+01   4.3514295454e+01    0.2302753    0.1961123 -62.77 0.0004571308    1.304    0.233
        53  -9.1032     56.8240    224.4097   1.1947674812e+02   2.1119513822e+01    0.1928882    0.1304949  78.81 0.0007031401    1.292    0.226
        54  -8.4927     74.0000     26.0153   7.1493272414e+01   6.1642358928e+01    0.2121382   0.07011697 -32.54 0.0008023832    2.942    0.660
        55 -15.0812      9.0084    240.8953   1.2887843930e+02   2.3413372711e+01     10.27608     1.751519 -78.49  0.007561237    5.386    0.814
        56 -11.3266    114.3713    239.8441   1.1001072213e+02   1.0106057362e+01    0.5133084    0.3077517  46.48  0.002635994    1.350    0.259
        57 -12.3558    115.2094    231.0344   1.0884391769e+02   1.1510702573e+01    0.9425846      0.52815  53.86  0.005077648    1.628    0.386
