#   1 NUMBER                 Running object number                                     
#   2 MAG_AUTO               Kron-like elliptical aperture magnitude                    [mag]
#   3 X_IMAGE                Object position along x                                    [pixel]
#   4 Y_IMAGE                Object position along y                                    [pixel]
#   5 X_WORLD                Barycenter position along world x axis                     [deg]
#   6 Y_WORLD                Barycenter position along world y axis                     [deg]
#   7 A_WORLD                Profile RMS along major axis (world units)                 [deg]
#   8 B_WORLD                Profile RMS along minor axis (world units)                 [deg]
#   9 THETA_WORLD            Position angle (CCW/world-x)                               [deg]
#  10 FWHM_WORLD             FWHM assuming a gaussian core                              [deg]
#  11 ELONGATION             A_IMAGE/B_IMAGE                                           
#  12 ELLIPTICITY            1 - B_IMAGE/A_IMAGE                                       
         1 -12.3880     74.8295     51.2811   9.2438247705e+01   5.6307249708e+01     1.228112     0.841515 -47.80   0.00676639    1.777    0.437
         2 -10.6799     61.3210     22.1745   8.6418833020e+01   6.2356124168e+01     0.507796    0.2513741  -9.02  0.001343998    3.022    0.669
         3 -12.3045     60.4302     45.2046   9.5200959044e+01   5.9529212657e+01    0.9040095    0.4670403 -35.37  0.004687277    1.910    0.476
         4 -12.2753    131.8490     14.3302   6.6308437335e+01   4.9155283756e+01     1.422485    0.5050905  64.82  0.006031737    2.514    0.602
         5 -12.0347    124.7770     27.7315   7.1587366697e+01   4.9369535290e+01    0.6270307    0.4710917  51.30  0.002174902    1.159    0.137
         6 -13.4794    118.4537     40.6081   7.6879495576e+01   4.9237092189e+01      1.10936      0.76556  50.31  0.002945603    1.292    0.226
         7 -10.9388    138.4644     32.4509   7.0289536789e+01   4.5776540369e+01    0.5269867    0.4656709 -89.47  0.002541689    1.177    0.151
         8 -11.5726    178.6871     21.2624   6.1136141736e+01   3.7818425843e+01    0.5611352    0.3216648  43.43  0.002507851    2.213    0.548
         9 -12.6123    114.0027     24.6646   7.2917365754e+01   5.2036710603e+01    0.7672734    0.3083652  60.09  0.001523048    2.325    0.570
        10 -12.3439    106.0571     20.1115   7.3233032536e+01   5.4176416410e+01    0.2650678    0.2342386  -9.66 0.0003793547    1.265    0.209
        11 -11.1677    138.1167     21.8256   6.7344101729e+01   4.7018871825e+01    0.9614143    0.2375512  49.59    0.0033931    3.580    0.721
        12 -11.3727    198.7025     28.5545   6.0368102197e+01   3.2440811468e+01    0.4888794     0.379467 -23.09  0.002391465    1.760    0.432
        13 -11.0187      5.1358      9.2239   1.0411518440e+02   7.0953487712e+01    0.7186044    0.3070272 -42.98  0.004172704    2.562    0.610
        14 -11.3786      3.4539      1.7683   1.0166715828e+02   7.1987580605e+01    0.3972988    0.1439434  22.64  0.002192932    2.690    0.628
        15 -12.4261     18.9646     22.4980   1.0312220807e+02   6.7945336178e+01    0.8861114    0.5289643  27.61  0.005881384    1.680    0.405
        16 -11.3274     26.2526     27.5117   1.0190614913e+02   6.6501073530e+01    0.4212444    0.2734642 -30.98  0.002014511    1.397    0.284
        17 -12.3954     16.3032     12.7586   1.0034302895e+02   6.9457179507e+01    0.4575897    0.3743898 -17.92  0.003639942    1.346    0.257
        18 -11.9728     22.3795     11.5112   9.7088447930e+01   6.8947248256e+01    0.5858783     0.404736 -14.33  0.004293073    1.212    0.175
        19  -9.0360     87.2764      7.3093   7.3351392111e+01   5.9113829994e+01    0.5656149    0.2651401  53.03  0.003032502    1.754    0.430
        20 -11.1666     90.8964     20.7235   7.7124561821e+01   5.7182349401e+01    0.5380825    0.4352457   9.77  0.003557299    1.255    0.203
        21 -11.3273     85.9128     14.2189   7.6144453072e+01   5.8775269729e+01    0.4809816     0.295222 -14.28  0.001938541    1.861    0.463
        22  -9.1733     49.9776      6.5477   8.4075977377e+01   6.5735915582e+01    0.1621741   0.09227919  40.85 0.0004677445    1.525    0.344
        23  -9.8174     31.9281     12.0925   9.3273314398e+01   6.7733003270e+01     0.184028    0.1577652  46.22 0.0003053951    1.855    0.461
        24 -10.6824     47.1127     18.7842   9.0099594669e+01   6.4922163185e+01    0.3318703    0.2248018   4.60  0.001188291    1.371    0.270
        25 -12.1061     48.2676     12.8763   8.7286139424e+01   6.5383912697e+01    0.7458938    0.2861483  40.92  0.003821191    2.276    0.561
        26 -10.4422     38.6129     21.7925   9.4565927299e+01   6.5748690405e+01    0.3233833    0.1671553 -23.29  0.001405067    1.917    0.478
        27 -11.8450     35.8872     18.0912   9.4157774323e+01   6.6544755393e+01    0.5474426    0.2488565 -21.29  0.002231071    2.429    0.588
        28 -11.8778     68.4732     17.9110   8.2485154866e+01   6.1608100247e+01    0.5724895    0.4485573  39.00  0.003906388    1.185    0.156
        29 -12.3644    238.3640     15.8395   5.3977304357e+01   2.5489034144e+01    0.7786146    0.3963331  68.13  0.003413094    1.839    0.456
        30 -11.0551    165.0474     17.5735   6.2040094998e+01   4.1326924858e+01    0.3933798    0.2368291  41.03  0.001374967    2.035    0.509
        31 -12.1346    244.8082      6.5683   5.1832813991e+01   2.5272596813e+01    0.7095695    0.3872469 -75.59  0.003316568    1.555    0.357
        32 -10.1028    147.6357     16.5324   6.4313893845e+01   4.5398790952e+01    0.4091495    0.3191281  70.45    0.0025946    1.094    0.086
        33 -10.5701    186.4698     15.2956   5.8824961844e+01   3.6704318374e+01    0.2741813    0.2056324  81.04 0.0006166797    1.104    0.095
        34 -11.5405    205.2763      2.4253   5.4182527570e+01   3.3891081706e+01    0.4388297    0.2413906  76.45  0.001086276    1.498    0.333
        35  -9.9952    191.6010     16.8256   5.8588773180e+01   3.5388075483e+01    0.2489363    0.2226864   6.09  0.001682639    1.640    0.390
        36 -11.5609    192.5870      7.2154   5.6386240952e+01   3.6178586737e+01    0.5624862    0.4388671  20.08  0.003233328    2.084    0.520
        37  -9.8999    226.0436     16.1478   5.5061798647e+01   2.7986726530e+01    0.2565502    0.1457352 -47.11   0.00153043    1.649    0.393
        38 -12.2525    104.8246     12.7661   7.1118890372e+01   5.5120073455e+01    0.4409388    0.3929712 -35.73  0.001861832    1.345    0.257
        39 -11.4447    211.5951      9.8487   5.5108691591e+01   3.1758022612e+01    0.3719035    0.3121573   3.78  0.001567578    2.013    0.503
        40 -10.0659    168.8477     10.1319   5.9724461412e+01   4.1208591275e+01    0.2660687    0.1788211  50.57  0.001472175    1.543    0.352
        41  -9.0804    162.8371     10.1720   6.0502265579e+01   4.2565400077e+01    0.1962021     0.153319 -14.75 0.0006635947    1.716    0.417
        42  -9.6927    162.9059      5.7824   5.9413913487e+01   4.2958480596e+01    0.1920104     0.168981  50.25 0.0005664177    1.283    0.221
        43 -10.2022     66.1153     10.1405   8.0239307977e+01   6.2763075382e+01    0.3331412    0.1389216  50.21  0.001692319    2.171    0.539
        44  -9.9221     63.0260      6.4935   7.9766531635e+01   6.3615980917e+01    0.2935353    0.1896607  24.84  0.001671362    1.360    0.265
        45  -9.8598    185.0256      7.5402   5.7248213043e+01   3.7825016426e+01    0.2667022    0.1448966 -59.08  0.001254403    1.915    0.478
        46  -9.7384    152.0410      7.5919   6.1309888383e+01   4.5243707515e+01    0.3766319    0.1385464  54.36   0.00101717    2.285    0.562
        47 -10.0703      1.2971      7.2422   1.0516184875e+02   7.1525220041e+01    0.1562146   0.07394671 -34.78 0.0002613657    1.810    0.448
        48 -10.5513     77.4175      5.1983   7.5126598308e+01   6.1158678861e+01    0.4182425    0.2323079 -24.35  0.002491385    2.017    0.504
        49 -10.7883     41.5164      4.4089   8.6227976385e+01   6.7201954918e+01     0.400177    0.2017137   2.53   0.00211085    2.599    0.615
        50 -10.6595    174.6321      5.1365   5.7854521542e+01   4.0381611324e+01    0.4827878    0.2083105  77.33  0.002309092    2.144    0.533
        51  -9.5097    169.4736      2.9669   5.7941920213e+01   4.1737371852e+01    0.1918924    0.1372478 -76.47  0.001213023    1.362    0.266
        52  -9.6846    115.5789      6.2095   6.6853399752e+01   5.3408472549e+01     0.634068    0.2781589  -4.75  0.002567321    4.417    0.774
        53 -10.7085    109.9854      1.7626   6.6538109812e+01   5.4941063821e+01    0.5832463    0.2237414  58.67  0.002848002    2.023    0.506
        54 -10.7430    105.3768      1.5263   6.7365726141e+01   5.5921256768e+01    0.4222205    0.2669725  74.24  0.002077212    1.709    0.415
        55 -10.2730    228.4629      3.4874   5.2479640146e+01   2.8899276753e+01    0.2436251     0.211925 -74.96  0.001317305    1.270    0.213
        56 -11.1250    218.8389      3.0382   5.3152707467e+01   3.0944146761e+01    0.3149097     0.234208 -84.81  0.001092869    1.025    0.024
        57 -10.7618    223.5302      1.6804   5.2523410116e+01   3.0107872319e+01    0.3922381    0.1560604  76.04  0.001643554    2.141    0.533
        58 -10.1842     71.1631      3.9117   7.6362433797e+01   6.2405100476e+01     0.349829    0.1722702  31.77  0.001921634    1.913    0.477
        59 -10.3735    142.2642      3.2907   6.1573794082e+01   4.7805053310e+01    0.3415977    0.2213238  65.56  0.002069742    1.252    0.201
        60 -11.9233    133.6970      2.5720   6.2670585944e+01   4.9761849543e+01    0.3800486    0.2064224  61.86 0.0007506712    1.469    0.319
        61  -9.6589     55.0573      3.9586   8.1290842595e+01   6.5159126551e+01    0.1657697    0.1283842  23.53 0.0003865056    1.008    0.008
        62  -9.5163    157.5091      2.5221   5.9293286154e+01   4.4460063361e+01    0.1983356    0.1588522  70.77  0.001340999    1.047    0.045
        63  -9.3662    161.9454      1.2674   5.8431315438e+01   4.3573929119e+01    0.4079683   0.09584096  70.94  0.001284763    3.916    0.745
        64 -10.2485     12.9531      2.0234   9.7183755462e+01   7.1029371303e+01    0.2429077    0.1280274  18.98  0.001059644    1.661    0.398
        65  -9.6230    123.0338      1.3805   6.4065861260e+01   5.2184741963e+01    0.3282576    0.0956297  64.37   0.00134471    2.817    0.645
        66  -9.3167     82.0280      1.3413   7.2523917401e+01   6.0591389042e+01    0.1679205    0.0900935  53.92 0.0003945385    1.559    0.359
        67  -9.4880    108.3646    146.0541   1.0844075206e+02   3.0738253163e+01    0.2168345    0.1932551 -63.43  0.001111582    1.086    0.080
        68 -10.6606     33.0907    144.2797   1.2905904379e+02   4.2119574856e+01    0.2812055    0.2452632  84.72 0.0008219642    1.170    0.146
        69  -8.7204    114.3358    143.7106   1.0632441404e+02   3.0177926819e+01    0.1586987    0.1215144  78.80 0.0007020567    1.634    0.388
        70  -9.0188    104.4968    142.4863   1.0869907139e+02   3.2322965753e+01     0.153923    0.1467719 -66.47 -6.085968e-05    1.005    0.005
        71 -10.0993    133.5806    140.3783   1.0056157764e+02   2.7129693860e+01    0.3631466    0.2901217  -5.86  0.001354223    1.672    0.402
        72 -12.1604     29.9204    133.0562   1.2815316010e+02   4.5164937355e+01    0.8006724    0.4603251 -64.60   0.00308315    1.470    0.320
        73 -11.0479     24.1382    136.8681   1.3041241141e+02   4.4780678038e+01    0.3747049    0.2566133 -44.33 0.0003756362    1.441    0.306
        74 -10.8740     21.0049    134.5080   1.3093616875e+02   4.5624305908e+01    0.2970217    0.2549962 -16.01 0.0009018523    1.403    0.287
        75 -10.5347     80.7249    135.9812   1.1393022461e+02   3.7990708144e+01    0.5253662    0.3508582   1.33  0.002199967    2.421    0.587
        76 -11.1050     71.6174    134.1868   1.1618246212e+02   3.9824280454e+01    0.5914872    0.4162022   4.29   0.00275203    2.006    0.501
        77 -10.9764     92.8015    129.1982   1.0894788044e+02   3.7624019867e+01    0.3913343    0.3212996 -79.21  0.001695402    1.373    0.272
        78 -10.6215     47.1404    135.3068   1.2354716420e+02   4.2787525555e+01    0.4721817     0.194578 -49.91  0.001623031    2.161    0.537
        79  -9.8274     62.2870    131.8646   1.1843595716e+02   4.1713965982e+01    0.3937657    0.1622268 -49.34  0.001540076    2.193    0.544
        80  -9.3136    103.8353    131.2124   1.0630663520e+02   3.5161268984e+01    0.2065528    0.1779881 -24.26 0.0007134996    1.285    0.222
        81 -10.8082     10.8259    127.1934   1.3273966087e+02   4.8171182706e+01    0.4798461    0.1610736 -53.24  0.001414362    2.293    0.564
        82  -9.0754    216.6062    135.1910   8.1534045242e+01   1.0711772416e+01     0.202662    0.1284126 -34.92 0.0005925884    1.603    0.376
        83  -9.5108    187.3328    128.3226   8.5481885864e+01   1.8216256470e+01    0.1518623    0.1225642  -0.01 0.0007050172    1.704    0.413
        84 -10.4518     18.4779    124.9357   1.3016322707e+02   4.8115239341e+01    0.3576695    0.1683234 -55.76  0.001186543    1.680    0.405
        85  -8.8737    223.7239    126.3856   7.8414189272e+01   1.1008691663e+01    0.1498975    0.1016331 -67.07 0.0006999434    1.720    0.419
        86 -11.0053     55.2635    123.2588   1.1875811057e+02   4.4712618601e+01    0.6472735    0.3594291  27.32  0.001772874    2.066    0.516
        87 -10.3967     45.8426    120.2874   1.2103030249e+02   4.6555890428e+01    0.3560825     0.261566  86.17  0.001386172    1.745    0.427
        88  -9.6300      2.3151    125.6865   1.3495374586e+02   4.9104256595e+01    0.2561613    0.1648168 -80.12   0.00149983    1.427    0.299
        89 -10.7423    239.5870    122.9083   7.5178642379e+01   8.5925293186e+00    0.5759366    0.2028366 -36.22  0.002004937    3.202    0.688
        90  -9.1816    178.3492    125.3175   8.6608702708e+01   2.0806956704e+01    0.1546738    0.1241497   3.41 0.0007047976    1.732    0.423
        91  -9.9735     80.2092    125.1455   1.1167332510e+02   4.0689305226e+01    0.4166555    0.2424788  43.83  0.001281086    1.862    0.463
        92  -9.4303     84.3610    123.2865   1.1001698061e+02   4.0457755461e+01    0.2611254    0.1856855  19.47  0.000890536    1.708    0.415
        93 -11.6899    104.7449    121.7484   1.0377253770e+02   3.7211760465e+01    0.5042955    0.4759886 -80.18  0.001397449    1.105    0.095
        94  -9.0907     40.5207    122.0691   1.2301942986e+02   4.6723949381e+01    0.1936214    0.1189541 -61.57 0.0003416605    1.434    0.303
        95 -10.8089     33.6309    119.7009   1.2467666807e+02   4.7994397431e+01    0.3671434    0.2223681 -36.36  0.001133669    1.735    0.424
        96  -9.8301      4.6393    120.7107   1.3357362491e+02   5.0109522755e+01    0.3003183    0.2149818 -48.78   0.00172361    1.241    0.194
        97  -9.2756    221.2122    120.4122   7.7535744510e+01   1.2655662499e+01    0.1888264    0.1356883  70.99 0.0007513156    1.637    0.389
        98  -9.5711    148.9117    119.4833   9.1727137712e+01   2.8574615498e+01    0.3437682    0.2321252  13.45    0.0013089    2.572    0.611
        99  -9.3247     72.8388    119.8172   1.1264935022e+02   4.3091892906e+01    0.2190969    0.1852924 -26.98 0.0005959322    1.237    0.192
       100  -9.8935    113.7019    116.0478   9.9854191223e+01   3.6774522142e+01    0.2692585    0.2229593  29.98 0.0002985197    1.295    0.228
       101 -11.6467     48.5713    102.5930   1.1627131546e+02   5.0313693741e+01     1.043356    0.4795301 -32.75   0.00066283    2.847    0.649
       102 -12.1873     52.8316     74.5827   1.0740415699e+02   5.5614457312e+01      1.13781    0.2672222 -47.44  0.001871476    3.790    0.736
       103 -11.8060     35.3852     92.5964   1.1832649903e+02   5.3951962076e+01     1.535127     1.060537 -78.59  0.007595713    1.979    0.495
       104 -11.3559     19.1230    105.5998   1.2655923328e+02   5.2536181532e+01    0.6233357    0.2226081 -47.45  0.001261996    2.284    0.562
       105 -11.4264     23.8696     99.4809   1.2377447440e+02   5.3516167334e+01    0.5063942     0.273927 -60.31  0.001573406    1.603    0.376
       106 -12.0342      9.1361     96.5843   1.2810774964e+02   5.5262855993e+01    0.9051175    0.5396461 -88.88  0.002035561    2.437    0.590
       107 -11.9740      7.5457     88.8442   1.2712423687e+02   5.7036749376e+01    0.4863525    0.4401296 -13.05  0.001437332    1.238    0.192
       108 -11.4049     43.7947     85.4374   1.1361033359e+02   5.4557394106e+01     0.626767    0.4175934  31.97  0.002321162    1.656    0.396
       109 -10.8110     37.4974     85.9974   1.1596460537e+02   5.5131161665e+01    0.3271814    0.2646229  48.11  0.001606245    1.589    0.371
       110 -11.8520     20.8956     95.2714   1.2388696460e+02   5.4687819355e+01    0.7658081    0.4787516  -9.36  0.004215624    1.953    0.488
       111 -12.4292     18.0095     90.4550   1.2384169007e+02   5.5957008063e+01    0.7524858    0.3969684 -21.56  0.003039525    2.338    0.572
       112 -11.9207     22.1608    114.2174   1.2720644080e+02   5.0319588589e+01     1.086015    0.4328701   8.97  0.004069815    4.419    0.774
       113 -12.3892     25.5239    107.7190   1.2490790532e+02   5.1523899569e+01     1.133736    0.5502573 -18.72  0.004551363    3.538    0.717
       114 -10.4415     67.0796    112.2168   1.1263288896e+02   4.5705369167e+01     0.537892    0.2988106 -59.86  0.002385088    1.844    0.458
       115  -9.6438     36.6300    114.7649   1.2277982575e+02   4.8850216310e+01    0.2369648    0.1576705 -68.39  0.000978493    1.474    0.321
       116 -11.4653      2.4097    112.0435   1.3292299115e+02   5.2235400916e+01    0.4674145    0.3315785  67.72  0.002418865    1.785    0.440
       117 -12.0129      3.9550    105.1441   1.3132569461e+02   5.3696432831e+01    0.3980455    0.3385551 -58.78 0.0008857386    1.081    0.075
       118  -9.2861    126.8519    113.8649   9.5780633106e+01   3.4565090159e+01    0.2357124    0.2116932  -6.86 0.0008697478    1.260    0.206
       119 -10.5201    107.5071    111.9102   1.0050706709e+02   3.8912477265e+01    0.5094366    0.3578955 -83.87  0.002004615    2.222    0.550
       120 -11.1515    102.1902    108.8569   1.0121953913e+02   4.0603429825e+01    0.6515493     0.531693  12.41  0.003286833    1.426    0.299
       121  -9.1421     82.2177    102.7739   1.0555701244e+02   4.5481270892e+01    0.1987195     0.160046 -22.96  0.000610684    1.310    0.237
       122  -9.5262     87.6661    114.4335   1.0689486885e+02   4.1961931070e+01    0.3688756    0.2110564  52.36  0.001358216    2.156    0.536
       123 -10.6491     85.9068    104.2778   1.0482454433e+02   4.4533544772e+01    0.5024222    0.3288328 -17.36  0.001534106    2.168    0.539
       124 -10.2288     90.6012    104.2701   1.0340686332e+02   4.3722623539e+01    0.4846812    0.3702553   6.99  0.002385347    1.611    0.379
       125  -9.7278     83.5365    111.4701   1.0739139921e+02   4.3329662847e+01    0.2746758    0.1803262  40.15 0.0006669108    1.609    0.378
       126 -11.1691     78.7050    108.4813   1.0811086790e+02   4.4789917040e+01    0.6263394    0.4197323  33.20  0.002247455    1.589    0.371
       127 -11.4215    171.2916    109.8329   8.4336511100e+01   2.5578692969e+01    0.6907211    0.4709142  32.38    0.0023671    1.881    0.468
       128  -9.7785     49.2540    112.1152   1.1822730120e+02   4.8069900229e+01    0.2405761    0.2015593  39.80 0.0008952579    1.358    0.264
       129 -10.1936    120.0357    109.2061   9.6365564769e+01   3.6997152330e+01    0.2700141    0.2193602 -43.30 0.0006527982    1.216    0.178
       130 -10.0916    130.2938    108.7029   9.3550972905e+01   3.4947571973e+01    0.2825659    0.2474084 -80.84  0.001436956    1.269    0.212
       131 -10.7671    157.7167    106.2090   8.6351569510e+01   2.9391050228e+01    0.3845182    0.3002648 -11.11  0.001581527    1.746    0.427
       132 -11.1306    143.3053    106.1336   8.9658423185e+01   3.2644590104e+01    0.4118372    0.3764211  62.26  0.001056163    1.101    0.092
       133 -11.8545    145.6150    100.4282   8.7617981675e+01   3.3290070685e+01    0.5269757    0.4915834   0.31  0.001859787    1.209    0.173
       134 -10.0637     94.3224    111.3026   1.0413590181e+02   4.1507480776e+01    0.3262504    0.3007608  64.92  0.001787116    1.196    0.164
       135 -10.4973     57.7033    102.3671   1.1323110421e+02   4.9220321324e+01    0.2675534    0.2115656 -63.51  0.001024873    1.338    0.252
       136  -9.9023     57.4300     97.7193   1.1215776976e+02   5.0276610019e+01    0.3056364    0.2151593 -63.62  0.001042734    1.577    0.366
       137  -9.8112    120.9392    101.0555   9.3951595396e+01   3.8533873710e+01    0.2467401    0.1899112  -1.05  0.001137505    1.746    0.427
       138  -9.5554     66.7619     74.6867   1.0262595633e+02   5.3634744559e+01    0.2949644    0.2320131 -75.31  0.001574231    1.945    0.486
       139  -9.5569     67.3418     87.9752   1.0628563681e+02   5.0943745002e+01    0.2585727    0.1682576 -31.87 0.0008925413    1.551    0.355
       140  -9.2664     78.4003    100.7453   1.0620514589e+02   4.6545294480e+01    0.2522668    0.1224347 -39.80 0.0004487837    2.093    0.522
       141  -9.5650     60.6789     83.1980   1.0717141912e+02   5.2868952000e+01    0.2290928    0.2146136   0.66 0.0007466699    1.105    0.095
       142 -10.5023     58.8229     78.4383   1.0644135174e+02   5.4066064710e+01    0.2791905    0.2552395  24.20  0.000944005    1.198    0.165
       143 -10.1108     77.9513     96.9702   1.0533739366e+02   4.7427494668e+01    0.2173034    0.2079721  39.89 0.0003866912    1.147    0.128
       144 -11.0357     81.1915     92.6820   1.0314580697e+02   4.7795733781e+01    0.7450826    0.4046473  43.51  0.002701219    1.977    0.494
       145 -11.1178     89.3421     90.1742   9.9924380258e+01   4.6904804652e+01    0.4498797    0.2812937 -40.15 0.0008921379    1.564    0.360
       146  -9.7175     92.9520     85.6282   9.7529738814e+01   4.7154689708e+01    0.2550604    0.2227931  33.28 0.0004123443    1.147    0.128
       147 -10.8171     66.6791     81.9142   1.0478578232e+02   5.2258132833e+01    0.4510821    0.3101744  26.37  0.002397718    1.516    0.341
       148 -10.9849     79.7072     82.7614   1.0078683762e+02   5.0034526424e+01    0.6200213    0.5550909  86.48  0.002992286    1.465    0.317
       149 -11.3615     72.9816     78.0352   1.0156273809e+02   5.2039250144e+01    0.6118588    0.4310122 -12.11  0.003143828    1.661    0.398
       150 -11.1854     67.6877     96.5966   1.0851363146e+02   4.9088205440e+01    0.5841257    0.3772692 -33.43  0.002361845    1.577    0.366
       151 -10.0254    210.8699     97.4335   7.4132521983e+01   1.9125854770e+01    0.3718402    0.2618173  42.75  0.001861565    1.737    0.424
       152  -9.6424    141.1108     96.0585   8.7522652565e+01   3.5167372345e+01    0.2841457    0.1984165  32.83  0.001285862    1.670    0.401
       153 -10.5506    119.7013     85.3570   8.9922332545e+01   4.1902436925e+01    0.4221743    0.2713399  39.94  0.001650441    1.577    0.366
       154 -10.4150    117.5207     92.9852   9.2648443590e+01   4.0883656499e+01    0.4768668    0.2775418  35.12  0.001518819    1.908    0.476
       155 -10.6740    121.7941     89.2363   9.0469841063e+01   4.0719007625e+01    0.4740362    0.3016508  46.31  0.002093619    1.554    0.356
       156 -10.5150    126.3133     93.1478   9.0388347813e+01   3.8990706299e+01    0.4135814     0.347254  17.44  0.001209561    1.370    0.270
       157 -10.4939    122.4704     93.5125   9.1484177633e+01   3.9739594500e+01    0.3189604    0.2525728 -27.84 0.0009079456    1.371    0.271
       158  -9.7860    160.4949     93.6724   8.2531968873e+01   3.1221109409e+01    0.4763908    0.2537511  69.60  0.001717093    2.769    0.639
       159 -10.6949    152.5942     91.9272   8.3788111376e+01   3.3365898788e+01     0.392785    0.3535899  70.91  0.002115514    1.104    0.094
       160 -10.1336    137.5575     93.7023   8.7740774643e+01   3.6420991220e+01    0.3749467    0.2595878  23.39  0.001036876    1.971    0.493
       161 -11.6884    102.1126     90.2445   9.6160714388e+01   4.4521366793e+01    0.4856851    0.4218233 -11.61 0.0005860891    1.219    0.179
       162  -9.2756    212.1680     87.7797   7.1765928297e+01   2.0567284392e+01     0.179663    0.1713523  -0.46 0.0007462549    1.364    0.267
       163 -10.4895    183.7430     86.3739   7.6142847566e+01   2.7201689736e+01    0.5455413     0.272045 -48.24  0.002275112    1.977    0.494
       164  -9.8475    104.9181     76.6255   9.1397246896e+01   4.6551079074e+01    0.5625895    0.3634143 -20.48  0.002563827    1.972    0.493
       165 -11.0693    113.4287     83.3754   9.1027183093e+01   4.3585358937e+01    0.7087712    0.3752505 -30.98  0.002733459    2.260    0.558
       166 -11.0395    109.3425     80.5500   9.1323311352e+01   4.4946442692e+01    0.3830306    0.3223027   5.34  0.001078452    1.324    0.245
       167 -10.5000    165.7559     83.4030   7.8801055562e+01   3.1896388303e+01    0.4171132    0.3378019 -72.09  0.001617281    1.309    0.236
       168 -11.4109    143.0785     83.9989   8.3802684774e+01   3.7011533677e+01     0.362963    0.3545027 -55.05  0.001147119    1.051    0.049
       169 -10.9057    127.4067     82.8408   8.7233358618e+01   4.0715029221e+01    0.3855553    0.3264654 -58.76  0.001261989    1.277    0.217
       170  -9.3540     24.2449     74.0318   1.1767297273e+02   5.8835143126e+01    0.1762038     0.149719 -46.10 0.0005349963    1.165    0.141
       171 -11.8079     13.7339     74.7407   1.2176893791e+02   5.9535676815e+01    0.4751836    0.3763697 -25.94  0.002248761    1.136    0.120
       172  -9.7047     20.4101     71.6535   1.1848847562e+02   5.9629989849e+01    0.2141961    0.1180361  15.62  0.001179991    2.024    0.506
       173 -11.5072     14.2920     66.5484   1.1948646696e+02   6.1101722215e+01    0.3013307    0.2150619 -51.84 0.0005002879    1.287    0.223
       174 -11.8148      1.8980     71.3305   1.2539298242e+02   6.0982038608e+01    0.6617232    0.1443197 -58.65  0.002614764    3.351    0.702
       175 -12.0066      6.0876     62.5243   1.2164161273e+02   6.2438547955e+01    0.6946166    0.3200983 -32.76  0.003750731    1.955    0.488
       176 -10.7228     11.6390     62.4734   1.1943945791e+02   6.2070831263e+01    0.3262133    0.1690762   1.87  0.001767034    2.286    0.563
       177  -9.4813    170.5446     77.6653   7.6404199217e+01   3.1786003910e+01    0.2838574    0.1772983  61.60  0.001241486    1.585    0.369
       178 -10.3219     98.1517     63.1037   8.9185682188e+01   5.0198799294e+01    0.4613318    0.2651045  20.24  0.001901179    2.644    0.622
       179 -10.2756    142.7486    249.4172   1.1864797315e+02   1.2548402216e+00    0.2428098    0.1554221  32.01  0.001043314    1.493    0.330
       180 -10.9361     93.4005     76.5866   9.4724715828e+01   4.8779421237e+01     0.523545    0.3057874  30.37  0.001466412    1.896    0.473
       181 -11.7073     85.8141     74.0145   9.6253743515e+01   5.0626388292e+01    0.6109458    0.5966277  -8.34  0.003791366    1.119    0.106
       182 -11.0326     78.4503     67.2440   9.6477798347e+01   5.3103772527e+01     0.567255    0.4619337  57.07  0.002882732    1.546    0.353
       183 -11.0694     91.5102     62.6626   9.0984926650e+01   5.1540714698e+01    0.3889783    0.2864194  50.41  0.001116156    1.445    0.308
       184 -11.5108     89.2331     57.5409   9.0023574647e+01   5.2783222367e+01    0.5752521    0.4876309  38.30  0.002219619    1.152    0.132
       185  -9.6825    134.7004     77.3973   8.3922984224e+01   4.0081156957e+01    0.3270547    0.1773738  64.15  0.001296133    2.318    0.569
       186 -10.2811    126.9675     76.9633   8.5670631594e+01   4.1868520097e+01     0.211319    0.2047825  51.13  0.001217275    1.012    0.012
       187  -8.7501     47.0327     77.2082   1.1021856847e+02   5.5834194060e+01    0.1955712     0.175785 -40.77  0.001255241    1.165    0.141
       188 -10.0696     46.7497     73.1494   1.0915404731e+02   5.6654710031e+01    0.2928404    0.1662321 -52.94  0.001485341    1.820    0.451
       189  -9.6401     33.0461     77.2115   1.1526828703e+02   5.7377828814e+01    0.1870543    0.1437037 -23.57  0.000310239    1.185    0.156
       190  -9.2844    242.3345     76.6690   6.5327755355e+01   1.6126236413e+01    0.1405202   0.08503142 -69.78  0.000705217    1.729    0.422
       191 -12.1104    186.4691     70.7846   7.1883953027e+01   2.9237979526e+01    0.8069898    0.6226315 -46.78  0.003399083    1.291    0.225
       192  -9.8238    184.4283     61.3043   6.9919493264e+01   3.1210672113e+01    0.2703937    0.2181663 -33.90  0.001514041    1.414    0.293
       193  -9.1753    230.0259     73.5051   6.6194408722e+01   1.9153292904e+01    0.1889369    0.1041094 -87.07  0.000810031    2.537    0.606
       194  -9.5368    151.9020     73.5142   7.9020607777e+01   3.6828154511e+01    0.3372818    0.1241611  48.70  0.001201999    2.650    0.623
       195  -9.9029    123.3147     73.0151   8.5440589627e+01   4.3350024562e+01    0.2715483    0.2445313  43.01  0.000479072    1.069    0.064
       196 -11.9178    122.6597     68.5204   8.4289325109e+01   4.4248971027e+01    0.9517527    0.4368694  40.52  0.003139904    2.325    0.570
       197 -11.8983     40.7942     70.1500   1.1044878828e+02   5.7924919174e+01    0.5019982    0.2682383 -46.94  0.001490516    1.686    0.407
       198 -11.3389     32.7505     71.8684   1.1391912869e+02   5.8457356383e+01    0.5217449    0.2629431  27.43  0.002624885    2.134    0.531
       199 -10.1371    161.9231     70.6942   7.6251558973e+01   3.4968225143e+01    0.3307345    0.2460096  79.76  0.001243542    1.458    0.314
       200 -10.5599    171.5094     67.1808   7.3559232212e+01   3.3298751576e+01    0.5754052    0.3198967 -56.22  0.002524541    2.042    0.510
       201 -11.4460    219.7789     66.5335   6.6032536007e+01   2.2443704210e+01     0.623055    0.2999454  64.32  0.002624489    2.092    0.522
       202  -9.6191    208.4013     68.1145   6.7917645274e+01   2.4688410133e+01    0.2280645    0.1776462  58.97  0.000854535    1.362    0.266
       203  -9.6511     21.4310     65.4907   1.1643917324e+02   6.0731079795e+01    0.2344432    0.1992487 -89.62  0.001534013    1.801    0.445
       204  -8.6437     25.5803     65.4710   1.1483307268e+02   6.0367109429e+01    0.2395828    0.1431267 -15.28 0.0008923311    1.825    0.452
       205  -9.7605    192.4856     65.8077   6.9734549148e+01   2.8651894855e+01    0.2719705    0.1923606 -81.54 0.0008561279    1.517    0.341
       206 -10.9564     58.2122     61.5818   1.0149730094e+02   5.7243907340e+01    0.4167938     0.365558 -48.28  0.001548639    1.366    0.268
       207  -9.8173     51.9815     47.6830   9.9102587094e+01   6.0385499149e+01    0.2758897    0.1905047 -20.50   0.00110062    1.366    0.268
       208  -9.6514    175.0209    246.5136   1.1156768754e+02  -3.4921153440e+00    0.2080717    0.1163271  37.05  0.001037937    1.607    0.378
       209 -11.7007     25.2021     55.8891   1.1215111466e+02   6.2148118739e+01    0.9252773    0.5951884  13.98   0.00570216    1.594    0.373
       210 -11.3023     23.2361     46.9299   1.1010211749e+02   6.3866102245e+01    0.6447343    0.3734798  15.76  0.002788913    1.758    0.431
       211 -11.2221     34.4222     42.6416   1.0408866987e+02   6.3384643053e+01    0.5798784    0.4195669  -6.66   0.00224988    1.227    0.185
       212 -10.4442     33.5984     58.2865   1.0959170787e+02   6.0883554153e+01    0.3816883    0.2031246 -17.23 0.0006095323    2.361    0.577
       213 -12.6348     49.6965     60.3089   1.0415467865e+02   5.8625621109e+01    0.6282851    0.5388786  64.48  0.001522205    1.799    0.444
       214 -11.4704     40.0417     55.4791   1.0621501945e+02   6.0649857170e+01     0.429531    0.4157868 -31.46  0.003062856    1.372    0.271
       215  -9.9661    199.0423    244.7081   1.0645520155e+02  -6.9620056223e+00    0.1882889    0.1508068  23.78  0.001160811    1.119    0.107
       216 -10.9876     60.7062     36.1987   9.1879717552e+01   6.0745923564e+01    0.3131211    0.2039345 -28.07  0.001027357    1.521    0.342
       217 -11.4623     46.2977     48.9977   1.0167281536e+02   6.0942818153e+01    0.4421552    0.2980628  14.25  0.001565627    1.459    0.315
       218 -11.5340     42.4925     45.0610   1.0176265944e+02   6.2043692005e+01    0.4889702    0.2749486  16.50 0.0009402125    1.926    0.481
       219 -11.8667     55.9589     31.0052   9.1625511195e+01   6.2150895666e+01    0.4173276    0.2196886  37.50 0.0003612524    1.754    0.430
       220 -11.4288     47.2294     30.7192   9.4714926697e+01   6.3459461171e+01    0.5249484    0.2407367  28.44  0.001957245    2.177    0.541
       221  -9.5138    198.2160     63.0601   6.8231294984e+01   2.7773732311e+01    0.2739718    0.1652699 -58.78  0.001094337    1.684    0.406
       222 -10.4307    105.6728     63.3841   8.7169484079e+01   4.8657151385e+01    0.2665799    0.2224665 -48.84  0.001505964    1.339    0.253
       223 -10.7773    159.3074     61.7361   7.4391707641e+01   3.7004402082e+01    0.4577079    0.2616685  45.30  0.002064332    1.851    0.460
       224 -10.7619    127.7799    242.9893   1.2086541054e+02   4.9519098014e+00    0.3429537    0.2104445 -78.56  0.001586967    2.410    0.585
       225  -9.9777    167.6196    237.8128   1.1169889215e+02  -7.2866914503e-01    0.1780687    0.1295159 -59.72 0.0009509568    1.690    0.408
       226 -11.7313    120.2530     57.4234   8.1578712910e+01   4.6521560407e+01    0.9238251    0.5993221  73.35  0.004266331    2.122    0.529
       227 -11.1219    113.4943     49.6005   8.0848935922e+01   4.9103936379e+01    0.5078329    0.2661689  37.27  0.001460057    2.040    0.510
       228 -11.0262    149.4560    238.0774   1.1555844138e+02   2.2738086466e+00    0.3948393    0.1751109  34.72  0.001653188    2.186    0.542
       229  -8.8153    228.2942     59.6194   6.3522535366e+01   2.1690957259e+01    0.1422291    0.0826444 -67.33 0.0007020139    1.753    0.430
       230 -11.4341    139.9315     43.4344   7.3127132066e+01   4.4089040974e+01     1.116529    0.5871226  24.36  0.003854828    4.366    0.771
       231  -9.5484     15.0345    233.9999   1.4273020655e+02   2.2844663051e+01    0.1847882    0.1417461  83.21  0.001040157    1.053    0.051
       232 -10.9225    136.6828     56.2385   7.7455184918e+01   4.3050840396e+01    0.6266961    0.4980115   9.71  0.002651859    1.604    0.377
       233 -11.4526    145.9969     46.6846   7.2853904802e+01   4.2267992350e+01    0.5957657    0.4046116 -22.41  0.002126612    1.825    0.452
       234  -8.9028    219.6470     57.2563   6.4068125784e+01   2.3896162642e+01    0.1357337   0.08701461 -77.39 0.0003640469    1.606    0.377
       235 -11.2332    157.3343     54.9873   7.2968069815e+01   3.8475262044e+01    0.5809538    0.4355406 -77.00  0.002543472    1.519    0.342
       236 -11.2175    155.1364     49.6379   7.1942449929e+01   3.9748265383e+01    0.3978278    0.2754915 -16.19  0.000514408    1.979    0.495
       237  -9.5812    147.3737     60.6345   7.6442630222e+01   3.9944677913e+01    0.3406515    0.1310981  60.21   0.00123977    2.695    0.629
       238  -9.3897    187.7569     55.4031   6.7986251467e+01   3.1328208971e+01    0.2511426    0.1241429  66.87  0.001113376    1.980    0.495
       239  -9.8952     66.9876     54.7387   9.6203732444e+01   5.7056861063e+01    0.2293315    0.1825567 -41.28 0.0007538265    1.383    0.277
       240  -9.6898    248.8812     53.1313   6.0006029337e+01   1.8446382428e+01    0.2343021    0.1599983  76.56  0.001291382    1.437    0.304
       241 -10.0092    244.6447     50.5140   5.9928578450e+01   1.9668470963e+01    0.2487223    0.1463141 -58.76  0.001408892    1.451    0.311
       242 -10.8736    240.2087     50.1941   6.0316856130e+01   2.0610655517e+01    0.3354189    0.2461227 -84.62  0.001278184    1.201    0.167
       243 -11.0997    201.7199     47.0765   6.4109967340e+01   2.9337695660e+01    0.6490838    0.3559057 -45.86  0.003295328    1.756    0.431
       244  -9.0290      1.8085     56.3289   1.2173420818e+02   6.3859800712e+01    0.1440463   0.09047846  -7.28  0.000501551    1.618    0.382
       245 -11.1168    174.1036     48.0017   6.8287314751e+01   3.5553904257e+01    0.5653007    0.3511596  68.08  0.002202625    1.500    0.333
       246  -9.6669    176.7671     43.8472   6.6846725201e+01   3.5500864695e+01    0.3294451    0.2001422  87.50  0.001588015    1.892    0.471
       247 -11.4552    175.7882     36.3641   6.5157383935e+01   3.6700410572e+01    0.6952432    0.3858781 -65.27  0.003260193    2.211    0.548
       248 -10.0539    242.4731    231.4854   9.5956236047e+01  -1.1142883900e+01    0.2390447    0.2000256 -89.59  0.001396491    2.437    0.590
       249 -10.4233    176.6382     29.7715   6.3436140235e+01   3.7311256935e+01    0.3264171    0.2370912  61.35  0.001307232    1.276    0.216
       250 -11.4735    183.5830     24.8496   6.1357083498e+01   3.6297893467e+01    0.5747762    0.2649177  53.88  0.002751726    2.144    0.534
       251  -9.0635    236.0341     59.5302   6.2614114747e+01   2.0089730314e+01    0.1868322    0.1164102  72.89  0.001030604    1.597    0.374
       252  -9.3136     91.0353     48.3174   8.6470981000e+01   5.3817018571e+01    0.2280312    0.1629885 -46.34  0.001254813    1.665    0.399
       253 -10.2196     12.9517     47.3339   1.1451803037e+02   6.4689779319e+01    0.5275391    0.1851579 -26.06  0.001925466    4.651    0.785
       254 -10.1346     18.2856     41.6822   1.1042857357e+02   6.5178497080e+01    0.2799751    0.1892942 -11.98  0.001736616    1.307    0.235
       255 -10.0008      2.2195     48.6643   1.1944669568e+02   6.5214473851e+01    0.2286441    0.1734789 -37.90 0.0009694718    1.104    0.095
       256  -9.7042     11.0351     33.8439   1.1088929430e+02   6.7033493582e+01    0.2968952    0.1749341 -52.03 0.0003765463    2.009    0.502
       257  -9.8890      4.2737     44.1447   1.1723037685e+02   6.5863606742e+01    0.3764443     0.207582 -18.38  0.001698255    1.727    0.421
       258 -11.4382      4.1364     35.9440   1.1468370261e+02   6.7227138048e+01    0.2837826    0.1963897 -33.35 0.0003999027    1.142    0.124
       259 -10.0747      6.6391     30.7724   1.1178697179e+02   6.7852297644e+01    0.2851678    0.1459496  -6.39   0.00163977    2.134    0.531
       260 -10.0332    195.3307     46.7478   6.4881124885e+01   3.0830610103e+01    0.5241063    0.2290379  83.44  0.001804346    3.887    0.743
       261 -10.0438    233.4540     45.1371   6.0019681658e+01   2.2718702262e+01    0.2649499    0.1651098  62.81  0.001269744    1.666    0.400
       262 -10.5508    145.8736     52.1563   7.4397593713e+01   4.1539382704e+01    0.3763037    0.3063104  50.70  0.001423628    1.170    0.145
       263 -10.1718    101.1717     43.9134   8.2207701408e+01   5.2431485706e+01    0.3411342    0.2488449 -68.82  0.001512887    2.162    0.537
       264 -10.9086     93.9760     41.4002   8.3335581970e+01   5.4191597550e+01    0.5354966     0.267894  46.41   0.00212383    1.804    0.446
       265 -10.3905    162.6722     43.8827   6.9100685418e+01   3.8775737776e+01    0.3013397    0.1858691  71.16  0.001513818    1.572    0.364
       266 -11.5081    156.1394     41.6968   6.9640536138e+01   4.0580861897e+01    0.3676186     0.333047  63.91 0.0009972805    1.070    0.065
       267 -10.8341    153.2324     36.2413   6.8684858578e+01   4.1941063599e+01    0.2938852    0.2523356 -80.98 0.0004003682    1.185    0.156
       268 -10.5793    189.0967     41.6442   6.4546917259e+01   3.2949966477e+01    0.3637803    0.1859346 -33.50 0.0006370691    2.224    0.550
       269 -10.8313     81.4081     39.6935   8.6402423345e+01   5.6783804109e+01    0.5654096    0.3402466  51.58  0.002710283    1.759    0.431
       270 -10.2995     77.6809     34.4348   8.5695178413e+01   5.8125820479e+01    0.6105191    0.2247322  43.65  0.002677518    2.423    0.587
       271 -10.5200     82.1823     31.5326   8.3319114947e+01   5.7659731685e+01    0.4741569    0.3640924  55.99  0.002473675    1.465    0.317
       272 -10.0220    231.6391     39.1659   5.9023805095e+01   2.3918972578e+01    0.2681924    0.1683151 -55.05  0.001249349    1.389    0.280
       273  -9.2139    217.7967     38.8312   6.0409857155e+01   2.6910415047e+01    0.1831357    0.1246142 -74.11 0.0006821182    1.336    0.251
       274 -10.8544     23.2061     37.1719   1.0677896184e+02   6.5421137609e+01    0.3308413    0.2374007  41.07  0.001610989    1.996    0.499
       275  -9.6435    133.7819     37.3413   7.2604402802e+01   4.6252289354e+01    0.3518944    0.2330554  86.12  0.001749781    1.982    0.496
       276  -9.8288    206.8123     37.0423   6.1274412456e+01   2.9557810301e+01    0.2199147    0.1633963  83.87 0.0006729722    1.178    0.151
       277 -10.5221    240.6079     32.0008   5.6789627538e+01   2.3025398883e+01    0.5116624    0.3022635 -50.91  0.003073252    1.475    0.322
       278 -11.9968    105.7565     32.9707   7.7479644059e+01   5.2857400229e+01     0.690766    0.3681146  18.14  0.002787583    3.379    0.704
       279 -10.7406    199.1066    231.9068   1.0426325350e+02  -4.8192012333e+00    0.4469388    0.1606595  33.05  0.001715016    2.899    0.655
       280  -9.8945    247.4555    231.0497   9.4992363419e+01  -1.1741117090e+01     0.182509    0.1045694 -34.72 0.0006532933    1.574    0.365
       281 -11.4147    159.9511     30.0243   6.5945531050e+01   4.1130837270e+01    0.5380894    0.2986601 -49.92  0.002334899    1.989    0.497
       282 -11.2063    163.9582     27.6194   6.4717820330e+01   4.0483565058e+01    0.2619063    0.2368042 -61.30 0.0004049925    1.187    0.158
       283 -11.0819    147.7167     31.6960   6.8407055667e+01   4.3753483714e+01    0.2577448    0.2210904  66.72 0.0007018714    1.019    0.019
       284 -10.7710    144.4112     25.2991   6.7222393078e+01   4.5226544377e+01    0.4983017    0.2923085  69.43  0.002607989    1.584    0.369
       285  -9.4172     23.3388    231.5595   1.4098851793e+02   2.2454789915e+01    0.2000835   0.09890217  43.41  0.000646371    1.884    0.469
       286 -11.3145    154.2714     25.3966   6.5628799765e+01   4.2961304358e+01    0.6411161    0.3575135  56.51  0.003357505    1.563    0.360
       287 -10.2104    157.3953     20.4205   6.3851718333e+01   4.2779692269e+01    0.4502754    0.1921804  63.96  0.001891906    1.967    0.492
       288 -10.3841     68.7237     32.6768   8.7895068907e+01   5.9897754175e+01    0.4301695    0.2288052  37.97  0.002304614    1.694    0.410
       289  -9.5023      9.9192    227.4923   1.4322464579e+02   2.4781415074e+01    0.1555363    0.1061276  44.54  0.000584079    1.523    0.343
       290 -10.5959    189.1658     28.7570   6.1559299736e+01   3.4567771884e+01    0.4301276    0.2998256 -28.41  0.002483874    1.800    0.444
       291 -10.0367    234.2843    222.5952   9.5845957933e+01  -8.5975151756e+00    0.1729024     0.111199  21.32 0.0009497437    1.603    0.376
       292  -9.6543      9.8317    217.8365   1.4254415475e+02   2.6906384304e+01    0.1736742    0.1105302  75.79  0.000676995    1.309    0.236
       293 -10.3602      9.5045     21.9711   1.0721552854e+02   6.8901883677e+01    0.2498524    0.1498947 -29.75  0.000773081    1.359    0.264
       294  -9.5217    165.1780    212.3819   1.0788179090e+02   4.6330405298e+00    0.2122278    0.1251578  49.42 0.0009431296    1.807    0.447
       295  -9.3889    152.7682    207.6105   1.0976353896e+02   7.8809955420e+00    0.2055122    0.1307574  47.88 0.0009419878    1.580    0.367
       296 -10.8638      4.7872    202.9842   1.4241090447e+02   3.0732814017e+01    0.6584892   0.07267703 -65.15  0.002161899    4.730    0.789
       297  -9.7316    238.5130    204.5080   9.1726751168e+01  -6.1952379958e+00    0.2793286    0.1146477 -40.36  0.001219037    2.197    0.545
       298  -9.5458    210.9607     30.1486   5.9339738615e+01   2.9526870232e+01    0.2179515    0.1613074 -54.52 0.0009831486    1.286    0.223
       299  -9.1783     36.0217     31.5144   9.9388137917e+01   6.4820794578e+01    0.1455548   0.09665023  50.73 0.0008104469    2.590    0.614
       300  -9.5815    221.3343     29.6284   5.8155173465e+01   2.7346744355e+01    0.2140137    0.1223046 -53.11 0.0006626333    1.581    0.368
       301 -10.1761    182.2394     32.2675   6.3271550208e+01   3.5722920033e+01    0.2379555    0.1754698  51.04 0.0008483252    1.472    0.321
       302  -9.9570     98.6366     28.3872   7.7744617541e+01   5.4834565968e+01    0.3978542    0.2807291 -55.22  0.001796901    1.994    0.498
       303 -10.0666    230.4510     27.3520   5.6828036558e+01   2.5709459355e+01    0.3098527    0.1611327 -48.23  0.001476748    1.724    0.420
       304  -9.2857     67.8895     27.8092   8.6378290627e+01   6.0625634423e+01    0.1742678    0.1326425  15.09 0.0002802518    1.178    0.151
       305 -10.2364    250.5347     26.1480   5.4868970044e+01   2.1800689486e+01    0.2731386   0.09808797 -40.41  0.000912093    2.585    0.613
       306  -8.8901     41.6638     27.1946   9.5494902596e+01   6.4672944630e+01   0.09912907   0.08086891  36.70 0.0003544478    1.503    0.335
       307 -11.0160     30.9360     29.4836   1.0069470749e+02   6.5704307350e+01    0.3725833    0.1878482 -30.00  0.001193511    1.824    0.452
       308 -10.7572    214.5728     23.4484   5.7577171065e+01   2.9563455700e+01    0.3610575    0.3028749 -23.09  0.002214441    1.704    0.413
       309  -9.2765    169.1941     23.7927   6.3007086023e+01   3.9709995466e+01     0.173077    0.1374664  50.56 0.0008471805    1.339    0.253
       310 -10.7586    245.6180    200.8716   8.9783693121e+01  -6.6282186497e+00    0.2117535    0.1662918  10.34 0.0006429703    1.316    0.240
       311 -10.0688    234.3768    197.0983   9.1058663094e+01  -4.2716515696e+00    0.3553288     0.242773  13.99  0.001884503    1.729    0.422
       312 -12.3402      5.2913    185.3063   1.4083051000e+02   3.4775373800e+01    0.8354428    0.4711297  86.23  0.004620898    1.600    0.375
       313 -10.0544     16.5678    192.1902   1.3900165112e+02   3.2115002303e+01    0.2155758    0.1945087 -31.13  0.001282897    1.538    0.350
       314  -9.7684    169.6677    191.4558   1.0296339328e+02   8.1931638319e+00    0.3812229    0.2085809  27.35   0.00115663    2.329    0.571
       315  -9.5341    239.4552    184.8075   8.7768122045e+01  -2.8754023553e+00    0.1910551    0.1123143 -30.67 0.0009370351    1.635    0.388
       316 -10.1166    212.6421    181.5036   9.2040210378e+01   2.2685000553e+00    0.3387282    0.2096506   4.61  0.001329849    2.933    0.659
       317  -9.7399    250.0916    180.0969   8.5034505033e+01  -3.6984436457e+00    0.2919472    0.1515374 -37.25  0.001425173    1.669    0.401
       318  -9.3727     28.2932    176.0205   1.3460399803e+02   3.4812736517e+01    0.1927356    0.1491481 -77.91  0.001105341    1.073    0.068
       319 -10.3682    243.0242     21.9091   5.4711039092e+01   2.3818577103e+01    0.3105089    0.1304864  61.87  0.001607128    2.424    0.588
       320  -9.4783    223.2965     22.1730   5.6480772762e+01   2.7850678654e+01    0.1991921    0.1386448  73.11 0.0007233327    1.330    0.248
       321 -10.3176     74.0171     19.5233   8.1399714105e+01   6.0468700554e+01    0.2746109    0.1809983  35.16  0.001222202    1.289    0.224
       322  -8.8083    230.4593    175.4789   8.7508037839e+01   3.1998684847e-01    0.1383558    0.1216317 -30.33 5.081022e-05    1.005    0.005
       323  -8.9084     57.4648    175.0133   1.2727831380e+02   3.1613019926e+01    0.2060848    0.1248136 -65.42 0.0004185411    1.479    0.324
       324  -9.7534    247.3340    174.0018   8.4301577768e+01  -2.1823070903e+00    0.3647048    0.1818164  22.61  0.001353241    3.990    0.749
       325  -8.8956      1.4709     20.5742   1.1046901386e+02   6.9741713327e+01    0.1068421   0.07717324 -16.08 0.0003130549    1.010    0.010
       326 -10.0520     51.7249    173.2397   1.2846738175e+02   3.2799521367e+01     0.330908    0.1719458 -82.57  0.001376545    2.268    0.559
       327  -9.8622    211.1363     18.9658   5.7000487495e+01   3.0836753778e+01    0.1800245    0.1449711 -86.90 0.0004178979    1.038    0.037
       328 -10.1147     39.5950    173.2506   1.3150205549e+02   3.4258895413e+01    0.2833054    0.1521543 -62.73 0.0008743056    1.600    0.375
       329 -10.7764     36.0029    170.7230   1.3206260162e+02   3.5286418022e+01    0.4111143    0.2089706 -77.55  0.001880396    1.901    0.474
       330 -11.8361      9.7824    166.2171   1.3793830532e+02   3.8923874240e+01    0.5981199    0.3750374 -68.44  0.003174413    1.286    0.222
       331 -10.9606     13.9639    158.0754   1.3599426004e+02   4.0531222110e+01    0.4999282     0.178586 -68.40  0.001780619    2.202    0.546
       332  -9.4673    198.0258    167.7320   9.2074984239e+01   7.7591167404e+00    0.2012279    0.1944466  -0.29 0.0007306176    1.066    0.062
       333 -10.2426     18.8821    165.2625   1.3562226547e+02   3.8354706812e+01    0.2635463    0.2543329 -82.78  0.001449223    1.228    0.186
       334 -10.2737    113.2761     61.0340   8.4426047691e+01   4.7458318266e+01    0.3692868    0.2289671 -39.06  0.001480906    1.699    0.411
       335  -8.5961     55.3083     17.2971   8.6569278545e+01   6.3844919653e+01    0.1195225   0.07414632  15.54 0.0007006183    1.592    0.372
       336  -9.8514    188.7825    164.0985   9.3195563941e+01   1.0336152115e+01     0.326813    0.1946744 -36.75 0.0009853605    1.720    0.419
       337  -9.8428    220.6344     12.4896   5.4825592937e+01   2.9541699844e+01    0.2340062   0.09825739  73.56 0.0008686597    2.075    0.518
       338 -10.6195    206.5165    162.7578   8.9341305118e+01   7.1455013156e+00    0.4458085    0.3315407  32.00  0.001791048    1.512    0.339
       339 -10.1191     81.0303     19.3214   7.9294809553e+01   5.9208656039e+01    0.3900209    0.1647646  50.79  0.001166017    2.088    0.521
       340 -10.4164     28.2162    162.4651   1.3294285720e+02   3.8140357741e+01     0.395271    0.1634558 -65.81  0.001748766    1.975    0.494
       341  -9.6272     79.8695    160.4935   1.1904088724e+02   3.2029079377e+01     0.258203    0.2025782  89.75  0.001300276    1.371    0.271
       342  -9.3527    224.1142    156.8388   8.4819321886e+01   5.0162634848e+00     0.197223    0.1632449 -17.28 0.0006627931    1.319    0.242
       343 -10.6394    104.7773    154.4663   1.1119754060e+02   2.9331691881e+01    0.6760886    0.3156026 -62.34  0.002404788    2.457    0.593
       344  -9.0951    108.3708    153.2794   1.0999549235e+02   2.8967255038e+01    0.2414111    0.2242746   5.42 0.0006185023    1.228    0.186
       345 -10.3301      8.6535    156.3449   1.3712106870e+02   4.1384466425e+01    0.2734122    0.1510994 -57.10  0.001485147    1.564    0.361
       346  -9.9899     23.2623    155.2678   1.3327018629e+02   4.0384121810e+01    0.2718997    0.2304693  29.25  0.001724811    1.434    0.302
       347 -10.3867     31.6875    154.4214   1.3094788325e+02   3.9768169681e+01    0.3821407    0.2691899  65.07   0.00177141    1.568    0.362
       348 -10.6231     30.8080    149.5191   1.3047407172e+02   4.1063287069e+01    0.3367218    0.2300436  71.06  0.001039371    1.673    0.402
       349 -10.5205     70.9700    151.4965   1.1979329193e+02   3.5630270308e+01    0.3255725    0.2803762 -61.28  0.001790337    1.065    0.061
       350  -9.9263     14.4486    133.6549   1.3265813776e+02   4.6366699816e+01    0.2562172    0.1741604  65.70  0.001444716    1.758    0.431
       351 -12.0506     22.6636    149.2987   1.3262336743e+02   4.1896085805e+01    0.6024719    0.3323665 -29.34   0.00276818    2.715    0.632
       352 -10.6471     15.5416    148.0367   1.3433913940e+02   4.2824539641e+01    0.3220694    0.2448829  57.53  0.001099596    1.460    0.315
       353 -11.6166     12.7831    139.3017   1.3391317931e+02   4.5148345901e+01    0.7352844    0.3835959  81.91  0.003312932    2.611    0.617
       354  -9.8899     42.6333    148.5783   1.2710799032e+02   4.0035364261e+01    0.2903796    0.2461172  46.76  0.001721958    1.310    0.237
       355  -9.7944     47.9850    151.8416   1.2617151452e+02   3.8601312780e+01     0.309617    0.2417924   7.79 0.0009894033    1.673    0.402
       356 -10.9768     47.2470    146.4969   1.2548735171e+02   4.0017541206e+01    0.5737433    0.3178414 -62.86  0.002371815    1.571    0.363
       357 -11.8084      3.7438    147.4247   1.3733152839e+02   4.3886531338e+01    0.6687693    0.4301979 -70.99   0.00341997    1.220    0.180
       358 -11.6252      3.6225    142.0251   1.3671813757e+02   4.5177029381e+01    0.3881978    0.3767857  23.98  0.002118958    1.313    0.239
       359 -11.4509      3.9064    136.6944   1.3597656600e+02   4.6418575161e+01    0.2359433    0.1805389 -63.90 0.0002562064    1.069    0.064
       360  -9.7839    214.9436    151.6951   8.5392148900e+01   7.7574793396e+00    0.1982722     0.189357 -56.26 0.0005928682    1.071    0.067
       361 -11.4427     62.6403    149.8385   1.2179204028e+02   3.7223267396e+01     0.546041    0.4992957  51.98  0.002775709    1.181    0.153
       362  -9.6715     85.6738    150.1545   1.1548226753e+02   3.3692723053e+01    0.2453488    0.1863105 -78.20  0.001188057    1.421    0.296
       363 -10.2384     55.9778    149.0028   1.2349123124e+02   3.8315916714e+01    0.2205152    0.1936394 -70.72 0.0003369051    1.022    0.021
       364  -9.4698    239.8474    146.7863   8.0063369422e+01   4.0921803782e+00    0.2006205    0.1781926 -23.03 0.0007206956    1.181    0.153
       365 -10.9444    249.6456    143.0235   7.7760760854e+01   3.0759343176e+00    0.6382954    0.2182728 -42.50  0.002488647    2.467    0.595
