#   1 NUMBER                 Running object number                                     
#   2 MAG_AUTO               Kron-like elliptical aperture magnitude                    [mag]
#   3 X_IMAGE                Object position along x                                    [pixel]
#   4 Y_IMAGE                Object position along y                                    [pixel]
#   5 X_WORLD                Barycenter position along world x axis                     [deg]
#   6 Y_WORLD                Barycenter position along world y axis                     [deg]
#   7 A_WORLD                Profile RMS along major axis (world units)                 [deg]
#   8 B_WORLD                Profile RMS along minor axis (world units)                 [deg]
#   9 THETA_WORLD            Position angle (CCW/world-x)                               [deg]
#  10 FWHM_WORLD             FWHM assuming a gaussian core                              [deg]
#  11 ELONGATION             A_IMAGE/B_IMAGE                                           
#  12 ELLIPTICITY            1 - B_IMAGE/A_IMAGE                                       
         1 -15.0644     68.3979    144.1110   1.0465748481e+02   3.7411432402e+01     5.652513     1.836476  54.88  0.004343737    5.318    0.812
         2 -13.7576    230.4720      4.3700   3.4604777387e+01   2.7174311005e+01     1.552194     0.838177  55.05  0.005584699    2.218    0.549
         3 -14.1396    196.7257     39.5182   4.7044381672e+01   3.1080539448e+01     1.495398     1.143149 -26.07  0.003625993    1.287    0.223
         4 -14.5951    206.3011     29.4464   4.3123451436e+01   3.0024829115e+01     1.524919     1.258444   8.27  0.001653256    1.483    0.326
         5 -11.6853     58.5310      3.8371   6.2954734124e+01   6.9875079813e+01    0.3263808    0.1788648  41.99  0.001576358    1.751    0.429
         6 -13.1169    195.7650    197.6711   8.3806689933e+01   7.2695193333e+00     1.235668    0.8301826  41.38  0.007585715    1.552    0.356
         7 -12.0636    139.7465    248.3247   1.0094698937e+02   8.1990916142e+00    0.3988345    0.3342474 -41.21  0.003171145    1.573    0.364
         8 -10.0454    101.9243    250.3465   1.0817885471e+02   1.2667879310e+01    0.1884769   0.09678444  45.86  0.001174658    1.546    0.353
         9 -10.3139     93.5359    249.9519   1.0972293395e+02   1.3741983595e+01    0.1907201    0.1236159  25.43 0.0006415331    1.493    0.330
        10 -16.6781     49.5029    201.8980   1.1519012814e+02   2.7163327186e+01     6.724644     2.203951  50.89   0.03041406    2.567    0.610
        11  -9.9268    150.5051    187.4949   9.1055173792e+01   1.5765138116e+01    0.1294017    0.1114406  27.32 -7.313482e-05    1.003    0.003
        12 -13.6444     19.3986    192.4501   1.2134922410e+02   3.2089189285e+01    0.5293609    0.3202339  40.85 0.0005853941    1.387    0.279
        13  -9.2801     93.1333    185.1860   1.0360036391e+02   2.4961564242e+01    0.1853907    0.1280748  53.10 0.0005049242    1.335    0.251
        14 -10.9204     99.0241    180.8833   1.0167147410e+02   2.4969465107e+01    0.3274116    0.2225101  18.16  0.001722242    1.782    0.439
        15 -11.0853    150.7934    179.4357   8.9702146060e+01   1.7092079969e+01    0.3734979    0.2651682 -76.71   0.00188459    2.391    0.582
        16 -10.9194    144.8469    180.0809   9.1089872375e+01   1.7950184999e+01    0.3034258    0.2510682  25.03  0.001031796    1.107    0.097
        17 -10.2493    142.4894    176.5127   9.1026738691e+01   1.8971750882e+01    0.2440454    0.1184033  37.34 0.0008273331    1.839    0.456
        18 -10.8699     41.8488    178.9916   1.1532575769e+02   3.2691959110e+01    0.2188397    0.2068813 -39.10 0.0007367108    1.396    0.284
        19 -10.0166    188.9937    177.7425   8.1685675792e+01   1.1140435649e+01    0.2252304    0.1767621 -68.90  0.001253977    2.230    0.552
        20 -10.3370    187.9670    173.6661   8.1149417785e+01   1.1921370201e+01    0.2739955    0.1854006 -53.44  0.001460437    2.096    0.523
        21  -9.7077    204.3857    175.2295   7.8392273757e+01   9.0673991879e+00    0.1642043    0.1122814 -39.90 0.0009498987    1.654    0.395
        22 -11.2241     48.2638    172.0268   1.1318024558e+02   3.3501191909e+01    0.5076194    0.2745472 -47.23  0.002491563    2.491    0.599
        23 -11.3100     46.8679    167.0785   1.1310054191e+02   3.4753781889e+01    0.7042866    0.3682875 -37.43  0.002995309    3.463    0.711
        24  -9.8415    195.8916    173.5671   7.9639093106e+01   1.0653971928e+01    0.2399179    0.1669593 -50.21  0.001332386    1.948    0.487
        25 -13.9391     44.1177    111.7452   1.0749086865e+02   4.8388366012e+01     2.265054     1.031652  61.12  0.008637391    2.923    0.658
        26 -12.5923     53.4394    109.7848   1.0398483797e+02   4.7796179762e+01    0.8682256    0.3519557 -72.52  0.002499132    2.677    0.626
        27 -13.2669     55.1189    146.6904   1.0876424979e+02   3.8499875418e+01     2.282798     1.159976 -45.10  0.009990797    2.576    0.612
        28 -12.9234     83.7872    160.7770   1.0278065468e+02   3.1434800173e+01     1.041639    0.5308499  61.94 0.0005956651    2.546    0.607
        29 -13.8544     72.4090    155.5616   1.0509732102e+02   3.4205617897e+01    0.5566891    0.5099707 -43.36  0.002094707    1.293    0.226
        30 -18.2189      6.7765    236.9062   1.2535919983e+02   2.4973378734e+01     8.557173     2.352175 -82.09   0.04387001    3.711    0.731
        31 -10.6658    157.7853    160.3679   8.4834663470e+01   1.9266781189e+01    0.3171652     0.257427  88.40   0.00170252    1.830    0.454
        32 -12.2969     90.6576    153.7499   9.9955582836e+01   3.1976003415e+01    0.6020733    0.4553657 -18.21  0.002196189    1.896    0.473
        33 -10.3665     84.1869    174.0596   1.0440392495e+02   2.8506906679e+01    0.1806872    0.1719032   9.41 0.0004134686    1.245    0.197
        34 -10.3922    187.3058    152.1444   7.7152609722e+01   1.5422341104e+01    0.2160589    0.1602029 -13.70  0.001182498    1.403    0.287
        35 -11.6479    133.7794    144.7558   8.7325450663e+01   2.6594976146e+01     1.085253    0.3212561 -55.26  0.003029204    5.107    0.804
        36  -9.5301    112.6491    150.9306   9.3756768901e+01   2.9042494684e+01    0.1916489    0.1774423 -79.63 0.0004462453    1.142    0.125
        37 -10.7747    174.4937    148.8787   7.9043363869e+01   1.8281328119e+01    0.2896726     0.257734 -65.28  0.001508517    1.438    0.304
        38 -10.8334     41.3254    147.1738   1.1272023296e+02   3.9950246457e+01     0.293448    0.2588428 -74.23 0.0008189538    1.184    0.155
        39 -11.0136    144.1548    145.9986   8.5104577133e+01   2.4431839370e+01    0.3697042    0.2357765 -72.58  0.001522678    2.734    0.634
        40  -9.9164     84.4123    143.9428   1.0012113354e+02   3.5155909202e+01    0.2207258    0.1752489  52.66 0.0003760251    1.189    0.159
        41 -12.4060     91.4647    139.1023   9.7343513881e+01   3.5179879992e+01    0.2764065    0.2648861  79.79 0.0004588712    1.041    0.039
        42  -9.7383     40.4860    142.2194   1.1245739693e+02   4.1223110561e+01    0.2187857    0.1645305  40.85 0.0004626366    1.297    0.229
        43 -11.1415    104.0299    139.0947   9.3879657114e+01   3.3106194554e+01    0.5291885    0.3520562 -23.30  0.002301238    2.337    0.572
        44 -11.1369    139.0620    171.0652   9.0887907617e+01   2.0537139353e+01     0.333694    0.2819845  42.31 0.0009906372    1.113    0.101
        45  -9.5992     44.8000    139.1451   1.1086527935e+02   4.1501500785e+01    0.1737017    0.1514489 -53.14 0.0006979941    1.303    0.232
        46 -12.1996     44.2036    129.8042   1.0993812373e+02   4.3853308334e+01    0.4184256    0.3171845 -78.01  0.001854313    1.221    0.181
        47 -12.5894     43.0314    126.3173   1.0986685785e+02   4.4845121810e+01    0.6441967    0.3778663  59.07  0.002438506    1.741    0.426
        48 -10.8516    105.8877    130.7550   9.1754342534e+01   3.4667613102e+01    0.3522244    0.3109887 -86.00   0.00111061    1.198    0.165
        49 -10.6328    113.4364    206.6729   1.0159827552e+02   1.8069831637e+01    0.2741278    0.1920539  65.09  0.001623305    1.682    0.405
        50 -11.5232    135.7307    127.8041   8.3273353555e+01   2.9713810097e+01    0.6162962    0.1816907 -49.15    0.0018941    3.645    0.726
        51 -12.1498    119.4355    122.9970   8.6403710956e+01   3.3907580821e+01     0.759746    0.4343338 -30.40  0.002951954    2.518    0.603
        52 -11.0148     32.6968    165.6084   1.1661913370e+02   3.6571028208e+01    0.3139073    0.1714918  77.08  0.001075796    1.776    0.437
        53 -10.4726    160.5887    128.0319   7.7495554956e+01   2.4719399571e+01    0.3088304    0.2690901 -53.21  0.001686856    1.259    0.206
        54 -11.1326     99.9582    125.8097   9.2418616080e+01   3.6842006875e+01    0.3112513    0.2610034  -1.92  0.001165979    1.505    0.336
        55  -9.0291     94.9629    127.0876   9.4114202114e+01   3.7401621703e+01    0.1693458    0.1608132  83.85 0.0003587064    1.025    0.024
        56 -10.0544    230.3102    166.6345   7.2384457649e+01   6.2547429508e+00    0.1089205   0.09560057 -52.54 0.0007038442    1.756    0.430
        57 -16.8961     31.8520    249.6567   1.2117273329e+02   2.0571524182e+01     8.951035     2.481289  22.99   0.02133388   14.543    0.931
        58 -10.8380    112.5412    129.8296   8.9742064233e+01   3.3681887262e+01     0.407874    0.2752121  27.37  0.000678664    1.672    0.402
        59 -10.0596    108.5684    118.9170   8.8485001706e+01   3.6874422718e+01    0.2259334     0.196642  31.11 0.0003591151    1.195    0.163
        60 -11.8744    109.5376    201.5714   1.0184036379e+02   1.9522836858e+01    0.6094394    0.3863008  13.87  0.003165944    2.133    0.531
        61  -9.7954    168.2768    113.1651   7.2293568324e+01   2.5907050572e+01    0.3290973    0.2266728 -71.77  0.001394076    2.357    0.576
        62 -10.7385    134.6033    105.5314   7.8179453349e+01   3.4590739149e+01    0.5894414    0.1738357 -42.68  0.001765012    3.455    0.711
        63 -12.1230    117.5893    108.7934   8.3551857187e+01   3.7408139470e+01    0.8110651    0.6848341 -67.60  0.004146267    1.273    0.214
        64 -11.8060     20.1287    111.0106   1.1560666505e+02   5.0808693048e+01    0.4245763    0.1810793  39.03  0.001572268    2.257    0.557
        65 -10.1855    205.4191    110.1016   6.4518253455e+01   1.8765949031e+01    0.2807192    0.2044026  40.98  0.000873559    1.444    0.308
        66  -8.8301    161.2617    199.6326   9.0703794976e+01   1.2146748697e+01    0.1124068   0.09502956  67.60 0.0006980885    1.647    0.393
        67  -9.7934     37.4101    162.0563   1.1512522004e+02   3.6898836158e+01    0.3295798    0.1810867   9.69  0.001522182    2.841    0.648
        68 -11.8111     35.7186    101.4396   1.0888446344e+02   5.1885570755e+01    0.3837619    0.2530383  87.17  0.001428091    1.542    0.351
        69 -11.2113     52.6716     90.9936   1.0064789284e+02   5.2647997373e+01    0.3831215    0.3041192  -1.53  0.002019419    1.590    0.371
        70 -11.1766     56.0165     95.3216   1.0031460298e+02   5.1125018776e+01    0.4790686    0.2629008  48.31   0.00138076    1.972    0.493
        71  -9.7164    157.4953     81.5333   6.6086035610e+01   3.4124113346e+01    0.1505679    0.1471731 -19.63 5.048595e-05    1.021    0.021
        72  -9.1932    184.6100     77.1534   5.9590272833e+01   2.8517974644e+01    0.2077985    0.1363809 -20.31 0.0006953243    1.682    0.405
        73 -10.0825     60.6150     68.2550   9.1657976034e+01   5.7158193646e+01    0.2432856    0.2130324  87.81 0.0006458655    1.271    0.213
        74 -10.1859    128.5251    195.0690   9.6871937143e+01   1.7879725130e+01    0.2588491    0.1757789 -79.01  0.001372796    2.268    0.559
        75 -13.9486    186.2140     47.6039   5.0801681379e+01   3.2562924101e+01     1.268789    0.9982092  20.39 0.0008866915    1.571    0.363
        76  -9.3389    169.1826    236.7967   9.4246647377e+01   5.8534099883e+00    0.1459236    0.1059694  12.32 0.0003955522    1.268    0.211
        77  -9.9885     81.3863    194.4121   1.0735318929e+02   2.4750924070e+01      0.38172     0.213946  60.76  0.001982458    1.896    0.473
        78 -11.8949    147.5880     51.6827   5.8764981346e+01   4.1667622254e+01    0.5860931    0.3612235 -77.21  0.002221658    2.585    0.613
        79 -10.8808    149.4580     45.4018   5.6242298805e+01   4.2161339972e+01    0.2940206    0.2410262 -67.71 0.0003477175    1.315    0.239
        80 -10.3940     27.7252     35.4411   9.6820672111e+01   6.8930239792e+01    0.2328599    0.1207539  31.45  0.001120683    2.093    0.522
        81 -11.7838     19.1046     33.7450   1.0144975099e+02   7.0093594810e+01    0.3751378    0.1962737  33.19  0.001354816    2.141    0.533
        82  -9.7271    189.6356     14.8989   4.0581254138e+01   3.5685298322e+01    0.2233504    0.1845174  64.37  0.000662124    1.267    0.211
