#   1 NUMBER                 Running object number                                     
#   2 MAG_AUTO               Kron-like elliptical aperture magnitude                    [mag]
#   3 X_IMAGE                Object position along x                                    [pixel]
#   4 Y_IMAGE                Object position along y                                    [pixel]
#   5 X_WORLD                Barycenter position along world x axis                     [deg]
#   6 Y_WORLD                Barycenter position along world y axis                     [deg]
#   7 A_WORLD                Profile RMS along major axis (world units)                 [deg]
#   8 B_WORLD                Profile RMS along minor axis (world units)                 [deg]
#   9 THETA_WORLD            Position angle (CCW/world-x)                               [deg]
#  10 FWHM_WORLD             FWHM assuming a gaussian core                              [deg]
#  11 ELONGATION             A_IMAGE/B_IMAGE                                           
#  12 ELLIPTICITY            1 - B_IMAGE/A_IMAGE                                       
         1 -11.0613     84.0850     46.0215   6.9190247187e+01   5.6555608491e+01      1.26943    0.6670458 -42.70    0.0057441    2.072    0.517
         2  -8.6993     40.0840      1.8619   6.6375874652e+01   6.9855604456e+01    0.2835265    0.1655925  28.31  0.001344475    1.478    0.323
         3  -9.8555     38.6068      8.8072   7.0648508320e+01   6.9303868963e+01    0.6022646    0.3573831  -1.67  0.002759961    1.763    0.433
         4 -10.2169     50.4951     37.0521   7.8289931162e+01   6.3632369995e+01    0.8421367    0.6537192 -81.52  0.004238956    2.943    0.660
         5 -10.6378     39.6253     30.0022   8.0112714349e+01   6.6236020015e+01    0.5180261    0.3185356 -40.39  0.002364362    1.619    0.382
         6 -11.9774     44.7698     22.6005   7.4517958004e+01   6.6633560066e+01     1.029094     0.889336 -47.86  0.006759121    1.687    0.407
         7 -11.9596    129.0626     15.2194   4.6189432442e+01   5.0505297849e+01     1.727592     0.845237  60.66  0.008108333    1.765    0.433
         8 -11.5783    109.2395      5.0785   4.6487155708e+01   5.6032432862e+01     1.795757    0.5352409  66.52  0.006311901    3.569    0.720
         9 -11.9516    130.9772      3.8362   4.2047559529e+01   5.1060819482e+01     2.187119    0.4347435  66.47  0.006809372    4.274    0.766
        10 -10.6849    120.9745      4.1708   4.3883885115e+01   5.3393807986e+01    0.5831456    0.4358492  75.21  0.002330288    1.315    0.240
        11 -12.3510    156.1064     20.7743   4.3388455887e+01   4.3401809527e+01     1.538767    0.6108522  52.56  0.005645806    2.298    0.565
        12 -13.7012    169.2284     13.7990   3.9550994304e+01   4.0932958277e+01      2.73126     1.750985  77.51   0.01287724    1.436    0.304
        13 -11.3235     83.7873      3.8035   5.2014626568e+01   6.1700783854e+01    0.9837434    0.4078699  57.57  0.003600002    2.184    0.542
        14 -10.9680    115.3723     17.5880   4.9778146240e+01   5.3486834394e+01    0.7415493    0.5842142 -52.54  0.004293939    1.528    0.346
        15 -10.2716    247.7763     16.8529   3.2734500809e+01   2.2912634306e+01    0.4519072    0.1384381 -41.69  0.002083548    2.502    0.600
        16  -9.0989     94.0874     17.4348   5.4880659273e+01   5.8253345802e+01    0.4647788    0.3072734  88.94  0.002063532    2.761    0.638
        17  -9.6768     70.1188     14.5512   6.0915081324e+01   6.3392658880e+01    0.3779745    0.2851514 -25.47  0.002124585    1.416    0.294
        18  -9.1436     20.8216     13.6863   8.1960118204e+01   7.0905960875e+01     0.426281    0.1950158 -22.19  0.002118022    2.383    0.580
        19  -9.7980    104.8750     12.3040   5.0171160126e+01   5.6389422572e+01    0.4117456    0.2969309 -39.46  0.002358436    1.624    0.384
        20  -8.1246     52.3570      1.8999   6.1318674740e+01   6.7861478482e+01    0.2481668     0.140347  37.85  0.001437983    1.499    0.333
        21  -9.4782     59.7429      9.1725   6.2100219056e+01   6.5855781288e+01    0.4380063    0.3369265  76.44  0.002496842    2.361    0.576
        22  -9.8445     60.6243      2.2321   5.8445744241e+01   6.6368647191e+01    0.5628328    0.3058075  37.66  0.003157654    1.548    0.354
        23 -11.2014     77.8382     15.2880   5.8717604053e+01   6.1825921566e+01     1.332967    0.5451991 -16.75  0.005441496    3.181    0.686
        24  -9.9444    249.9822      8.4433   3.0920117743e+01   2.3418412493e+01    0.3985724    0.1788569 -30.13  0.002064882    2.453    0.592
        25  -9.3501    222.2777      4.9824   3.2152056307e+01   2.9558258514e+01    0.2183328    0.1976643  73.96  0.001558468    1.292    0.226
        26 -10.0008     71.2663      5.7792   5.6566405451e+01   6.4046460268e+01    0.4958075     0.357265  51.20  0.002207229    1.364    0.267
        27  -9.7632    212.7536      5.2793   3.2966141399e+01   3.1622314294e+01    0.2704699    0.1288023  68.94  0.001398053    1.904    0.475
        28  -7.2397     26.6240      2.6886   7.3250508211e+01   7.1661331310e+01    0.1244409   0.07119443   5.08 0.0007029883    1.788    0.441
        29  -8.0277     17.2014      1.8637   7.7854229711e+01   7.2894451817e+01     0.159841    0.1268367  -9.82 0.0008526006    1.188    0.158
        30 -10.0631    203.8804      3.9314   3.3401362505e+01   3.3753158204e+01    0.3087036     0.235342 -66.45  0.001984124    1.160    0.138
        31  -9.5168     49.0280     62.4408   8.8223921408e+01   5.9201745717e+01    0.3674634    0.2564302 -20.49  0.001995779    1.439    0.305
        32  -8.8882     83.3533     69.0957   7.7662941048e+01   5.2613711697e+01    0.2740314    0.2148163  42.87  0.001195212    1.364    0.267
        33  -8.1890     15.3304     58.9264   1.0143081405e+02   6.3222058773e+01     0.312914     0.168844   1.30  0.001643781    2.198    0.545
        34 -10.3103    197.2715     56.6388   4.7157350047e+01   2.8823701386e+01    0.4456412    0.2880301  57.80  0.001176744    1.564    0.361
        35  -8.9927     66.4762     54.7301   7.8716614267e+01   5.8178408951e+01    0.4047379    0.1274482 -44.06  0.001444099    3.109    0.678
        36  -8.2859     35.1448     52.5129   9.0750922187e+01   6.2785178147e+01    0.2328055    0.1620166 -42.11  0.001168303    1.255    0.203
        37  -8.1696     23.7778     52.4910   9.5791714247e+01   6.3885766328e+01    0.1910797    0.1626493 -59.60  0.001248103    1.371    0.271
        38  -8.2590      3.6653    247.6766   1.2598023021e+02   2.1344589704e+01   0.09129937   0.07733198 -59.59 0.0007050758    1.710    0.415
        39 -10.4415     90.5014     28.0900   6.0162051381e+01   5.7798513554e+01    0.4497928    0.3389051  19.35   0.00254946    1.310    0.237
        40  -7.6689     45.5010     49.9680   8.5392281109e+01   6.2061529485e+01    0.1938153   0.09137077 -27.99 0.0008091821    2.492    0.599
        41 -10.3246     85.7707     31.5927   6.3010930789e+01   5.8314542417e+01    0.3193233    0.2293443  50.71  0.001233192    1.425    0.298
        42 -10.2318      3.2423     40.7315   1.0182752181e+02   6.7657565693e+01    0.4357425    0.3892307 -41.83    0.0024755    1.241    0.194
        43  -8.9288      5.6456     35.6067   9.8992977508e+01   6.8498909354e+01    0.2582425     0.242974 -46.74  0.001961139    1.374    0.272
        44  -9.0446    111.5928     42.2256   5.9589295238e+01   5.1380948247e+01    0.1923585     0.134046 -14.43 0.0009480161    1.636    0.389
        45  -9.8728    174.5564    242.1150   9.2172902956e+01  -6.7267042317e-01    0.3602846    0.1586421  23.99  0.001486387    2.817    0.645
        46  -7.8635    159.9896    239.0000   9.4643745434e+01   2.0668434898e+00    0.2155696    0.0632774  37.02 0.0007990004    2.919    0.657
        47  -8.6254    200.3168    228.3362   8.4897815326e+01  -2.4428696066e+00     0.133678   0.08774131   0.65   0.00070482    1.698    0.411
        48  -9.8685    210.2625    224.3369   8.2298354432e+01  -3.3216440972e+00    0.2380679    0.1422707 -24.88  0.001277704    1.715    0.417
        49  -8.6152    238.9818    201.7812   7.2916713638e+01  -4.1216339852e+00    0.1737542    0.1373983 -45.89  0.001052536    1.642    0.391
        50  -8.7320     97.6551     36.3749   6.1284642716e+01   5.5227424815e+01    0.1966513    0.1674517 -77.43  0.001092083    1.625    0.385
        51  -8.8327     67.8188     35.7332   7.0864307445e+01   6.1091440649e+01    0.4226253    0.2023067  52.02  0.001783779    2.809    0.644
        52  -8.8615     11.9682     34.3134   9.5324842238e+01   6.8310148736e+01    0.3855514    0.1586791 -49.72   0.00196886    2.001    0.500
        53  -8.1270     28.4015     35.2290   8.7534450937e+01   6.6681098827e+01    0.2209121    0.1345572   7.38  0.001244157    1.723    0.420
        54 -11.0414     10.8503    142.1834   1.1728933480e+02   4.3954005089e+01    0.4979573    0.2618557 -81.66  0.002559328    1.659    0.397
        55 -12.6701    241.9234    131.9671   5.8193235106e+01   6.8673290958e+00     1.320054     1.249357  23.21  0.005535706    1.202    0.168
        56  -8.5273     10.3241    128.0139   1.1584447583e+02   4.7451544570e+01     0.228018   0.03121763 -54.81 0.0007051147    4.349    0.770
        57  -8.8146     58.7068    125.0006   1.0068494444e+02   4.3538749255e+01    0.2134842    0.1730348 -61.02 0.0008377752    1.112    0.100
        58  -9.0210     41.7041    142.0193   1.0867652176e+02   4.1241820036e+01    0.3008798     0.177391  41.59  0.001496861    1.815    0.449
        59 -10.3997     17.0381    126.7136   1.1371334082e+02   4.7291424423e+01     0.480618    0.1946321  53.36  0.001921379    3.383    0.704
        60  -9.0238    132.6642     26.6849   4.9344162347e+01   4.8440502437e+01    0.2959606     0.196337  34.15 0.0009907947    1.644    0.392
        61  -8.9785    102.8974     26.0869   5.5922570660e+01   5.5387709567e+01    0.2854136    0.1703167  51.96  0.001432095    1.519    0.342
        62  -8.5759     99.4745    114.5119   8.5730144613e+01   3.9775040615e+01    0.1544691    0.1452994 -31.46 0.0008095682    1.047    0.045
        63  -8.1681    108.3385     39.3184   5.9406060156e+01   5.2509527085e+01    0.1488083     0.100206  22.86 0.0007049261    1.707    0.414
        64  -8.3945     21.1021     23.1913   8.6186201401e+01   6.9432056823e+01    0.2487912    0.2171135  21.43  0.001786818    1.466    0.318
        65  -8.1289     11.0193     23.5279   9.1675958484e+01   7.0278131481e+01    0.1959811    0.1486834  84.30  0.001040795    3.525    0.716
        66  -8.2397     14.3442    113.4712   1.1270605032e+02   5.0728374680e+01    0.2385516    0.1018609 -69.91  0.001083897    1.936    0.483
        67  -8.5006     85.5871     22.4604   5.9356288350e+01   5.9479886324e+01    0.2367169    0.1923677  44.69  0.001429373    1.181    0.153
        68  -9.7863     18.7949    106.5390   1.1019091001e+02   5.2097916939e+01    0.7556697    0.4114289  73.43  0.003340139    2.792    0.642
        69 -10.1882    224.9831     28.9245   3.7187831646e+01   2.6261070756e+01    0.4694335     0.280315  64.96  0.002262195    1.685    0.407
        70  -9.1664     69.9833    105.2847   9.2710644245e+01   4.6841690927e+01    0.2029502    0.1970991 -19.30 0.0008173392    1.074    0.069
        71  -9.5752     58.4201     16.5595   6.6070558125e+01   6.5264713756e+01     0.577978    0.1629601  35.13  0.001941541    4.332    0.769
        72  -9.3156     46.6660    101.7330   9.9775000238e+01   5.0703460077e+01    0.5494746    0.2952875 -78.05  0.002036924    2.714    0.631
        73  -9.1895     64.6361     16.0584   6.3517860930e+01   6.4234240517e+01    0.3494186    0.2016726  59.40  0.001560773    2.488    0.598
        74  -9.3566     29.8797    102.1877   1.0566580633e+02   5.2264205178e+01    0.4644769    0.2195439 -29.21  0.001893729    2.935    0.659
        75  -9.4393     67.0047     29.4292   6.8535111972e+01   6.2133709900e+01    0.2691853    0.1814002 -22.17  0.001503123    1.451    0.311
        76  -9.7585      2.5646     87.8491   1.1271030113e+02   5.7523699790e+01    0.7091489    0.2325937 -72.25  0.002897687    2.776    0.640
        77 -11.1401      4.5969     76.2935   1.0988228594e+02   6.0066620710e+01    0.7110735    0.5085156  65.41   0.00427617    1.899    0.473
        78 -11.6503     14.6889     73.5184   1.0531696607e+02   6.0100903249e+01     0.869037    0.7556911  33.14  0.005865216    1.426    0.299
        79  -8.9475     12.9473     89.9727   1.0933749504e+02   5.6444881757e+01    0.1963204    0.1434024  72.91  0.001138295    1.731    0.422
        80  -7.9008     83.4804     89.5241   8.3985508400e+01   4.8337986542e+01     0.147995    0.1376435 -26.68  7.17542e-05    1.001    0.001
        81 -12.2712     42.9993     81.9726   9.6329096111e+01   5.5725133802e+01      1.18233    0.9471797 -12.93  0.006912272    1.301    0.231
        82  -8.1003     71.5674     80.7456   8.5466487388e+01   5.2199472318e+01    0.1983487    0.1340458 -56.49 0.0009477412    1.595    0.373
        83  -8.8521    227.8243     79.2864   4.8403031652e+01   1.8478907337e+01    0.3736074     0.255202   0.84  0.001671552    2.657    0.624
        84  -8.1506    138.4299     79.8222   6.5059443748e+01   3.9023251740e+01    0.2125641    0.1465675 -23.40 0.0005279898    1.686    0.407
        85 -10.1346     74.8821     68.9832   8.0572813204e+01   5.4099812602e+01     0.511166    0.4314942 -25.11  0.002877148    1.098    0.090
        86 -10.0583     25.0597     65.8235   9.9146017514e+01   6.1012692119e+01    0.5247028    0.2897956 -46.00  0.001931835    1.465    0.318
