#   1 NUMBER                 Running object number                                     
#   2 MAG_AUTO               Kron-like elliptical aperture magnitude                    [mag]
#   3 X_IMAGE                Object position along x                                    [pixel]
#   4 Y_IMAGE                Object position along y                                    [pixel]
#   5 X_WORLD                Barycenter position along world x axis                     [deg]
#   6 Y_WORLD                Barycenter position along world y axis                     [deg]
#   7 A_WORLD                Profile RMS along major axis (world units)                 [deg]
#   8 B_WORLD                Profile RMS along minor axis (world units)                 [deg]
#   9 THETA_WORLD            Position angle (CCW/world-x)                               [deg]
#  10 FWHM_WORLD             FWHM assuming a gaussian core                              [deg]
#  11 ELONGATION             A_IMAGE/B_IMAGE                                           
#  12 ELLIPTICITY            1 - B_IMAGE/A_IMAGE                                       
         1 -15.4191    185.7689     37.9883   2.8846691186e+01   3.4547111840e+01    0.8697225    0.7348734 -89.12  0.003492825    1.067    0.063
         2 -13.1903    189.5095     14.7270   2.3406685379e+01   3.6380119124e+01    0.2280857    0.1806826 -80.52 0.0008752747    1.013    0.013
         3 -11.9764    227.3756      9.5850   1.9695003851e+01   2.9661182163e+01    0.2090481    0.1461463 -67.65 0.0007171364    1.074    0.069
         4 -11.7979     89.1401     10.9178   3.6766331178e+01   5.9109881476e+01     0.188869    0.1564917  78.45 0.0005542091    1.259    0.205
         5 -12.6568    216.2520      1.9518   1.8965420596e+01   3.2440266404e+01    0.2494938    0.1714761  75.45  0.001439734    1.437    0.304
         6 -10.4034    221.1624    201.1450   5.6585862316e+01   1.8887188043e+00    0.1530867    0.1290305 -32.31 0.0003414536    1.274    0.215
         7 -15.4335    175.6668    218.9750   6.8504120339e+01   4.4221360256e+00     2.905096     1.340052  34.24   0.01341854    2.186    0.543
         8 -15.1976    184.1302    246.7110   7.1130837576e+01  -1.3439196406e+00     2.626205      1.10916  19.20   0.01224955    2.328    0.570
         9 -14.6624    183.2522    233.1862   6.9219046102e+01   9.9077786682e-01    0.9817516    0.4728637 -33.15   0.00453977    1.971    0.493
        10 -19.7565     73.7062    195.6084   9.0477329940e+01   2.3600613930e+01     9.149561     7.182766 -42.48   0.04182798    1.333    0.250
        11 -13.5496    192.6631    194.8093   6.0790271158e+01   6.5957618047e+00    0.9562881    0.5046989 -62.52  0.003195355    5.159    0.806
        12 -12.1775    210.8702    198.6781   5.8000930311e+01   3.5472439268e+00      0.24516    0.1955741 -10.98 0.0005255936    1.073    0.068
        13 -18.9697     57.5918     79.8829   7.2434579129e+01   5.4844081559e+01     18.00538    0.9151263 -51.46   0.02368325   21.151    0.953
        14 -12.2091    180.7693    194.2077   6.3111442174e+01   8.3519906397e+00    0.3365519    0.2323976 -43.84  0.001251945    1.436    0.304
        15 -10.9350    136.0606    227.1834   7.8789612203e+01   8.0755901055e+00    0.2002405    0.1585377  -6.75 0.0003909219    1.187    0.158
        16 -12.1311    150.2267    191.0924   6.9384551089e+01   1.3470473570e+01    0.2254564    0.1813661 -15.01 0.0005522492    1.193    0.162
        17 -11.0199    127.4926    223.5783   8.0313926508e+01   9.9508677024e+00    0.2097784    0.1202365 -38.30 0.0006766258    1.830    0.453
        18 -11.9007    152.9634    209.3821   7.1953798312e+01   9.3112601973e+00    0.3351898     0.183121 -47.56  0.001434814    1.878    0.468
        19 -13.3951    229.9851    165.9994   4.8869912536e+01   6.6575104606e+00    0.3138626    0.1840477 -44.51   0.00140615    1.504    0.335
        20 -14.4536    241.3540    161.2094   4.6286700267e+01   5.9791961738e+00    0.5411714     0.368793 -18.87  0.003372994    1.501    0.334
        21 -10.6542     23.0000    157.0747   1.0102808240e+02   3.9142502257e+01    0.2321904   0.07659724 -71.72 0.0004083338    2.864    0.651
        22 -11.1829    151.7753    221.3598   7.4200862761e+01   7.1162295788e+00    0.2569504    0.1744369 -30.53 0.0007411132    1.437    0.304
        23 -11.8485    152.9011    216.9370   7.3225237287e+01   7.8248580866e+00    0.4112112    0.1877493 -50.37 0.0009347512    2.367    0.577
        24  -9.2010     28.3818    158.8969   9.9493529195e+01   3.8198085037e+01    0.4350134    0.1430962 -41.36  0.001338375    3.871    0.742
        25 -11.6876     27.6600    145.8310   9.8081859668e+01   4.1760294218e+01    0.3091755    0.2399753  27.80   0.00114027    1.339    0.253
        26 -14.2604    177.1939    231.8271   7.0267208040e+01   1.9488516915e+00     0.807242    0.3794528 -34.82  0.002390335    2.044    0.511
        27 -11.4015     11.7075    143.7071   1.0328758246e+02   4.3541231120e+01    0.2516894    0.1414934 -29.54  0.001128169    2.011    0.503
        28 -12.3945    154.2144    139.6709   5.8035047605e+01   2.3781568696e+01    0.2807137     0.248896 -60.58 0.0005108036    1.237    0.192
        29 -11.6771    159.3125    130.3363   5.4793413022e+01   2.4757968697e+01    0.2499975    0.2151489  11.33 0.0006903437    1.278    0.218
        30 -12.2819    160.3265    127.6606   5.3964906597e+01   2.5106987500e+01    0.3453389    0.2597711 -65.01  0.001704156    1.597    0.374
        31  -9.8466    122.8117    218.9779   8.0776816473e+01   1.1544154456e+01    0.2504456    0.2055016 -20.11  0.001398342    1.209    0.173
        32 -11.0277    122.4014    215.4946   8.0349686734e+01   1.2338826689e+01    0.2174799    0.1801007 -50.28 9.501345e-05    1.336    0.252
        33 -10.8269     17.4712    121.3844   9.8356132948e+01   4.9077392805e+01    0.1423451    0.1244781 -39.63 0.0002615979    1.066    0.062
        34 -11.6200    167.5343    112.4229   4.8961512396e+01   2.6685674050e+01    0.2929064    0.2344463 -84.80  0.001099241    1.567    0.362
        35 -10.6245     21.3246    107.7404   9.4604964185e+01   5.2343880538e+01    0.1896217    0.1780497 -18.23  0.000291977    1.075    0.070
        36 -12.7939     25.0247    104.5320   9.2469876455e+01   5.2863684124e+01    0.5299438    0.2693124  -1.23  0.002159758    2.386    0.581
        37 -11.1006    159.0483    107.0459   4.9433509441e+01   2.9402745767e+01    0.2082173    0.1997935 -54.57 0.0002928257    1.013    0.013
        38 -12.0062     32.7519     98.7625   8.8002342296e+01   5.3600911198e+01    0.3520315    0.3256816   9.32  0.001268093    1.121    0.108
        39 -12.2041    133.8260    208.7926   7.6442969364e+01   1.2150333594e+01    0.3517951    0.2378188 -47.87 0.0009092446    1.545    0.353
        40 -11.9825    113.2579     95.2299   5.7584807693e+01   4.1263097050e+01    0.2637395    0.2224808 -44.13  0.001170316    1.222    0.182
        41 -11.3931     28.3311     92.9583   8.8640119090e+01   5.5456179229e+01    0.2060368     0.171397 -40.99 0.0007868754    1.094    0.086
        42 -12.7322    133.4070    201.6667   7.5359356041e+01   1.3733577764e+01    0.4445082    0.3621446 -64.64  0.001219535    1.535    0.349
        43 -11.6474     33.5463     90.6782   8.5799103971e+01   5.5492978858e+01    0.2992868    0.1676468   1.88  0.001206731    2.079    0.519
        44 -13.1035     10.5134     83.5166   9.4781021895e+01   5.9129248527e+01    0.4228559    0.2694759 -45.96  0.002198297    1.341    0.254
        45 -12.5896      5.3241     89.0963   9.8239547416e+01   5.8062886738e+01    0.5693362    0.3616583  12.02  0.002055062    1.650    0.394
        46 -12.0727      9.8663     87.3764   9.5843077254e+01   5.8233245147e+01     0.364969    0.2099246 -13.77  0.001314113    1.806    0.446
        47 -11.7335    158.9361     87.9210   4.4805566993e+01   3.2905631084e+01    0.2245536    0.1652761 -79.39 0.0008353332    1.701    0.412
        48 -12.3285    148.8280     86.2550   4.6430378332e+01   3.5357174557e+01    0.3332562    0.2300369 -26.18  0.001612303    1.748    0.428
        49 -10.7864    129.6382     90.0529   5.1814349881e+01   3.8806415131e+01    0.1962849    0.1833863 -43.76 0.0004460637    1.094    0.086
        50 -12.1235    133.2303    196.6588   7.4544301748e+01   1.4847473329e+01    0.2676081    0.2510283  -1.86 0.0004815902    1.080    0.074
        51 -10.6759    125.5292     81.4158   5.0468812624e+01   4.1288709755e+01     0.245189    0.1410751 -28.23 0.0008297677    2.216    0.549
        52 -12.2821    162.8426    207.3450   6.9345443319e+01   8.3317720203e+00    0.3639047    0.1992112 -33.54  0.001232307    1.811    0.448
        53 -14.5243    156.5572     74.3252   4.1858068758e+01   3.5693819489e+01    0.8285435    0.6859133 -49.41  0.002263925    1.197    0.164
        54 -15.3660    168.3866     61.7325   3.6707700074e+01   3.5062896307e+01     1.045808    0.9271009 -31.46  0.003931758    1.288    0.223
        55 -14.1160    174.7511     54.0158   3.3915134795e+01   3.4791492318e+01    0.4767733    0.4415345 -88.37  0.000752994    1.091    0.083
        56 -11.0096     84.9888     80.7789   6.2267295568e+01   4.9867966014e+01    0.2091077    0.1803113  34.07 0.0003359475    1.099    0.090
        57 -14.2989      5.8666     74.5331   9.5177309661e+01   6.1529749810e+01     1.167012    0.3382915 -56.20  0.003499429    2.562    0.610
        58 -14.7925     14.4864     59.7240   8.7041688268e+01   6.4286725077e+01     1.074341     0.474997   7.40  0.004640598    2.420    0.587
        59 -12.0120    142.9435     76.4329   4.5105907336e+01   3.8328468651e+01    0.2848639    0.2025491  89.11  0.001364813    1.855    0.461
        60 -11.0030    105.0536     73.6415   5.3715228147e+01   4.7122371148e+01    0.2142351    0.1796355  41.70  0.001124756    1.120    0.107
        61 -12.7540     28.5136     69.7732   8.2671316860e+01   6.0822933776e+01    0.2586805    0.1805019  15.82  0.000773325    1.375    0.273
        62 -11.7404     39.9201     54.5044   7.2133549080e+01   6.2570272488e+01     0.205953    0.1228659  26.95 0.0004968228    1.550    0.355
        63 -12.3839    203.8676     49.4971   2.9348443872e+01   2.9455142217e+01    0.2376611    0.1861243 -77.44 0.0006215246    1.136    0.119
        64 -12.9215    162.1246    200.7563   6.8356988547e+01   9.7323505496e+00    0.4258585    0.2563445 -46.13  0.001020255    1.672    0.402
        65 -14.1751    201.3556     23.0572   2.4131384860e+01   3.3120866804e+01    0.3381879    0.2885773  89.96  0.002539436    1.166    0.142
        66 -11.5903    162.6459    195.8151   6.7356270631e+01   1.0644608494e+01    0.2193597    0.1978805 -10.80 0.0004264181    1.077    0.071
        67 -10.2854    101.3104     18.2931   3.6606847713e+01   5.5663847015e+01    0.1310044   0.08427067  39.23  0.000259893    1.588    0.370
        68 -11.7350    162.2610    241.6582   7.4989041174e+01   2.0463973411e+00    0.2489135    0.1780608 -27.44  0.001000334    1.328    0.247
        69 -11.8025    115.6060    234.0568   8.4708382039e+01   9.3910028582e+00    0.2816219    0.1772985 -38.14  0.001429607    1.707    0.414
        70 -11.7463     11.2313    206.0865   1.0869067801e+02   2.7533942074e+01    0.5606381    0.2693866  15.18  0.002578124    2.316    0.568
