#   1 NUMBER                 Running object number                                     
#   2 MAG_AUTO               Kron-like elliptical aperture magnitude                    [mag]
#   3 X_IMAGE                Object position along x                                    [pixel]
#   4 Y_IMAGE                Object position along y                                    [pixel]
#   5 X_WORLD                Barycenter position along world x axis                     [deg]
#   6 Y_WORLD                Barycenter position along world y axis                     [deg]
#   7 A_WORLD                Profile RMS along major axis (world units)                 [deg]
#   8 B_WORLD                Profile RMS along minor axis (world units)                 [deg]
#   9 THETA_WORLD            Position angle (CCW/world-x)                               [deg]
#  10 FWHM_WORLD             FWHM assuming a gaussian core                              [deg]
#  11 ELONGATION             A_IMAGE/B_IMAGE                                           
#  12 ELLIPTICITY            1 - B_IMAGE/A_IMAGE                                       
         1 -13.6961    181.3284    224.9448   2.9104170856e+02   4.1218638751e+00    0.1466567   0.05711604 -57.36   0.01215049    2.358    0.576
         2 -14.6050      6.8664     24.9016   2.9184078086e+02   7.4402858150e+00   0.08229189    0.0489748 -54.82   0.00753394    1.604    0.377
         3 -12.3622     83.4109     22.5028   2.9095178516e+02   7.0271509767e+00   0.02094518   0.01811237 -88.93  0.001587856    1.233    0.189
         4 -12.5135     73.7304      2.5951   2.9094348908e+02   7.3127670347e+00   0.03089683   0.01961282 -87.60  0.002964706    2.054    0.513
         5 -12.5207    104.4304      5.0636   2.9060756868e+02   7.1069906649e+00    0.0292402   0.02488447 -86.65  0.003469853    1.255    0.203
         6 -12.2236     75.6587     13.4031   2.9098600437e+02   7.1769203897e+00   0.02058482   0.01834654  -5.07  0.001217639    1.202    0.168
         7 -13.5663     85.6587     11.8956   2.9086277200e+02   7.1365989978e+00   0.05621185   0.03100659  15.10  0.004350096    2.197    0.545
         8 -13.1630     84.7298      5.0591   2.9083254574e+02   7.2208495979e+00   0.03922686   0.02476598  12.29  0.003538243    1.875    0.467
         9 -12.6243     96.3174      3.5408   2.9069111946e+02   7.1714420320e+00   0.02716656   0.02347114   2.09  0.002098545    1.251    0.201
        10 -11.9645     90.3266      1.7925   2.9074909807e+02   7.2262195937e+00   0.01804962   0.01169177  40.60   0.00107804    1.567    0.362
        11 -12.4707    123.8310     10.3050   2.9041741015e+02   6.9343288787e+00   0.01707291   0.01459143 -32.63 0.0005108266    1.222    0.182
        12 -11.1069    137.5896      5.7211   2.9023297935e+02   6.9075783883e+00    0.0169019  0.008441444  32.02  0.001555408    1.966    0.491
        13 -12.1541    112.0388      4.4838   2.9051722861e+02   7.0696939211e+00   0.01830333   0.01336251  16.14  0.001998713    1.487    0.327
        14 -11.1012     33.4880      3.9898   2.9141175414e+02   7.5285904823e+00   0.01293701    0.0101028  26.27 0.0007559192    1.308    0.235
        15 -12.5273    139.2237    222.4306   2.9150579978e+02   4.3941345411e+00   0.02798655   0.01970329 -38.99  0.002631981    1.507    0.336
        16 -11.4317    134.7561    187.0786   2.9134664358e+02   4.8287366448e+00   0.02799724   0.01462976  89.22  0.002067372    3.577    0.720
        17 -12.2902    145.6829    218.5336   2.9140915040e+02   4.4019060921e+00   0.03591712   0.01843841 -75.08  0.003092024    2.406    0.584
        18 -12.3839    161.7485    189.3768   2.9105301175e+02   4.6462207463e+00   0.01189032  0.008918239  12.02  0.001283111    1.476    0.322
        19 -10.1512    131.2904    235.6371   2.9167446493e+02   4.2871976904e+00  0.006919705  0.004947652  68.76 0.0007026496    1.699    0.411
        20 -10.4780     42.0517    176.0516   2.9233745732e+02   5.4906515019e+00   0.01080441  0.007692085  63.68   0.00112666    1.664    0.399
        21 -11.1769     83.6624    172.4297   2.9184166575e+02   5.2929439258e+00   0.01734592  0.009331417 -64.53   0.00162999    1.855    0.461
        22 -13.0226     72.4298    171.0197   2.9196131604e+02   5.3739815496e+00   0.02652173   0.02570279  44.79  0.003380526    1.051    0.048
        23 -12.9502     78.3646    161.6430   2.9183798500e+02   5.4482423776e+00   0.03602561    0.0315679  63.37  0.004348652    1.213    0.176
        24 -12.3102     48.3465    168.0837   2.9221843200e+02   5.5466129682e+00    0.0176209   0.01041569  42.48  0.001740188    1.742    0.426
        25  -9.6458    103.7208    151.3170   2.9148759357e+02   5.4214413042e+00  0.006664525  0.004969161  67.62 0.0001844869    1.575    0.365
        26 -11.7502     59.4759    146.3552   2.9196253984e+02   5.7338832298e+00   0.01953691   0.01641543  42.70  0.002313584    1.215    0.177
        27 -11.9855     77.0020    142.2893   2.9173852214e+02   5.6799322120e+00   0.03006933   0.01747563  63.49  0.002675739    2.415    0.586
        28 -11.5223     51.2910    143.9173   2.9204140819e+02   5.8092055738e+00   0.01493225  0.008346925  43.64 0.0009804419    1.869    0.465
        29 -11.0775     40.8214    144.0250   2.9216146325e+02   5.8682124852e+00    0.0105251  0.009370983  23.51 0.0003171859    1.151    0.131
        30 -10.3015      5.9543    143.0215   2.9255327402e+02   6.0802348744e+00  0.007823111  0.007797077  17.74 0.0004836442    1.024    0.023
        31 -12.3748    100.7072    140.4381   2.9145724308e+02   5.5646289005e+00   0.02218409  0.009258651 -45.14  0.001793357    2.569    0.611
        32 -11.5651    109.6323    140.8271   2.9135781854e+02   5.5086202909e+00  0.009487255  0.006239451 -77.15 0.0007424187    1.712    0.416
        33 -11.1997    115.0000    138.9812   2.9128565414e+02   5.4989733639e+00   0.01110577  0.003674849 -62.85 0.0008051653    2.961    0.662
        34 -10.3661     68.9691    136.2278   2.9179409905e+02   5.7963240909e+00  0.008952409  0.008336926  21.15 0.0003516804    1.101    0.091
        35 -12.7631     10.4100    130.2343   2.9242657869e+02   6.2025535464e+00    0.0230073   0.01560223  30.53  0.001603226    1.483    0.326
        36 -12.5977     48.4388    125.3619   2.9196371181e+02   6.0402226775e+00    0.0273205   0.02216502  34.59  0.003189602    1.245    0.197
        37 -11.7450     55.1997    124.8599   2.9188359367e+02   6.0071016129e+00   0.01586265   0.01087478 -17.61  0.001089324    1.860    0.462
        38 -12.0325     96.3343    125.1339   2.9141604592e+02   5.7668139668e+00   0.01411969  0.004904616 -54.84  0.001097335    2.598    0.615
        39 -13.7539     79.6368    220.6190   2.9217342289e+02   4.7586948675e+00    0.1156164   0.05012013  22.16  0.009530308    2.598    0.615
        40 -11.4167     57.0221    119.9607   2.9183367828e+02   6.0532582258e+00  0.009458853  0.009248163 -65.13            0    1.008    0.008
        41 -10.8710     80.2280    109.5956   2.9150727388e+02   6.0393640391e+00  0.008929821  0.006413061  10.15 0.0009408829    1.586    0.370
        42 -11.9198    120.3954    104.1718   2.9101685574e+02   5.8701968458e+00   0.01492266  0.006507484 -66.85  0.001226537    2.440    0.590
        43 -10.5682     79.4479    105.4976   2.9149178307e+02   6.0912363871e+00  0.006486348  0.006335489 -69.00 9.962585e-05    1.013    0.013
        44 -13.4840     17.2835    100.9605   2.9217429233e+02   6.5015839955e+00   0.02810899   0.02220806  34.32  0.001982968    1.277    0.217
        45 -12.0199     58.7889     98.4789   2.9168574892e+02   6.2914459775e+00   0.01792118   0.01640302 -57.86  0.001649437    1.067    0.063
        46 -12.8702     55.0775     94.8860   2.9170672881e+02   6.3543584594e+00   0.02541994   0.01861339 -28.08  0.002747858    1.560    0.359
        47 -10.9223    188.4246     94.3978   2.9018331334e+02   5.5894727385e+00   0.01359895  0.009477681  48.11   0.00109447    1.524    0.344
        48 -10.5458     82.1988     95.4389   2.9140051188e+02   6.1916411050e+00  0.009532158  0.005834677  40.20  0.000514408    1.654    0.396
        49 -10.6498     77.6463     88.7954   2.9141289565e+02   6.2946833220e+00  0.009290782  0.006191436 -76.08  0.000620339    1.661    0.398
        50 -10.5254    152.1758     88.4970   2.9056109005e+02   5.8675457134e+00  0.009271392  0.006399008  30.67 0.0005317661    1.457    0.314
        51 -10.7015     89.0549     86.2120   2.9126732278e+02   6.2587261801e+00   0.01233652   0.00827799  46.30 0.0007042845    1.570    0.363
        52 -10.5830    129.0090     83.1026   2.9079302854e+02   6.0638715110e+00  0.009511294  0.009422318 -36.82 0.0003442856    1.018    0.017
        53 -10.7354     67.7142     81.4250   2.9148235698e+02   6.4371288501e+00   0.01254758  0.005859301  33.74  0.001112083    2.083    0.520
        54 -10.5988    144.9224     73.9257   2.9055682412e+02   6.0778354144e+00  0.009513759  0.009392619  89.90 0.0003873019    1.021    0.021
        55 -12.7037     96.6097     72.0400   2.9109665092e+02   6.3788747279e+00   0.02178639   0.01611021  10.65 0.0007593919    1.517    0.341
        56 -11.5556     83.3517     68.3997   2.9122625907e+02   6.4974548459e+00   0.01132616    0.0106185  74.14 0.0003327284    1.106    0.096
        57 -10.6897    214.4608     62.9185   2.8969878900e+02   5.8019397870e+00    0.0100669  0.006379338 -63.93 0.0004495499    1.561    0.359
        58 -12.7114    125.6473     57.5688   2.9067901637e+02   6.3782484641e+00   0.01398824   0.01271108   8.50 0.0004839117    1.153    0.132
        59 -10.2384    174.5152     56.8933   2.9011778460e+02   6.1031471965e+00  0.009457486  0.006350252 -62.22  0.000414392    1.457    0.313
        60 -11.9421     68.4901     55.3762   2.9131829237e+02   6.7336282789e+00    0.0183002    0.0156153  58.81  0.001470258    1.248    0.198
        61 -11.4796    210.7133     54.4909   2.8969107203e+02   5.9209487754e+00    0.0111561   0.01007329 -34.10 0.0002053485    1.134    0.118
        62 -10.8947    133.0850     53.8894   2.9057220824e+02   6.3777189838e+00   0.01128612  0.009266782  27.37 0.0009370093    1.240    0.194
        63 -13.0938      3.3087     47.2181   2.9201432921e+02   7.2029857478e+00   0.03234619   0.02524199  85.20 0.0009938425    1.473    0.321
        64 -12.8725    162.4615    223.4489   2.9124743233e+02   4.2481714653e+00   0.06219113   0.04610617  66.27  0.006744546    1.581    0.367
        65 -11.3226    145.5650     50.8124   2.9041149532e+02   6.3410280268e+00     0.012297   0.01012416  49.34 0.0006210897    1.265    0.210
        66 -12.7632     42.6064     47.5612   2.9156734067e+02   6.9730375234e+00   0.01850143   0.01563397  31.26 0.0005710602    1.199    0.166
        67 -12.5338     41.5335     42.9637   2.9155220084e+02   7.0323174076e+00    0.0343563   0.02030978  -5.15  0.003004835    2.594    0.615
        68 -10.4830    176.5086     45.5026   2.9002699296e+02   6.2230747539e+00     0.006515  0.006337563 -47.90 0.0001708687    1.017    0.017
        69 -11.4063    157.0143     43.8703   2.9023946414e+02   6.3548746032e+00   0.01157184  0.009015383 -58.12 0.0005359253    1.246    0.198
        70 -10.4496    186.4885     42.4273   2.8989487958e+02   6.2007022950e+00  0.006476752  0.006305377 -36.30 0.0001144406    1.031    0.030
        71 -10.3822     95.5089     42.5546   2.9093333526e+02   6.7257998580e+00  0.006445176  0.006366424 -71.28 7.059918e-05    1.011    0.011
        72 -10.3571    197.5016     41.0268   2.8976103116e+02   6.1529800270e+00   0.00993019  0.008395411  23.42 0.0003448449    1.216    0.178
        73 -12.3528     78.6875     30.5400   2.9105370501e+02   6.9616281059e+00   0.02037193   0.01433589  61.43  0.001721586    1.673    0.402
        74 -11.1429    176.3400     33.3464   2.8995623900e+02   6.3643392899e+00   0.01047238   0.01010867 -53.19 0.0001694414    1.017    0.017
        75  -9.9067    141.2309     33.9798   2.9036036663e+02   6.5604303530e+00  0.008253109  0.005378827 -63.42            0    1.512    0.338
        76 -11.4193     41.1757     32.9447   2.9149657244e+02   7.1500831159e+00   0.01394836  0.009535646  17.90 0.0008136544    1.589    0.371
        77 -13.5723     69.2049    184.9596   2.9208080169e+02   5.2313027515e+00   0.06713112   0.05319437  -3.11  0.007608629    1.447    0.309
        78  -9.9863    139.5465     20.5631   2.9029939404e+02   6.7250167554e+00  0.006431517   0.00633936 -66.85 0.0001580388    1.008    0.008
        79 -11.7089     63.6973     17.9063   2.9114953903e+02   7.1939394666e+00    0.0193714   0.01041754  35.56  0.001093596    1.834    0.455
        80 -14.5375     80.6006    200.0329   2.9204038168e+02   4.9912883522e+00    0.1131068   0.06708606  74.23  0.009870028    2.590    0.614
        81  -9.7741    132.3201    215.3006   2.9154204037e+02   4.5164362891e+00  0.006845333  0.004892206 -27.87 0.0007024375    1.624    0.384
        82 -13.6779     10.5493    209.6246   2.9289534469e+02   5.2832522480e+00   0.03647004   0.01499038  35.21   0.00309187    2.337    0.572
        83 -13.2084     30.1374    204.3646   2.9264101208e+02   5.2315817127e+00   0.01932298   0.01534851 -78.57  0.002204792    1.333    0.250
        84 -12.7925    171.9945    219.7069   2.9111674767e+02   4.2363562575e+00   0.05946965   0.02699425 -71.47  0.004838613    2.638    0.621
        85 -11.6225     53.0215    200.9713   2.9236015590e+02   5.1392320502e+00   0.01678957     0.013265 -86.27  0.001314942    1.398    0.285
        86 -11.5135     56.0050    196.7113   2.9230091144e+02   5.1713469318e+00   0.01026974  0.009033013 -25.10 0.0006416637    1.203    0.169
        87 -12.3922    144.7693    206.4296   2.9134764578e+02   4.5471451800e+00   0.03120088   0.02708952 -51.15  0.003765719    1.128    0.114
        88 -12.0753    143.0400    228.5000   2.9149840542e+02   4.3019197148e+00   0.01767029   0.01170132  41.37   0.00185296    1.539    0.350
        89 -14.7384     72.6838    204.5536   2.9215737954e+02   4.9845943361e+00   0.07325996   0.05042174  86.88  0.007466166    1.825    0.452
