#   1 NUMBER                 Running object number                                     
#   2 MAG_AUTO               Kron-like elliptical aperture magnitude                    [mag]
#   3 X_IMAGE                Object position along x                                    [pixel]
#   4 Y_IMAGE                Object position along y                                    [pixel]
#   5 X_WORLD                Barycenter position along world x axis                     [deg]
#   6 Y_WORLD                Barycenter position along world y axis                     [deg]
#   7 A_WORLD                Profile RMS along major axis (world units)                 [deg]
#   8 B_WORLD                Profile RMS along minor axis (world units)                 [deg]
#   9 THETA_WORLD            Position angle (CCW/world-x)                               [deg]
#  10 FWHM_WORLD             FWHM assuming a gaussian core                              [deg]
#  11 ELONGATION             A_IMAGE/B_IMAGE                                           
#  12 ELLIPTICITY            1 - B_IMAGE/A_IMAGE                                       
         1  -9.2384     45.9865     21.0126   4.4070060320e+01   6.5878528855e+01    0.4263309    0.1647503 -32.30  0.001993019    2.531    0.605
         2  -9.2178     27.2419     19.9760   5.1989530327e+01   6.8458546243e+01    0.4069848    0.2952904 -15.12  0.002758111    1.116    0.104
         3  -9.2191      8.7981     19.1903   6.0920430585e+01   7.0378703420e+01    0.3001317    0.1572833 -30.74  0.001040401    1.548    0.354
         4  -8.6217    128.1331     15.7938   1.8158424682e+01   5.0194983123e+01    0.3164293    0.1915399  27.59  0.001241761    1.982    0.495
         5  -9.2183     64.0570     13.6642   3.3933598091e+01   6.3818858297e+01      0.38016    0.1762082  34.75   0.00115325    1.976    0.494
         6  -8.0048    147.3444     13.5464   1.4171654265e+01   4.5885583527e+01    0.2735856    0.2027344  19.21  0.001559888    1.673    0.402
         7  -8.6314     96.1001     12.5744   2.3994806422e+01   5.7651730764e+01    0.3958346    0.1807105  34.47  0.001783255    2.304    0.566
         8  -9.4463     79.1951     12.4084   2.8539565383e+01   6.1121290305e+01    0.4018294    0.2095475  51.20  0.001721688    1.728    0.421
         9  -8.7082     74.3231     13.2987   3.0392714989e+01   6.1973090209e+01    0.2245506     0.171722  22.45 0.0008857177    1.128    0.113
        10  -8.6286     88.3168     12.5164   2.5998663935e+01   5.9281877076e+01     0.411504    0.1461669  40.39  0.001704212    2.609    0.617
        11  -8.4204    107.8747     11.0759   2.0675696397e+01   5.5231701139e+01    0.3237644    0.1751462  69.87  0.001315539    2.069    0.517
        12  -9.8253     31.8993     10.7167   4.5554767161e+01   6.9113623102e+01    0.2476024    0.1626579  15.12 0.0003278062    1.313    0.238
        13 -10.4225     13.3760      4.4753   5.1764441711e+01   7.2044355290e+01     0.407883    0.2400101 -23.63            0    1.417    0.294
        14  -9.9968     20.7156      8.4924   4.9906029394e+01   7.0745133651e+01    0.3780322    0.2095978  27.90 0.0002985364    1.712    0.416
        15  -8.5891    142.7867      9.2337   1.3594929537e+01   4.7355973543e+01    0.2345346    0.1497346  60.57 0.0003725853    1.324    0.245
        16  -9.1852      3.2304      6.1108   5.8180772979e+01   7.2757919154e+01    0.5105607     0.207379 -33.62  0.002887355    2.019    0.505
        17  -9.6360     76.7133      6.4452   2.6797096455e+01   6.2155990756e+01    0.2542652    0.1897812  31.63 0.0002060977    1.108    0.098
        18  -8.4447    132.6883      6.5441   1.4391159003e+01   4.9956182049e+01    0.2911357     0.158242 -59.63  0.001338557    2.658    0.624
        19 -10.3701     84.9664      5.0407   2.3919250009e+01   6.0628402549e+01    0.2426794    0.1972182  17.32 0.0003743042    1.162    0.139
        20  -8.9119     57.0557      3.9301   3.2034794719e+01   6.6005452545e+01    0.3849422    0.1857563  20.74  0.001859023    2.439    0.590
        21 -10.0871     48.9054      4.1266   3.5152450695e+01   6.7350300630e+01    0.3185593    0.1759372  24.91  0.000352135    1.659    0.397
        22  -8.4308     41.1460      5.2417   3.8825552924e+01   6.8443833116e+01    0.1975275    0.1308499  -6.18 0.0006365373    1.374    0.272
        23  -7.5521    179.6073      5.2126   7.6972175250e+00   3.9030273209e+01    0.1427472    0.1221882  -2.75 0.0001733517    1.527    0.345
        24  -7.5993     91.2958      5.3162   2.2402363423e+01   5.9297395200e+01    0.1310464     0.078076  30.99 0.0007013685    1.606    0.377
        25  -9.5583    109.1497      2.3188   1.7286208963e+01   5.5668506158e+01     0.543599      0.28763  74.33  0.002634979    2.166    0.538
        26  -8.2330    153.8104      2.9040   1.0173532509e+01   4.5292821102e+01    0.1842988    0.1478075  52.25   0.00029212    1.204    0.170
        27  -8.2424    125.6155      3.0531   1.4471171934e+01   5.1877513153e+01    0.1625663    0.1505831  27.87 0.0004530688    1.169    0.145
        28  -7.1871    134.2758      2.6915   1.2930239777e+01   4.9897602311e+01    0.1202685   0.09038842 -70.73 0.0001978647    1.552    0.356
        29  -8.2078     30.9661      1.9739   4.1697204919e+01   7.0240425062e+01    0.1434913    0.1339431  -3.56 0.0003531062    1.580    0.367
        30  -9.7868    242.1593     96.4839   2.1299132110e+01   1.3017353835e+01    0.2510099     0.188011 -75.49  0.001398724    1.574    0.365
        31  -9.7563    206.1547    248.9312   5.7856686785e+01  -5.9436279917e+00    0.3121052    0.2412298 -48.19  0.001995067    1.821    0.451
        32 -10.4317    211.3678    249.4000   5.6951647955e+01  -6.7425963750e+00    0.5517491    0.1398134  35.41  0.002115224    3.461    0.711
        33 -10.2728    196.3919    247.7864   5.9536960036e+01  -4.3751555853e+00    0.3804853     0.300985 -63.02  0.002318933    2.117    0.528
        34 -10.6873    185.9001    249.2789   6.1795195704e+01  -3.0468003265e+00    0.5275265    0.2547669  33.32  0.002692438    1.761    0.432
        35  -7.6703     51.5519     93.7844   6.6457471471e+01   5.1884330398e+01    0.1747511    0.1258258 -65.00 0.0004415256    1.494    0.331
        36  -8.6308     43.3647     91.7862   6.8845493475e+01   5.3269766963e+01    0.3268284    0.1698283 -41.74  0.001497399    1.763    0.433
        37  -9.2040      9.9770     95.5032   8.1332732514e+01   5.5239803063e+01    0.3195451    0.1836991 -15.20  0.001711554    2.162    0.537
        38  -8.5689     96.7320     89.7733   5.0383697004e+01   4.5774178821e+01    0.4259764    0.2633424   7.76  0.001624476    2.754    0.637
        39  -7.8894    109.7686     90.2028   4.6622706400e+01   4.3156028340e+01    0.2118051    0.1737441   2.37 0.0007987081    1.372    0.271
        40  -8.3364     22.1635     90.1589   7.6045621747e+01   5.5604907246e+01    0.2041841    0.1488817 -40.71  0.000755814    1.200    0.167
        41  -7.8489     33.6331     87.8550   7.1401669450e+01   5.5135282024e+01    0.2903766    0.1203876 -63.08  0.001204378    2.466    0.594
        42  -9.9846     37.7341     80.6729   6.8127939457e+01   5.6307354188e+01    0.6451608     0.341802  -9.46  0.002734274    2.936    0.659
        43  -8.1489     66.7785     84.3412   5.8622900208e+01   5.1914190052e+01    0.3553173    0.1321802  24.23  0.001110389    4.282    0.766
        44  -8.6501     20.9102     83.9002   7.5165289441e+01   5.7097027406e+01    0.2051369    0.1392952 -38.35 0.0006258561    1.295    0.228
        45  -7.4523    126.3639     83.3166   4.0016492886e+01   4.1002062859e+01    0.1590303    0.1165581  11.56 0.0005766029    1.769    0.435
        46  -8.7963    243.1901     82.6163   1.8172197892e+01   1.4997546026e+01    0.1716394    0.1194488  49.68 0.0009514357    1.681    0.405
        47  -9.9106      8.0576     77.0472   7.8515675920e+01   5.9460675450e+01    0.5075985    0.2106068 -32.20  0.002358577    2.553    0.608
        48  -8.8980     88.3723     78.1405   4.9524656888e+01   4.9646120381e+01    0.3813829    0.2598495  14.14  0.001122866    1.796    0.443
        49  -7.0968     64.2776     79.3079   5.8041291686e+01   5.3328108863e+01    0.1405036   0.09835509 -19.31 0.0001959908    1.554    0.357
        50  -7.6647    184.2151     77.8223   2.5843873213e+01   2.8592761041e+01    0.1881406    0.1703133   6.33 0.0007130289    1.290    0.225
        51  -8.9654     51.1805     76.5320   6.1983591463e+01   5.5663346968e+01    0.6851792     0.270596  19.00  0.002381012    4.002    0.750
        52  -7.4901    105.3522     76.3079   4.3725793321e+01   4.6748236298e+01    0.1537735    0.1119616   7.16 0.0007043134    1.715    0.417
        53  -9.1009     29.7596     68.0083   6.7827412384e+01   5.9749926224e+01    0.5306968     0.252015  -6.18   0.00208719    3.664    0.727
        54  -9.0914     23.5266     73.4462   7.1722219476e+01   5.9156129148e+01    0.4952483    0.0941475 -48.45  0.001742552    3.476    0.712
        55  -8.5619     23.3997     69.1832   7.0683226672e+01   6.0062439068e+01    0.3574204      0.22051 -72.34  0.001653222    2.131    0.531
        56  -8.0693     74.9771     74.0051   5.2691893890e+01   5.2752537190e+01    0.2165689    0.1581277  -5.21 0.0004275635    1.563    0.360
        57  -8.0985     51.2907     71.6556   6.0512684509e+01   5.6649061219e+01    0.1232731    0.1071516  89.59 0.0002729257    1.656    0.396
        58  -7.5209    128.1997     69.7983   3.5465690169e+01   4.3015888477e+01    0.3438024    0.1887718  -9.68   0.00106141    4.244    0.764
        59  -9.1482    250.0000     66.9875   1.4068898525e+01   1.5992114816e+01    0.3550154   0.06323573 -36.12  0.001056535    4.982    0.799
        60  -8.3153    106.5026     66.9937   4.0436423701e+01   4.8191193085e+01    0.2908097    0.1906217  29.74  0.001280181    1.639    0.390
        61  -8.9270     83.9346     63.5547   4.6279048091e+01   5.3169193690e+01    0.3714352    0.2621481   6.49  0.001224034    1.671    0.402
        62  -8.0528     15.5127     63.5045   7.2402761965e+01   6.1839330405e+01    0.2281269     0.116576  16.67  0.001217072    2.186    0.543
        63  -8.0585    137.2622     61.8199   3.0835194533e+01   4.2249614775e+01    0.2375137    0.1943461  66.00  0.000702024    1.283    0.220
        64 -10.3088     62.2798     60.8638   5.2961845537e+01   5.7222068360e+01    0.4208862     0.282508  10.78 0.0004162312    1.662    0.398
        65  -8.3545     52.8188     60.3356   5.6366289112e+01   5.8656027078e+01    0.3812062    0.1399397 -51.51  0.001448067    3.109    0.678
        66  -8.7236     49.7280     58.2466   5.6877433506e+01   5.9452160551e+01    0.1955674    0.1666224   6.40  0.000542992    1.137    0.120
        67  -7.6134     95.4998     59.9960   4.1398200965e+01   5.1603306023e+01    0.3147837    0.1702383  -7.73 0.0009898598    4.387    0.772
        68  -8.6630     99.7682     55.1902   3.8482010323e+01   5.1533087277e+01    0.2873469     0.214902   0.90 0.0003831564    1.520    0.342
        69  -8.2939     20.0712     60.2518   6.9629251799e+01   6.2155343860e+01    0.1941555    0.1362183 -27.91 0.0006025343    1.244    0.196
        70  -8.8878     34.3775     59.0542   6.3323809929e+01   6.1086146247e+01    0.4691431    0.1767625  28.91  0.002078836    2.789    0.642
        71  -7.2686    116.3097     68.3138   3.8112732667e+01   4.5891254668e+01    0.1497084    0.1112212  11.70 0.0004952395    1.630    0.386
        72  -7.2952    111.4776     57.5528   3.5950596721e+01   4.8708810327e+01    0.1436163    0.1303126  21.88 0.0001971385    1.038    0.036
        73  -9.4624     75.2064     49.7926   4.4439254168e+01   5.7041631181e+01    0.3299394    0.2392619  23.40 0.0004972978    1.334    0.250
        74  -7.2334    163.2751     51.3177   2.2422608635e+01   3.7635414512e+01    0.1377592    0.1070424  25.34 0.0002878881    1.569    0.363
        75  -7.4499    119.1916     50.6415   3.1643073615e+01   4.8068377707e+01    0.2076527    0.1174568  42.81 0.0005928194    1.684    0.406
        76  -8.7773    106.7461     48.1445   3.4077932878e+01   5.1150108479e+01    0.2827042     0.202919  16.05 0.0006871831    1.590    0.371
        77  -8.6973     45.7005     48.1625   5.5009413836e+01   6.1782872966e+01    0.2281855     0.163768  10.56 0.0003868206    1.361    0.265
        78  -8.7353      5.0517     45.8148   7.2083272174e+01   6.6016354377e+01    0.3225257     0.234521  40.15  0.002110612    1.944    0.486
        79  -8.8033     10.2960     46.6562   6.9940597404e+01   6.5521710866e+01    0.3772364    0.1339694 -45.64  0.001075674    2.095    0.523
        80  -9.2713     14.8383     43.9012   6.7005466060e+01   6.5706852594e+01     0.425361    0.1993695 -32.78  0.001254576    1.888    0.470
        81  -9.1277     57.2791     41.7127   4.7997478279e+01   6.1236882473e+01    0.5585657    0.2861149  -3.79  0.001908129    4.543    0.780
        82  -8.5916     94.1190     41.5510   3.5355183327e+01   5.4711164696e+01    0.4226789      0.17654  34.03  0.001552333    2.900    0.655
        83  -8.1927     32.2005     42.7926   5.8805358807e+01   6.4304578960e+01    0.2551247   0.07949118  35.03  0.001038751    3.507    0.715
        84  -7.2896    113.6884     41.6300   3.0014480499e+01   5.0551105398e+01    0.1477854   0.09939004  20.17 0.0007035405    1.772    0.436
        85  -9.0053     84.0108     39.3502   3.7652978462e+01   5.7003542904e+01    0.5462977    0.2225546  35.65  0.002177635    2.621    0.619
        86  -8.1346      3.7685     39.7096   7.0849238739e+01   6.7236057728e+01    0.2111549    0.1072914 -49.25  0.001231219    1.565    0.361
        87  -8.2944    124.8059     38.7569   2.6381646924e+01   4.8419163161e+01    0.4022347    0.1774165  37.65  0.001542023    2.692    0.629
        88  -8.3634    105.1238     36.8002   3.0557551282e+01   5.3050697481e+01    0.3008134    0.1932041  19.06  0.001107704    1.883    0.469
        89  -9.7655     68.1520     36.8787   4.2072221787e+01   6.0217355119e+01    0.4347342     0.299276  14.96  0.001133575    1.461    0.316
        90  -9.3152     70.7750     30.0247   3.8437096565e+01   6.0698997056e+01    0.2481564    0.2087341 -17.37 0.0004060905    1.205    0.170
        91  -9.6078     69.8177     25.5967   3.6974930517e+01   6.1430693132e+01    0.3464665    0.2799737  68.81 0.0008291164    1.903    0.475
        92  -8.9381     35.7647     37.3096   5.5200289602e+01   6.4827746098e+01    0.3109532    0.1438844 -40.16  0.001574156    1.950    0.487
        93  -8.4590     38.4399     34.8169   5.3061246594e+01   6.4906219987e+01      0.22344    0.1666485   4.14 0.0006428513    1.197    0.165
        94  -7.6570     53.2754     37.6711   4.8005800149e+01   6.2458737629e+01    0.1871727    0.1197717  33.88  0.000441602    1.546    0.353
        95  -8.7084     55.9906     35.2536   4.5981819235e+01   6.2415954544e+01     0.198776    0.1615317  -3.26 0.0002769116    1.048    0.046
        96  -8.1536     92.4561     36.5251   3.4008312521e+01   5.5728257296e+01     0.272508    0.1209892  48.37 0.0007177043    2.080    0.519
        97  -9.7238     21.5187     32.0491   5.9693356196e+01   6.7203730462e+01    0.4045437    0.2530515  -1.27 0.0003842569    1.574    0.365
        98  -9.5502      6.0786     33.5600   6.7729757302e+01   6.8197190450e+01    0.4896029    0.2681213   4.79  0.002433934    1.899    0.473
        99  -7.9890      1.2285     28.9817   6.8578276897e+01   6.9305882789e+01    0.2138953    0.1167759 -58.13  0.001048393    2.025    0.506
       100  -9.2216     95.5158     32.4625   3.1622065619e+01   5.5623172693e+01    0.3982014    0.2662906  69.49  0.001324601    2.094    0.522
       101  -8.9932     61.6825     26.9706   4.0446616278e+01   6.2658449551e+01    0.2686554    0.1693452  -1.59 0.0006548059    1.772    0.436
       102  -8.8132     42.1713     27.6650   4.8537519502e+01   6.5503400493e+01    0.2490778    0.1520373   2.04 0.0002124114    1.787    0.440
       103  -9.0179    248.9971    249.4978   5.0204912441e+01  -1.1689917320e+01    0.2470367   0.09486353  38.46  0.001218577    2.764    0.638
       104  -7.5252    152.7932     26.4548   1.7091637199e+01   4.3270780557e+01    0.1877983    0.1095451  53.06 0.0002992288    1.551    0.355
       105  -9.1115    109.6293     25.1343   2.5281751577e+01   5.3453405844e+01    0.2354173    0.1937402  44.02  0.000241928    1.065    0.061
       106  -9.0461    157.5922    246.1973   6.6956889674e+01   1.7396454870e+00     0.162116    0.1162737 -29.31 0.0007949125    1.647    0.393
       107 -10.9318     80.7004     22.9932   3.2367734989e+01   5.9714124537e+01    0.5248081    0.2325468  37.94  0.001699085    2.109    0.526
       108  -8.7982      3.1602     24.7519   6.6062012078e+01   6.9900748170e+01     0.206384    0.1203615 -37.37 0.0005410358    1.322    0.244
       109 -10.0130    128.9537     21.9835   2.0011015595e+01   4.9391067419e+01    0.2391577    0.2017161  43.39 0.0003064715    1.099    0.090
       110  -7.1627    150.6389     22.7240   1.6352233495e+01   4.4187688646e+01    0.1395912    0.0887366  41.06 0.0007007409    1.662    0.398
       111  -8.9158    166.8726     20.7335   1.3332570348e+01   4.0517033116e+01    0.2454322    0.1786757 -53.18            0    1.453    0.312
       112  -8.5027     91.8668     20.8083   2.8251656229e+01   5.7720507637e+01    0.2743641    0.1590037  25.60 0.0009577404    1.890    0.471
       113  -7.9568    100.7680     19.8156   2.5534453976e+01   5.5948821983e+01    0.2286012    0.1109936  26.92 0.0007037829    2.748    0.636
       114  -8.8365    100.7837    250.1563   7.8922335394e+01   9.6766377980e+00    0.2049086    0.1501773  39.58  0.000297372    1.191    0.161
       115  -8.9620     13.0114     17.9330   5.8188687531e+01   7.0210111032e+01    0.3593646    0.1748949   4.80  0.001696234    2.407    0.585
       116  -7.2504    172.2875     19.3272   1.2217502917e+01   3.9374950821e+01    0.1280373   0.09275757  38.55 0.0002575071    1.612    0.380
       117  -7.2892    146.7017     18.7413   1.5816271331e+01   4.5535066106e+01    0.1306255   0.08841353  41.93 0.0001983131    1.505    0.335
       118  -7.9040     86.2995    245.0148   8.1274276530e+01   1.2687925613e+01     0.217733        0.101 -57.21  0.001089878    2.414    0.586
       119  -9.4118    188.4118    233.8029   5.8872672172e+01  -1.0652896802e+00    0.2289659    0.1929893  49.54  0.000785297    1.465    0.317
       120  -7.5403    188.6491    225.6566   5.7476229325e+01   2.0418610962e-01    0.1401177   0.09268352   1.86 -0.0003176527    1.809    0.447
       121  -7.1612    116.2949    200.6752   6.9085687592e+01   1.7063935469e+01    0.1419936    0.1048311  71.02 0.0007020797    1.622    0.383
       122  -7.2129    151.0034    165.2594   5.4346766409e+01   1.8471020225e+01    0.1988171    0.1281605  39.76 0.0006800674    1.530    0.346
       123  -7.7180    132.4806    154.5397   5.6593380867e+01   2.4440950061e+01     0.150053    0.1484409  60.55 0.0008088143    1.032    0.031
       124  -8.4963     68.3338    144.6690   7.1943326496e+01   3.7633536904e+01    0.3072545    0.2099129  65.17  0.001045445    1.791    0.442
       125  -7.9137     65.6508    143.3078   7.2460618444e+01   3.8330806744e+01    0.2201315    0.1376081 -65.55 0.0006357248    1.540    0.351
       126  -7.3488    139.6729    138.6607   5.1218112454e+01   2.6578647751e+01    0.1616743     0.122847  -5.82 0.0007051603    1.732    0.422
       127  -7.4560    108.4784    137.4482   5.9162945365e+01   3.2924300132e+01    0.1494129    0.1472159 -58.84 0.0008079418    1.015    0.015
       128  -7.9599     55.1638    134.8741   7.3984188099e+01   4.1735704067e+01     0.193736     0.154628 -37.13 0.0005564137    1.320    0.243
       129 -10.0097     40.1250    126.2978   7.6969999774e+01   4.5509936509e+01    0.2901767    0.2326871  65.84   0.00167682    1.419    0.295
       130  -7.5416    119.7813    118.4131   5.1488082136e+01   3.5126886779e+01     0.219539       0.1469  28.84 0.0009469481    1.684    0.406
       131  -7.3921    100.3373    118.3149   5.6967739139e+01   3.8857234109e+01    0.1566704    0.1177066 -11.98 0.0007047356    1.696    0.410
       132  -7.3424     48.6716    116.7475   7.2538552289e+01   4.6883755963e+01    0.1352173   0.09720238 -28.10 0.0003057162    1.551    0.355
       133  -8.2083     20.5009    114.0013   8.0981257084e+01   5.0215611193e+01    0.1961176   0.06954676 -47.88 0.0008097585    2.469    0.595
       134  -8.4298      1.8303    110.0025   8.6222169652e+01   5.2376585335e+01    0.2194488    0.0907202 -50.26 0.0009271883    1.989    0.497
       135  -7.5711     78.0042    121.5140   6.4404539920e+01   4.1835490989e+01     0.192803    0.1450747  33.22  0.000236459    1.409    0.290
       136  -7.9811    133.4971    107.0259   4.4845043357e+01   3.4735537865e+01    0.4052215    0.1497879 -39.49   0.00131229    2.842    0.648
       137  -7.6329    123.6577    106.7507   4.7375352139e+01   3.6874874960e+01    0.1529071    0.1192746   9.29 0.0003666454    1.573    0.364
       138  -7.3747    109.3239    106.3228   5.1263652003e+01   3.9856303666e+01    0.1573197    0.1189892  -6.61 0.0007047241    1.682    0.406
       139  -9.0156     15.0432    104.8580   8.1231538237e+01   5.2757032071e+01    0.4084334    0.1941965 -28.86  0.001862901    2.681    0.627
       140  -7.6707     94.0324    103.2224   5.4969232653e+01   4.3391639783e+01    0.1971105    0.1222596  36.66 0.0008726585    1.664    0.399
       141  -7.6817     69.9806    103.7362   6.2720042846e+01   4.7177861294e+01    0.1727537    0.1249763  29.23 0.0003949028    1.476    0.322
       142  -8.1792     64.9709    101.0107   6.3689864930e+01   4.8511017602e+01    0.1711566     0.160908 -18.77  0.001005357    1.060    0.057
