#   1 NUMBER                 Running object number                                     
#   2 MAG_AUTO               Kron-like elliptical aperture magnitude                    [mag]
#   3 X_IMAGE                Object position along x                                    [pixel]
#   4 Y_IMAGE                Object position along y                                    [pixel]
#   5 X_WORLD                Barycenter position along world x axis                     [deg]
#   6 Y_WORLD                Barycenter position along world y axis                     [deg]
#   7 A_WORLD                Profile RMS along major axis (world units)                 [deg]
#   8 B_WORLD                Profile RMS along minor axis (world units)                 [deg]
#   9 THETA_WORLD            Position angle (CCW/world-x)                               [deg]
#  10 FWHM_WORLD             FWHM assuming a gaussian core                              [deg]
#  11 ELONGATION             A_IMAGE/B_IMAGE                                           
#  12 ELLIPTICITY            1 - B_IMAGE/A_IMAGE                                       
         1 -13.7865      2.4099     67.9318   1.3311750863e+02   6.4356618530e+01     3.888346    0.3022397 -76.91  0.006992122   12.693    0.921
         2 -11.9828    216.9999     13.5019   5.2171490849e+01   2.9376036612e+01     0.407577    0.3104698  22.61  0.002451617    2.099    0.524
         3 -12.7014    213.0596      9.2617   5.1423619666e+01   3.0662447846e+01    0.5582107    0.4290267 -39.61  0.003656685    1.259    0.206
         4 -12.0933    208.0293     20.0786   5.4347489490e+01   3.0612263420e+01    0.3134853    0.2712961   5.95   0.00105967    1.622    0.384
         5 -14.2563    144.1288    214.4266   1.0849845747e+02   1.0822797330e+01     1.490912     1.444404 -66.65   0.01021339    1.355    0.262
         6 -14.7659    243.9018    233.5521   9.2796486235e+01  -4.2892591067e+00      2.30918    0.8451752 -30.09   0.01304109    2.482    0.597
         7 -12.1119    150.6226    248.3400   1.1155518781e+02   4.6728624433e+00    0.5850358    0.3037891  33.95  0.002721593    1.531    0.347
         8 -12.0697    144.3536    244.7799   1.1240119208e+02   5.9850289368e+00    0.6206915    0.3660053 -14.78  0.003328571    2.410    0.585
         9 -13.4897    152.2621    240.9161   1.1031404972e+02   5.5327507943e+00     2.049446    0.7687696  41.75  0.009265155    2.695    0.629
        10 -13.2175    133.1353    247.2019   1.1499773731e+02   7.0644587649e+00    0.6448825    0.5783681  26.24  0.003715881    1.213    0.176
        11 -13.3939    122.8500    247.3256   1.1716561154e+02   8.3651215058e+00    0.8541182    0.5706857  18.71  0.003732909    1.342    0.255
        12 -11.5101     70.4913    247.5005   1.2848139125e+02   1.4861707998e+01    0.8768015    0.4237633  38.84  0.004878626    1.507    0.336
        13 -12.6511     95.3168    248.0363   1.2312748697e+02   1.1746811093e+01     1.095936    0.5449986  22.62   0.00566258    1.917    0.478
        14 -11.9692    106.1690    238.9483   1.1988768552e+02   1.1885725444e+01    0.7435455    0.4313012  44.31  0.004222668    1.521    0.343
        15 -11.7953    117.2051    238.1306   1.1738190791e+02   1.0573169449e+01    0.5803943    0.3910364   8.43  0.003378566    1.663    0.399
        16  99.0000     20.4700    211.3916   1.3780014572e+02   2.7333177522e+01     2.257366     1.076901  63.73   0.01172038    1.893    0.472
        17 -16.4226     18.1071    245.4531   1.3964705019e+02   2.0843543842e+01     3.059743    0.7170328  34.36   0.01414118    2.525    0.604
        18 -13.7816     31.7425    239.2195   1.3647947490e+02   2.0659481508e+01    0.4635591    0.2698619  51.32  0.001010563    1.328    0.247
        19 -10.5423    183.0561    231.0060   1.0290606244e+02   2.9843161426e+00    0.3703068    0.1498032  32.97  0.001868307    2.081    0.520
        20 -11.2664    166.6562    226.1889   1.0543499908e+02   5.8113044598e+00    0.7614981    0.4741505   1.76  0.004250828    1.819    0.450
        21 -10.3161     52.4202    213.6431   1.3016333249e+02   2.3474477345e+01    0.3349002    0.1918215  35.80  0.001599223    1.408    0.290
        22  99.0000     49.4830    193.8306   1.2933721684e+02   2.8121948797e+01    0.8559382    0.4788375 -57.77  0.004275132    2.035    0.509
        23 -12.5961     54.0570    205.7928   1.2914320340e+02   2.4943231224e+01    0.8411363    0.4252563  58.45  0.004030324    1.975    0.494
        24 -12.9974     54.2402    199.0150   1.2853003309e+02   2.6398677212e+01    0.9315835    0.4262085 -53.50  0.004174255    2.627    0.619
        25 -10.5625      2.0999    213.3816   1.4219311934e+02   2.8539398003e+01    0.2140632    0.1334021  65.29 0.0007735736    1.316    0.240
        26 -14.9611    186.2971    148.2354   8.7915039420e+01   1.5609674655e+01     2.596317     1.769469 -33.11     0.013738    1.411    0.291
        27 -12.9491    203.4730    189.0863   9.2444263265e+01   6.2623237088e+00     2.347104     1.163715   4.55  0.008246136    4.752    0.790
        28 -14.0349    201.3926    168.9702   8.9179773700e+01   9.6560809382e+00     2.245159      1.05705 -28.56    0.0102175    2.288    0.563
        29 -10.8115     64.7386    195.3968   1.2544722415e+02   2.5895365152e+01    0.4720293    0.4028951  20.59  0.002425993    1.251    0.201
        30 -10.2223     63.3080    190.3392   1.2531834358e+02   2.7213434221e+01    0.2217365    0.2001694  16.55 0.0009366631    1.238    0.192
        31  99.0000     19.9598    192.1379   1.3699687665e+02   3.1605666449e+01    0.4624543    0.2150963  26.54  0.002145781    1.982    0.495
        32  -9.5338     28.2927    194.0985   1.3493692711e+02   3.0360158786e+01    0.6549096    0.3619222  77.17  0.003137705    1.815    0.449
        33 -10.6784     31.1392    188.1477   1.3380464649e+02   3.1435508214e+01    0.6488303    0.3493071  69.96  0.002703663    1.851    0.460
        34 -10.9160    154.2308    195.2661   1.0337114610e+02   1.2627909455e+01     0.424872    0.2985053  46.05  0.002324874    1.543    0.352
        35 -14.5579    126.7984    218.8391   1.1295157891e+02   1.2548581805e+01      1.84218     1.493326 -43.39  0.009688049    1.461    0.315
        36  -9.3911      3.6213    197.7465   1.4137081639e+02   3.1758442028e+01    0.1082326   0.09095909 -26.39 0.0006962282    1.655    0.396
        37 -14.7389     40.9301    222.7558   1.3353427431e+02   2.2898338253e+01     2.662235     1.219202  72.68   0.01268711    2.537    0.606
        38  99.0000     13.9170    179.5364   1.3795989042e+02   3.5061245783e+01      1.32122     1.086163 -42.36  0.008213302    1.553    0.356
        39 -12.8959     27.4558    156.2131   1.3247446342e+02   3.9561099369e+01     2.023303      1.18702 -25.03  0.008888057    2.641    0.621
        40 -15.0068     14.9544    143.4090   1.3545233683e+02   4.3919420267e+01      2.42799     1.846102  75.36   0.01266174    1.190    0.160
        41 -12.8299     30.3906    141.6279   1.3017062532e+02   4.3033727731e+01    0.8083414    0.4872549  81.81  0.003320093    1.713    0.416
        42 -13.6010     39.6601    137.6280   1.2656707162e+02   4.3121740532e+01        1.209     0.876471  36.08  0.004755162    1.329    0.248
        43 -12.3615    179.9574    184.3637   9.6100084840e+01   1.0494283108e+01    0.6176273    0.5451488  39.35   0.00391603    1.316    0.240
        44 -11.5038    151.5947    187.0361   1.0259462963e+02   1.4523461848e+01    0.6348978    0.3425963  32.71  0.003015082    1.684    0.406
        45 -13.3762    102.2452    174.8497   1.1277063931e+02   2.5068890256e+01     1.839325     1.084085  37.62  0.007186317    1.506    0.336
        46 -12.2017     65.4507    182.6810   1.2391851813e+02   2.8691243673e+01     0.958396    0.5196003  32.27  0.004484775    1.636    0.389
        47 -13.9678     72.2292    167.5398   1.2013841456e+02   3.1350577020e+01     1.496501     1.055556  76.31  0.004726134    1.601    0.375
        48  -9.8781     49.7341    184.9819   1.2849349976e+02   3.0124926318e+01    0.3017149    0.1873081   2.39  0.001372564    2.382    0.580
        49 -10.3471     52.7426    180.8628   1.2726885404e+02   3.0731119230e+01    0.3673531    0.3022094  29.13  0.001696617    1.212    0.175
        50 -11.1360    165.5420    183.3931   9.8913465214e+01   1.2934953254e+01      0.41788    0.2838533  20.88  0.002229742    1.441    0.306
        51 -13.4323    146.7411    165.9358   9.9943078582e+01   1.9365861747e+01     1.395127     1.146785 -20.42  0.007588061    1.297    0.229
        52 -14.3648    135.6543    144.2683   9.8321410932e+01   2.5879356486e+01     1.716274     1.536062 -58.76  0.009261426    1.213    0.176
        53 -11.5691     56.2702    163.2791   1.2434069963e+02   3.4555562005e+01    0.8890276    0.5830784 -35.80  0.003596356    2.035    0.509
        54 -10.7205     51.8623    162.2807   1.2555949034e+02   3.5357531301e+01    0.3805188    0.2578166  51.57  0.001921175    1.362    0.266
        55 -11.3756    105.4744    162.8846   1.0993845244e+02   2.7235804185e+01    0.6600495    0.4300983  44.32  0.003101423    1.437    0.304
        56  -9.9164     87.1269    161.8352   1.1496239943e+02   3.0486099140e+01    0.2258976     0.192585  62.49 0.0005910398    1.170    0.145
        57 -11.3614     89.5979    144.1458   1.1121352174e+02   3.4373636997e+01    0.2697802    0.2625412 -14.09 0.0004487957    1.124    0.110
        58 -13.6235     86.4245    136.6012   1.1077911283e+02   3.6777410611e+01     1.845605     1.279472  29.73  0.007102798    1.460    0.315
        59 -14.4187    162.1903    126.6936   8.8141708263e+01   2.4182302913e+01     1.641835     1.310613  64.31  0.008403406    1.468    0.319
        60 -10.5723     29.4302    167.4534   1.3278762293e+02   3.6557758338e+01    0.3286824    0.2651066  87.35  0.001320497    1.184    0.155
        61 -12.8077     76.7637    125.2208   1.1170229279e+02   4.1268414560e+01     0.925626    0.7141295 -23.85  0.004343108    1.642    0.391
        62  -9.9948     98.6794    129.2478   1.0543670166e+02   3.6405268377e+01    0.3008618    0.2099528  25.47  0.001331548    1.582    0.368
        63 -11.3004     86.7070    117.2871   1.0663042580e+02   4.1550545515e+01    0.4475255    0.4084423  86.28  0.001726387    1.134    0.118
        64 -12.3107     75.3570    151.0040   1.1678222272e+02   3.4955743876e+01    0.8800212    0.6786327 -52.48  0.003286617    1.394    0.283
        65 -10.2111     45.6136    116.2379   1.2130195726e+02   4.8107531365e+01    0.2843811     0.252402 -12.90  0.001401588    1.287    0.223
        66 -13.3792     31.8248    105.4418   1.2500998423e+02   5.2502034831e+01     1.279659    0.8139008  21.02  0.006135437    1.669    0.401
        67 -12.5593     68.7466    143.4872   1.1767341278e+02   3.7841328845e+01     1.218629    0.5826851  46.36  0.004809333    2.046    0.511
        68 -12.8352     60.9066    104.7947   1.1314318159e+02   4.9045677592e+01     1.220884    0.9798316  83.43  0.005799703    1.386    0.278
        69 -12.7667    192.4351     34.2437   5.9298084159e+01   3.2495930261e+01    0.5192309    0.3557794  45.73  0.002606686    1.850    0.460
        70 -12.4958    199.8380     29.5125   5.7363525192e+01   3.1366608692e+01    0.5016678    0.3909156 -57.02  0.002945448    1.093    0.085
        71 -11.8842    144.2609     25.2555   6.2626728813e+01   4.5607252630e+01     0.492543    0.1638834 -50.13  0.001615969    3.519    0.716
        72 -11.2296    174.7767    238.3753   1.0551686591e+02   3.0189571362e+00    0.4399879    0.2635517  33.29  0.002713845    1.462    0.316
        73 -12.2265    161.3145    209.2643   1.0405074188e+02   9.1922574406e+00     1.279962    0.5794071 -41.50  0.006108589    2.425    0.588
        74  99.0000     99.5010    213.7478   1.1868391760e+02   1.7357658629e+01     2.168027     1.943747  76.39    0.0110786    1.285    0.222
