#   1 NUMBER                 Running object number                                     
#   2 MAG_AUTO               Kron-like elliptical aperture magnitude                    [mag]
#   3 X_IMAGE                Object position along x                                    [pixel]
#   4 Y_IMAGE                Object position along y                                    [pixel]
#   5 X_WORLD                Barycenter position along world x axis                     [deg]
#   6 Y_WORLD                Barycenter position along world y axis                     [deg]
#   7 A_WORLD                Profile RMS along major axis (world units)                 [deg]
#   8 B_WORLD                Profile RMS along minor axis (world units)                 [deg]
#   9 THETA_WORLD            Position angle (CCW/world-x)                               [deg]
#  10 FWHM_WORLD             FWHM assuming a gaussian core                              [deg]
#  11 ELONGATION             A_IMAGE/B_IMAGE                                           
#  12 ELLIPTICITY            1 - B_IMAGE/A_IMAGE                                       
         1 -12.8833     85.5619     24.9402   4.9254599060e+01   5.8455708805e+01    0.3701546     0.265612 -80.56   0.00187125    2.580    0.612
         2 -10.9888     35.7888     21.1918   6.6310568936e+01   6.7558746734e+01    0.1641973    0.1132336   3.28  0.000301228    1.286    0.222
         3 -11.9363    212.4645     12.4604   2.5359605208e+01   3.1688510383e+01    0.3531542    0.1377588 -64.86  0.001323624    2.966    0.663
         4 -11.7488    209.9813      7.6864   2.4614080703e+01   3.2702141827e+01    0.3691299     0.158023 -52.39  0.001988869    2.093    0.522
         5 -12.3015     85.0315     10.5143   4.4012656935e+01   5.9990024066e+01    0.2027094    0.1780549  -9.75 0.0003575541    1.300    0.231
         6 -10.7310     40.7315      4.6819   5.6519535202e+01   6.8695899255e+01    0.1179666   0.07149975  15.11  0.000271453    1.558    0.358
         7 -11.1799     67.0806      1.6839   4.5618662446e+01   6.4304349786e+01    0.1707523    0.1206238  43.54 0.0004707016    1.125    0.111
         8 -10.3723     49.9870      1.0000   5.1098272019e+01   6.7492366836e+01    0.1761358   0.05472052  49.28 0.0007676696    2.707    0.631
         9 -12.7173    179.7979    244.0334   7.9077099830e+01  -2.9399490923e+00    0.2614039    0.2086932 -33.46  0.001120826    1.313    0.238
        10 -11.2814    177.8785    249.8805   8.0400588384e+01  -3.6649764913e+00    0.1930795    0.1535793  53.84  0.001127222    1.796    0.443
        11 -17.0905     75.4655    138.7571   8.6623304912e+01   3.7933353910e+01      2.70642     2.216888  64.15     0.013502    1.417    0.295
        12 -12.4864    138.0108    225.7745   8.5440706560e+01   6.7469211445e+00    0.3072244    0.2740225 -18.19 0.0009001093    1.152    0.132
        13 -10.8473    222.3136    226.2917   6.7528433843e+01  -5.6961952128e+00    0.1307015    0.0831772  -8.20  0.000212606    1.592    0.372
        14 -10.7037    215.3140    226.6377   6.8932079981e+01  -4.8414061310e+00    0.1124252    0.1057379 -83.89 0.0007041357    1.757    0.431
        15 -11.4532    144.5358    224.3908   8.3707015811e+01   6.0077955073e+00    0.2414665    0.1213446 -38.89 0.0005797495    2.226    0.551
        16 -12.2946    159.3526    222.3528   7.9981589157e+01   4.0946273270e+00    0.3140198    0.2194468  45.75  0.001171908    1.587    0.370
        17 -13.3652    172.6440    219.9707   7.6607546345e+01   2.4957613527e+00    0.3952499    0.3037741   4.97  0.001732711    1.285    0.222
        18 -12.6025    153.3074    220.3031   8.1013194451e+01   5.4563051683e+00    0.2388141      0.19815  -8.33 0.0004595659    1.218    0.179
        19 -11.7741    243.9267    219.5025   6.2392242498e+01  -7.2854603953e+00    0.1620787    0.1112799  22.43 0.0004357338    1.507    0.336
        20 -11.9650    193.1440    218.7454   7.1997777077e+01  -3.6675987771e-01    0.2391777    0.1722576 -46.44  0.001303106    1.529    0.346
        21 -11.8098    139.4745    218.2458   8.3889685968e+01   8.0862512244e+00    0.2467148    0.2051231  76.77  0.001305897    1.588    0.370
        22 -12.4493    144.9702    216.5191   8.2311441435e+01   7.5678972233e+00    0.3393071    0.2531807  72.81  0.001316879    2.032    0.508
        23 -14.7434    146.9927    203.5902   7.9591748447e+01   1.0001134699e+01     1.037093    0.4899746 -39.27   0.00406173    2.323    0.570
        24 -12.3421    141.4609    202.1060   8.0655253091e+01   1.1255669906e+01    0.2853502    0.2124049 -21.96 0.0008861204    1.524    0.344
        25 -14.5775    140.4314    196.3113   7.9859570121e+01   1.2725378759e+01    0.8045948    0.4677545  36.04  0.002755104    1.672    0.402
        26 -12.8305    132.3793    191.7550   8.1019394359e+01   1.5151135813e+01    0.3861436    0.2683202 -62.16  0.001450149    1.635    0.388
        27 -13.4056    138.9248    208.5552   8.2395081254e+01   1.0258641433e+01    0.6048444    0.5079668 -47.08  0.002020064    1.242    0.195
        28 -12.7713    134.3450    204.4782   8.2801545711e+01   1.1918419834e+01    0.4258905    0.2878459  56.88 0.0009683677    1.850    0.459
        29 -13.2678    134.2756    198.2323   8.1720411297e+01   1.3338816389e+01    0.4493478    0.3273523  -0.72 0.0006348797    1.723    0.420
        30 -11.5401    129.6702    216.0762   8.5869829560e+01   1.0122785880e+01    0.2601011    0.1945679  55.07  0.001100499    1.519    0.342
        31 -13.3083    183.7528    213.5597   7.3054206099e+01   2.0157842458e+00    0.3691361    0.2655518  16.51   0.00156573    1.369    0.270
        32 -13.5315    160.5224    207.0424   7.7042997285e+01   7.0197992392e+00     0.465792    0.2963176  30.01  0.002222216    1.530    0.346
        33 -12.9926    156.0466    213.5767   7.9232641314e+01   6.3943599678e+00    0.4657342    0.2707998  31.12  0.001506558    1.650    0.394
        34 -12.4008    153.8101    210.1974   7.9158903751e+01   7.4604982224e+00    0.5133593      0.32455   4.66  0.001685001    2.174    0.540
        35 -13.8308    125.7432    211.8210   8.6131600779e+01   1.1690972586e+01    0.6485239    0.4689075 -17.97  0.003118451    1.736    0.424
        36 -13.6399    124.5539    205.6999   8.5415429283e+01   1.3261290686e+01     0.588614    0.4327264   1.48  0.002275739    1.691    0.409
        37 -11.4261    142.4548    239.0617   8.6457704739e+01   3.4147410582e+00    0.2723537    0.1222107 -44.44  0.001171102    2.418    0.586
        38 -11.4553    189.6241    212.2988   7.1575528541e+01   1.3573203116e+00     0.129717    0.1107177  65.84 0.0005846142    1.753    0.429
        39 -11.1732     24.8118    210.2865   1.1056452438e+02   2.5808797824e+01    0.2473952    0.1402834  76.85  0.001247016    1.778    0.438
        40 -12.6180    229.6595    206.9456   6.2691500648e+01  -3.4238482414e+00    0.3001139    0.2008637 -42.03  0.001298402    1.465    0.318
        41 -11.7767    247.5154    205.8720   5.9344525705e+01  -5.5399754960e+00    0.2100102    0.1655897  47.73  0.001311935    1.931    0.482
        42 -11.3021    219.8432    206.1585   6.4377347336e+01  -1.9450610524e+00    0.1851511    0.1665626 -13.11 0.0004394813    1.167    0.143
        43 -13.2415    169.3150    205.2380   7.4712779863e+01   5.9520150433e+00    0.3300224    0.2492689  36.77  0.001255126    1.347    0.257
        44 -11.6550     18.5351    205.1535   1.1159551864e+02   2.7645241496e+01    0.2307725    0.1120384 -82.77  0.001098097    1.926    0.481
        45 -11.4346    237.4541    205.0294   6.0937813788e+01  -4.1271131077e+00    0.1873632    0.1511855   9.67 0.0006626256    1.240    0.194
        46 -11.9964    212.2751    201.6704   6.4998641596e+01  -5.7804216399e-02     0.334537    0.2258039  18.75  0.001518275    1.551    0.355
        47 -10.8098     14.5098    202.0253   1.1228085444e+02   2.8767949636e+01    0.2401104    0.1193324  65.98  0.001137368    2.075    0.518
        48 -10.7764     11.6783    201.3260   1.1288184345e+02   2.9189605050e+01    0.1873451    0.1004906  49.81 0.0007534256    1.763    0.433
        49 -12.5457    121.4858    200.5291   8.5308406227e+01   1.4954590430e+01    0.2676789    0.2626528  62.16 4.462009e-05    1.067    0.063
        50 -13.9601    123.8537    196.6848   8.4049318955e+01   1.5454573057e+01    0.5699734    0.4907352 -32.65    0.0030125    1.208    0.172
        51 -11.5297     23.0031    201.2500   1.1022474173e+02   2.8153920886e+01    0.2075399    0.1833694  28.96  0.001326114    1.322    0.243
        52 -13.4926    225.3183    198.6814   6.1959778745e+01  -1.3942844273e+00    0.4229473    0.3064771 -51.84  0.002278771    1.672    0.402
        53 -11.3439    210.5213    237.5044   7.1735463161e+01  -5.9994928321e+00    0.1281425    0.1035929  -4.38 0.0003821844    1.016    0.016
        54 -13.5205    192.9637    197.9931   6.8206446942e+01   3.5842031778e+00    0.3604217    0.2812954 -50.18  0.001297595    1.431    0.301
        55 -13.2324    189.4931    195.3693   6.8434612599e+01   4.6553808016e+00    0.3211678    0.2608266  27.34 0.0009909299    1.250    0.200
        56 -10.9476     16.7738    198.0018   1.1142856350e+02   2.9531241818e+01    0.2070544    0.1687806  42.77  0.001296575    1.288    0.223
        57 -12.9321    151.8850    197.0846   7.7238176157e+01   1.0593845227e+01    0.2576648    0.2091524 -56.06 0.0006245892    1.357    0.263
        58 -11.2050    245.1482    196.1333   5.7973369779e+01  -3.6337711878e+00    0.1629144     0.135073 -40.59 0.0003578684    1.323    0.244
        59 -13.2602    159.4234    191.2130   7.4345155194e+01   1.0578096288e+01    0.3956785    0.2650899 -61.15  0.001784362    1.853    0.460
        60 -12.2408    213.2156    194.5324   6.3464047502e+01   1.1132923757e+00    0.2782602    0.2147109 -58.41  0.000898402    1.713    0.416
        61 -11.5896      1.8834    191.9933   1.1446824124e+02   3.2247008821e+01    0.2050304    0.1327615  70.68  0.001178764    1.413    0.292
        62 -12.8733    109.7602    187.9130   8.6142972045e+01   1.9905584576e+01    0.4446402    0.2783034  75.07  0.001670221    2.732    0.634
        63 -13.0055    173.3420    188.7168   7.0664320857e+01   8.7093950977e+00    0.3089394     0.250841  75.64    0.0015288    1.821    0.451
        64 -13.7783    136.3320    186.1440   7.8978040270e+01   1.5766423645e+01    0.5063812     0.345261 -72.37  0.001464821    2.017    0.504
        65 -12.4489    139.2637    182.5807   7.7556932270e+01   1.6075867187e+01     0.315289    0.1515207  34.94 0.0009927746    2.087    0.521
        66 -11.7661    248.3435    186.2520   5.5611982047e+01  -2.3860541568e+00    0.2349949    0.1667577 -13.20 0.0008211535    1.398    0.285
        67 -14.5559    127.0301    185.4492   8.1207136269e+01   1.7558564069e+01     0.786958      0.52119  -7.31  0.003163434    2.313    0.568
        68 -12.9733    186.1194    185.6684   6.7257459878e+01   7.1645108061e+00    0.3074025    0.2330473  29.75 0.0009654101    1.352    0.260
        69 -11.7141     18.8348    184.9944   1.0978872798e+02   3.2546379024e+01    0.3179071    0.1552757  89.88  0.001413677    2.136    0.532
        70 -12.5452    148.9321    184.5169   7.5549156921e+01   1.3908699288e+01    0.2338138    0.1994544 -42.22 0.0004665459    1.163    0.140
        71 -10.8714     37.1287    185.4664   1.0514835550e+02   3.0627928199e+01     0.180652    0.1333567  32.66 0.0004073434    1.444    0.308
        72 -12.4220     31.2834    184.8109   1.0659474336e+02   3.1402575625e+01     0.385559    0.2279562  13.83  0.001793741    2.215    0.549
        73 -13.8018    166.2350    193.9330   7.3289374880e+01   8.8222885493e+00    0.5021765    0.3458187  54.56 0.0003838693    1.887    0.470
        74 -13.5613    178.0121    182.1370   6.8316252430e+01   9.2866686908e+00    0.4546391    0.2901925   0.22  0.001874022    2.343    0.573
        75 -11.1336    119.3611    183.6979   8.2866629261e+01   1.9306424604e+01    0.1580028    0.1526322  -8.62 0.0004390446    1.038    0.036
        76 -14.2366    117.2069    179.0889   8.2572379783e+01   2.0799118092e+01    0.6295856    0.4656326   5.82  0.002698802    1.694    0.410
        77 -13.9805    154.7435    177.4969   7.2743658434e+01   1.4450348155e+01    0.4669812    0.3778275 -13.58  0.002317395    1.347    0.258
        78 -13.7693    144.6471    180.6350   7.5835205462e+01   1.5561820499e+01    0.5962489    0.2496345 -46.39  0.002154614    2.349    0.574
        79 -13.7025    118.5640    170.9276   8.0634290606e+01   2.2563574120e+01    0.4182625    0.3149082 -20.69  0.001541646    1.604    0.377
        80 -13.6733    115.7842    165.7352   8.0348320762e+01   2.4340961644e+01    0.4870439    0.3531741 -64.12  0.001782188    1.503    0.334
        81 -13.6988    122.1171    165.2058   7.8526801999e+01   2.3331094892e+01    0.4960334    0.2737592  41.14  0.001832357    1.828    0.453
        82 -14.5449    124.7639    161.1811   7.6979078818e+01   2.3830530192e+01    0.6938453    0.4482496  20.19  0.002264776    1.906    0.475
        83 -14.6677    128.8312    171.7579   7.8081252832e+01   2.0517944834e+01    0.8166352    0.5340075 -32.49  0.003398392    1.750    0.428
        84 -11.3566     14.7818    177.1367   1.1008582474e+02   3.4868015869e+01     0.402568    0.2029191  87.15  0.001828829    2.079    0.519
        85 -16.3704    138.5588    170.3434   7.5283929157e+01   1.9073966592e+01     1.615696      1.13897 -63.84  0.007208398    1.659    0.397
        86 -11.9913     29.7997    177.7762   1.0622142333e+02   3.3337499504e+01    0.3702354    0.2182167  44.11  0.001847321    1.728    0.421
        87 -12.4402    190.9863    177.2870   6.4541827428e+01   8.0464674648e+00    0.2028687     0.185835   7.89 0.0007903854    1.099    0.090
        88 -11.3989     20.2856    175.9433   1.0853911001e+02   3.4694285559e+01    0.2704751    0.1067982 -54.07  0.001124702    2.383    0.580
        89 -13.6901    175.4317    173.2791   6.7081621740e+01   1.1624683294e+01    0.5187034    0.3205364 -71.06  0.001897571    3.129    0.680
        90 -11.8407     26.8377    171.7507   1.0634513041e+02   3.5164690982e+01    0.3250715    0.1841118  24.97  0.001582897    1.982    0.496
        91 -17.1360     54.7876    117.5470   8.8923787772e+01   4.6178187866e+01     3.571039     2.065681  24.14    0.0160538    1.879    0.468
        92 -14.1807    152.9382    168.9140   7.1408702855e+01   1.6731687340e+01    0.6080391    0.2674809 -50.32  0.002207288    2.293    0.564
        93 -13.8776    158.5961    157.3381   6.7562004593e+01   1.8287253647e+01    0.4201708    0.3655671  43.54   0.00113785    1.209    0.173
        94 -12.0288    136.7937    241.8158   8.8135624294e+01   3.7312286894e+00    0.4888657    0.1813388 -53.43    0.0019337    3.060    0.673
        95 -12.7123     40.1299    168.3928   1.0226547350e+02   3.4693998237e+01    0.4491588    0.2984613 -56.77  0.002033805    1.398    0.285
        96 -13.4443    159.9259    169.3227   6.9818884667e+01   1.5336206943e+01    0.3427197     0.273481 -59.43  0.001028069    1.389    0.280
        97 -12.0186     32.2299    172.6459   1.0498234777e+02   3.4411721879e+01    0.2510034    0.2062296  52.30  0.001024877    1.252    0.201
        98 -13.1623    199.8627    166.0076   6.0409543328e+01   8.7964465453e+00    0.4176761    0.2671761  65.39  0.001733041    2.798    0.643
        99 -12.2265    132.5625    232.0803   8.7670135518e+01   6.3006118938e+00     0.384392    0.2064946  25.32  0.001071132    1.897    0.473
       100 -11.8662    194.0999    230.6977   7.3885637569e+01  -2.6387597425e+00    0.2874776    0.1908396 -42.96  0.001573741    1.589    0.371
       101 -11.3603      6.5212    166.3482   1.1123419421e+02   3.8231619080e+01    0.2764499    0.1310658   9.42  0.001233182    2.965    0.663
       102 -12.1463    204.8881    164.8691   5.9185102335e+01   8.1549815719e+00    0.2207193     0.180512 -12.85  0.000409457    1.259    0.206
       103 -11.9615      3.2349    162.2316   1.1172794314e+02   3.9498812431e+01    0.4106293     0.210075 -63.23  0.002076474    1.626    0.385
       104 -14.0248    170.9359    160.7572   6.5443485154e+01   1.5166981838e+01    0.4196453     0.377425  61.86  0.002222574    1.292    0.226
       105 -13.3748     91.8336    160.8526   8.6110929149e+01   2.9669957813e+01    0.3386167     0.214571  48.12 0.0008819393    1.705    0.414
       106 -16.9577     28.4984    146.5929   1.0271230471e+02   4.1523928884e+01     4.283796     3.276618  78.56   0.02341361    1.404    0.288
       107 -14.0514     97.3247    159.6407   8.4294081054e+01   2.9075714684e+01     1.081089    0.2845416 -48.86  0.002673545    3.620    0.724
       108 -12.5134    100.7570    155.0169   8.2373501886e+01   2.9671404822e+01     0.272327    0.2380268 -74.82 0.0003186369    1.224    0.183
       109 -12.3467     24.0907    181.0560   1.0806562451e+02   3.3053003788e+01    0.2902543    0.2283948  48.64  0.001705475    1.298    0.230
       110 -12.9126    186.9339    226.6250   7.4681438467e+01  -8.9068678673e-01    0.4139526     0.240264 -30.23  0.001538356    1.749    0.428
       111 -11.2611    197.9788    242.9406   7.5143647167e+01  -5.2382643942e+00    0.1881386    0.1558528   5.93 0.0003737658    1.067    0.063
       112 -14.0012    111.8350    156.7721   7.9592898572e+01   2.7280289541e+01    0.5356894    0.5216916 -58.27  0.002429455    1.036    0.034
       113 -15.2388    109.0522    149.9224   7.8917704884e+01   2.9493959713e+01    0.8751197    0.7689083  31.39  0.004379906    1.162    0.139
       114 -12.6603    105.8602    143.1260   7.8342227161e+01   3.1768120040e+01    0.3221433    0.2903891  61.96 0.0008086441    1.211    0.174
       115 -12.7810    101.0165    141.8007   7.9467845212e+01   3.2965724213e+01    0.3734815    0.3169585 -78.97  0.001120358    1.340    0.254
       116 -11.0614    127.9329    235.3278   8.9214023822e+01   6.3483766844e+00    0.1948873    0.1603406  26.89 0.0004751632    1.104    0.094
       117 -12.3870    103.1497    157.8515   8.2268880114e+01   2.8539958287e+01    0.3190704    0.2346423 -38.17 0.0009584498    1.421    0.296
       118 -11.8390    184.3888    156.1894   6.1509679482e+01   1.3613649807e+01    0.2121024    0.1338819 -53.66 0.0002644408    1.686    0.407
       119 -12.7587    121.3356    155.6156   7.6720889700e+01   2.5829212717e+01    0.3200122    0.1918016 -49.61 0.0009916442    1.633    0.388
       120 -12.5615    212.2294    154.0465   5.5551715605e+01   9.0126907430e+00    0.2380995    0.2115598  57.25 0.0004036223    1.356    0.263
       121 -12.5882      3.2418    153.2334   1.1087095976e+02   4.1767267338e+01    0.3279145    0.2445313  72.76   0.00144171    1.352    0.260
       122 -12.9727    121.1114    150.8462   7.5742868881e+01   2.7040848791e+01    0.3265416    0.2334079  21.01 0.0009019589    1.615    0.381
       123 -12.9415    125.1195    152.8707   7.5095602857e+01   2.5790563752e+01    0.2511111    0.2195306  -8.05 0.0004739402    1.251    0.201
       124 -14.2877    147.2889    149.1317   6.8488472545e+01   2.2375097798e+01    0.6477672    0.3919783  41.41 0.0009794428    1.695    0.410
       125 -13.0939    179.6743    150.4867   6.1270875338e+01   1.5715968200e+01     0.279629    0.2329216 -34.08 0.0007940001    1.139    0.122
       126 -13.4351    170.2444    150.9762   6.3455885954e+01   1.7437602756e+01    0.4581648    0.2183699  48.04  0.001394313    2.348    0.574
       127 -13.4977    133.9909    148.2016   7.1685813832e+01   2.5208962891e+01    0.5251009     0.328552 -10.35  0.001801493    3.007    0.667
       128 -11.8059    224.7330    148.6871   5.2234684170e+01   7.9001806084e+00    0.2597631    0.2070744 -67.25 0.0004580369    1.532    0.347
       129 -16.9473     92.7301    199.5627   9.2489751910e+01   1.9777119626e+01     2.906595     1.483955 -45.30   0.01191311    2.170    0.539
       130 -13.0323    169.9491    146.4590   6.2510827291e+01   1.8480789009e+01    0.3041446     0.251836 -47.95 0.0006721956    1.172    0.147
       131 -13.0387    127.3264    147.0608   7.3203996872e+01   2.6776289946e+01    0.3926411    0.2097056  53.97  0.001411142    2.425    0.588
       132 -12.6694    116.8546    146.0840   7.5864495968e+01   2.9008967025e+01    0.3075514     0.266452  81.25 0.0007315147    1.364    0.267
       133 -14.2334    113.2148    140.4297   7.5610285449e+01   3.1080498114e+01    0.6479982     0.457006 -81.60  0.002654827    2.066    0.516
       134 -12.3113    155.9755    145.2404   6.5477742363e+01   2.1534089346e+01    0.2153831    0.2025966  25.89 0.0002819674    1.093    0.085
       135 -11.6860    202.8026    143.4127   5.5054145757e+01   1.2795596261e+01    0.1893762    0.1369678  28.71 0.0005195593    1.642    0.391
       136 -11.4144    151.1488    142.0841   6.5919927844e+01   2.3218777924e+01    0.2424232    0.2077833  -9.89 0.0005139078    1.299    0.230
       137 -12.5738    139.7732    141.0077   6.8525788755e+01   2.5758076645e+01    0.2682855    0.2261744  37.51 0.0005724047    1.213    0.176
       138 -11.8373    168.7984    138.5289   6.0960799374e+01   2.0432429303e+01    0.2048962    0.1481688  58.30 0.0005871059    1.622    0.383
       139 -12.6428    124.0114    137.7169   7.1950708632e+01   2.9666148659e+01    0.2261539    0.2157582  27.61 0.0004893144    1.064    0.060
       140 -13.5348     91.5995    130.4435   7.9737646953e+01   3.7445387383e+01    0.4071099    0.2763687 -49.66  0.001091529    1.415    0.293
       141 -14.7943     84.8750    126.8514   8.1014969361e+01   3.9468319450e+01    0.6533443     0.555068  32.98  0.003329349    1.217    0.178
       142 -14.4876     97.5379    127.3831   7.7183656883e+01   3.7160233519e+01    0.6347209    0.4412161  18.60  0.002183802    1.698    0.411
       143 -14.2217     95.9926    135.8279   7.9628240175e+01   3.5343771274e+01    0.5052124    0.4199399 -45.01  0.002089442    1.165    0.141
       144 -13.8173    102.2428    134.1425   7.7358943900e+01   3.4652496318e+01    0.5872295     0.379282  64.40  0.002291326    2.290    0.563
       145 -13.7016    106.2691    132.9958   7.5894701155e+01   3.4197280324e+01      0.45334    0.3209102 -43.09  0.002042307    1.391    0.281
       146 -11.7917    196.7414    135.7368   5.4530750749e+01   1.5472947536e+01    0.2437661    0.1097552 -52.29 0.0009019846    2.430    0.589
       147 -11.9645    160.2612    135.4870   6.2201744550e+01   2.2836283038e+01    0.3324262    0.1780479 -34.63  0.001268645    2.089    0.521
       148 -12.0659    139.7654    134.6106   6.7015951943e+01   2.7240017395e+01    0.4786299    0.2712982  27.79  0.001799446    2.257    0.557
       149 -11.5124    138.2832    131.0942   6.6551362878e+01   2.8349983419e+01    0.2937783    0.2455276 -63.95 0.0006751905    1.303    0.233
       150 -10.4288    246.6531    135.2591   4.6101207507e+01   6.7492333410e+00    0.1215454    0.0932522 -70.35  0.000664251    1.598    0.374
       151 -12.3051    203.9920    134.0233   5.2796348373e+01   1.4426899828e+01    0.2578991     0.185657  75.00  0.001231634    1.983    0.496
       152 -13.0471    118.8527    133.2719   7.2330898033e+01   3.1737684107e+01    0.3710213    0.2641029 -26.00  0.001602886    1.665    0.400
       153 -13.6495    123.7902    129.8028   7.0114498966e+01   3.1587254209e+01    0.5088713    0.3583262  65.91  0.001272785    1.913    0.477
       154 -13.1636    121.6420    124.2822   6.9348607598e+01   3.3307197668e+01    0.4198702    0.2861937  55.24   0.00180557    1.694    0.410
       155 -12.1862    120.0333    120.0131   6.8723584758e+01   3.4616917738e+01    0.2749076    0.2226974 -44.05 0.0003416237    1.216    0.178
       156 -13.2329    157.6829    127.3677   6.0870589588e+01   2.5144682540e+01    0.5863292    0.5588734  89.98   0.00314286    1.117    0.105
       157 -10.8246    201.1773    126.3894   5.1631946670e+01   1.6460109815e+01    0.1773599    0.1379467  65.07  0.000165977    1.516    0.340
       158 -11.1543    134.0538    127.4628   6.6768663184e+01   3.0049752025e+01    0.2181997     0.155845  40.82  0.000276281    1.426    0.299
       159 -14.0344    101.2056    120.4482   7.4360315192e+01   3.8166144189e+01    0.5043772    0.4187152  77.50  0.002418819    1.524    0.344
       160 -14.0879    107.6965    122.8592   7.3010211067e+01   3.6373144405e+01    0.4983081    0.3701475  16.43  0.001722764    1.589    0.371
       161 -13.0314    110.2142    119.5679   7.1437344953e+01   3.6663798196e+01    0.2555939    0.2197545 -29.10 0.0004063571    1.185    0.156
       162 -11.8532    190.2072    122.5679   5.2823600370e+01   1.9393790317e+01    0.4420094    0.2887979  85.62   0.00176941    2.732    0.634
       163 -11.0597    229.4903    121.0130   4.5773231076e+01   1.2174351867e+01    0.1852214    0.1097882 -22.92 0.0008092097    2.437    0.590
       164 -11.5985    220.8782    120.8504   4.7074497332e+01   1.3765747476e+01    0.1918178    0.1508514 -64.76 0.0006481693    1.335    0.251
       165 -13.5620     93.6849    119.4272   7.6433971781e+01   3.9775179538e+01     0.377524    0.2416807 -47.28  0.001412835    1.510    0.338
       166 -13.4651    105.4922    114.6478   7.1579938230e+01   3.8718792779e+01    0.3742095    0.3200843  19.10 0.0008057379    1.226    0.184
       167 -13.1683    114.8477    110.1719   6.7644089131e+01   3.7892365410e+01    0.4670463    0.2838917 -52.62  0.001560933    1.735    0.424
       168 -13.8428     82.6423    114.0220   7.8632183734e+01   4.2969336472e+01    0.4500226      0.30616 -55.85  0.001845921    1.495    0.331
       169 -15.5396     85.2895    233.7578   9.8888546146e+01   1.2966438730e+01     2.181093    0.8323377  35.72  0.008962998    2.288    0.563
       170 -11.8174     98.9677    114.4691   7.3527050263e+01   3.9991052841e+01    0.2372963    0.1522743  37.84 0.0006529472    1.580    0.367
       171 -10.9091    250.5150    119.4898   4.2490230774e+01   8.8550726614e+00    0.1288087    0.1035955 -48.16 0.0001012054    1.019    0.019
       172 -12.9144    164.9845    110.8814   5.5191982612e+01   2.7047263046e+01    0.4745644    0.2323083 -55.36  0.001732991    2.482    0.597
       173 -13.5867     88.8830    109.2604   7.5369071241e+01   4.3026566804e+01    0.3589438    0.2432283 -35.84  0.001428746    1.512    0.339
       174  99.0000     59.7624    228.7329   1.0422391836e+02   1.7508218730e+01     5.777003     2.475949  45.40   0.02568203    2.100    0.524
       175 -11.0654    139.7401    107.7446   6.0287305284e+01   3.3185100436e+01    0.2486326    0.1270207  57.08 0.0008948019    2.428    0.588
       176 -11.4665    217.5788    105.6760   4.4354868741e+01   1.7135252792e+01    0.2523377    0.1214305 -37.62 0.0006646864    2.001    0.500
       177 -11.1028    174.5852    106.4885   5.2106412760e+01   2.5841349477e+01    0.1470083    0.1383028 -54.57 9.497564e-05    1.017    0.016
       178 -11.1982    230.1486    104.8542   4.2340488167e+01   1.4907699216e+01    0.1891024    0.1534671 -59.48  0.000245486    1.117    0.105
       179 -10.9075    194.2962    104.3076   4.7870964840e+01   2.2065276484e+01    0.1356911    0.1134823  -1.23 0.0002743137    1.589    0.371
       180 -12.3000    105.9570    104.2107   6.8661958235e+01   4.0986812968e+01    0.3277078    0.1986749  40.56 0.0007389567    1.653    0.395
       181 -11.3553    109.4554    103.4892   6.7419428692e+01   4.0451177018e+01    0.2612555    0.2126003  86.50 0.0008076853    1.649    0.393
       182 -13.4103      2.3536    101.8251   1.0472863382e+02   5.4614503514e+01    0.4837858    0.1999566 -68.90  0.002186293    2.063    0.515
       183 -15.4480     74.2971     90.0393   7.5035957356e+01   4.9816836819e+01     1.440737    0.7731626  59.82  0.004603523    4.336    0.769
       184 -12.4822     60.2813     95.9831   8.1744449102e+01   5.0616980147e+01    0.2683997    0.2151913  17.88 0.0003531115    1.275    0.216
       185 -13.6881     60.7272     92.1785   8.0555003940e+01   5.1413978586e+01    0.3524047    0.2993325  19.61  0.001956719    1.194    0.162
       186 -11.7536     30.4963     99.4892   9.3791995616e+01   5.3220247563e+01    0.2740863       0.1753 -47.85 0.0009305885    1.333    0.250
       187 -11.8816    237.4258     98.8442   4.0129510402e+01   1.4602643869e+01    0.2005178    0.1668799 -84.38 0.0005132608    1.273    0.215
       188 -10.8216    208.6658     99.6731   4.4428902781e+01   1.9961404316e+01    0.1329927    0.1097611   1.59 0.0005488211    1.718    0.418
       189 -11.7243    177.9886    229.0432   7.7000436324e+01  -1.8934970274e-02    0.2016469    0.1736466   1.52  0.001215352    1.005    0.005
       190 -13.1911    150.5003    226.6481   8.2702252115e+01   4.6206950323e+00    0.5088881    0.3906987 -64.03  0.002720678    1.662    0.398
       191 -11.4363    174.2414     97.7605   5.0039699869e+01   2.7587513341e+01    0.2335266    0.1200233 -30.69 0.0006190703    2.450    0.592
       192 -12.5502     97.9383     96.0180   6.8852502082e+01   4.4323671920e+01    0.3129133    0.2010318 -16.26  0.001254461    2.256    0.557
       193 -11.4700    150.4976     96.4700   5.4744704416e+01   3.3102482789e+01    0.1490111    0.1444985 -84.02 0.0001570321    1.026    0.025
       194 -12.2087     38.9699     95.5322   8.9655850527e+01   5.3326362402e+01    0.2940356    0.2050257  20.56  0.001110312    1.526    0.345
       195 -12.4185     34.7338     93.9946   9.0925351149e+01   5.4115435511e+01      0.21725    0.1898526 -29.22 0.0004434089    1.039    0.038
       196 -11.8101    214.1940     92.7725   4.2075381490e+01   2.0056751235e+01    0.1747121    0.1591205 -17.82 0.0006306481    1.347    0.258
       197 -11.8714    183.1898     91.7889   4.6902565381e+01   2.6727175702e+01    0.1887457    0.1741857   8.51  0.000921019    1.319    0.242
       198 -11.2678    102.4676    228.5203   9.4208935705e+01   1.1621998549e+01    0.2483963    0.1953202 -31.46 0.0007203034    1.512    0.338
       199 -11.2818     21.4592     91.0975   9.5465507477e+01   5.5954744557e+01    0.1934414    0.1650162  -2.39 0.0006815324    1.231    0.188
       200 -12.3144      2.8323     90.9889   1.0273418710e+02   5.7153032708e+01    0.1952301     0.168481 -30.24 0.0003334876    1.148    0.129
       201 -12.7160     25.8317     89.5756   9.3394320457e+01   5.5953021487e+01    0.3211782    0.2454467  71.44  0.001522841    1.884    0.469
       202 -12.0493    101.8107     89.2175   6.5691693886e+01   4.4989770997e+01    0.2457472    0.1708243  86.97 0.0009499963    2.803    0.643
       203 -12.1969      7.8187     89.5955   1.0053400431e+02   5.7213922370e+01    0.2778867    0.1270481  11.73   0.00131402    2.488    0.598
       204 -11.8993     11.5272     87.4848   9.8647284854e+01   5.7482101954e+01    0.3215355    0.1277546 -57.45  0.001433382    1.965    0.491
       205 -11.8229    171.1246     87.9399   4.8207007797e+01   3.0083360099e+01    0.2221234    0.1880318 -75.67 0.0004536622    1.229    0.186
       206 -15.4349     75.7249     98.8135   7.6990304358e+01   4.7645469902e+01     1.941496    0.5713876  38.81  0.006169612    3.423    0.708
       207 -13.2863     53.8276     85.0816   8.1193737706e+01   5.3925462637e+01    0.4919867    0.4003492 -67.41  0.002255768    1.520    0.342
       208 -12.1167     31.2631     87.4479   9.0724237336e+01   5.5955213827e+01    0.2460662    0.1313625  12.49  0.001143517    2.112    0.527
       209 -11.9990     86.1400     85.7485   6.9696844286e+01   4.8679727860e+01    0.2385474     0.167732  81.52   0.00094877    2.833    0.647
       210 -13.5681     62.1680     82.8610   7.7374969939e+01   5.3234210190e+01    0.3164947    0.2407522  -4.80 0.0008866367    1.381    0.276
       211 -11.1821    137.0043     85.3587   5.4919625696e+01   3.8239546693e+01    0.2027088    0.1777951  51.99 0.0002791114    1.117    0.105
       212 -11.7577    114.2808     84.9656   6.0768913479e+01   4.3276544600e+01    0.2555237    0.2080808  73.07 0.0003587065    1.517    0.341
       213 -12.4743    109.3203     81.6776   6.1220016730e+01   4.4949238987e+01    0.4179653    0.3201775 -11.88  0.001805566    1.563    0.360
       214 -11.4410    106.0298     79.4440   6.1514507546e+01   4.6055237929e+01    0.3573513    0.2264566 -45.13 -7.795344e-06    1.657    0.397
       215 -11.2092    222.4805     82.0333   3.8626529928e+01   2.0202973028e+01    0.1887968    0.1142103 -43.81 4.892259e-05    1.471    0.320
       216 -12.5367    206.5952     81.5088   4.0713044965e+01   2.3504442727e+01    0.2856905    0.2189079 -55.05 0.0009428694    1.177    0.150
       217 -12.3498    183.2145     77.4406   4.3436813808e+01   2.9208721357e+01    0.3461645    0.2414504 -11.46  0.001590923    2.332    0.571
       218 -12.1282    176.7115     80.6405   4.5349861539e+01   3.0115186216e+01    0.2201936    0.1737883  18.78  0.001112349    1.791    0.442
       219 -14.1878     75.6260     75.9323   7.0329520607e+01   5.2503098753e+01     0.558153    0.4217083 -38.24  0.001355338    1.311    0.237
       220 -13.2135     87.3123     78.9582   6.7247340537e+01   4.9825656560e+01    0.3312152    0.3168066   7.76  0.001057834    1.068    0.064
       221 -12.0299     28.8309     80.2863   8.9923377738e+01   5.7783296131e+01    0.1972444    0.1644298  34.89 0.0008479277    1.436    0.304
       222 -11.1774    214.4791     78.9880   3.9048225870e+01   2.2296143225e+01    0.1892177   0.09289893 -59.17 0.0004836307    2.321    0.569
       223 -12.7578    152.7753     80.5310   5.0008562786e+01   3.5549268203e+01    0.3553326    0.2690347  37.31 0.0005886387    1.460    0.315
       224 -11.8767    120.4512     78.7965   5.7260922770e+01   4.3113374476e+01    0.2604553    0.1979414  47.08 0.0005443729    1.271    0.213
       225 -12.4489    112.0335     76.0363   5.8750705501e+01   4.5429142494e+01    0.3353215    0.2596163 -37.34  0.000665287    1.338    0.253
       226 -11.8488    115.6831     74.6839   5.7329003135e+01   4.4891188195e+01    0.2828081     0.216339 -10.48  0.001346841    1.600    0.375
       227 -12.3732    177.9428     86.9564   4.6681875084e+01   2.8742224235e+01    0.2135731    0.1995828 -77.51 0.0004030505    1.011    0.011
       228 -12.1486      7.1557     78.0917   9.8466192873e+01   5.9866566854e+01    0.2015014    0.1373515 -38.09  0.000358896    1.210    0.174
       229 -11.0003    177.8164     74.8396   4.3723447888e+01   3.0842882846e+01    0.1942394    0.1559024 -77.90 0.0006332407    1.291    0.226
       230 -12.9692     58.4412    100.0348   8.3473464336e+01   4.9934985373e+01    0.3960306    0.3125248  14.02 0.0008950811    1.318    0.241
       231 -11.6502     32.0600     74.6656   8.7075086809e+01   5.8693017945e+01    0.3038137    0.1792689  -5.73  0.001478077    1.960    0.490
       232 -11.6213    105.5203    226.9815   9.3277373990e+01   1.1500944403e+01    0.3990469    0.2938309 -85.95  0.002061624    1.703    0.413
       233 -12.1697     51.0419     73.7087   7.8959760452e+01   5.6692333010e+01    0.1944021    0.1676585  -0.62 0.0004079354    1.076    0.070
       234 -10.8095    232.4530     73.4913   3.5630468711e+01   1.9617619521e+01    0.1266871    0.1045488 -62.17 5.524955e-05    1.009    0.009
       235 -10.8537    124.5497     73.5337   5.4638762311e+01   4.3153510709e+01     0.143862    0.1384429  53.57 4.400785e-05    1.033    0.032
       236 -11.3344     94.4661     73.0091   6.3069093014e+01   4.9585227615e+01     0.207955    0.1412416 -40.14 0.0003517294    1.519    0.342
       237 -12.8813      4.1330     72.5894   9.8550921431e+01   6.1241765620e+01    0.2363063    0.1776949 -52.46 0.0005261005    1.146    0.128
       238 -11.6550    219.8197     72.3203   3.6923460399e+01   2.2275407971e+01    0.2014506    0.1465581 -81.84 0.0007088873    1.407    0.289
       239 -13.1103    188.6095     66.5349   3.9962901696e+01   2.9770269149e+01    0.3854853    0.2313198 -46.56 0.0008994073    1.590    0.371
       240 -13.2463    100.1230     65.6334   5.8982082055e+01   4.9753792182e+01    0.5395151    0.3484853 -37.59  0.002623881    1.623    0.384
       241 -11.2192     94.2234     69.0182   6.1880036295e+01   5.0354544349e+01    0.1940601    0.1789223 -18.30  0.000322849    1.098    0.090
       242 -12.4252    197.5614     66.9522   3.8737555782e+01   2.7751258368e+01     0.280099    0.2294695  -5.28  0.001252094    1.801    0.445
       243 -12.5933     60.1478     67.3816   7.3360815541e+01   5.6648860992e+01    0.2915556    0.1899501 -18.37 0.0008058493    1.709    0.415
       244 -11.0643     78.8042     65.7469   6.5930847726e+01   5.3856325740e+01    0.1730374     0.167094 -74.58  0.000539695    1.313    0.238
       245 -12.4710    114.0038     63.1548   5.4260212303e+01   4.7223570448e+01    0.2555808    0.2226573 -89.12 0.0007432886    1.394    0.283
       246 -12.8283    109.8581     60.4213   5.4526808296e+01   4.8562325556e+01     0.345072     0.272441  86.95   0.00176225    1.740    0.425
       247 -12.8397     45.2806     61.4115   7.7437404076e+01   5.9861001387e+01    0.3275868    0.2442235  17.80  0.001891601    1.285    0.222
       248 -12.6643     40.4896     60.4844   7.9180959348e+01   6.0633357231e+01    0.3114701    0.1784515  20.04  0.001579474    1.755    0.430
       249 -12.2530     13.1713     62.1220   9.1942387128e+01   6.2908957202e+01    0.2076775     0.137859 -29.69 0.0007504902    1.266    0.210
       250 -12.0573    119.5149     58.6979   5.1449561629e+01   4.6716210382e+01    0.2575026     0.180809  51.91 0.0006527122    1.329    0.248
       251 -11.3011      3.0919     59.4654   9.5905909253e+01   6.4074639048e+01    0.2700091    0.1086765   0.87  0.001216994    2.906    0.656
       252 -12.7886    193.1286     57.8903   3.7282249690e+01   3.0080388612e+01    0.3036139    0.2025152 -88.42  0.001080202    1.637    0.389
       253 -12.6994     99.0802     56.6917   5.6388933565e+01   5.1433010045e+01    0.3653097    0.2090842 -24.68  0.001636595    2.115    0.527
       254 -11.1953    225.3183     57.3254   3.3164256386e+01   2.3421022528e+01    0.1100602   0.09922396  21.10 0.0007045422    1.675    0.403
       255 -10.8477    153.5384     57.5068   4.3642099208e+01   3.9116383960e+01    0.1373956    0.1277734  71.11 0.0002880663    1.028    0.027
       256 -11.5906    140.2819     57.1066   4.6183181757e+01   4.2239930282e+01    0.2925979    0.1611379  66.06  0.001275973    1.975    0.494
       257 -13.4114     30.1077     56.8246   8.2592656742e+01   6.2492361709e+01    0.3352684    0.2296544  30.70  0.001316339    1.611    0.379
       258 -10.8103    159.2982     56.6680   4.2352329171e+01   3.7908985328e+01    0.1419229    0.1007553 -73.66 0.0004143425    1.645    0.392
       259 -12.7973    109.6292     54.7974   5.2798449982e+01   4.9485142835e+01    0.3944523    0.2423149  27.77  0.001791643    1.989    0.497
       260 -11.3049    240.0784     54.6826   3.1110343556e+01   2.0939720965e+01    0.1612505    0.1316818 -80.53 0.0003878704    1.118    0.105
       261 -12.2665    181.6854     51.6678   3.7449022778e+01   3.3515498321e+01    0.3652515    0.1883612  73.94  0.001656665    2.115    0.527
       262 -11.9366    124.0124     51.9873   4.8295792648e+01   4.6709460706e+01    0.1719761    0.1512726  52.28 0.0005273093    1.042    0.041
       263 -11.6677    174.0094     50.9829   3.8435058903e+01   3.5348041688e+01     0.226027    0.1483291 -72.65  0.001137802    1.744    0.427
       264 -11.3534    157.3363     51.3070   4.1278848987e+01   3.9133597153e+01    0.1366165    0.1017531  32.95 0.0003060796    1.675    0.403
       265 -11.1908     94.4827     51.5312   5.6037134808e+01   5.3172294047e+01    0.1393467    0.1229068  25.97 0.0001838884    1.031    0.030
       266 -12.8836     28.7506     49.8410   8.0892438870e+01   6.3931763447e+01    0.3278807    0.2296789 -76.69  0.001595026    3.082    0.675
       267 -12.0184     17.4960     49.9055   8.6274775621e+01   6.4979015010e+01    0.2703328    0.1852833 -44.52 0.0008932302    1.340    0.254
       268 -13.2242     20.0406     46.6857   8.3975633697e+01   6.5353383993e+01    0.3744376    0.1810389 -53.91  0.001860796    2.238    0.553
       269 -12.3094     37.8306     50.1422   7.6836445773e+01   6.2850591847e+01     0.186903     0.130723 -14.74 0.0008467507    1.327    0.246
       270 -12.0161    133.1517     48.3323   4.5149062874e+01   4.5140980057e+01    0.2064781    0.1897291   5.01 0.0004312574    1.239    0.193
       271 -11.7088     42.3535     49.3075   7.4531360033e+01   6.2426937061e+01    0.1381314   0.08739625  -7.53 0.0004108983    1.718    0.418
       272 -10.9731    142.4905     46.5256   4.2721776251e+01   4.3232680545e+01    0.1359581     0.123068  65.11  7.14841e-06    1.013    0.013
       273 -12.1537     39.0459     46.0614   7.4821944581e+01   6.3404949818e+01    0.1919767    0.1585055  -4.75 0.0002965305    1.022    0.021
       274 -11.9769    195.9904     44.1855   3.3777916192e+01   3.1373145726e+01    0.2457731    0.1618236 -86.96  0.001263253    1.545    0.353
       275 -13.4069     34.8192     39.9619   7.4473968346e+01   6.4940765072e+01    0.4394879     0.228594  19.23  0.001958586    1.928    0.481
       276 -11.8425    146.0446     39.3003   4.0023034587e+01   4.3351099921e+01    0.1980903    0.1867202 -54.95 0.0003296935    1.158    0.136
       277 -11.7600    104.2515     39.9721   4.9373900378e+01   5.2729473671e+01    0.2334189    0.1739261  47.07 0.0004936588    1.186    0.157
       278 -10.7153    135.7793     38.9547   4.1856188572e+01   4.5769236669e+01    0.1574384    0.1117594 -30.99 0.0003389207    1.593    0.372
       279 -12.4102     53.6808     38.3712   6.5601020654e+01   6.2550016444e+01    0.3470505    0.2081663   3.20  0.001705371    2.092    0.522
       280 -11.6653    243.0154     38.3338   2.7762177590e+01   2.2592336190e+01      0.15842    0.1214825 -78.80 0.0003946605    1.103    0.093
       281 -10.7263    186.7124     38.2822   3.3593219937e+01   3.4184354758e+01    0.1284143   0.08551434 -72.84 0.0001992604    1.525    0.344
       282 -11.6917     60.0651     36.9125   6.2492188056e+01   6.1726950718e+01    0.2580886    0.1638672 -46.46  0.001359317    2.076    0.518
       283 -10.9603     92.4941     37.5128   5.1781256070e+01   5.5534141998e+01    0.1336951    0.1166182  34.43 7.084285e-06    1.010    0.010
       284 -13.1570     10.5931     36.5666   8.5241481217e+01   6.7945517479e+01    0.3557135     0.212571 -15.40  0.001599982    1.500    0.333
       285 -12.5731     43.8779     33.7579   6.7929799745e+01   6.4692882065e+01    0.2457746    0.1845227  19.25 0.0005804662    1.157    0.136
       286 -13.6646     31.1176     32.9123   7.3466494082e+01   6.6502341558e+01    0.4392016    0.2557708   5.22  0.002379571    1.812    0.448
       287 -11.8631    106.9102     32.1221   4.6071650471e+01   5.3118061252e+01    0.2141605    0.1923493 -14.92  0.001017389    1.244    0.196
       288 -10.9265    235.8094     32.3820   2.7259274517e+01   2.4715615808e+01    0.1440413   0.09597573  67.71 0.0003760647    1.574    0.365
       289 -11.4292    223.3971     31.8055   2.8237264156e+01   2.7224697108e+01    0.1503124    0.1089037 -32.91  0.000949674    1.673    0.402
       290 -10.7951    174.6387     32.1630   3.3713405158e+01   3.7649558214e+01    0.1510268    0.1229958 -22.77 0.0002372485    1.561    0.359
       291 -12.2530    169.8340     31.1908   3.4126962127e+01   3.8856192824e+01    0.1687322    0.1371014  54.41 0.0003154148    1.296    0.228
       292 -11.8761    140.6725     29.7008   3.8277883026e+01   4.5742327491e+01    0.4228041    0.1526037  45.80  0.001616106    3.049    0.672
       293 -12.5647     75.2422     30.5204   5.4564641491e+01   5.9844713209e+01    0.2891752     0.119489  53.14  0.001040247    2.591    0.614
       294 -12.9145     39.1843     29.1030   6.8125563471e+01   6.6019283398e+01    0.2916917    0.2095025   6.11  0.001034306    1.209    0.173
       295 -10.9670    156.0138     29.2707   3.5642824366e+01   4.2248110360e+01    0.1637082    0.1001212  66.10 0.0003006088    1.434    0.303
       296 -11.7650    178.9617     27.9747   3.2150574688e+01   3.7169670414e+01    0.1841764     0.158361 -89.53 0.0003044976    1.027    0.026
       297 -11.7009     48.7419     26.9770   6.3055016180e+01   6.4903438293e+01    0.1520465   0.09920343 -26.54 0.0004896178    1.548    0.354
       298 -11.7633     24.8707     26.8204   7.4053046510e+01   6.8150495913e+01     0.205414    0.1726471  61.15  0.001145712    2.375    0.579
       299 -11.8004    237.5527    248.9957   6.8550020552e+01  -1.0992502136e+01    0.2425058    0.1603437  -1.14  0.001556837    1.288    0.224
       300 -10.4731    199.6830     24.7114   2.9071618365e+01   3.3001086075e+01    0.1111141   0.08800428  49.50  0.000293991    1.593    0.372
       301 -11.3255    172.0387     22.4285   3.1687163409e+01   3.9353025919e+01    0.2346804    0.1610621  -3.93  0.001260253    2.418    0.587
       302 -11.2784      2.5178     23.5154   8.4798670020e+01   7.0729026329e+01    0.1163662    0.0852406 -17.23 -1.731772e-05    1.000    0.000
       303 -11.6992    250.0359     22.0877   2.4302090838e+01   2.3306912295e+01    0.1652812    0.1227906 -69.64 0.0003542739    1.014    0.013
       304 -11.2028    157.3744    234.1680   8.2360733843e+01   2.1047507512e+00    0.1808622    0.1677441 -16.58  0.001112621    1.133    0.118
       305 -10.5351    134.4923     18.5588   3.6150856056e+01   4.8347074077e+01    0.1279692    0.1072463  63.82 0.0001308317    1.027    0.026
       306 -11.5497     67.5449     16.9009   5.1758914861e+01   6.2836865566e+01    0.3297585    0.1475682  56.50  0.001254921    2.570    0.611
       307 -10.5573    189.2249     20.0411   2.9142137364e+01   3.5792741370e+01    0.1353238   0.09616537 -39.93            0    1.518    0.341
       308 -11.2719    103.7381     15.5884   4.1248574976e+01   5.5550264478e+01    0.2497432   0.09689089  55.30  0.001122667    2.046    0.511
       309 -11.1018    126.2218    248.4592   9.1427642341e+01   4.0167318868e+00    0.3759214    0.1282163  39.14  0.001475244    2.531    0.605
       310 -16.9939     70.0851    205.9583   9.9157634894e+01   2.1488750754e+01     5.526755     1.111981  38.37   0.01689897    3.915    0.745
       311 -10.7090     41.4507     13.5666   6.0336351854e+01   6.7656107191e+01     0.119476   0.09323234  15.77 0.0001491194    1.025    0.025
       312 -10.7874    200.3183    247.1926   7.5365660401e+01  -6.2332248492e+00    0.1483005    0.1095902 -40.19  0.000894669    1.518    0.341
       313 -11.0974    139.7612    247.2310   8.8247933675e+01   2.2629856700e+00    0.1801799    0.1426001   2.74 0.0004934917    1.317    0.241
       314 -17.8895     69.6043    187.3617   9.6774001208e+01   2.6175881482e+01     3.326375      2.90443  13.27   0.01832195    1.300    0.231
