#   1 NUMBER                 Running object number                                     
#   2 MAG_AUTO               Kron-like elliptical aperture magnitude                    [mag]
#   3 X_IMAGE                Object position along x                                    [pixel]
#   4 Y_IMAGE                Object position along y                                    [pixel]
#   5 X_WORLD                Barycenter position along world x axis                     [deg]
#   6 Y_WORLD                Barycenter position along world y axis                     [deg]
#   7 A_WORLD                Profile RMS along major axis (world units)                 [deg]
#   8 B_WORLD                Profile RMS along minor axis (world units)                 [deg]
#   9 THETA_WORLD            Position angle (CCW/world-x)                               [deg]
#  10 FWHM_WORLD             FWHM assuming a gaussian core                              [deg]
#  11 ELONGATION             A_IMAGE/B_IMAGE                                           
#  12 ELLIPTICITY            1 - B_IMAGE/A_IMAGE                                       
         1 -14.8382    155.7961     51.1809   8.2390179392e+01   3.9945540787e+01     1.143217      1.13365 -33.87  0.003445412    1.066    0.062
         2 -15.0683    166.6451     21.8936   7.1747572678e+01   4.1057311058e+01     1.067728    0.9215427  74.19  0.003478453    1.061    0.058
         3 -13.7755    173.1046      3.7462   6.5725820098e+01   4.1308059781e+01      1.06411    0.4064586  83.61   0.00353856    4.085    0.755
         4 -14.1609    190.6060     14.5074   6.6322111672e+01   3.5957922653e+01    0.7648607    0.4923849 -83.83  0.003089013    1.643    0.391
         5 -13.3659    187.1440    242.0205   1.1943533653e+02  -2.9567206274e+00      0.50961    0.2344451  42.58   0.00203977    1.826    0.452
         6 -12.6250    190.3364    249.3077   1.1994490968e+02  -4.5670692909e+00    0.3821815    0.2814429  39.37  0.001156493    1.121    0.108
         7 -20.5620     86.2217    180.7211   1.3083444565e+02   2.6706783964e+01      15.4356     6.804478 -63.35   0.06627759    2.189    0.543
         8 -12.9108    230.4436    167.5656   9.7313964922e+01   1.3539873521e+00    0.5072935    0.2444095 -49.72   0.00201851    2.514    0.602
         9 -11.4763    211.6479    237.5126   1.1415277230e+02  -6.4716730800e+00    0.1867086      0.11722 -36.85 0.0006618713    1.804    0.446
        10 -11.9861    202.9253    173.2524   1.0382231539e+02   5.8211750505e+00     0.480233    0.2040974 -52.65  0.001635925    3.249    0.692
        11 -12.4480    194.6107    172.2348   1.0529506493e+02   7.7265223249e+00    0.5580171    0.3864896 -61.78   0.00192235    1.851    0.460
        12 -12.4023    191.8888    164.1008   1.0412213065e+02   9.8878720015e+00    0.7480828    0.3913985 -57.75  0.002764222    2.683    0.627
        13 -13.2667    189.2771    155.0242   1.0267102461e+02   1.2264169809e+01    0.5928279    0.5346519   8.30  0.001769425    1.206    0.171
        14 -11.1886    207.1350    170.6498   1.0243285587e+02   5.4490655543e+00    0.3085684    0.1980309 -55.13 0.0008692018    1.892    0.471
        15 -12.2195    186.5795    236.4388   1.1867541059e+02  -2.0092298751e+00    0.2284976    0.1948697  36.10 0.0005499714    1.011    0.011
        16 -10.1803    158.1864    242.8122   1.2500602698e+02   1.9525182538e+00    0.1532058    0.1386748  13.33 0.0003216644    1.303    0.232
        17 -11.8878    151.8656    239.1811   1.2569788777e+02   3.6565221444e+00    0.4095869    0.2979347 -27.36  0.001716598    1.999    0.500
        18 -12.5981    167.5705    156.0789   1.0759485690e+02   1.6766123771e+01    0.4356931    0.2981857  80.78  0.001273393    2.243    0.554
        19 -12.3099    207.4345    220.7829   1.1209669770e+02  -3.2581755208e+00    0.2591541    0.2315599 -33.37 0.0006217965    1.261    0.207
        20 -12.9885    161.1915    152.1682   1.0816189641e+02   1.8985477326e+01    0.3989716    0.3551843 -46.46  0.001907184    1.140    0.123
        21  -9.6318     20.2586    152.3086   1.4200196121e+02   4.1330890196e+01    0.1153307   0.07514048 -54.81 0.0001913909    1.523    0.343
        22 -12.6335    174.0037    148.3337   1.0443796873e+02   1.6999890393e+01    0.5555065    0.3536897 -57.38  0.001682429    1.787    0.441
        23 -10.8727     13.6429    142.1628   1.4236546444e+02   4.4169863998e+01    0.2062814    0.1281815 -71.17 0.0003379816    1.235    0.191
        24 -10.8358    217.3861    217.0525   1.0954927056e+02  -4.4340234567e+00     0.382089     0.118749 -44.74  0.001373725    3.903    0.744
        25 -11.4417    170.6623    137.0746   1.0255459357e+02   2.0131421960e+01    0.2659216    0.2138787  63.10 0.0005033248    1.326    0.246
        26 -10.9663     14.5528    133.2303   1.4107713658e+02   4.6104161464e+01    0.3225412    0.1603148 -39.23   0.00162942    2.668    0.625
        27  -8.3940     27.5397    227.4174   1.4725957534e+02   2.4546489504e+01     0.112658   0.08103835  77.83 0.0001478855    1.012    0.012
        28 -11.5693     37.7061    248.3251   1.4702736752e+02   1.9394027428e+01    0.1666529    0.1014014  79.59  0.001134126    1.290    0.225
        29 -13.0008    160.7176    128.1013   1.0263771616e+02   2.4302168509e+01    0.5123465    0.4245715 -65.34  0.001568441    1.292    0.226
        30 -10.5182     16.9883    209.1753   1.4778037787e+02   2.9330853029e+01    0.1853602    0.1406907 -62.78  0.001332194    1.603    0.376
        31 -11.3943    153.6942    125.4597   1.0362340424e+02   2.6456493961e+01    0.2877066    0.1536613  51.92 0.0008729479    1.947    0.486
        32 -12.2224    141.1142    120.7747   1.0548536659e+02   3.0262242748e+01    0.5195653    0.2871044  65.61  0.001798496    2.833    0.647
        33 -13.1251     11.4898    206.1198   1.4853027659e+02   3.0504163115e+01    0.4448365    0.3085951  34.55  0.002830648    1.907    0.476
        34 -12.6027     39.6607    115.4792   1.3181277868e+02   4.7923914344e+01    0.3352929     0.231589 -32.24  0.001062871    1.705    0.413
        35 -11.2995    231.2851    113.7046   8.5021010974e+01   1.0933352756e+01     0.276699    0.2582383 -64.97 0.0008263765    1.070    0.065
        36 -11.4553    167.6754    112.7840   9.7183838888e+01   2.5925165117e+01    0.3956984     0.293879 -74.71  0.001220459    1.718    0.418
        37 -11.2599      2.9093    112.4846   1.4134321978e+02   5.1507661839e+01    0.1969696    0.1221669 -55.78 0.0009595978    1.321    0.243
        38 -10.9964    205.4564    110.1552   8.8743689129e+01   1.7489233993e+01    0.3209084    0.2208389  44.23 0.0009142294    1.549    0.355
        39 -11.3810     38.9475    102.1309   1.2947614856e+02   5.0993730290e+01     0.230747     0.184796  20.23  0.000743031    1.519    0.342
        40 -11.2250      9.7283    212.2601   1.4924892980e+02   2.9433555749e+01    0.1495727   0.09919687 -89.76  0.000392187    1.123    0.109
        41 -10.9902    222.8952    198.8149   1.0509637641e+02  -2.5303578894e+00      0.20488    0.1670904   8.34 0.0004746159    1.208    0.173
        42 -11.7751     16.2001    193.6309   1.4675010813e+02   3.2639785402e+01    0.1890809    0.1335376 -74.16 0.0004986126    1.274    0.215
        43 -11.3287     24.0048    190.1594   1.4497789784e+02   3.2597705933e+01     0.177417    0.1279953 -82.00 0.0003241646    1.123    0.109
        44 -11.3427    141.8720     82.7137   9.4939321954e+01   3.7936679795e+01    0.2537972     0.209702 -24.43 0.0004907963    1.296    0.229
        45 -10.9658     17.5558    185.4645   1.4582052722e+02   3.4250635548e+01    0.4325497    0.1458768 -65.34  0.002107143    2.378    0.579
        46 -12.0453     60.7197     82.9703   1.1825461147e+02   5.2694901218e+01    0.2499132    0.1920331  27.65 0.0005052304    1.458    0.314
        47 -13.0586    238.5756    185.2773   9.9507683481e+01  -3.1631995295e+00    0.5195776     0.214329  38.14  0.002130577    2.504    0.601
        48 -14.6684    146.1798     65.6741   8.8855644834e+01   3.9970954708e+01     1.197879     1.045008  50.19   0.00146287    1.112    0.101
        49 -13.2707    198.2274    245.7251   1.1794498934e+02  -5.3840898140e+00    0.4599796    0.2972586  61.17  0.002432256    2.188    0.543
        50 -13.7167    159.6606     42.2688   7.8955544222e+01   4.0264448927e+01    0.5368773    0.5245583 -36.67 0.0007944134    1.100    0.091
        51 -11.6337     13.3998     59.7765   1.2832313338e+02   6.1851962508e+01    0.1971451    0.1779296 -54.23 0.0004567131    1.252    0.201
        52 -10.8427     22.6051    184.8622   1.4478138411e+02   3.3884048707e+01    0.1638788    0.1348918 -89.56 0.0006140174    1.141    0.124
        53 -14.3407    238.1359    174.6751   9.7409328717e+01  -1.3284765444e+00    0.8365285    0.6344466  34.43  0.004626774    1.328    0.247
