#   1 NUMBER                 Running object number                                     
#   2 MAG_AUTO               Kron-like elliptical aperture magnitude                    [mag]
#   3 X_IMAGE                Object position along x                                    [pixel]
#   4 Y_IMAGE                Object position along y                                    [pixel]
#   5 X_WORLD                Barycenter position along world x axis                     [deg]
#   6 Y_WORLD                Barycenter position along world y axis                     [deg]
#   7 A_WORLD                Profile RMS along major axis (world units)                 [deg]
#   8 B_WORLD                Profile RMS along minor axis (world units)                 [deg]
#   9 THETA_WORLD            Position angle (CCW/world-x)                               [deg]
#  10 FWHM_WORLD             FWHM assuming a gaussian core                              [deg]
#  11 ELONGATION             A_IMAGE/B_IMAGE                                           
#  12 ELLIPTICITY            1 - B_IMAGE/A_IMAGE                                       
         1 -13.3859     66.7293    143.3868   1.2669352595e+02   3.8384407166e+01     3.344991     1.516091 -82.15  0.003027544    6.073    0.835
         2 -15.8279     10.6133    205.4137   1.4690257369e+02   3.0471255009e+01     9.459785       6.0555  85.37   0.02153442    1.213    0.176
         3 -14.0905    202.1576     18.9114   6.2756405530e+01   3.2258203771e+01     1.729982     1.458577  11.23  0.008219276    1.714    0.417
         4 -13.9525    208.5399     11.8886   6.0434737376e+01   3.1515182957e+01     3.221287     1.616765  35.15  0.001277485    4.419    0.774
         5 -11.4913      2.2927     13.9473   1.1613402253e+02   7.0609760326e+01    0.2999727    0.2131979 -13.37  0.001604485    1.103    0.094
         6 -11.7801      1.9215      6.4946   1.1329563055e+02   7.1673901912e+01    0.5649105    0.2356098 -34.70  0.003491016    1.842    0.457
         7 -11.4618      2.5634     22.1783   1.1907144775e+02   6.9363256594e+01    0.4902684    0.1124235 -49.99  0.002143603    3.616    0.723
         8  -9.9192    247.3211    232.6709   1.0257155577e+02  -1.2244780117e+01    0.1047485      0.10072  69.29 0.0007048508    1.691    0.408
         9 -11.4090    248.0956    249.4037   1.0534434714e+02  -1.4532993138e+01    0.4454811    0.2133055  31.04  0.002417668    1.819    0.450
        10 -12.1589    139.6248    248.8845   1.2612090123e+02   3.2365931248e+00    0.4625353    0.3412352  55.93  0.002686799    1.229    0.186
        11 -11.6811    129.0079    247.5022   1.2803699836e+02   5.2947358069e+00    0.3129057    0.1716322  37.76  0.001584543    1.672    0.402
        12 -12.0991    100.4311    238.7494   1.3262093425e+02   1.1682303257e+01    0.3756709    0.3408446  83.99 0.0008911579    1.185    0.156
        13 -12.6065    108.4588    246.6980   1.3196688651e+02   8.8733285327e+00    0.8979076    0.3360967  57.43  0.003359456    3.374    0.704
        14 -11.9373     90.6033    246.7774   1.3541080112e+02   1.1703439737e+01    0.4168389    0.2813913  73.92 0.0006720789    1.419    0.295
        15 -12.1489     87.8944    243.0866   1.3554193933e+02   1.2825230941e+01    0.3902838    0.2939623  49.97 0.0003606108    1.193    0.162
        16 -10.7515     46.8096    249.1025   1.4360625442e+02   1.7492666213e+01    0.5897907     0.177106  49.25   0.00276853    2.561    0.610
        17 -10.7872     29.8898    249.9626   1.4654473968e+02   1.9422626524e+01     0.388324    0.1817759  42.32  0.002159363    1.986    0.497
        18 -12.0569     34.6465    245.6104   1.4545019706e+02   1.9681049304e+01    0.7330968    0.3432575  56.26  0.003933372    1.711    0.415
        19 -11.0381     37.2038    241.6750   1.4472857848e+02   2.0131009348e+01    0.5523188    0.1932314  63.80  0.002403023    3.142    0.682
        20 -11.4851      1.7107    239.7069   1.5054466287e+02   2.4441350827e+01    0.6728527    0.2577143 -84.19  0.002867094    2.187    0.543
        21 -11.1341      1.9882    249.7398   1.5101000164e+02   2.2530219709e+01     1.173132    0.1538473  37.37  0.004523715    5.887    0.830
        22 -11.2659      5.5091    248.0172   1.5037472269e+02   2.2489487285e+01    0.5785639    0.2392409  57.17  0.002606512    1.854    0.461
        23 -14.5484     48.0886    216.1039   1.4059236255e+02   2.3992167442e+01     1.570285     1.183174 -58.09   0.00621666    1.590    0.371
        24  -9.3771    115.3407    240.3127   1.2984468076e+02   8.9241121393e+00    0.1211823    0.1021399  10.45 0.0007046548    1.699    0.411
        25  -9.4983     78.5685    210.7491   1.3378087855e+02   2.0900319375e+01    0.2356609     0.117575 -61.56 0.0009899922    1.996    0.499
        26 -11.0696    191.6942    250.0124   1.1603079347e+02  -5.8734448619e+00    0.4284338      0.12859  34.77  0.001531179    3.366    0.703
        27 -10.5096    228.2051    204.7566   1.0094345400e+02  -5.0256044000e+00     0.272513    0.2170346 -46.77 0.0006291252    1.499    0.333
        28  -9.9737    192.0680    193.2728   1.0595384173e+02   3.6872086164e+00    0.5366518    0.2968253 -67.16  0.001683563    4.636    0.784
        29 -11.7699     66.2061    193.2843   1.3431425017e+02   2.6613976812e+01    0.4194099    0.2566179 -47.61  0.001864142    2.018    0.504
        30 -11.8183     71.3989    186.0388   1.3219434047e+02   2.7542195832e+01    0.3104465    0.2479706 -51.68 0.0005484052    1.421    0.296
        31  -8.6028    181.5058    192.4419   1.0804061111e+02   5.9361515886e+00    0.1469282    0.1361279  28.39 9.493586e-05    1.013    0.013
        32 -11.1201     80.5820    174.3294   1.2831654093e+02   2.8922897470e+01    0.2510721     0.228967 -83.13 0.0002910026    1.064    0.060
        33 -13.3823     67.9603    171.5883   1.3096074201e+02   3.1435667041e+01    0.5215057    0.2852948 -44.39  0.001506322    2.262    0.558
        34 -10.2694    104.3512    173.0216   1.2228856706e+02   2.5295513909e+01    0.4204713    0.1985164  48.58  0.001668276    2.135    0.532
        35 -12.3945     86.3984    165.1784   1.2538490224e+02   3.0195063038e+01     1.366288    0.6679485  59.55  0.002148752    2.782    0.641
        36  -9.6771    224.6625    246.3267   1.0912358742e+02  -1.0673507374e+01    0.1119842   0.09667264  59.10 -0.0001294377    1.726    0.421
        37 -12.2039     88.7427    148.9131   1.2182180145e+02   3.3735277007e+01    0.2982216    0.2559656 -40.13 0.0005444104    1.271    0.213
        38 -13.1592    100.8376    249.0654   1.3370325549e+02   9.6663313525e+00    0.9857235    0.5064557  55.38  0.005089933    1.713    0.416
        39 -11.8530     25.8705    234.5591   1.4620014066e+02   2.2870318548e+01    0.3965112    0.3549913  21.47  0.001851122    1.838    0.456
        40  -9.6091    110.8047    135.6913   1.1311099653e+02   3.2991212562e+01    0.3197084    0.2282482 -24.48  0.001321448    1.869    0.465
        41  -9.7592     99.9750    149.9361   1.1905055972e+02   3.1579890266e+01     0.291357    0.2156592 -49.47 0.0007145874    1.346    0.257
        42 -10.6033     98.2786    132.6519   1.1585338174e+02   3.6011930683e+01    0.2816432    0.2331582 -26.06 0.0003424076    1.396    0.284
        43 -10.4086     44.8295    130.1465   1.3038505017e+02   4.4241792615e+01    0.1869199    0.1433257 -42.96  0.001083144    1.329    0.247
        44  -9.5129    107.7230    122.8993   1.1095890398e+02   3.6566233118e+01    0.2118272    0.1935828 -32.75 0.0003848684    1.127    0.112
        45 -12.4992     63.7647    218.7589   1.3773714730e+02   2.1329821629e+01    0.6611771    0.3336829  56.26  0.001100929    1.812    0.448
        46 -10.7725    168.0372    113.0357   9.3027005183e+01   2.5538771501e+01    0.3873998    0.2986376 -83.38 0.0009008707    1.654    0.396
        47  -9.5325    204.9929    110.8771   8.4831043536e+01   1.7189373849e+01    0.4243697    0.1857871  40.94  0.001452671    2.864    0.651
        48 -11.7243     75.4295    228.9543   1.3648090633e+02   1.7519691109e+01    0.3094052    0.2163815  67.36 0.0005056642    1.233    0.189
        49  -9.4067    102.9683    145.7102   1.1739322145e+02   3.2060283435e+01    0.3023184    0.1896829 -30.61  0.001226261    2.250    0.556
        50 -10.4803     84.0237    238.3158   1.3578657904e+02   1.4346738348e+01    0.2369483    0.1554364  84.11 0.0006105978    1.555    0.357
        51 -11.1493      1.9114     89.4048   1.3615371387e+02   5.6826182249e+01    0.4393274    0.1201532 -66.47  0.001840864    2.934    0.659
        52 -10.0182    157.1850     77.1891   8.5763677322e+01   3.5078737175e+01    0.2124939    0.1802595 -79.42 0.0004753933    1.331    0.249
        53  -8.6915    184.5448     77.4901   8.0235907262e+01   2.8265097039e+01    0.1498418    0.1429776  78.55 2.529078e-05    1.032    0.031
        54 -10.8627    111.7142     44.2207   8.6684152663e+01   5.0810021591e+01      0.54124    0.3374776  77.97  0.002160863    3.181    0.686
        55 -12.7216     15.9430    241.1420   1.4830900692e+02   2.2687766686e+01     1.868267    0.5529956  64.96  0.007655718    3.934    0.746
        56 -11.6057     13.9888    197.2686   1.4564752307e+02   3.1887937383e+01    0.3891661    0.2272762  60.72 0.0009375467    1.549    0.354
        57 -13.8998     56.7093    226.7526   1.3991377148e+02   2.0622888104e+01      3.54437     1.619347  29.09   0.01542064    3.389    0.705
        58 -12.7126     40.6711    226.0437   1.4288953238e+02   2.2838327753e+01    0.3388745    0.2744203 -87.85 0.0007389765    1.189    0.159
