#   1 NUMBER                 Running object number                                     
#   2 MAG_AUTO               Kron-like elliptical aperture magnitude                    [mag]
#   3 X_IMAGE                Object position along x                                    [pixel]
#   4 Y_IMAGE                Object position along y                                    [pixel]
#   5 X_WORLD                Barycenter position along world x axis                     [deg]
#   6 Y_WORLD                Barycenter position along world y axis                     [deg]
#   7 A_WORLD                Profile RMS along major axis (world units)                 [deg]
#   8 B_WORLD                Profile RMS along minor axis (world units)                 [deg]
#   9 THETA_WORLD            Position angle (CCW/world-x)                               [deg]
#  10 FWHM_WORLD             FWHM assuming a gaussian core                              [deg]
#  11 ELONGATION             A_IMAGE/B_IMAGE                                           
#  12 ELLIPTICITY            1 - B_IMAGE/A_IMAGE                                       
         1 -14.2611    186.5338     29.8990   6.7693768554e+01   3.4544719243e+01    0.9710776    0.9061305  67.69  0.003910364    1.130    0.115
         2 -14.6166    194.5458     17.8953   6.3722460336e+01   3.3988348972e+01     1.138005    0.8975234 -14.43  0.001901877    1.695    0.410
         3 -12.5415    208.6806      2.8702   5.8785977035e+01   3.2242246166e+01    0.4078208    0.2368596  83.54  0.002278603    1.506    0.336
         4 -10.4446     59.3289      2.6668   8.6517249981e+01   6.4653450401e+01   0.09664917   0.09293873 -64.25 0.0005117324    1.720    0.419
         5 -11.5347    107.5151    236.8980   1.3039719073e+02   1.1358230152e+01    0.2414764    0.1604762 -71.54 0.0007981263    1.691    0.409
         6 -19.5843     18.2135    147.4718   1.3901157670e+02   4.2681859779e+01     18.96341     4.143074 -71.45   0.06047919    4.666    0.786
         7 -11.6650    191.5131    231.8023   1.1266830139e+02  -2.2743884087e+00    0.3963014    0.2291935 -58.41  0.001812011    2.786    0.641
         8 -11.7882    175.1959    220.2131   1.1400392703e+02   2.5854783521e+00    0.2801014    0.1852432   1.63  0.001262252    2.375    0.579
         9 -10.0423     72.9531    175.5272   1.2960307597e+02   2.9912646412e+01    0.1906926    0.1310821  40.31 0.0003873836    1.508    0.337
        10 -16.0350     73.8759    152.0958   1.2556616641e+02   3.5268956665e+01     13.55932     6.734573  85.47   0.01517332   13.563    0.926
        11 -12.3665    198.7184    199.8784   1.0546353144e+02   1.8616028439e+00     0.389463    0.3364974  16.04  0.001912705    1.099    0.090
        12 -11.0801    137.1283    170.6909   1.1328854286e+02   1.9895093229e+01    0.2540519    0.1878045  61.30    0.0011997    1.477    0.323
        13 -10.5562    183.6551    214.3262   1.1123098681e+02   2.0813816436e+00    0.1370225    0.1083656  72.36 0.0007050503    1.744    0.427
        14 -12.5566     96.6579    159.1872   1.2101076176e+02   3.0021377742e+01    0.6612437    0.4093818 -32.17   0.00280472    2.298    0.565
        15 -11.7741     59.2263    153.9881   1.2965433539e+02   3.6825333122e+01    0.2260063    0.1983242  48.06 0.0008484742    1.228    0.185
        16 -11.3216    133.8848    144.9238   1.0862253374e+02   2.6319798720e+01    0.9955481    0.2213046 -53.44  0.002060338    7.275    0.863
        17 -10.8057    179.9470    147.8967   9.8520993182e+01   1.5795244738e+01    0.2321871    0.2304635  58.62 0.0005727184    1.027    0.027
        18 -11.6468    107.8205    142.6518   1.1480112090e+02   3.1913661246e+01    0.5836261    0.2887477 -35.44  0.002073126    2.846    0.649
        19 -12.3514     96.0535    143.5756   1.1810216182e+02   3.3778322174e+01    0.2781991    0.2614684 -23.09 0.0004868968    1.169    0.145
        20 -12.6013    191.1788    190.7243   1.0523089928e+02   4.9740443215e+00     1.295655     0.583247 -59.32  0.003735272    5.270    0.810
        21  -9.7333     92.6627    206.8618   1.2959597109e+02   1.9866588078e+01    0.1879561    0.1186027 -76.29 0.0009221946    1.730    0.422
        22 -11.3276    115.0811    132.2263   1.1055508833e+02   3.2939666056e+01    0.3359539    0.2693533 -13.71 0.0008719574    1.564    0.361
        23 -10.4956    160.6149    127.8136   9.8121182646e+01   2.4277415384e+01      0.23292     0.144817 -54.21  0.000955036    1.777    0.437
        24 -11.6491    103.8668    129.4669   1.1292907554e+02   3.5666376218e+01    0.5165616    0.3513952  62.17  0.001223511    1.845    0.458
        25 -11.3563    103.1952    236.3302   1.3118831514e+02   1.2164358429e+01    0.2570776    0.1989435  61.62 0.0004147825    1.121    0.108
        26 -10.4031    110.3130    120.5851   1.0906603753e+02   3.6468463091e+01    0.2514657    0.2228343 -53.88 0.0002839815    1.123    0.109
        27 -11.4279    208.8924    187.7013   1.0101796764e+02   2.1330179454e+00    0.2734585    0.2118939 -42.39  0.001083152    1.354    0.261
        28 -10.4492    168.0920    113.0669   9.2746251063e+01   2.5589196439e+01    0.3674887    0.2511652 -83.15  0.001298306    2.352    0.575
        29  -9.9478    205.0478    110.4630   8.4607150240e+01   1.7521227369e+01    0.2306986    0.1452787  51.02  0.001034276    1.618    0.382
        30 -11.5401     83.2317    204.6482   1.3134501725e+02   2.1818108177e+01    0.3883753    0.2464361 -85.27  0.001975172    1.751    0.429
        31 -12.2009     64.2537    104.7421   1.1861201232e+02   4.7500540814e+01    0.3258457    0.2467128  13.89  0.001296101    1.522    0.343
        32  -9.6501    123.7385    101.9835   1.0063582705e+02   3.7761206556e+01    0.1932304    0.1303395 -42.43 0.0004529071    1.487    0.328
        33 -11.6295     52.3852     89.4521   1.1864597544e+02   5.2263782104e+01    0.2661119    0.2310105  46.12  0.000866281    1.391    0.281
        34 -12.2833     80.4054    182.8040   1.2893125821e+02   2.7133769567e+01    0.4590049    0.3005314 -40.82  0.001707157    1.946    0.486
        35 -12.1207     84.0571    177.1357   1.2720295048e+02   2.7878437009e+01     0.342596    0.2546849 -45.95 0.0008153051    1.501    0.334
        36 -13.5506    176.7158     38.3541   7.1331906360e+01   3.5889241279e+01    0.7399185    0.5541261 -16.97  0.001201244    1.683    0.406
        37 -10.6708    105.2954    244.3510   1.3172755956e+02   1.0315592967e+01     0.113522    0.1000646  -4.44 0.0006756863    1.682    0.406
        38 -11.9699    194.9862    242.0116   1.1367121214e+02  -4.4609911535e+00    0.2703629    0.1930272 -49.29  0.001196586    1.780    0.438
        39 -11.1950    169.3979    234.2088   1.1749318865e+02   1.1963996743e+00    0.1740272    0.1292457 -61.49 0.0009599727    1.750    0.428
        40 -10.7972    199.5479    179.4547   1.0122527705e+02   5.4572059037e+00    0.3781143    0.2529578 -58.86  0.001495046    1.962    0.490
        41 -11.5061    185.9886    238.7027   1.1489852603e+02  -2.4252141087e+00    0.1965593    0.1550913  33.35 0.0009498144    1.080    0.074
