#   1 NUMBER                 Running object number                                     
#   2 MAG_AUTO               Kron-like elliptical aperture magnitude                    [mag]
#   3 X_IMAGE                Object position along x                                    [pixel]
#   4 Y_IMAGE                Object position along y                                    [pixel]
#   5 X_WORLD                Barycenter position along world x axis                     [deg]
#   6 Y_WORLD                Barycenter position along world y axis                     [deg]
#   7 A_WORLD                Profile RMS along major axis (world units)                 [deg]
#   8 B_WORLD                Profile RMS along minor axis (world units)                 [deg]
#   9 THETA_WORLD            Position angle (CCW/world-x)                               [deg]
#  10 FWHM_WORLD             FWHM assuming a gaussian core                              [deg]
#  11 ELONGATION             A_IMAGE/B_IMAGE                                           
#  12 ELLIPTICITY            1 - B_IMAGE/A_IMAGE                                       
         1 -10.6583     32.9858     63.5835   1.0517117839e+02   6.0110649796e+01     1.562328    0.4654264 -36.77  0.004713364    5.525    0.819
         2 -11.0860     23.9177     32.0945   9.9226305644e+01   6.7213732773e+01     1.575833    0.4135771 -40.71  0.003809618    3.216    0.689
         3 -10.7191     37.3112      9.7016   8.3203049918e+01   6.9494723831e+01    0.8182845    0.3328097 -41.36  0.001878306    2.466    0.595
         4 -10.3883     26.5711     11.1184   8.9128719496e+01   7.0516535181e+01     0.742232    0.3970584  24.66  0.003494011    1.967    0.492
         5 -10.2606     18.3025      5.3233   9.0588006454e+01   7.2205416795e+01    0.5841893    0.4361872 -50.63   0.00328537    1.820    0.451
         6 -10.1390     50.5832     15.6289   8.0169242766e+01   6.6881701956e+01     1.012928    0.5588746   2.18  0.004761314    2.582    0.613
         7 -10.7046      7.0616     29.8961   1.0641270618e+02   6.8826914799e+01    0.5925871    0.3925976 -57.98  0.002586982    1.380    0.275
         8 -10.0777      6.1930      5.2048   9.7254804504e+01   7.3217561900e+01    0.3587355    0.2344571 -32.69  0.001574401    1.129    0.114
         9  -9.8407      2.5160      3.1462   9.8416005452e+01   7.3795667976e+01    0.2553736    0.1404135 -36.05 0.0009911932    1.335    0.251
        10  -8.4172     72.0138      8.5266   6.8484438225e+01   6.4273886517e+01    0.2613421    0.1582071 -12.29  0.001050365    1.660    0.397
        11  -9.7408     73.6018     19.7101   7.3127434982e+01   6.2616747526e+01    0.5084913     0.230836 -33.96 0.0007679792    2.139    0.533
        12 -10.0506     76.7800      6.6329   6.5980931419e+01   6.3591404388e+01     1.735583    0.6575947  -8.52  0.004669223    7.254    0.862
        13 -10.2184     69.5056     40.2282   8.3297935019e+01   6.0176614329e+01     1.164425    0.3873285 -39.65  0.003979228    2.788    0.641
        14  -9.6612     60.2980     33.6737   8.4177010558e+01   6.2696835142e+01    0.7224374    0.2336837 -39.48  0.002839104    2.821    0.645
        15 -10.4181     62.1366      3.8677   6.9738194808e+01   6.6534711813e+01    0.6949583    0.4567286   4.95  0.004066771    1.480    0.324
        16  -9.8262     63.2954     21.3892   7.7699952571e+01   6.4132752869e+01    0.7068897    0.3158917 -43.81  0.002692121    2.666    0.625
        17  -9.7730     64.5814     13.3545   7.3476970123e+01   6.5002215044e+01     0.345018    0.2726188  -4.42    0.0002352    1.095    0.087
        18 -10.5193     35.9011     37.9877   9.6008581502e+01   6.4993476025e+01    0.5544704    0.2837406 -28.33 0.0003631298    2.050    0.512
        19  -9.3255    102.9358     21.2559   6.4602300024e+01   5.6597077510e+01    0.4123764    0.2461977 -33.48 0.0006680008    1.740    0.425
        20  -9.7719      2.3565     14.2706   1.0326619803e+02   7.1945747438e+01    0.6762045    0.2180481 -59.79  0.002858645    3.771    0.735
        21  -8.2387    111.6585     21.2320   6.2280386351e+01   5.4661953069e+01    0.5425562    0.1724901 -30.69  0.001972011    3.081    0.675
        22  -9.7752    118.8324     20.2441   6.0126087031e+01   5.3122855675e+01    0.5964713    0.2932867 -14.72  0.001818134    2.508    0.601
        23  -8.6124    120.7936      6.3727   5.4281002552e+01   5.4091891967e+01    0.3125721    0.1593608  62.87   0.00120546    1.844    0.458
        24  -8.7618    125.0808     13.0918   5.5965116079e+01   5.2414790020e+01    0.3596596    0.2810299 -60.25  0.001249524    1.590    0.371
        25  -8.6767    126.8184      9.1695   5.4114230710e+01   5.2382923280e+01    0.2744887    0.1921636  33.74  0.001366532    1.411    0.291
        26  -8.7959    125.9952      4.9454   5.2676240329e+01   5.2971900288e+01    0.4715493    0.2452049  21.89  0.001992694    2.541    0.607
        27  -9.8332     10.7912     18.4263   1.0044644113e+02   7.0685250734e+01    0.6388329    0.2432365 -22.12  0.002576514    4.183    0.761
        28  -9.3087     96.2546     15.1298   6.3895166338e+01   5.8747719468e+01    0.5582541    0.2488984 -16.49  0.001918735    2.694    0.629
        29  -9.7217     85.1967     12.8173   6.6158994280e+01   6.1277710425e+01    0.5137138    0.2715074 -43.45  0.002194234    2.478    0.596
        30  -7.9554     80.5018     12.3481   6.7435185721e+01   6.2249023138e+01    0.2260907    0.1475673 -32.73   0.00122401    1.616    0.381
        31  -9.0321     88.0619      2.9067   6.0804663760e+01   6.1720166321e+01    0.4685894     0.302001  31.34  0.001348644    1.414    0.293
        32  -8.5240    141.7589     11.6744   5.2174084146e+01   4.8448961562e+01    0.3632096    0.1841635  -0.85  0.001293698    2.994    0.666
        33  -9.3862    133.5289     11.5511   5.3670371373e+01   5.0510381244e+01    0.3412441    0.2425656 -61.74  0.001075795    1.783    0.439
        34  -9.0582    137.2149      9.0822   5.2076225330e+01   4.9836830775e+01    0.2891706      0.19823  -0.02 0.0009820809    1.718    0.418
        35  -8.6014    169.0312     12.0693   4.7928731461e+01   4.1432196545e+01    0.2038188    0.1856413  79.32   0.00119763    1.023    0.022
        36  -9.1691    113.6118     10.2642   5.7407100792e+01   5.5408055885e+01    0.4196042    0.2090044  41.06 0.0003509851    1.894    0.472
        37  -8.7071    102.0810      8.1869   5.9357253161e+01   5.8220231625e+01    0.2775365    0.1773737 -32.07 0.0005931983    1.692    0.409
        38  -9.1375    110.3504      5.1696   5.6091015196e+01   5.6643815900e+01    0.5369806    0.2638607 -25.05  0.002511309    2.122    0.529
        39  -8.8649    104.4648      2.5350   5.6371331001e+01   5.8214429180e+01    0.3806238    0.2329145  39.71   0.00193505    1.461    0.315
        40  -7.4656     67.8612      9.1287   7.0239324505e+01   6.4949715315e+01    0.1722562    0.1249823  10.42 0.0004334205    1.266    0.210
        41  -7.9913    155.9516      8.0453   4.8571647139e+01   4.5196189487e+01    0.2317327    0.1509781  35.30  0.001137903    1.685    0.407
        42  -8.0277    130.8614      5.8333   5.2071761399e+01   5.1707196043e+01    0.1794585    0.1580612 -70.97 0.0004415151    1.309    0.236
        43  -8.4530    134.3618      5.1433   5.1169045266e+01   5.0907357409e+01    0.2286228    0.1635079 -68.43 0.0006661449    1.768    0.434
        44  -8.5222    136.1702      1.6048   4.9565281787e+01   5.0765606045e+01    0.3327694    0.1609655  60.92  0.001085155    1.767    0.434
        45  -8.5311     97.6924      5.7121   5.9429532351e+01   5.9418474611e+01    0.2065546    0.1615928  25.88 0.0002449454    1.153    0.133
        46  -8.7847     95.9801      3.0074   5.8693705832e+01   6.0039400456e+01    0.2242853    0.2059677 -19.37 0.0003249331    1.233    0.189
        47  -7.8544    143.4055      5.1649   4.9601625054e+01   4.8648990755e+01    0.1824873    0.1200376 -39.30 0.0005594327    1.670    0.401
        48  -8.9601    115.4601      4.2525   5.4579464223e+01   5.5541950053e+01    0.2699703    0.2210721 -46.40 0.0004926888    1.453    0.312
        49  -8.0201    151.0042      1.7711   4.7236161482e+01   4.7024674020e+01    0.2209686    0.1416299 -73.42  0.000783634    1.924    0.480
        50  -9.8701    127.6116    102.4341   8.5368978173e+01   3.6811680130e+01    0.6697528    0.4163074 -46.38  0.002264785    1.578    0.366
        51  -9.8906    200.3828    249.5012   9.8282502946e+01  -4.1352294765e+00    0.3792966    0.1780357  30.55  0.002005567    1.909    0.476
        52 -10.1547    158.1145    248.8639   1.0574503482e+02   2.5752487728e+00    0.6263212     0.183263  49.91  0.002301582    3.887    0.743
        53 -10.3343    139.3652    104.5873   8.2901465974e+01   3.3787641547e+01    0.8388474    0.4866886 -41.52  0.002801395    1.718    0.418
        54 -10.6853    131.8034    119.3875   8.8668839195e+01   3.2192757941e+01     1.002668    0.6656768 -84.36  0.002479422    2.540    0.606
        55 -11.1274    133.6926    109.2979   8.5610792099e+01   3.4013682012e+01     1.614315    0.5024705 -49.78  0.004698872    3.512    0.715
        56 -10.0947    108.7094    114.4706   9.3609346063e+01   3.7906928215e+01    0.6714642    0.3865211 -71.10  0.001358915    2.612    0.617
        57 -11.0411    121.1031    109.6002   8.9010185811e+01   3.6586064524e+01     1.186095    0.6907244 -51.59  0.002906348    1.714    0.416
        58 -10.7202    108.7040    100.5335   9.0061947328e+01   4.1074241391e+01     1.018651    0.7627573 -81.30  0.004696277    1.770    0.435
        59 -10.1448     58.3383    124.5317   1.0987775612e+02   4.3369500380e+01    0.6325325    0.3460146  83.17   0.00250292    2.853    0.650
        60 -10.3398     27.1443    118.6656   1.1767455918e+02   4.8017066349e+01      1.49326     0.532093 -69.59  0.003747536    2.294    0.564
        61  -8.9920     53.6779     37.8055   8.8475699666e+01   6.2921431038e+01    0.5700844    0.1938257 -37.17  0.002240331    2.828    0.646
        62 -10.4590     25.8523     78.1945   1.1121932232e+02   5.7490230809e+01    0.6388421    0.3823943  82.85   0.00185087    2.529    0.605
        63 -10.4685    182.4269    247.6670   1.0121543249e+02  -1.1105317490e+00    0.4038318    0.2271053  25.40  0.002236044    1.865    0.464
        64 -10.7627     21.3609    101.4336   1.1685163181e+02   5.2508270859e+01     1.033754    0.4879667  84.47  0.003326384    3.278    0.695
        65 -10.1454     19.6899     86.1193   1.1484625147e+02   5.6154491499e+01     0.980328     0.128902 -58.66  0.003391357    3.701    0.730
        66  -8.6860     43.9291     53.8841   9.8092802390e+01   6.1048701537e+01    0.2159634    0.1728064 -48.94 0.0003395994    1.162    0.139
        67  -9.9596     34.5467     90.6244   1.1080321997e+02   5.3924002174e+01    0.6032225    0.2761504 -80.99  0.001741848    3.374    0.704
        68  -9.8953     37.0399     80.8201   1.0789696950e+02   5.5935907839e+01    0.6584103    0.3401404 -23.16  0.002838242    3.091    0.676
        69 -10.0736     49.9961     54.5521   9.5933668498e+01   6.0218364394e+01    0.4675302    0.3606722 -77.47   0.00133434    1.865    0.464
        70 -10.0171     55.3337     44.1923   9.0241064596e+01   6.1545416602e+01     1.057636    0.5440656  -6.63  0.003350359    5.466    0.817
        71  -8.1347    158.4986    122.3274   8.2860960103e+01   2.5741350575e+01    0.2730423    0.1902348  68.40  0.001155073    1.834    0.455
        72  -8.0574      9.4774    122.4749   1.2290848130e+02   4.8493130676e+01     0.120316   0.09259482 -78.31 0.0002810662    1.018    0.017
        73  -8.5828     99.2651    119.8080   9.7469875287e+01   3.8382749556e+01    0.4061044    0.2518204   7.68  0.001433298    3.543    0.718
        74  -8.4253      1.5409    116.6714   1.2439568385e+02   5.0325372783e+01    0.3401335    0.1148134 -83.10   0.00116416    2.815    0.645
        75 -10.1969     78.2478    113.0940   1.0195779420e+02   4.3384010135e+01    0.5486136    0.3328439 -81.45   0.00167662    2.308    0.567
        76  -9.7517     81.1013     99.9712   9.8075278555e+01   4.6024723470e+01    0.9479154    0.3562501 -46.63  0.002444214    2.520    0.603
        77  -8.6437    152.9731    114.7908   8.2251839387e+01   2.8568428713e+01    0.2872723    0.1981811 -56.87  0.001116467    1.610    0.379
        78 -10.0947     91.9287    112.9209   9.7962034647e+01   4.1253581402e+01    0.5933762    0.4138815  81.38  0.001695497    2.001    0.500
        79  -8.6870     92.3344    104.0164   9.5708409497e+01   4.3256385141e+01    0.6323408    0.3937406  12.44  0.002494388    2.801    0.643
        80  -7.2973    167.2407    113.9952   7.8730977990e+01   2.5463612678e+01    0.1993806    0.1317204 -40.87 0.0004934281    1.507    0.336
        81  -9.6069    240.4965    111.9896   6.4276961760e+01   9.2777504940e+00    0.3400019    0.1788748 -47.38  0.001016943    2.015    0.504
        82 -10.3287     65.9024    108.9462   1.0472144637e+02   4.6114515712e+01     1.098946    0.4405152 -59.38  0.003056661    2.235    0.553
        83  -9.4229     59.2594    109.2376   1.0677051938e+02   4.6901477971e+01     0.471877    0.2292056 -62.45   0.00161873    1.845    0.458
        84 -10.4590     63.0416     95.8064   1.0270500159e+02   4.9578010661e+01    0.6127989    0.3908391  89.56  0.001631116    2.419    0.587
        85  -8.5925     64.1357     86.1502   9.9993727741e+01   5.1649931315e+01    0.4235235    0.2200737 -33.53  0.001719548    2.434    0.589
        86  -8.7357     63.7658     82.5892   9.9190446453e+01   5.2501372072e+01    0.3848896    0.2003013 -67.67  0.001572699    2.523    0.604
        87  -8.6659     56.2106    113.2593   1.0845560065e+02   4.6318428883e+01    0.1864631    0.1472431  83.01 0.0009537832    1.354    0.261
        88  -9.8690     14.2663    111.3698   1.2031419131e+02   5.0720135954e+01    0.4650445     0.239928  78.75  0.001664018    2.320    0.569
        89  -8.4451     14.0683    105.0368   1.1954089816e+02   5.2197116601e+01    0.2072443    0.1443033 -42.30 0.0008002296    1.545    0.353
        90  -8.5952    158.9016    112.0947   8.0148715701e+01   2.7778764181e+01    0.2373824    0.2127963 -72.49 0.0004769848    1.217    0.179
        91  -9.6771    210.3612    110.9205   6.9138274962e+01   1.6039350932e+01    0.2513069    0.2327303  41.74 0.0002059663    1.119    0.107
        92  -8.5960    149.7494    110.2152   8.1832356925e+01   3.0261763864e+01    0.2871495     0.189432 -46.15 0.0007808417    1.514    0.339
        93  -9.2738     35.9274    110.9850   1.1401972069e+02   4.9034441099e+01    0.2036486    0.1667583 -70.02  0.000728754    1.010    0.010
        94 -10.9683     45.0844    102.6566   1.0979373253e+02   5.0085695249e+01    0.9010998    0.4579258  67.30  0.003020888    3.738    0.732
        95  -8.8875     40.0944    107.0865   1.1212536919e+02   4.9551184434e+01    0.1987718    0.1637483 -75.95  0.000505212    1.086    0.079
        96  -8.5170    166.1016    104.0938   7.6363934376e+01   2.7723792896e+01    0.3604695    0.2158341 -49.25 0.0006442222    1.758    0.431
        97  -9.5921    149.3792    103.2641   8.0054149233e+01   3.1800792772e+01    0.4482159    0.2921635 -51.10 0.0009502946    1.606    0.377
        98  -9.5747      6.2435    104.0195   1.2168148975e+02   5.2930228290e+01    0.4520988    0.2481052  68.94  0.001769107    2.152    0.535
        99  -8.2432     73.5442    102.5273   1.0099336574e+02   4.6565087118e+01    0.2672777    0.1853087 -65.16 0.0005563679    1.412    0.292
       100  -8.6536    159.2406    101.4446   7.7211243653e+01   2.9876575284e+01    0.3008483    0.2487289 -70.91 0.0004031696    1.405    0.288
       101  -9.3863     94.4209     97.3315   9.3377359094e+01   4.4425029965e+01    0.3549248    0.2777844 -71.39 0.0006826717    1.437    0.304
       102  -8.7429     96.3950     90.6218   9.0963708573e+01   4.5577403522e+01    0.4850526    0.3097016  -7.68  0.001825265    2.991    0.666
       103  -8.6604    244.4613     97.4799   6.0221794528e+01   1.0784656117e+01    0.1413618    0.1275325 -26.31 0.0005885643    1.050    0.048
       104  -8.5883    150.0281     95.4879   7.7732664953e+01   3.3246579594e+01    0.4922889    0.2704231 -45.48  0.001944298    1.830    0.453
       105  -9.5514    238.9727     95.5959   6.0581020992e+01   1.2261349146e+01    0.2942304    0.2820498 -20.34  0.001745147    1.067    0.062
       106 -10.3271      4.3902     89.0976   1.2026492274e+02   5.6426295904e+01    0.8630709    0.2969234 -82.23  0.002803905    3.524    0.716
       107  -9.4850      7.0130     78.4615   1.1776912283e+02   5.8672909400e+01     0.650391    0.1847131 -41.01  0.002549541    3.895    0.743
       108  -8.6603    164.5014     94.3132   7.4025840316e+01   3.0037676829e+01    0.3631823    0.2627906 -49.08 0.0009116246    1.421    0.296
       109  -9.8197    138.8949     91.8351   7.9448829351e+01   3.6564379027e+01    0.6801335    0.3656608 -39.17  0.001788294    1.865    0.464
       110  -8.6781    140.5186     83.2730   7.6510746933e+01   3.7913069706e+01    0.3874968    0.2436465 -50.42 0.0006138264    1.701    0.412
       111  -9.3608    140.4953     76.7114   7.4513662263e+01   3.9190364667e+01      0.76403    0.3404342 -41.06  0.001966896    2.217    0.549
       112  -8.9444    157.3412     91.0412   7.4731118693e+01   3.2400065266e+01     0.389924    0.2125876 -57.97   0.00137526    2.549    0.608
       113  -9.0128    110.0215     90.3145   8.6852041955e+01   4.3066135587e+01    0.7353378    0.2916555  31.90  0.002148419    4.159    0.760
       114  -9.1844    113.5084     88.7054   8.5386956167e+01   4.2711980942e+01    0.3597178    0.2534459 -48.57  0.001399322    1.393    0.282
       115 -10.6521     55.0704     70.9230   9.9013890173e+01   5.6185417570e+01    0.6080511    0.4796975  70.34  0.001188817    1.765    0.433
       116 -10.4231     47.9286     84.5309   1.0502347236e+02   5.3986767059e+01    0.6998616    0.3946921 -73.77  0.001854343    2.144    0.534
       117  -8.9972     48.2990     77.6793   1.0322357429e+02   5.5490466938e+01    0.5283133    0.3331952 -15.36  0.002323656    2.213    0.548
       118 -10.2648     85.2483     86.4665   9.3244998733e+01   4.8422814833e+01    0.5060227    0.3869686  76.54 0.0009366235    1.809    0.447
       119  -9.4265     87.4180     78.6916   9.0308401672e+01   4.9751216807e+01    0.5474623    0.3650992   7.50  0.001505208    2.257    0.557
       120  -7.6709    174.5362     88.5234   7.0207800685e+01   2.8697322447e+01    0.1555765    0.1525258 -60.00 2.245492e-05    1.020    0.020
       121  -8.4871    163.3801     87.4423   7.2319363623e+01   3.1635006114e+01    0.3009235    0.1871117 -41.24  0.000643808    1.592    0.372
       122  -7.8984    215.1685    107.2212   6.7344625524e+01   1.5600633924e+01    0.2224898    0.1955727   7.20 0.0003955697    1.234    0.190
       123  -9.9621     62.7327     60.8099   9.3175073963e+01   5.7310486925e+01    0.7514176    0.2526878  34.51  0.001396893    3.295    0.697
       124 -10.0120    114.6746     71.2968   7.9699948598e+01   4.6032869648e+01    0.5097512    0.4420866 -56.49 0.0009140534    1.250    0.200
       125 -10.2716    103.9641     82.5640   8.6354994994e+01   4.5909772143e+01    0.5715077    0.3007588 -52.36 0.0009173416    2.006    0.501
       126  -9.6792    104.9106     72.0514   8.2805702265e+01   4.7888511616e+01    0.7798812    0.4104904 -31.02  0.002725744    2.194    0.544
       127  -9.1282    157.7635     83.0496   7.2306448967e+01   3.3839319452e+01     0.451278    0.2412636 -36.59  0.001560612    1.880    0.468
       128  -8.0153    170.3900     83.2761   6.9585509895e+01   3.0693243168e+01    0.2313707    0.1407301 -47.30 0.0009458158    1.703    0.413
       129  -8.4555     68.6249     79.8541   9.6817065282e+01   5.2440136701e+01    0.3192051    0.1210321 -53.18  0.001222369    2.407    0.584
       130  -9.5515    240.6614     81.6166   5.6931914186e+01   1.4111806755e+01    0.3298015    0.1546221 -39.69  0.001389776    1.889    0.471
       131  -8.5969    149.7660     80.7403   7.3484244592e+01   3.6214535852e+01    0.3917485    0.2135045 -49.73 0.0006522944    2.024    0.506
       132  -8.8218    118.9694     80.4644   8.1375355156e+01   4.3293978096e+01    0.3607102    0.2422565 -56.93 0.0006483452    1.715    0.417
       133  -7.8441    119.8512     76.1827   7.9797682365e+01   4.3965260659e+01    0.2462449    0.1866299   6.48 0.0005839299    1.703    0.413
       134  -8.9808     74.1970     79.6787   9.4907065400e+01   5.1664091218e+01    0.5278444    0.2323366 -52.80  0.001021586    2.130    0.530
       135  -7.8213    166.4603     78.6650   6.9079775899e+01   3.2512538934e+01    0.2749187    0.1478233 -41.32 0.0005879285    1.841    0.457
       136  -8.1200    184.2285     78.0319   6.5270566711e+01   2.8185372432e+01     0.236629    0.2096557   3.32 0.0007432299    1.275    0.216
       137  -7.5955    174.4528     78.5762   6.7373416418e+01   3.0535776709e+01    0.1542958    0.1499161 -76.64 0.0001337284    1.038    0.037
       138  -8.6354    156.8806     76.4131   7.0523241890e+01   3.5293785191e+01    0.2621323    0.2055452 -48.62 0.0004677391    1.311    0.237
       139  -8.9476    130.0014     57.2283   7.0847865948e+01   4.5183737332e+01    0.5433497    0.2584689 -36.78  0.001883755    2.092    0.522
       140  -8.3174    130.5244     64.2889   7.3078011024e+01   4.3825273750e+01    0.4008687    0.1497584 -36.62  0.001317757    2.682    0.627
       141  -9.4074    127.4093     75.2820   7.7449361130e+01   4.2478294498e+01    0.4347564    0.2735005 -57.45 0.0008846364    1.983    0.496
       142  -8.9463    129.0430     68.9891   7.5003142875e+01   4.3306042136e+01    0.5555714    0.3106092  24.49   0.00192432    3.000    0.667
       143  -8.5590    150.8796     88.9543   7.5651119758e+01   3.4353412899e+01    0.3758767    0.2212047 -35.22  0.001150795    1.748    0.428
       144 -10.0411     81.6240     72.3102   9.0251345500e+01   5.2073706389e+01    0.4534493    0.3266318 -67.93 0.0009610708    1.793    0.442
       145  -9.2766     83.2103     64.8705   8.7343486856e+01   5.3331956169e+01    0.5557508    0.3499809  -8.87  0.002326031    2.518    0.603
       146  -8.1312    162.7511     72.8890   6.8155591806e+01   3.4475857490e+01    0.2757507    0.1991953 -53.60 0.0005159981    1.508    0.337
       147  -9.7032     16.0033     70.3980   1.1311097489e+02   5.9929167493e+01    0.4050165    0.2069671 -63.24  0.001108782    1.546    0.353
       148  -9.6716     17.0568     61.1072   1.1067567128e+02   6.1881670622e+01    0.6953964      0.24481 -56.73  0.003304156    2.046    0.511
       149  -9.8141    172.6598    247.5675   1.0295674499e+02   4.4748724939e-01    0.2969418    0.2152889 -81.43  0.001752756    2.488    0.598
       150  -9.1477    168.0322    249.3082   1.0401467514e+02   9.4453187927e-01    0.1769581    0.1282081  39.83 0.0008682821    1.072    0.067
       151 -10.1114    194.5156    246.3131   9.8870243263e+01  -2.8340352381e+00    0.3053399    0.1117572  45.05  0.001407127    2.421    0.587
       152  -8.0639     85.5196    248.4387   1.1867030309e+02   1.3618492259e+01    0.1132179   0.08574098  58.19 0.0002323038    1.041    0.040
       153 -10.3436     45.5712     29.2700   8.8412852847e+01   6.5441370456e+01    0.4276589    0.3847771 -71.31  0.002740314    1.704    0.413
       154 -10.9166    123.6588     90.9395   8.3206174596e+01   4.0120322689e+01     1.295312     0.666237 -35.28  0.003016243    2.138    0.532
       155 -10.7664     22.1042     53.7944   1.0683437728e+02   6.3074109832e+01    0.7843357    0.4631119  87.25  0.003190987    3.668    0.727
       156 -10.1966     12.2687     45.6112   1.0871046286e+02   6.5426539489e+01     0.787322     0.378105  -3.43      0.00386    2.892    0.654
       157 -10.2561      4.7690     41.6062   1.1088408105e+02   6.6657152314e+01    0.5465981    0.2509657 -62.05  0.002093738    1.782    0.439
       158 -10.1338    121.3671    242.9987   1.1174853658e+02   9.2326025933e+00    0.2157423    0.1822863  52.32 0.0003856999    1.099    0.090
       159  -9.4447    187.9701    233.7229   9.8237350823e+01  -1.3057480861e-01    0.2675829    0.2154908 -55.73  0.001504514    1.721    0.419
       160  -7.4179    237.6721    234.2874   8.9489518293e+01  -7.9641602504e+00    0.1013724   0.08740373  44.73  0.000360826    1.613    0.380
       161  -7.4094    175.5003     72.4778   6.5378527363e+01   3.1345289185e+01    0.1535752    0.1509011 -75.05 0.0008102538    1.010    0.010
       162  -8.0901    169.3835     71.1536   6.6229271703e+01   3.3117344654e+01    0.2254699    0.1376506 -46.49 0.0004666992    1.695    0.410
       163  -9.3135    146.9989     69.2159   7.0588414932e+01   3.9020098682e+01    0.4180344     0.270788 -56.59 0.0008434274    1.879    0.468
       164  -8.1824    147.6577     63.6635   6.8668090731e+01   3.9837644357e+01    0.3332029     0.190705  32.09  0.001265395    2.287    0.563
       165  -8.5798    156.5324     69.6129   6.8521574390e+01   3.6605070993e+01     0.309407    0.1518315 -36.24 0.0007318298    2.035    0.509
       166  -8.0776     94.8668     53.9807   7.9768970727e+01   5.3292535913e+01    0.3367068    0.1936381 -40.64  0.001535509    1.686    0.407
       167  -9.8118     94.7218     68.3100   8.4731441933e+01   5.0596125492e+01    0.4454947    0.2521587 -47.62 0.0008527349    1.752    0.429
       168  -9.2699     97.1805     58.7781   8.0735844786e+01   5.1968203431e+01    0.7499378     0.399388 -16.94  0.002540957    3.546    0.718
       169  -7.9034     23.3208     69.0213   1.1013361826e+02   5.9722120930e+01    0.1742063    0.1261683 -57.38 0.0003272955    1.110    0.099
       170  -8.9991    138.9958     57.0522   6.8554234225e+01   4.3073223052e+01    0.4177264    0.2315177 -46.43 0.0005197336    1.971    0.493
       171  -9.7506    141.1081     49.7340   6.5594335635e+01   4.3742236208e+01    0.5863498    0.3634143  12.73  0.001420208    2.619    0.618
       172  -8.8742    138.0431     66.2109   7.1798865070e+01   4.1714279538e+01    0.3036504    0.2421092 -43.83 0.0005806664    1.277    0.217
       173  -8.4724    138.5296     61.9958   7.0304078485e+01   4.2342584179e+01    0.3479077    0.2488082   2.30  0.001152981    1.898    0.473
       174  -8.9297    121.0729     66.0461   7.6184285043e+01   4.5646881378e+01    0.3461495    0.2478884 -50.58 0.0005882186    1.515    0.340
       175  -8.4428    122.1845     61.2304   7.4267795004e+01   4.6277222691e+01    0.3257894    0.2387873  10.53  0.001021798    1.737    0.424
       176  -9.3363    109.7827     63.9039   7.8673075549e+01   4.8475228503e+01    0.3856994    0.2712676 -53.05 0.0006678267    1.606    0.378
       177  -8.9683    110.7342     58.2579   7.6461326881e+01   4.9311174343e+01    0.3786826    0.2733252   4.49  0.000992844    1.779    0.438
       178  -9.2602     54.8734     63.2328   9.6825112929e+01   5.7844629928e+01    0.5133003    0.3111833  27.50  0.002673812    1.869    0.465
       179  -8.1582    170.8968     65.1044   6.4102397805e+01   3.3765424385e+01    0.2396822    0.2069149 -67.27 0.0006120383    1.246    0.198
       180  -8.9656    210.2501     62.9528   5.6580841141e+01   2.4166973239e+01    0.3713423    0.2652121 -31.71   0.00180846    1.393    0.282
       181  -8.3965    157.4025     63.1212   6.6307006262e+01   3.7509930597e+01    0.3080525    0.1799321 -37.47    0.0012451    1.708    0.415
       182  -9.1838     87.5839     57.7903   8.3482498114e+01   5.3944895266e+01      0.54384    0.2314975 -39.84  0.001676519    2.231    0.552
       183 -10.2981     89.7188     38.3065   7.5511817671e+01   5.6931370042e+01    0.9156907    0.3577489  32.94  0.003106197    3.612    0.723
       184 -10.3336     85.1320     48.0697   8.0787767060e+01   5.6158866162e+01    0.4824476    0.3725828 -89.38 0.0009739981    2.287    0.563
       185  -8.7596     80.1145     46.5245   8.1921513600e+01   5.7318082355e+01    0.4120496    0.2029189 -37.18 0.0009519057    1.915    0.478
       186  -9.9487     73.0457     58.8405   8.8817600422e+01   5.6185394313e+01    0.5989265    0.2862086 -54.37  0.000938527    2.478    0.596
       187  -9.2019     75.8114     50.6303   8.4951042178e+01   5.7306127799e+01     0.495789    0.3219186   8.13  0.002228244    2.073    0.518
       188  -8.2809      9.8698     60.1504   1.1323516156e+02   6.2527257271e+01    0.2976296    0.1726002  87.91  0.001538057    2.545    0.607
       189  -7.8607    164.2261     60.2067   6.3955078215e+01   3.6271046199e+01    0.2154853    0.1793115 -71.31 0.0007714595    1.355    0.262
       190  -8.1141    152.5592     59.8258   6.6325176374e+01   3.9274773215e+01    0.2893942    0.1529844 -30.66  0.001137011    1.990    0.498
       191  -8.4754    146.4931     59.0069   6.7432178138e+01   4.0916075867e+01    0.3229167    0.1493081 -35.13 0.0008785193    2.170    0.539
       192  -8.6126    147.7049     53.7226   6.5424854130e+01   4.1480924274e+01    0.3881669    0.2342542 -30.62  0.001473999    1.714    0.417
       193  -9.1772    118.2053     55.5794   7.3414385439e+01   4.8159123102e+01    0.3656587    0.2864225 -83.20  0.000919408    1.833    0.454
       194  -8.4926    119.2331     51.0420   7.1535917846e+01   4.8695814420e+01    0.4386631    0.2279711  29.52  0.001603055    2.735    0.634
       195  -8.7732    121.0680     46.8769   6.9556115685e+01   4.8953656702e+01    0.2982561    0.2209016 -35.72 0.0004656729    1.366    0.268
       196  -9.1182    162.5828     53.3953   6.2155801337e+01   3.7777666191e+01    0.4800983    0.2227508 -40.01  0.001085652    2.156    0.536
       197  -9.4989    157.6742     49.3327   6.1855049343e+01   3.9654187817e+01    0.6938289    0.2757746 -51.21  0.002088659    3.827    0.739
       198  -9.0695    105.4964     52.0600   7.5805098147e+01   5.1502071659e+01    0.5511338    0.2556453 -38.13  0.001487329    2.109    0.526
       199  -7.4171    184.4991     53.6256   5.8134044815e+01   3.2109839621e+01    0.1486891    0.1405084  81.10 9.063059e-05    1.035    0.034
       200  -8.1621    229.6781     52.6902   5.1189306480e+01   2.0988077964e+01    0.1378406    0.1093976  25.00 0.0002322085    1.648    0.393
       201  -9.5825    130.3979     46.7968   6.7141382405e+01   4.6789262245e+01    0.8966824    0.3745719 -21.93  0.001810132    3.549    0.718
       202  -7.9683    171.9596     50.0196   5.9290071491e+01   3.5885431626e+01     0.234016    0.1789076  23.35 0.0008855741    1.589    0.371
       203  -9.5261    150.2263     48.5540   6.3163994171e+01   4.1657546850e+01    0.4754919    0.2570185 -51.44  0.001357759    2.279    0.561
       204  -9.2907    153.4787     41.0153   5.9987356675e+01   4.1941288051e+01    0.3051945    0.2406389 -44.54 0.0008148022    1.330    0.248
       205  -8.4833    112.0017     47.2267   7.2161441495e+01   5.0924234524e+01    0.2532386    0.2027224 -42.55 0.0004218945    1.321    0.243
       206  -7.7400    162.1962     46.1936   5.9943310994e+01   3.8966355367e+01    0.2128126    0.1736922 -70.61 0.0007193286    1.383    0.277
       207  -7.4962    237.3210     45.3525   4.8440962393e+01   2.0223849104e+01    0.1358647    0.1065278  22.75 0.0007047491    1.750    0.429
       208  -8.0872    123.8282    228.8016   1.0968351809e+02   1.1187051777e+01    0.1697864    0.1206286  61.31 0.0004261408    1.316    0.240
       209  -8.3412    232.8209    217.9493   8.7600894806e+01  -5.2683635915e+00    0.1949272    0.1442595  26.43 0.0003536057    1.136    0.120
       210  -7.2541     55.7295    216.6701   1.2143680140e+02   2.3300606800e+01   0.09893417   0.08698809 -58.25            0    1.584    0.369
       211 -10.1172      9.7085    207.6366   1.2922315149e+02   3.0121077183e+01    0.4152265    0.2271598  28.57  0.002599806    2.458    0.593
       212  -9.1536    231.2807    200.2682   8.4721107361e+01  -2.6885714454e+00    0.2662508    0.2419553  87.37  0.001334329    1.807    0.447
       213  -9.3384    192.2342    194.3684   9.0961723983e+01   5.0504134613e+00    0.7533202    0.3546912 -58.42  0.002428537    5.263    0.810
       214 -10.1174     76.0788     32.0114   7.7582545493e+01   6.0414953010e+01    0.5772501     0.461338  74.04  0.001108706    2.056    0.514
       215  -8.9897    219.5196    194.9285   8.5862498537e+01   7.0329608445e-02    0.3049129    0.1813827  44.41 0.0008616731    1.670    0.401
       216 -10.3293    250.1842    192.4501   7.9963103046e+01  -4.7058642056e+00    0.2103203     0.159283 -19.36 0.0004407573    1.230    0.187
       217  -9.7333     79.2908     24.0737   7.3081060292e+01   6.0995839550e+01    0.5320239    0.2726545  25.98  0.001797985    2.427    0.588
       218  -9.3605     84.8335     21.8381   7.0265310540e+01   6.0248577981e+01    0.3527416    0.2428872  26.04  0.001201572    1.420    0.296
       219  -9.9611     37.7827     42.1742   9.6697384556e+01   6.4008806423e+01    0.3571084    0.2821371 -88.89  0.001540697    2.142    0.533
       220  -7.6055    245.4300    191.4686   8.0586607742e+01  -3.8099023900e+00     0.127186    0.1049952   4.08  0.000119668    1.013    0.013
       221  -9.3771    104.9025     40.6913   7.1760399774e+01   5.3487217306e+01    0.4363943    0.2504421 -43.89   0.00133155    1.919    0.479
       222  -8.4759    123.4081     40.5780   6.6666869002e+01   4.9377049105e+01    0.5662764    0.2680981  29.90  0.001891612    3.375    0.704
       223  -8.4930    114.0353     40.6043   6.9146823633e+01   5.1512425054e+01    0.4968581    0.2497351 -19.17  0.001902106    2.614    0.617
       224  -9.0611    139.2402     40.5102   6.2853267378e+01   4.5584165466e+01    0.3270673    0.2560667 -66.12 0.0008858597    1.570    0.363
       225  -8.9608    144.2090     36.4896   6.0375982658e+01   4.4911008608e+01     0.281444    0.2248486 -58.10 0.0005353671    1.432    0.302
       226  -9.0573    132.9610     35.9538   6.2675888024e+01   4.7761190256e+01    0.3509725    0.2428707 -50.27 0.0005160632    1.685    0.407
       227 -10.8274    134.0491     31.0603   6.0670466140e+01   4.8150509875e+01    0.3672171    0.2693321  -2.38  0.001818394    1.583    0.368
       228  -8.9540    119.0000     34.8157   6.5659827297e+01   5.1226758250e+01    0.3049406    0.2033961 -31.94 0.0006329306    1.527    0.345
       229  -9.4663    101.2707     32.5341   6.9646269057e+01   5.5465885608e+01    0.5326712    0.2288287 -32.22  0.001226568    2.310    0.567
       230  -9.1018    220.0477    190.0613   8.4845381456e+01   6.9999920235e-01    0.3550722    0.1918582  27.95  0.001674083    1.934    0.483
       231  -8.5078    104.5276     15.1544   6.1650930684e+01   5.6954485095e+01    0.4190769    0.1862798  30.95  0.001595756    2.898    0.655
       232  -9.2381    220.5847    185.3065   8.3829651709e+01   1.3222342734e+00    0.4182959    0.2620851  56.02  0.002024598    2.169    0.539
       233  -8.3965    153.5745     34.7380   5.7880490380e+01   4.2775937806e+01    0.2023983    0.1331864 -42.04 0.0005361738    1.598    0.374
       234  -8.2624    106.3249     36.3496   6.9681027511e+01   5.3837171884e+01    0.2543936     0.198571  16.56 0.0007778588    1.328    0.247
       235  -7.4327    230.4263    185.5032   8.2071737217e+01  -4.4449202543e-01    0.1307777    0.1136468   6.04  6.55152e-05    1.039    0.037
       236  -9.1434    110.3202     33.2218   6.7352549796e+01   5.3411913741e+01    0.4488318    0.2235847 -41.17  0.001600114    2.194    0.544
       237  -8.1644    110.3578     26.3235   6.4641027813e+01   5.4327408553e+01     0.295057    0.1977504  22.17  0.001127787    1.655    0.396
       238  -8.5033     96.9754     32.6107   7.0958494463e+01   5.6348200723e+01     0.267753    0.1814853 -10.38 0.0006645845    1.627    0.386
       239  -9.2152    156.0865     27.0246   5.4841176646e+01   4.3110863844e+01    0.2689249     0.190001  85.80  0.001284415    1.628    0.386
       240  -8.4807     91.8125     20.8069   6.7632061331e+01   5.8994392963e+01    0.2891971    0.1861596  10.71 0.0008324269    1.805    0.446
       241  -9.1305    144.1367     25.6840   5.6644000997e+01   4.6314771004e+01    0.3072473    0.1956144 -32.50  0.001100989    1.638    0.389
       242  -8.8202    128.4899     25.9403   6.0048128559e+01   5.0148275319e+01    0.3414983    0.2197649 -49.35  0.001037925    1.878    0.468
       243  -9.3466     91.2966     26.2531   7.0096075306e+01   5.8388564170e+01    0.4183812     0.230288 -42.85  0.001135084    2.115    0.527
       244  -9.0149    139.2753     18.5595   5.5086582742e+01   4.8352781605e+01    0.2942396    0.2334155 -22.05 0.0009711595    1.349    0.259
       245 -10.2774    188.4216    181.5177   8.9320848267e+01   7.9255495602e+00    0.2447294    0.2285177  29.93 0.0002192989    1.067    0.062
       246  -8.7361    132.8627     17.3345   5.5926700832e+01   5.0075297388e+01    0.2181044    0.1916269 -41.40 0.0003721793    1.255    0.203
       247  -8.6330    128.9528     16.0082   5.6246848228e+01   5.1173741999e+01    0.2911347    0.2289086 -57.18 0.0003260587    1.533    0.348
       248  -8.2154    140.9838    182.3061   9.9478740334e+01   1.6838646604e+01    0.1906157     0.160219  47.65 0.0002320034    1.087    0.080
       249  -7.2394      1.2779    182.3290   1.2940318369e+02   3.5946842695e+01     0.101066   0.07014114 -64.09 0.0002385055    1.597    0.374
       250  -8.1466    247.1840    180.2223   7.8093406480e+01  -2.5459625479e+00    0.1590849    0.1509749 -21.42 0.0004746066    1.342    0.255
       251  -9.0851     73.9493    179.3974   1.1397225766e+02   2.8573523339e+01    0.2151285    0.1661402 -77.20 0.0001985238    1.213    0.175
       252  -8.9395     40.8989     21.0476   8.6919290244e+01   6.7358923398e+01    0.2412126    0.1524254 -34.08 0.0004253394    1.360    0.265
       253  -8.0262    230.3171    168.4752   7.8664474130e+01   2.1488117170e+00    0.2399479    0.1627332 -50.61  0.001202489    1.930    0.482
       254  -7.8273    155.0255     17.5277   5.1866678936e+01   4.4472140270e+01    0.2149317    0.1317694  66.58 0.0007188964    1.529    0.346
       255  -8.6924    208.9939    165.1296   8.1942939855e+01   6.7432497374e+00    0.2015054    0.1845874  15.79            0    1.031    0.030
       256  -8.6602    112.4364     15.6418   5.9848938231e+01   5.5120045849e+01    0.2331539    0.2072718 -37.42 0.0005608231    1.273    0.214
       257  -8.5644     73.9887    163.9975   1.1195336892e+02   3.2011070749e+01    0.1925728    0.1663269  80.94  0.001180091    1.017    0.017
       258  -7.6970    194.7518    163.5508   8.4425578778e+01   9.8499317886e+00    0.1957961    0.1351163  54.12 0.0009348481    1.605    0.377
       259  -8.4297    236.7243    153.6506   7.4385250090e+01   3.2836776394e+00    0.1768807    0.1284553  50.47 0.0009310457    1.577    0.366
       260  -7.5930    189.6062     15.1850   4.6122703294e+01   3.5791511732e+01    0.1848498    0.1357318  -4.13 0.0009420128    1.740    0.425
       261  -8.7115    133.6775    146.1800   9.4309669848e+01   2.5856424510e+01    0.5855051    0.1412298 -53.68  0.001460139    5.322    0.812
       262  -7.4508    230.3889    144.8321   7.3557754210e+01   5.9254588502e+00    0.1954678    0.1254654 -22.34 0.0003040686    1.602    0.376
       263  -9.2804     66.6339    144.0515   1.1084623978e+02   3.7658354998e+01    0.4627346    0.2436672  57.75  0.002091906    2.182    0.542
       264  -7.3507    227.6245    140.7404   7.3128006474e+01   7.1540464332e+00    0.1466535     0.104188  14.73  0.000697599    1.660    0.398
       265  -7.5233    166.1697    138.3493   8.4956551799e+01   2.0723232701e+01     0.199834    0.1408275  54.57 0.0001704919    1.487    0.327
       266  -7.1273     95.7011    136.2774   1.0190010425e+02   3.5123929368e+01    0.1438251    0.1072114  76.97 0.0002481091    1.537    0.349
       267  -8.6148    112.4159    134.0656   9.7073650510e+01   3.2690139275e+01    0.3686134    0.2616304  77.97  0.001026355    1.827    0.453
       268  -8.0049    242.3188    134.3414   6.9157424057e+01   5.2898269452e+00     0.145838    0.1026758   3.93 0.0001042615    1.716    0.417
       269  -9.8876    134.2618    131.9395   9.1037831575e+01   2.8891632350e+01    0.5508159    0.3661129  50.86  0.002481182    1.531    0.347
       270  -8.6654     83.2188    131.4625   1.0429862803e+02   3.8265311883e+01    0.6508527     0.349394  73.51  0.002241762    3.686    0.729
       271  -9.8643     67.0100    128.9930   1.0825893113e+02   4.1186758783e+01    0.5196121     0.327765 -41.45  0.002549088    1.847    0.459
       272 -10.1259     71.1105    125.7711   1.0654319747e+02   4.1395607200e+01    0.5699098    0.3602688 -83.41  0.001418713    1.860    0.463
       273  -9.8373     98.8214    128.8108   9.9553163537e+01   3.6348638555e+01    0.6808928    0.3889782  70.34  0.002291683    2.999    0.667
       274  -8.1675    160.5086    129.0502   8.4045773945e+01   2.3888614654e+01    0.3640513    0.1508998 -37.47  0.001218014    2.704    0.630
       275  -9.6890     41.7904    122.6133   1.1417631366e+02   4.5701390204e+01    0.6593949    0.2956272 -85.46  0.002527359    3.202    0.688
       276 -10.2263    117.2922    124.0629   9.3569315055e+01   3.4065575574e+01    0.9443805     0.631725 -54.46  0.002684199    1.478    0.323
       277 -10.5972    140.7007    117.3046   8.5896121193e+01   3.0752316121e+01     1.013118    0.4569923 -45.52  0.001871345    2.204    0.546
