#   1 NUMBER                 Running object number                                     
#   2 MAG_AUTO               Kron-like elliptical aperture magnitude                    [mag]
#   3 X_IMAGE                Object position along x                                    [pixel]
#   4 Y_IMAGE                Object position along y                                    [pixel]
#   5 X_WORLD                Barycenter position along world x axis                     [deg]
#   6 Y_WORLD                Barycenter position along world y axis                     [deg]
#   7 A_WORLD                Profile RMS along major axis (world units)                 [deg]
#   8 B_WORLD                Profile RMS along minor axis (world units)                 [deg]
#   9 THETA_WORLD            Position angle (CCW/world-x)                               [deg]
#  10 FWHM_WORLD             FWHM assuming a gaussian core                              [deg]
#  11 ELONGATION             A_IMAGE/B_IMAGE                                           
#  12 ELLIPTICITY            1 - B_IMAGE/A_IMAGE                                       
         1 -14.3909     79.7512     58.9408   3.1951500487e+01   5.6599829735e+01     3.373993      1.90023  62.51   0.01269991    2.416    0.586
         2 -14.3164    101.2571     50.2859   2.1199202099e+01   5.3192398656e+01     1.337094      1.00087  47.52  0.004531214    1.304    0.233
         3 -14.9356      6.8702     71.3073   7.2330801822e+01   6.3653121214e+01     1.278505    0.8652436 -63.99  0.004686548    1.312    0.238
         4 -13.3681     32.9887     24.3890   3.9877807369e+01   7.2230820647e+01     2.140717    0.9642059  18.34  0.006911488    4.385    0.772
         5 -14.1220     41.4628      5.2694   2.1916621406e+01   7.3698583772e+01     1.001456    0.6585129   9.94  0.004209579    1.868    0.465
         6 -13.3005      6.3106     43.1723   6.7240003182e+01   7.0810105084e+01     1.194539     0.593687  -0.97  0.005519047    2.221    0.550
         7 -13.3455      8.7395      3.4250   4.7343806577e+01   7.9221817060e+01    0.7564766    0.5005548  34.28  0.003341301    1.621    0.383
         8 -15.9069     11.8159     22.4452   5.5580704338e+01   7.5188197714e+01     2.112348     1.102701 -32.30  0.009370537    1.944    0.485
         9 -14.0773     26.6239     13.2203   3.7679996167e+01   7.5196043280e+01    0.8242564    0.5337145   3.75  0.004063298    1.918    0.479
        10 -15.0671    217.6350     16.9479   3.5343943277e+02   2.8993547348e+01     1.948398    0.8603966 -36.37   0.01003048    1.838    0.456
        11 -14.8501    189.4901     20.8342   3.5643359825e+02   3.4800443986e+01     1.681284    0.7460709 -43.48  0.007923032    1.880    0.468
        12 -13.3403     57.5235     26.9679   2.7050440312e+01   6.7274444918e+01     1.205511    0.3979445  43.50  0.002824462    2.898    0.655
        13 -14.8677    147.6840     29.5409   3.6737929839e+00   4.4167046394e+01     1.868273    0.8794125  59.61  0.007921353    2.005    0.501
        14 -13.2822    243.0055     35.1595   3.5588295143e+02   2.1943384895e+01    0.5614786     0.487317  88.40  0.002891108    1.325    0.245
        15 -12.5426    120.6920     26.1559   6.9918166803e+00   5.1729344846e+01    0.6708201    0.4728784  52.68   0.00334262    1.403    0.287
        16 -15.3094     98.7709     12.3445   5.7124883067e+00   5.9126577261e+01      1.83081    0.8514954  62.20  0.004346406    1.839    0.456
        17 -11.6985     71.0944     16.3265   1.5511640902e+01   6.5719820940e+01    0.3282549    0.2386778 -17.73  0.001662046    1.567    0.362
        18 -11.6481     74.1835     10.4758   1.1254475310e+01   6.5640760433e+01    0.3103271    0.2301625  13.06   0.00132979    1.603    0.376
        19 -12.8810    229.8212      2.6596   3.4958463613e+02   2.7980284637e+01    0.7563343    0.2605113  77.92  0.003655622    2.928    0.658
        20 -11.7979    175.9299     13.7547   3.5564139494e+02   3.8810272227e+01     0.233806    0.1649241 -49.10 0.0002079828    1.260    0.207
        21 -11.6730     46.5504     12.7899   2.4265674317e+01   7.1675959241e+01    0.3939995    0.2920798  64.21  0.001630757    1.623    0.384
        22 -11.8330    152.7459      8.6038   3.5623567285e+02   4.5165088385e+01    0.2774068    0.2459814  49.39  0.001675615    1.333    0.250
        23 -14.4910    167.0021     29.5782   1.1480590126e+00   3.9222408936e+01     1.073901    0.8164862  89.07   0.00374965    1.229    0.186
        24 -12.0998     60.4353     15.7523   1.9381189181e+01   6.8283048725e+01    0.5185763    0.3665948  34.14  0.002568083    1.406    0.289
        25 -12.2093    119.8065      3.0633   3.5810913994e+02   5.4372071932e+01    0.5260074    0.2538037 -83.64   0.00207212    2.326    0.570
        26 -10.5506    192.9275      2.6508   3.5142495605e+02   3.5890370252e+01    0.1773627    0.1372367 -75.20 0.0005012091    1.091    0.084
        27 -11.0924     67.6393      2.8521   8.9766206176e+00   6.8014223732e+01    0.3165177    0.1675874  42.60  0.001469014    1.809    0.447
        28 -11.7800     80.7019      1.7280   4.6630701697e+00   6.4828706554e+01    0.6956524   0.09824529  62.51  0.002024297    4.141    0.759
        29 -11.6222     61.5597      1.5318   1.0215645870e+01   6.9609544198e+01    0.4512031    0.1475575  64.96  0.001622837    2.979    0.664
        30 -14.1354    122.3752     36.7419   1.0658498073e+01   4.9880044207e+01     1.054374    0.5610477  44.57  0.002573531    2.121    0.529
        31 -12.6024    110.1344     41.9347   1.5486507857e+01   5.2313531466e+01    0.5816686    0.2377255  56.84 0.0009707978    2.239    0.553
        32 -14.6187     95.4016    234.4207   6.2166903158e+01   1.3729033568e+01     1.442561    0.7443617  53.51  0.007202422    2.200    0.546
        33 -11.6509     41.1634    248.1965   7.5331504749e+01   1.7555988523e+01    0.4304697     0.200932 -88.36  0.002323172    2.655    0.623
        34 -13.1950     28.2457    246.4517   7.8053956029e+01   1.9181407090e+01    0.5618305     0.448942  25.91  0.003262102    1.303    0.233
        35 -12.1276      2.8126    249.4528   8.3507724068e+01   2.0976009759e+01    0.3672443    0.2031511  49.27  0.001842003    1.262    0.208
        36 -14.0060      9.4215    245.5260   8.2044409456e+01   2.1114587934e+01    0.9270671    0.3328793  45.80  0.003851108    1.821    0.451
        37 -15.2568      8.2235    183.2260   8.0375581674e+01   3.4314516972e+01     1.367072     1.141025  83.27  0.008811769    1.170    0.145
        38 -15.2988     15.5485    175.1179   7.7965752793e+01   3.5652311711e+01      2.55142    0.9594738  57.46   0.01058081    2.426    0.588
        39 -10.8896    212.4992    199.9960   3.3139687707e+01   3.6178763113e+00    0.1709025   0.08354533 -17.16 0.0008104744    2.547    0.607
        40 -12.1046    180.8538    197.7091   3.8581700107e+01   8.1897592810e+00    0.2092214    0.1409328  11.20  0.001195385    1.445    0.308
        41 -13.3903    164.4211    194.7200   4.1428327378e+01   1.1060708120e+01     0.559554    0.3872887 -68.91  0.002763547    2.676    0.626
        42 -10.7101     81.0718    192.5576   6.1203502228e+01   2.3979887902e+01    0.2237327     0.120737  32.03   0.00103119    1.607    0.378
        43 -12.1241     98.4342    186.7572   5.5861855777e+01   2.2738625555e+01    0.4154543    0.2602262  -9.74  0.001711019    2.740    0.635
        44 -12.4156    200.9866    191.1573   3.3678724767e+01   6.3914437831e+00    0.3229575    0.2305061   7.07  0.001321887    1.296    0.229
        45 -12.2788     48.5056    181.7397   6.9029159525e+01   3.0687932470e+01    0.4757223    0.3297423 -40.79  0.002219099    1.859    0.462
        46 -11.2939    109.5044    183.4935   5.2501429000e+01   2.1742184439e+01    0.2629645    0.1319399  22.09  0.001038797    2.327    0.570
        47 -13.3035    197.6123    179.8807   3.2312074968e+01   8.5793186246e+00    0.5161901    0.4111098 -74.65  0.002873369    2.433    0.589
        48 -13.2118    124.6214    167.8109   4.6026213899e+01   2.2623504799e+01    0.7139283    0.3155809 -52.77  0.002815472    2.465    0.594
        49 -12.6019    238.0489    159.5028   2.1940068904e+01   5.9069662817e+00    0.5332863    0.0995356  39.12  0.001760765    6.412    0.844
        50 -13.8431     22.3568    180.9441   7.6363591571e+01   3.3634181155e+01    0.8864647    0.4920414 -59.07  0.003957125    2.030    0.507
        51 -12.1559     85.6086    152.8445   5.4298898581e+01   3.2648606363e+01    0.6565508    0.4525647 -23.08  0.002856231    2.068    0.516
        52 -12.4259     77.2906    156.9747   5.7494940821e+01   3.2921557402e+01    0.5704728    0.3700696  26.52  0.001274089    1.558    0.358
        53 -13.3280     73.9994    153.3076   5.7945451690e+01   3.4337294563e+01    0.7556316    0.5537583  22.68  0.001602333    1.439    0.305
        54 -10.5490    101.9830    161.0000   5.0904005688e+01   2.7992868494e+01     0.256217   0.08016094  34.19 0.0008056426    2.965    0.663
        55 -12.6523    111.9971    155.7615   4.7177069414e+01   2.7484140346e+01    0.6090249    0.3778918  69.44  0.002364806    2.603    0.616
        56 -11.8540     54.9989    155.9445   6.4304601473e+01   3.6310411093e+01    0.4663207    0.3137198  -9.93  0.002000193    2.196    0.545
        57 -12.9670    210.6861    154.3163   2.5209116041e+01   1.0607921606e+01    0.4410198    0.3043065 -28.52  0.002593831    1.281    0.219
        58 -11.7774    103.6570    149.4870   4.8348553242e+01   3.0416820038e+01    0.4113009    0.3022417 -24.12  0.001464861    1.756    0.431
        59 -12.7863      8.6985    148.8220   7.8618075124e+01   4.2817125299e+01    0.6965593    0.4671959  31.99  0.003772823    1.441    0.306
        60 -10.5849    189.9902    151.0000   2.8203118319e+01   1.4492539420e+01    0.2112888   0.07454125  42.21 0.0008055054    2.964    0.663
        61 -11.9436     59.8422    148.8337   6.1797155050e+01   3.7510717853e+01    0.2223468    0.2108616 -19.92  0.001234271    1.212    0.175
        62 -10.9336     38.0853    145.7171   6.8626585044e+01   4.0997390353e+01    0.1993052     0.183025  41.91 0.0005573679    1.102    0.093
        63 -11.3651    150.1434    141.3254   3.4488184686e+01   2.3531066895e+01    0.3164637    0.1829701  63.52  0.001163766    2.980    0.664
        64 -12.5138     42.7882    138.8452   6.6198313692e+01   4.2302086676e+01    0.3629835    0.2704141 -17.40  0.001552622    1.747    0.428
        65 -12.4577    246.6256    133.5837   1.5864932788e+01   8.3121828943e+00    0.3608595    0.2844027 -39.34  0.002511445    1.236    0.191
        66 -12.4243     43.8936    132.8705   6.5014947144e+01   4.3779761785e+01    0.3463131    0.2430926  -6.06   0.00115729    1.897    0.473
        67 -14.0442    233.7430    129.8394   1.6835006246e+01   1.0743075770e+01    0.8698601     0.558629 -40.29  0.005198072    1.378    0.274
        68 -12.8273    223.7828    128.0707   1.7878056116e+01   1.2573028404e+01    0.5529285    0.4273959 -83.83  0.003183439    2.124    0.529
        69 -12.7631    136.5750    131.5852   3.5607790332e+01   2.8240495040e+01    0.7985765    0.3626128  39.14  0.002990591    2.225    0.551
        70  -9.9630     10.9189    134.0000   7.6938771577e+01   4.6557964419e+01    0.2021927   0.07761367  17.27 0.0004109399    2.773    0.639
        71 -14.6117    106.0070    120.7622   4.1545378845e+01   3.6867535222e+01     1.825701     1.235539  37.79  0.008074792    1.460    0.315
        72 -14.7419    105.9252    104.5612   3.7478891760e+01   4.0729018462e+01      1.55358     1.196611  41.62  0.007031607    1.282    0.220
        73 -12.9923     28.7792    121.9834   6.9204819694e+01   4.8349016527e+01    0.6007313    0.3840768 -59.60  0.002879654    1.525    0.344
        74 -10.7422     59.0058    124.7926   5.8260239957e+01   4.3992469700e+01    0.2093565    0.1957948  72.91 0.0004737478    1.021    0.021
        75 -12.8657    181.5211    120.9191   2.3279637613e+01   2.1317660038e+01    0.4760554    0.3683196 -85.67  0.002404589    1.868    0.465
        76 -13.1273     84.8408    115.0070   4.7029927339e+01   4.2345397514e+01     1.108162    0.6191744  21.16  0.003695075    2.485    0.598
        77 -12.2008     79.1639    111.1295   4.8108869440e+01   4.4359454353e+01    0.3571014    0.3137152 -79.35  0.001239505    1.179    0.152
        78 -13.2322      4.9626    117.8448   7.7990165940e+01   5.1263299269e+01     1.109552     0.510855 -66.40  0.004871623    1.962    0.490
        79 -13.1696     20.8729     86.3280   6.7504372126e+01   5.8760195366e+01    0.8289558    0.5065975   3.54  0.001948973    1.913    0.477
        80 -14.2366     18.2782    110.8834   7.2059805315e+01   5.2279828949e+01    0.9044414    0.7284499 -39.44   0.00336456    1.353    0.261
        81 -14.2238     10.9785    102.9179   7.4258016258e+01   5.4952361953e+01    0.9544174    0.7820448  42.79  0.004700788    1.248    0.199
        82 -13.6741      2.4275     96.9581   7.7419540100e+01   5.7017780194e+01     0.941832    0.3967072 -78.03  0.003337157    2.095    0.523
        83 -14.5578     25.2304     93.9039   6.6705706245e+01   5.6347300177e+01     1.609938    0.9652285   2.00  0.007095986    2.043    0.511
        84 -11.7181    194.8159    113.1956   1.9148343643e+01   2.0078381452e+01    0.1886474     0.157971  -3.50 0.0007776276    1.336    0.252
        85 -12.8848    121.3324    111.5099   3.4778724465e+01   3.5845488592e+01    0.4910668     0.386489 -72.53   0.00161723    1.488    0.328
        86 -11.2131     46.0280    110.2582   6.0604461536e+01   4.9661663366e+01    0.3430259    0.2275081 -51.47  0.001170618    1.524    0.344
        87 -10.8523     42.9491    107.2215   6.1306171583e+01   5.0865977112e+01    0.2322928    0.2178294 -74.38 0.0005716896    1.040    0.038
        88 -11.8615     62.5785    109.3567   5.3876244415e+01   4.7585776846e+01    0.8194927    0.4536507 -74.92  0.003160856    2.180    0.541
        89 -10.9686     64.6660    101.7146   5.1319842524e+01   4.9269879532e+01    0.2379523    0.2022866 -22.33 0.0004273797    1.363    0.267
        90 -12.0234     61.3977     97.9665   5.1727199561e+01   5.0772653019e+01    0.5838338    0.4169328  67.41  0.001912872    1.667    0.400
        91 -11.5217    222.5375    109.1891   1.4071914929e+01   1.5638364897e+01    0.2147759    0.1840488  49.24  0.001109428    1.376    0.273
        92 -11.8133     88.5209    109.5440   4.4451552091e+01   4.3033268968e+01    0.4729265    0.2895393 -59.23  0.001680485    1.714    0.417
        93 -13.0529    135.0727    102.7181   2.8810827137e+01   3.4733706720e+01    0.9923397    0.3796262  49.66   0.00289807    2.661    0.624
        94 -13.4784    120.4835    102.4272   3.2606367333e+01   3.8056853085e+01    0.8105712    0.4007969  45.65  0.003058864    1.996    0.499
        95 -13.0772    137.3091     95.2156   2.6199097804e+01   3.5773845598e+01    0.5234255     0.429888  89.97  0.001233923    1.414    0.293
        96 -12.7014     49.7433     99.0071   5.6817790235e+01   5.2212437802e+01    0.8701979    0.5631445   9.63  0.003201571    1.951    0.487
        97 -11.6368     49.1081     93.2813   5.5804283419e+01   5.3823892522e+01    0.5106977    0.3226205  77.94  0.002082485    2.173    0.540
        98 -11.9273    249.5142     99.0678   8.6820931621e+00   1.2628085248e+01    0.2912706   0.07992462 -39.26  0.001214408    2.722    0.633
        99  -9.9116     75.2920    100.6782   4.6959365294e+01   4.7723799738e+01    0.1613912    0.1211708  74.01 0.0005124634    1.610    0.379
       100 -12.5451    163.4044     97.4625   2.1035145444e+01   2.9401427432e+01    0.4596689    0.3339864  51.74 0.0008693834    1.428    0.300
       101 -11.7579     90.7000     96.5894   4.0282368574e+01   4.5786328331e+01    0.3778717    0.3200009   0.59   0.00179721    1.458    0.314
       102 -11.9639    129.4203     96.1228   2.8442194758e+01   3.7400655631e+01    0.3257692    0.2090763  65.79  0.001327323    1.910    0.476
       103 -11.7188     42.9197     90.3531   5.7894410673e+01   5.5415175938e+01    0.3975742    0.2448978 -67.83  0.001020728    1.615    0.381
       104 -13.3790     32.1591    112.1391   6.6544756021e+01   5.0713736215e+01     0.772822    0.3977466 -58.76  0.003301861    1.829    0.453
       105 -11.4029    100.6600     89.2644   3.4812341348e+01   4.5398438880e+01    0.3087776    0.1892139  54.44  0.001250674    1.721    0.419
       106 -13.4656    188.5275     84.0453   1.3143207050e+01   2.6213259225e+01    0.7235468     0.413685  46.69  0.002254084    2.000    0.500
       107 -13.8062    214.7198     77.3968   7.9456417330e+00   2.1835441453e+01    0.9604668    0.7774121 -74.56  0.005901894    1.327    0.247
       108 -14.2141    197.3349     71.0075   8.6033232772e+00   2.6358326588e+01     1.693921    0.8469161  39.18  0.006797515    3.179    0.685
       109 -11.8085    152.3937     83.0782   1.9366689747e+01   3.4589115009e+01    0.3875512    0.2310999  42.95 0.0004939188    1.877    0.467
       110 -15.1224    165.6288     78.6283   1.5549095976e+01   3.2264529099e+01     2.228761     1.078022  43.55  0.008662193    2.510    0.602
       111 -14.0459    164.9956     70.7929   1.3475616078e+01   3.3737388890e+01     1.136191    0.8320147  72.90  0.005240006    1.445    0.308
       112 -12.6299    178.9272     85.5545   1.5076613851e+01   2.8058802543e+01    0.5530347     0.283739 -61.55  0.002037342    2.953    0.661
       113 -10.2361     78.6067     86.8479   4.1876891108e+01   5.0545909058e+01    0.2131213    0.1505459 -67.24  0.000422424    1.609    0.378
       114 -12.4324     36.9155     92.7494   6.1139459259e+01   5.5488723781e+01    0.5073691    0.3141717  15.39  0.002268184    1.818    0.450
       115 -12.4077    132.3730     85.5712   2.4645991959e+01   3.8873530233e+01    0.2979285    0.2536669 -56.47  0.001487949    1.181    0.153
       116 -12.6879    242.4860     83.5137   6.2102338676e+00   1.5891122602e+01    0.4348545    0.2124437  64.48  0.002278603    2.647    0.622
       117 -13.2346    237.2564     79.8465   5.9702980960e+00   1.7294317786e+01    0.4285292     0.310711  82.84  0.002525564    1.742    0.426
       118 -11.0602     98.1595     84.1110   3.4057160374e+01   4.7112107074e+01    0.2401135    0.2214285   7.43 0.0005898958    1.228    0.185
       119 -13.7342     39.5469     67.4690   5.3615109941e+01   6.1761967640e+01     3.975344     1.215478  21.56   0.01114219    4.676    0.786
       120 -11.5621    235.7897    248.3905   3.6628397891e+01  -4.7697412064e+00    0.1466778   0.07172973  15.82 0.0009579756    1.721    0.419
       121 -13.9667    170.8118    241.7022   4.7052195090e+01   3.0321185561e+00    0.8675315    0.5237166  17.09  0.005424287    1.376    0.273
       122 -14.6145    119.8697     54.6009   1.7734263928e+01   4.7746398806e+01     1.044138    0.6662407  48.45  0.001741875    1.574    0.365
       123 -12.8215    136.0592     50.6821   1.2744366790e+01   4.4221238305e+01    0.6720866    0.5415731 -33.86  0.001553774    1.321    0.243
       124 -13.7789     74.5731     73.6343   3.9299656466e+01   5.4465502109e+01     1.671913     0.833707  22.38  0.004976168    3.945    0.746
       125 -13.4959     87.3824     65.2805   3.1460599143e+01   5.3600822726e+01    0.9433118    0.6509092  -7.45  0.002886301    2.449    0.592
       126 -13.2542     55.5228     80.6256   4.9674645036e+01   5.6162887204e+01    0.7094681    0.5408435 -45.34  0.001761963    1.327    0.247
       127 -13.8825     61.2900     75.6853   4.5607809915e+01   5.6439829478e+01    0.9904705     0.618112 -49.95  0.002493602    1.596    0.373
       128 -12.0474    114.2336     80.0850   2.7820370973e+01   4.4298819871e+01    0.4715086    0.3545309 -54.67  0.001256283    1.383    0.277
       129 -13.0139    135.2491     79.2156   2.2045521326e+01   3.9426275395e+01    0.8314469    0.4208822  55.82  0.002968621    1.996    0.499
       130 -10.6658     90.1379     80.8704   3.5779876803e+01   4.9590457337e+01    0.2542458    0.2195716  82.20  0.001240084    1.284    0.221
       131 -12.5850     27.8747    235.3403   7.7682193518e+01   2.1303619649e+01     1.042659    0.5987409  21.17  0.006010089    1.738    0.425
       132 -14.1915      5.3881     63.3961   7.1940258884e+01   6.5780748611e+01    0.7588792    0.6331343  -8.56  0.004415647    1.272    0.214
       133 -11.9680     42.2755     77.6642   5.5094568745e+01   5.8822558354e+01    0.5245616    0.3046573 -72.40  0.001673213    1.935    0.483
       134 -11.5128     27.4197     76.3162   6.2270098734e+01   6.0853547445e+01    0.3177054    0.2470852  80.94  0.001019822    1.428    0.300
       135 -11.6342    241.6003     70.8909   3.6235652978e+00   1.7737958322e+01    0.2953139    0.1559036 -57.36  0.001556736    2.010    0.502
       136 -13.1272    134.6054     65.4897   1.7916963390e+01   4.2117025922e+01    0.7002435    0.6042385  64.49  0.002646242    1.130    0.115
       137 -11.8778    100.3396     64.5217   2.6793541266e+01   5.0760869843e+01    0.3937335    0.3664065 -33.20  0.001352832    1.151    0.131
       138 -13.7777    177.8876     56.9567   7.5762438545e+00   3.2845951823e+01    0.9042985     0.562757 -51.38   0.00268753    1.512    0.338
       139 -11.5180     34.6716     60.3495   5.4090398238e+01   6.4133237096e+01    0.4010367    0.2824349 -32.19  0.001421911    1.506    0.336
       140 -11.7490     38.7266     59.7567   5.1635855519e+01   6.3761793167e+01    0.3780997    0.2624779  84.63   0.00170702    2.088    0.521
       141 -12.1797     35.5954     54.6682   5.1683497325e+01   6.5386636451e+01    0.4253976    0.2830368 -34.03  0.001305771    1.593    0.372
       142 -11.9625     24.8353     59.3606   5.9488651485e+01   6.5450302170e+01    0.5066496    0.2566158 -50.46  0.001716637    1.805    0.446
       143 -12.6271    248.3035     52.2598   3.5911657229e+02   1.8940647844e+01     0.622687     0.293579 -31.61  0.003351015    1.814    0.449
       144 -10.7241     47.3262     56.3258   4.5771448353e+01   6.3325617893e+01    0.2957665     0.157951  51.93  0.001158895    2.422    0.587
       145 -11.2700     17.5757     55.0101   6.2736909186e+01   6.7169417525e+01    0.3365072     0.223218 -80.54  0.001683659    1.664    0.399
       146 -11.5941    231.4202     55.0573   1.1054291719e+00   2.1672409375e+01    0.2529961    0.1822979  78.20  0.001476104    1.575    0.365
       147 -10.5099     23.5238     49.9782   5.7482189926e+01   6.7875810240e+01    0.2006227    0.1289148 -59.49 0.0004378731    1.486    0.327
       148 -12.7358     25.2523    216.9285   7.7479396914e+01   2.5260593393e+01     1.105186    0.2091561  40.97  0.004324936    2.919    0.657
       149 -13.3790     27.0100    225.7191   7.7461839586e+01   2.3283873584e+01    0.6294186    0.3919922 -53.29  0.003655325    2.160    0.537
       150 -13.8820     20.7403    224.5851   7.8872931872e+01   2.4118900236e+01    0.5907313    0.5037892  71.99  0.002370302    1.211    0.174
       151 -12.5359    147.8378    238.9873   5.1282673865e+01   6.2530752432e+00    0.3101951    0.2235919  52.38  0.001512848    1.892    0.471
       152 -12.7075      3.1173     34.4273   6.7345266161e+01   7.3052745115e+01    0.3102704    0.2601105  75.09  0.001034318    1.416    0.294
       153 -12.9985    237.0639    229.2451   3.3694371366e+01  -2.8115760194e+00    0.2979069    0.2338011  32.00  0.002299632    1.843    0.457
       154 -13.9883     57.5413    203.4110   6.8498522386e+01   2.4644110632e+01    0.9803977    0.5672442  88.24  0.004874936    2.062    0.515
       155 -11.5182    201.8466     46.8248   1.9932625076e+00   2.8802479213e+01    0.1888495    0.1794259 -52.86 0.0008184803    1.178    0.151
       156 -12.4823    154.5329     46.5077   8.0447304034e+00   4.0110895958e+01    0.4662988    0.2605623  60.35  0.002083477    1.743    0.426
       157 -13.2486    158.8702     43.1894   6.3467372978e+00   3.9484912230e+01    0.7307981    0.5236333  58.44  0.002607029    1.428    0.300
       158 -12.9179     63.9578    224.3009   6.8615826112e+01   1.9528151971e+01    0.7595557    0.3342109  43.53  0.003702582    1.802    0.445
       159 -14.6466    212.3147     40.7945   3.5950140832e+02   2.7327481951e+01     2.034272    0.6670035  78.44  0.007353784    4.226    0.763
       160 -13.3093     68.6078    221.0683   6.7233393643e+01   1.9607106833e+01    0.5963486    0.4014316  78.63  0.003398193    1.748    0.428
       161 -12.9005    131.4311     33.3496   7.6386232982e+00   4.7951485939e+01    0.4740101    0.4592291  32.17  0.001631377    1.197    0.165
       162 -13.9133     64.0777    214.5285   6.7788866408e+01   2.1487558055e+01    0.6565099    0.4344736  20.10  0.002523837    1.533    0.347
       163 -12.7537     46.0939     33.4059   3.6471382421e+01   6.8361173969e+01    0.8819122     0.503345  33.64  0.004065519    1.740    0.425
       164 -12.1980     40.2580     40.2369   4.3175695839e+01   6.7964058943e+01    0.6322205    0.4090903  43.67  0.003089865    1.638    0.389
       165 -12.9298     32.8416     40.3642   4.7850668679e+01   6.9006539345e+01     0.605709    0.3805674 -36.91  0.001899391    1.620    0.383
       166 -13.4363     59.4272    212.7090   6.8795466907e+01   2.2428131085e+01    0.7484529    0.4272236 -10.45  0.002978672    3.767    0.735
       167 -13.1768     74.8165     37.0075   2.4578334296e+01   6.1816821606e+01    0.7372547    0.3408912  54.64  0.001823098    2.153    0.535
       168 -12.2388    144.6304    233.2191   5.1223231470e+01   7.5400510775e+00    0.4149998    0.1991354 -37.81  0.002129858    2.485    0.598
       169 -11.5996    104.6088     36.9806   1.4948451925e+01   5.4493473141e+01      0.32071    0.1465703 -32.66  0.001232189    2.350    0.575
       170 -12.7350    140.4489     21.2962   1.9405593496e+00   4.7049781870e+01    0.6337953    0.3399155  68.87  0.001398256    1.696    0.410
       171 -12.7986     94.2783    218.3195   6.0778666686e+01   1.6851963063e+01    0.3364857    0.2407565  32.29  0.001304802    1.146    0.128
       172 -12.9257     57.2948    246.7619   7.1718098540e+01   1.6075452816e+01    0.5319551    0.2435939  27.19  0.002574327    1.802    0.445
       173 -10.6446      5.5827    219.2782   8.2212655026e+01   2.6563338354e+01    0.1476015    0.1037868 -78.61 0.0009217228    1.595    0.373
       174 -11.6268     85.4140    215.3986   6.2613783396e+01   1.8599119824e+01    0.2449316    0.1810774  46.11  0.001092947    1.194    0.162
       175 -12.5921      4.8905    211.2473   8.2155841032e+01   2.8300962351e+01    0.4355476    0.2320213 -75.21  0.002434583    2.029    0.507
       176 -10.9359    136.5091    210.9711   5.0010329236e+01   1.2325810598e+01    0.1761315    0.1304811 -48.05 0.0009330458    1.584    0.369
       177 -11.2728     39.6366    210.6107   7.3600390605e+01   2.5125879283e+01    0.3884787    0.1522495  35.32  0.001791867    1.924    0.480
       178 -11.9172     48.3094     19.9110   2.7761906447e+01   7.0275923544e+01    0.7256329    0.2381893  48.54   0.00260798    2.945    0.660
       179 -12.6167     46.6849    208.8555   7.1707406935e+01   2.4727988164e+01    0.5133529    0.2157362  65.27  0.002116715    2.875    0.652
       180 -11.0423     80.6862    208.3534   6.3054768764e+01   2.0652292577e+01    0.2221414      0.12995  53.92  0.001102421    1.724    0.420
       181 -11.2079    249.1394    224.8758   3.1208254912e+01  -3.5240339984e+00    0.1523336    0.1178118  -2.60  0.001248658    1.238    0.192
       182 -13.2177    113.6229     38.0243   1.3106815402e+01   5.1995617352e+01    0.4659284    0.3794384  83.25  0.001516508    1.225    0.183
       183 -12.0364     13.7429    205.2743   7.9801883294e+01   2.8829612839e+01    0.4048826    0.2845326 -30.44  0.001908588    2.128    0.530
       184 -11.9129     14.4805    200.4891   7.9427130831e+01   2.9821061123e+01    0.2497555    0.2222674  63.30  0.001576553    1.143    0.125
       185 -13.0879     16.9113    195.9373   7.8607096809e+01   3.0628262017e+01    0.7599489    0.3480648 -47.75  0.003298398    3.230    0.690
       186 -10.9590    151.0032    206.2093   4.6114304010e+01   1.1069823075e+01    0.2223797    0.1352716   6.32   0.00108287    2.030    0.507
       187 -13.8562     40.4808    195.9066   7.2390558470e+01   2.8286206871e+01    0.8950965    0.4078131  50.61  0.003813898    1.906    0.475
       188 -14.3173     30.1564    168.7995   7.3285654811e+01   3.5862497654e+01     1.209395    0.9892865 -13.03  0.005638031    1.569    0.363
