#   1 NUMBER                 Running object number                                     
#   2 MAG_AUTO               Kron-like elliptical aperture magnitude                    [mag]
#   3 X_IMAGE                Object position along x                                    [pixel]
#   4 Y_IMAGE                Object position along y                                    [pixel]
#   5 X_WORLD                Barycenter position along world x axis                     [deg]
#   6 Y_WORLD                Barycenter position along world y axis                     [deg]
#   7 A_WORLD                Profile RMS along major axis (world units)                 [deg]
#   8 B_WORLD                Profile RMS along minor axis (world units)                 [deg]
#   9 THETA_WORLD            Position angle (CCW/world-x)                               [deg]
#  10 FWHM_WORLD             FWHM assuming a gaussian core                              [deg]
#  11 ELONGATION             A_IMAGE/B_IMAGE                                           
#  12 ELLIPTICITY            1 - B_IMAGE/A_IMAGE                                       
         1 -13.8976    246.5545     44.0125   3.5377273357e+02   2.1523858682e+01     1.021576    0.4725521 -36.73  0.003012113    1.647    0.393
         2 -14.2106    230.1363     53.3867   3.5693503885e+02   2.3214501982e+01     1.240172    0.8825772  42.29  0.007806786    2.059    0.514
         3 -11.8837      2.2619     23.0006   5.3702602233e+01   7.5348015679e+01    0.3958238    0.1989911 -58.68   0.00198108    1.924    0.480
         4 -12.0352      2.2707     11.7155   4.7815974922e+01   7.7595639879e+01    0.4677781    0.2826234 -70.01  0.002375335    2.505    0.601
         5 -12.6074      2.3072      3.2019   4.2044710554e+01   7.9119892512e+01    0.5414205    0.4674618  24.20  0.003032275    1.274    0.215
         6 -11.9070     20.0172      5.7200   2.7989426550e+01   7.6286910067e+01    0.2435006    0.1883871  27.36  0.001386064    1.155    0.134
         7 -10.5086     72.4552      7.6441   4.8584081875e+00   6.5006379641e+01    0.2742069    0.1535321  66.96   0.00132818    1.647    0.393
         8  -9.8223     41.5149      1.4527   1.2051543607e+01   7.2691078043e+01    0.1297483    0.1098738  37.01 -9.298715e-05    1.031    0.030
         9 -11.0692     72.5842    230.5227   6.2031175259e+01   1.6657638995e+01    0.2543854    0.1923617 -28.82   0.00116106    1.666    0.400
        10  -9.9223    215.7823    250.1773   3.5356247888e+01  -2.6359836068e+00    0.1383316    0.1184609  56.37 0.0009628216    2.905    0.656
        11  -9.6264    170.6921    250.3436   4.3307636519e+01   1.8837925965e+00    0.1001541   0.08261696  40.61 0.0007043657    1.694    0.410
        12 -10.8135     97.1813    249.3478   5.8222811571e+01   1.0373428526e+01     0.180494    0.1547056 -27.66 0.0006150835    1.367    0.269
        13 -10.6277     77.8478    250.3747   6.2547366998e+01   1.2382872469e+01    0.2463526    0.1234395  25.70 0.0002999859    1.654    0.395
        14 -11.8438     74.6642    245.4864   6.2848874063e+01   1.3608710578e+01    0.5170828    0.2627954 -45.64  0.002700266    2.539    0.606
        15 -14.0998     25.2300    150.8622   6.7587057124e+01   4.0651562224e+01     2.018105     1.060115  65.51  0.008592099    2.075    0.518
        16 -13.5248     41.5093    232.2958   6.9482501730e+01   1.9714909216e+01     1.313105    0.7746813 -25.53  0.002343597    2.883    0.653
        17 -13.5444     38.4899    248.0269   7.1091857707e+01   1.6971257646e+01     1.463773    0.4088169  29.61  0.002726293    2.561    0.610
        18 -16.4400     21.1524    169.5725   7.0505115196e+01   3.6133918025e+01     9.154722     3.415683  68.91   0.03124425    3.520    0.716
        19 -12.2470    133.7153    230.2030   4.8127027915e+01   9.2405504201e+00    0.3390641    0.2197405   9.00  0.001792588    1.549    0.354
        20 -11.1680    148.1118    228.6693   4.4887290359e+01   7.7134787877e+00    0.1906426     0.173767 -43.74  0.001332026    1.398    0.285
        21 -10.6714    164.4967    225.5158   4.1122902574e+01   6.2114080799e+00    0.1902845    0.1179348 -56.13  0.001040571    2.382    0.580
        22 -14.3751     12.4275    180.8562   7.3802772258e+01   3.4054827501e+01     1.227104    0.7927776  16.38 0.0007210983    1.681    0.405
        23 -10.6465    174.9029    223.5038   3.8800019690e+01   5.2683127909e+00    0.1759529    0.1394923 -17.15 0.0004397549    1.160    0.138
        24 -11.2928     93.6534    244.1011   5.8490901152e+01   1.1685505116e+01    0.2099377    0.2035196  40.01 0.0006723132    1.212    0.175
        25 -10.0186    139.8708    221.3606   4.5620539322e+01   9.9672643153e+00    0.1830131    0.1716823 -38.71 0.0003579277    1.301    0.231
        26 -15.9090      8.3647    209.7270   7.6284741997e+01   2.7622377242e+01     2.266057     1.961654  64.37   0.01542393    1.090    0.082
        27 -11.1048     95.6457    219.8447   5.5468203345e+01   1.5943076132e+01    0.2814613    0.1967199  51.45  0.001075413    1.515    0.340
        28 -12.8364     18.0635    249.0831   7.5601525986e+01   1.8705521596e+01    0.3675481     0.299068  16.22    0.0010098    1.376    0.273
        29  -8.9408    132.4258    208.4937   4.5426371885e+01   1.3246286741e+01    0.1300185    0.1135483  10.03  6.69478e-05    1.014    0.014
        30  -9.1862    124.5047    204.9850   4.6724653508e+01   1.4996759814e+01    0.1810407    0.1309919 -49.65 0.0004393869    1.521    0.343
        31  -9.7780    130.8795    202.3037   4.4858890738e+01   1.4622561943e+01    0.2184388    0.1776264 -61.59 0.0008808398    1.517    0.341
        32 -10.1484    103.3812    203.1961   5.1522055508e+01   1.8268267177e+01     0.201935    0.1657186 -29.85 0.0008488385    1.340    0.254
        33  -9.8890     86.5226    201.8001   5.5564970896e+01   2.0835393902e+01    0.2789718     0.177867  26.60  0.001420721    1.443    0.307
        34 -10.7912     78.2468    200.4689   5.7532866544e+01   2.2208327627e+01    0.2898079    0.2102369 -21.83  0.001465287    1.765    0.433
        35 -10.1894    210.8174    198.8604   2.8428302818e+01   4.6325302825e+00    0.1758434    0.1279389 -11.24  0.000465317    1.144    0.125
        36 -10.3986    194.1437    196.8239   3.0987210448e+01   6.9860139639e+00    0.2966576    0.1539415 -53.93  0.001346617    3.205    0.688
        37 -12.2990     82.6737    195.4730   5.5772456214e+01   2.2732025554e+01     0.695821    0.3826777  43.50  0.003263038    1.702    0.412
        38 -11.4294     66.5586    190.7765   5.9512278050e+01   2.5900387343e+01     0.315668    0.2348376  53.54  0.001020379    1.304    0.233
        39 -12.1435     70.3421    195.8712   5.9077120388e+01   2.4249806951e+01    0.4388891    0.2973015  31.18  0.002301645    1.331    0.248
        40 -15.2830      8.3958    242.2457   7.7457680374e+01   2.0858191704e+01     1.795253     1.457921   8.26   0.01270245    1.496    0.331
        41  -9.7570    207.0317    190.7705   2.7702868821e+01   6.2845281828e+00    0.1656826    0.1533778 -15.63  0.001153078    1.342    0.255
        42 -11.7667    108.1693    189.1664   4.8328087074e+01   2.0536665733e+01    0.3869562    0.2652752  -6.21  0.001853921    1.913    0.477
        43 -10.8593     78.1370    188.4459   5.6086966295e+01   2.4929644193e+01    0.2896724    0.1973772  66.22 0.0009364931    1.735    0.423
        44 -11.4682     82.6417    186.4291   5.4605568524e+01   2.4780612603e+01    0.4233321    0.2873987  49.31 0.0009511253    1.467    0.318
        45 -10.3034     77.9990    184.2277   5.5574779545e+01   2.5925860542e+01    0.2234274    0.2122013  55.86 0.0006472304    1.051    0.048
        46  -9.9422     74.8261    182.1562   5.6176944774e+01   2.6842538217e+01     0.218572    0.1967957  45.62 0.0004316349    1.034    0.033
        47  -9.8990     79.7519    181.6611   5.4747446825e+01   2.6285930135e+01    0.1989008    0.1841616  12.19 0.0002412506    1.120    0.107
        48 -10.1481    101.5016    185.4631   4.9473481607e+01   2.2314892479e+01    0.1404336    0.1295473  28.11 5.769423e-05    1.006    0.006
        49  -9.8487     63.8850    182.8753   5.9326607079e+01   2.8106896117e+01    0.2318552    0.1476963  58.46  0.000659336    1.671    0.401
        50 -10.9012    115.7325    181.9766   4.5297341790e+01   2.0947727914e+01    0.1931608    0.1847803 -32.30 0.0006798553    1.101    0.091
        51 -11.9382     72.5235    227.0533   6.1728765029e+01   1.7347045488e+01    0.3926727     0.242808  57.00  0.001878801    1.735    0.424
        52  -9.8675     77.8201    176.1861   5.4526462884e+01   2.7851656522e+01    0.3504706    0.1707611 -68.25  0.001148659    2.347    0.574
        53  -9.7366     74.3284    174.0251   5.5215036908e+01   2.8857184872e+01    0.1968039    0.1740685 -81.15 0.0004461278    1.189    0.159
        54 -10.3563     58.2955    172.0496   5.9619318985e+01   3.1466763148e+01     0.482832    0.2335231  89.01  0.001715089    3.218    0.689
        55  -9.6161     72.0982    169.8836   5.5275402747e+01   3.0177066823e+01    0.2503674     0.173647 -77.26 0.0007090588    1.604    0.376
        56 -11.6106    232.7902    167.2819   1.9508980637e+01   6.5211169252e+00    0.3180003    0.2837665 -78.26  0.002022983    1.920    0.479
        57  -9.2949    104.7584    167.9864   4.5795954644e+01   2.5751679296e+01    0.1854661    0.1233328 -54.86 0.0006515437    1.567    0.362
        58 -14.1840     50.7879    144.4133   5.8236572423e+01   3.9569372174e+01     1.935875    0.9198319 -44.28   0.00175026    2.486    0.598
        59 -14.0640     60.3416    112.9518   4.9118472255e+01   4.6641768018e+01     1.899328     1.394931  86.46  0.004689515    1.639    0.390
        60 -10.5914     54.7617    164.5247   5.9732976715e+01   3.3812168935e+01    0.2992269    0.2019645 -83.12 0.0005868644    1.595    0.373
        61 -12.0803     46.2665    160.5539   6.1871309361e+01   3.5866274100e+01    0.4968353    0.3394462 -23.46  0.001637591    1.966    0.491
        62 -11.9751     52.7581    156.4758   5.9299330052e+01   3.6141014765e+01    0.3917684    0.3276457  26.26 0.0007505728    1.219    0.180
        63 -10.4531    167.4363    156.4531   2.8704343098e+01   1.7794026443e+01    0.2338007     0.206711 -25.65 0.0005400243    1.043    0.041
        64 -10.4775     82.1485    151.0419   4.9280652511e+01   3.3391429113e+01    0.2349415    0.2064097  41.07 0.0003173641    1.104    0.094
        65  -8.7034     86.6392    148.6796   4.7496988170e+01   3.3271269977e+01    0.1588259     0.117097 -17.84 0.0007042827    1.771    0.435
        66 -10.7648    108.8888    145.4470   4.0429456562e+01   3.0300486899e+01    0.2732649    0.2691699  12.34 0.0006003283    1.005    0.005
        67 -11.2317     35.7568    143.6803   6.3238926337e+01   4.1522713440e+01    0.4953089    0.3101927 -35.26  0.002208908    1.981    0.495
        68 -10.0712    133.0139    141.8969   3.3373026317e+01   2.6755000065e+01     0.449946     0.141467 -54.26  0.001281376    4.196    0.762
        69  -9.2590     94.2178    141.8201   4.3905206238e+01   3.3712654770e+01    0.1993575    0.1757557 -14.51 0.0002878185    1.269    0.212
        70 -11.4004     46.3232    137.2821   5.8695828949e+01   4.2036054049e+01    0.2912134    0.2314805  71.96 0.0003337884    1.296    0.229
        71 -11.1656     90.6930    134.6560   4.3499995109e+01   3.6085736775e+01     0.494859    0.3170735  10.51  0.001960089    2.295    0.564
        72 -10.7670     94.1794    133.1357   4.2112171018e+01   3.5853203170e+01    0.3906787    0.3276534 -56.24  0.001968244    1.198    0.165
        73  -9.2396    110.4336    167.1972   4.4148887971e+01   2.5026181791e+01    0.1899451    0.1430362 -70.77 0.0004598011    1.586    0.369
        74  -9.9972     37.5307    133.5602   6.1266447392e+01   4.4071214552e+01    0.2450658    0.2200241  55.98 5.959808e-05    1.089    0.082
        75 -11.0032     34.0313    130.5542   6.2113212907e+01   4.5270991652e+01    0.4384319    0.2859887  36.78 0.0009684006    1.507    0.336
        76 -11.8586     42.5681    131.0248   5.9070839731e+01   4.4182206539e+01    0.5448963    0.3072653  56.26  0.001217335    1.991    0.498
        77 -10.5480    105.6573    130.8215   3.8207593500e+01   3.4337011236e+01    0.3920735    0.2913506 -62.95  0.001047401    1.445    0.308
        78  -9.9018    104.7830    126.1552   3.7395736898e+01   3.5608042976e+01    0.2939338    0.2324231  -4.92 0.0008415849    1.626    0.385
        79 -14.5504     65.7208    149.9822   5.4212294007e+01   3.6104201011e+01      1.92007     1.296674  62.23   0.00120609    1.668    0.400
        80 -13.2279     71.0154    145.4577   5.1766784784e+01   3.6507953869e+01    0.9064363    0.5379505  24.85   0.00215002    1.798    0.444
        81 -10.4963    116.7484    124.1464   3.3553898267e+01   3.3782244957e+01    0.2263618    0.2051824 -79.37  0.000599644    1.194    0.162
        82 -10.2028     37.1728    123.1564   5.9837788928e+01   4.6949738453e+01    0.2240146    0.1942785 -47.03 0.0003804664    1.192    0.161
        83 -11.7692     17.1096    120.8820   6.7256858490e+01   4.9508130446e+01    0.5859874     0.256536  52.99  0.002242277    2.540    0.606
        84 -11.0411     91.4373    121.3778   4.0327619956e+01   3.9240825255e+01    0.4191436    0.3047638   8.13  0.001503695    1.861    0.463
        85 -11.5190     70.4977    162.5338   5.4678229794e+01   3.2227571662e+01    0.4992481    0.4550309 -72.54  0.001311815    1.126    0.112
        86 -10.6725     48.7066    123.1044   5.5492154237e+01   4.5566544849e+01    0.2574526    0.2193097  15.51 0.0002979462    1.275    0.216
        87  -9.9319    103.0710    115.9659   3.5454109688e+01   3.8348206534e+01    0.2232169    0.2216859  86.23 0.0003386205    1.009    0.009
        88  -9.6642     81.6340    114.2453   4.1834759320e+01   4.2783120998e+01    0.2212048    0.1405285 -46.91 0.0005433231    1.594    0.373
        89  -9.3140    204.1978    110.6307   1.2455300541e+01   1.9542294234e+01    0.1670406    0.1200161  37.05 0.0009455065    1.691    0.409
        90 -10.3620     19.9325    109.3063   6.4606095213e+01   5.2453986302e+01    0.2524706     0.189457  84.90 0.0007389619    1.349    0.259
        91 -10.9465     24.1138    105.1765   6.2206808824e+01   5.3212908013e+01    0.3141147    0.2769273 -48.87 0.0007365222    1.128    0.114
        92  -9.6622     83.9811    104.3352   3.8546373457e+01   4.4806710681e+01    0.2157483    0.1965741  46.97 0.0004104967    1.099    0.090
        93 -12.8475     77.6890    131.9968   4.7075213601e+01   3.8940553879e+01    0.8286334    0.4694615 -41.56 0.0006240369    2.005    0.501
        94  -9.9777     46.8681    100.8360   5.1726549061e+01   5.1783553013e+01     0.215337    0.1987238 -28.22 0.0002363432    1.136    0.120
        95 -11.5203     18.4094     98.5048   6.3622026780e+01   5.5530918851e+01    0.4036085    0.3072891 -59.85  0.002120407    1.217    0.178
        96 -11.4828     11.8474     99.3084   6.6677106358e+01   5.5813756352e+01    0.4999217    0.2189277 -22.05  0.001751698    3.433    0.709
        97 -12.0786     11.5730     94.5860   6.6122515457e+01   5.7114447645e+01    0.5572023    0.3441835  14.79  0.001797926    1.762    0.432
        98  -9.5478     84.0198     94.9709   3.5972553570e+01   4.7051564505e+01    0.1845688    0.1799612  55.69 0.0003347919    1.025    0.025
        99 -10.1451    179.6221    165.7702   2.8121499594e+01   1.4162802773e+01     0.182983     0.116222 -47.29 0.0006424115    1.638    0.390
       100 -10.1271     54.3277     89.6526   4.5836095778e+01   5.3597514539e+01    0.1603097     0.116556  70.86 0.0007049713    1.754    0.430
       101 -10.7974     26.1386     86.0069   5.7689658786e+01   5.8176852491e+01    0.3564032    0.2408943  56.21  0.001125316    1.708    0.414
       102 -10.5416    176.3203    230.7689   3.9584933301e+01   4.0234036804e+00    0.2275972    0.1672908   6.81  0.001144001    1.114    0.103
       103 -10.6177     19.8813     83.0834   6.0127737720e+01   5.9540958142e+01    0.3233182    0.2135809  53.12 0.0006171638    1.724    0.420
       104 -10.4937     46.1106     80.5121   4.6901321237e+01   5.7129802903e+01    0.3100452    0.2377993 -63.07 0.0008339028    1.318    0.241
       105  -9.5165     27.7251     77.0231   5.4818587542e+01   6.0350455511e+01    0.3698962    0.1220599 -64.37   0.00125504    2.911    0.656
       106  -9.8541     15.9872     75.9472   6.0626620599e+01   6.1741620759e+01    0.2284837    0.1558622  58.23 0.0007043952    1.726    0.421
       107 -10.5507     67.4922     74.0144   3.5667947855e+01   5.5093828984e+01    0.3257403    0.1764417  55.63 0.0007209672    2.374    0.579
       108 -10.7174      9.7599     71.4497   6.3035321405e+01   6.3374281771e+01    0.2602669    0.1247805  23.41 0.0009126068    2.138    0.532
       109 -11.6234      3.4906     69.2808   6.6094854394e+01   6.4317127389e+01    0.3367311    0.2260489  70.65  0.001703932    1.744    0.427
       110 -11.7065     48.2158    238.3160   6.8317139366e+01   1.7830730723e+01    0.3150687    0.2085344  50.64  0.001343813    1.319    0.242
       111 -13.1252    217.9007     61.1217   3.5972529000e+02   2.4437492806e+01    0.5483755    0.4203182  53.43  0.002702999    1.637    0.389
       112 -13.0532     61.4853    225.8769   6.4266034851e+01   1.8855227026e+01     1.115365    0.2774083 -62.84  0.004226451    4.041    0.753
       113 -10.8665     13.5215     60.5560   5.8380325370e+01   6.5854446123e+01    0.2457571    0.2274717 -80.35 0.0006453421    1.156    0.135
       114 -10.4366     71.4008     55.3027   2.7315905599e+01   5.8264204774e+01    0.2487186    0.1807657  67.78 0.0007236096    1.704    0.413
       115 -11.2464      2.0000     50.5051   6.3068015892e+01   6.9109435097e+01      0.44185   0.06980046 -70.36  0.001155186    5.923    0.831
       116  -8.9878     46.3081     50.6800   3.6563647166e+01   6.3983478686e+01    0.1398678    0.1142985  77.24 0.0002747084    1.640    0.390
       117  -9.5120     10.9928     50.0000   5.6999131598e+01   6.8622927291e+01    0.2143441   0.07523277  18.23 0.0008041686    2.954    0.662
       118  -9.3274    108.5124     39.4915   9.7628948122e+00   5.2282031828e+01    0.1432457    0.1344479  72.42 0.0008102891    1.032    0.031
       119 -10.1053     32.2175     32.3906   3.6085610498e+01   6.9914053993e+01    0.1865827    0.1211181  42.70  0.000471833    1.605    0.377
       120 -12.3247     60.1080    243.8101   6.5991153654e+01   1.5519132578e+01    0.5475338    0.2871381  49.96  0.001782951    1.758    0.431
       121 -10.6195     60.6761     21.6210   1.6115345008e+01   6.6159535174e+01    0.2464219     0.226762  72.49 0.0008094113    1.174    0.149
       122  -9.2878    202.6803     18.3233   3.5110829308e+02   3.2692185121e+01    0.1329686   0.06804427 -58.39 0.0007045158    1.674    0.402
       123 -12.7978     54.8590    236.4251   6.6653738275e+01   1.7492326736e+01    0.7642509    0.3621299 -78.49  0.001817521    2.642    0.621
       124 -10.8452    216.1736    244.1604   3.4458757090e+01  -1.9548928560e+00    0.1686662    0.1088481  -4.75 0.0006614122    1.216    0.177
       125 -10.9908    119.0950    242.2769   5.2735572828e+01   8.9972971111e+00    0.1902365    0.1816925 -52.56  0.000578572    1.341    0.255
       126 -12.1576    117.3219    230.8729   5.1789463925e+01   1.1163227454e+01    0.3841101    0.1851514  37.55  0.001926045    1.830    0.454
