#   1 NUMBER                 Running object number                                     
#   2 MAG_AUTO               Kron-like elliptical aperture magnitude                    [mag]
#   3 X_IMAGE                Object position along x                                    [pixel]
#   4 Y_IMAGE                Object position along y                                    [pixel]
#   5 X_WORLD                Barycenter position along world x axis                     [deg]
#   6 Y_WORLD                Barycenter position along world y axis                     [deg]
#   7 A_WORLD                Profile RMS along major axis (world units)                 [deg]
#   8 B_WORLD                Profile RMS along minor axis (world units)                 [deg]
#   9 THETA_WORLD            Position angle (CCW/world-x)                               [deg]
#  10 FWHM_WORLD             FWHM assuming a gaussian core                              [deg]
#  11 ELONGATION             A_IMAGE/B_IMAGE                                           
#  12 ELLIPTICITY            1 - B_IMAGE/A_IMAGE                                       
         1 -12.0798    192.6416     30.9048   6.8723105029e+01   3.3603576342e+01    0.8265028    0.5186723 -29.73  0.004181335    1.818    0.450
         2 -12.8224    209.3899     12.0121   6.2090966979e+01   3.1767881676e+01     1.086223    0.8443847  42.47  0.006510214    1.635    0.389
         3 -10.2996      8.4262     15.7200   1.1477789110e+02   6.9941082761e+01    0.2849806      0.06437 -41.47  0.001285805    3.241    0.691
         4  -9.1276    164.0171    246.9783   1.2263012213e+02  -1.5077469679e-01    0.2077665     0.135862 -19.14  0.001029337    2.596    0.615
         5  -7.9157     66.6083    250.1717   1.4105824264e+02   1.4961035894e+01    0.1395386   0.09925977 -68.55 0.0002786815    1.559    0.358
         6 -12.3286     33.1141    246.7636   1.4646930520e+02   1.9952729072e+01     3.315983     1.843532  23.17   0.01562419    4.544    0.780
         7 -10.2804     54.5287    229.4615   1.4141592814e+02   2.0629924407e+01    0.3792225    0.1929724  62.96  0.002063384    1.765    0.433
         8 -10.3237     99.7840    229.3853   1.3280541928e+02   1.3970053497e+01    0.4020973    0.1550838  43.51  0.001758262    2.264    0.558
         9  -9.0037    127.3996    225.7840   1.2683934270e+02   1.0019780150e+01    0.1715808    0.1257747 -48.34 0.0009519149    1.626    0.385
        10  -9.4947    100.5300    245.2871   1.3446938828e+02   1.0805890008e+01    0.2176855    0.1289535  53.58 0.0008477814    1.390    0.281
        11 -11.6480     36.1067    230.2737   1.4478621149e+02   2.2794685086e+01    0.3252675    0.2698308 -87.93 0.0007831455    1.279    0.218
        12  -9.8073     50.7695    234.6261   1.4253856930e+02   2.0092266495e+01    0.2075135    0.1717331 -65.47  0.001223788    1.543    0.352
        13  -7.8529    152.6918    212.7199   1.1966297736e+02   7.9615598083e+00    0.1320164    0.1079302  11.32 0.0002252719    1.559    0.359
        14  -8.1971     26.5387    203.5616   1.4440757173e+02   2.9428833827e+01    0.1206434   0.08871535  81.84 4.487511e-05    1.039    0.037
        15 -10.4948     62.5660    196.6555   1.3649869663e+02   2.6528589674e+01    0.3453967    0.2490899 -48.63  0.001366162    1.763    0.433
        16  -8.2387     50.3049    196.4271   1.3902347935e+02   2.8195210489e+01    0.1577991    0.1033706  57.04 0.0002779615    1.411    0.291
        17  -8.1708    193.3437    195.6617   1.0818825771e+02   3.4039074687e+00    0.1426083    0.1133125  82.55 -6.58214e-05    1.773    0.436
        18 -10.9887    113.6084    231.2143   1.3031188559e+02   1.1335488416e+01    0.5634112    0.1900858  44.31  0.002281374    2.521    0.603
        19 -10.6386     68.4882    188.8025   1.3427052736e+02   2.7475074251e+01    0.2885436    0.2358882 -58.20 0.0005411872    1.363    0.266
        20  -9.7924     78.3173    176.4946   1.3036438643e+02   2.8882294622e+01    0.2462399    0.2184994 -76.11 0.0004790698    1.115    0.103
        21 -12.0407     65.2259    174.2663   1.3306498235e+02   3.1289093267e+01    0.5115891    0.2816626 -45.80  0.001649394    2.270    0.559
        22 -10.7748     85.6381    167.3607   1.2721480955e+02   2.9903771301e+01    0.5927568    0.5295257 -81.79  0.003484482    1.041    0.039
        23  -9.1666     98.4291    151.3908   1.2120403643e+02   3.1596040726e+01    0.2835485     0.242472 -89.20 0.0008580146    1.155    0.134
        24 -10.9337     86.9487    150.6680   1.2398200003e+02   3.3673743341e+01    0.3036752    0.2471842 -47.11  0.000472129    1.298    0.230
        25 -10.9114     22.1025    148.5932   1.3983328973e+02   4.2191104860e+01      0.39167    0.1283883 -63.40  0.001746495    2.291    0.564
        26 -11.3336     67.7546    143.8982   1.2769801298e+02   3.8151340570e+01    0.6736748    0.4457734  69.70  0.002510978    1.813    0.448
        27  -8.1915    101.2164    147.5641   1.1974144101e+02   3.2023065338e+01    0.1906322     0.145827  25.82 0.0004887839    1.605    0.377
        28 -11.4837      2.5368    244.4975   1.5119293713e+02   2.3752442169e+01     1.316826    0.3512587 -78.82  0.006399634    3.162    0.684
        29  -9.3975     97.2088    133.9611   1.1795968447e+02   3.5951503611e+01    0.2545761    0.2251159 -34.12 0.0004051025    1.247    0.198
        30  -8.7386    110.0118    136.9350   1.1523348993e+02   3.2947927563e+01    0.3345881    0.1928971 -32.70 0.0009930304    2.468    0.595
        31  -9.2563     50.4076    129.9465   1.2985297033e+02   4.3662142561e+01    0.2303097     0.171724  59.69 0.0006198287    1.513    0.339
        32  -7.9142    106.9348    123.5301   1.1298706516e+02   3.6648414730e+01    0.2045342    0.1488868  42.98  0.000366535    1.435    0.303
        33  -9.3703    168.0894    113.1453   9.5135369864e+01   2.5782764971e+01    0.3667223    0.2945883 -84.14  0.000901594    1.479    0.324
        34  -8.1672    203.6703    111.6533   8.7463145681e+01   1.7684192217e+01    0.1558965    0.1229438   8.01 0.0005555255    1.758    0.431
        35 -13.2482     16.3131    165.9631   1.4305774491e+02   3.8748599310e+01     3.908618     1.432513  80.48   0.01183527    6.253    0.840
        36 -12.9012      8.0703    208.7619   1.4819352599e+02   3.0226890793e+01     1.263338    0.7110857 -65.25  0.008070263    1.741    0.426
        37  -9.0744    138.4994    249.5115   1.2782895925e+02   3.7987842282e+00    0.1285496    0.1038445  54.33 7.757267e-05    1.035    0.034
        38 -14.5183      3.9795    146.8223   1.4387389228e+02   4.4060050042e+01     14.59566      1.33645 -72.95   0.02822601   13.426    0.926
        39 -13.5102     42.3356    221.9205   1.4299856417e+02   2.3730248218e+01     1.727579     1.558848   3.67  0.008377242    1.931    0.482
