#   1 NUMBER                 Running object number                                     
#   2 MAG_AUTO               Kron-like elliptical aperture magnitude                    [mag]
#   3 X_IMAGE                Object position along x                                    [pixel]
#   4 Y_IMAGE                Object position along y                                    [pixel]
#   5 X_WORLD                Barycenter position along world x axis                     [deg]
#   6 Y_WORLD                Barycenter position along world y axis                     [deg]
#   7 A_WORLD                Profile RMS along major axis (world units)                 [deg]
#   8 B_WORLD                Profile RMS along minor axis (world units)                 [deg]
#   9 THETA_WORLD            Position angle (CCW/world-x)                               [deg]
#  10 FWHM_WORLD             FWHM assuming a gaussian core                              [deg]
#  11 ELONGATION             A_IMAGE/B_IMAGE                                           
#  12 ELLIPTICITY            1 - B_IMAGE/A_IMAGE                                       
         1 -12.0145    232.5454      3.6531   1.9254624590e+01   2.5528671971e+01     2.939608    0.9465213  60.22   0.01100003    3.180    0.686
         2 -13.8682    199.6987     56.4272   3.7809254535e+01   2.7484392106e+01     9.027995     3.092371 -19.13   0.02505908    4.327    0.769
         3 -15.2120    241.3504     43.2171   2.9095789033e+01   1.9328067562e+01      4.44689     3.540491  28.37   0.02526897    1.485    0.327
         4 -14.0116    232.1406     98.6581   4.4639195557e+01   1.4120338583e+01     5.566278      1.16054 -42.30   0.01018042    7.080    0.859
         5 -15.5461    245.9244     81.0324   3.8368891318e+01   1.3645440263e+01     5.126917      3.87255   8.22   0.01973351    1.447    0.309
         6 -11.4520    142.5081     41.2577   4.2591709473e+01   4.4386658981e+01    0.6905575    0.5075527  73.95  0.003217359    1.542    0.352
         7 -10.5106    141.4359     17.8446   3.3708470116e+01   4.7692047007e+01    0.6480147    0.3578572  -1.93  0.002549381    2.327    0.570
         8 -10.1957    202.9602     19.4792   2.6178127699e+01   3.1210366423e+01    0.5408975    0.3362761 -20.23  0.002563142    1.590    0.371
         9  -9.6429    200.8198     13.1498   2.4453152391e+01   3.2406849821e+01    0.5598388    0.3372123  25.20  0.001931719    2.238    0.553
        10 -11.3135    119.0077     10.0857   3.4554744637e+01   5.4381014693e+01    0.7415903    0.4684025  45.81  0.003053485    1.538    0.350
        11  -8.4003    156.9793      7.7024   2.7458118251e+01   4.4546935722e+01    0.2699898    0.2144088   0.42 0.0007340546    1.357    0.263
        12  -9.6922    243.8198      3.8513   1.8613611254e+01   2.2931391815e+01    0.3759885    0.2284512  64.05  0.001026208    1.825    0.452
        13  -8.9272    248.8832      1.3551   1.7694633516e+01   2.2038342118e+01    0.2638802    0.2177017 -82.51  0.001108548    1.255    0.203
        14  -9.3012    182.5854      3.3352   2.3068148070e+01   3.8081276369e+01    0.4255773     0.340059  13.20  0.002271364    1.423    0.297
        15  -9.1470    134.4053     20.8178   3.6178811693e+01   4.9210352726e+01    0.3189108    0.1490738 -18.58  0.001201563    2.287    0.563
        16  -9.2395    192.9736    194.7722   7.1559934596e+01   7.9388567944e+00    0.3228198    0.2103507 -57.82   0.00171261    2.709    0.631
        17 -10.4402    229.3965    193.6784   6.5244182479e+01   2.3095501024e+00    0.3983248    0.2192724  54.08   0.00183328    2.889    0.654
        18  -8.5171    210.1890    187.9988   6.7427890112e+01   6.0084283859e+00    0.1741246    0.1458242 -65.61  0.001081759    2.045    0.511
        19 -11.0831    247.4051    184.8634   6.0868431122e+01   5.5722628848e-01    0.4410128     0.392995  24.29  0.003263411    1.409    0.290
        20 -10.7048    247.2712    178.6103   5.9742397085e+01   1.2557651030e+00    0.4396564    0.3256965  -2.18  0.002972679    1.124    0.110
        21 -10.7524    250.1055    168.9379   5.7482438565e+01   1.8948484947e+00    0.8987514    0.2273132 -26.90  0.003314966    4.068    0.754
        22  -9.5279    233.5932    186.6466   6.3337579743e+01   2.4576043147e+00     0.220625    0.1296246  39.53  0.001074883    1.600    0.375
        23  -8.8503     22.1660    185.9798   1.0441870524e+02   3.4055021805e+01    0.1681307    0.1258005  59.79 0.0003009475    1.129    0.114
        24 -10.3600    220.5979    185.0701   6.5163113367e+01   4.6886989155e+00    0.2819374    0.2044238 -14.82   0.00138959    1.339    0.253
        25  -9.2573    213.4649    181.4650   6.5709235008e+01   6.2958971243e+00    0.2061604    0.1090854 -42.66  0.001042802    2.390    0.582
        26  -9.9253    221.9120    177.6626   6.3596105239e+01   5.3820529217e+00    0.3698477    0.2721492 -61.14  0.001997247    2.698    0.629
        27  -9.8855    224.5045    173.9552   6.2474126465e+01   5.4147637906e+00    0.3528987     0.220955 -36.40  0.002020228    1.779    0.438
        28  -9.7803    236.3657    174.7209   6.0705768490e+01   3.3966481120e+00    0.2303239     0.188589  67.42  0.001412894    2.144    0.534
        29  -9.4236    230.6309    167.5434   6.0246046556e+01   5.1935065530e+00    0.3240347    0.1895375 -44.91  0.001382878    2.389    0.581
        30  -9.1172    177.9730    247.1672   8.1445838432e+01   3.9065617907e+00    0.2577668    0.1835859  60.76  0.001442873    2.015    0.504
        31 -10.2539    198.9968    241.6086   7.7380514172e+01   1.5851770336e+00    0.1791891    0.1503785  22.16  0.001468963    1.193    0.162
        32  -8.9423    165.6507    241.0648   8.2752119976e+01   6.3174717274e+00    0.1838313    0.1328167  41.36 0.0004134872    1.139    0.122
        33 -11.5577      9.2649    146.0257   1.0480899441e+02   4.3519550225e+01    0.7311611    0.3297888  76.12  0.003857703    2.010    0.503
        34 -11.8813     13.0547    142.0557   1.0362055397e+02   4.4087968950e+01    0.8837408    0.4304694  77.82  0.004772918    1.857    0.462
        35  -8.7364    202.9687    150.5258   6.1505349431e+01   1.2396157670e+01    0.2013916     0.124632  43.15 0.0006457297    1.570    0.363
        36  -7.9875    134.0074    148.4489   7.5009080037e+01   2.5931695661e+01    0.3274347    0.1443508 -59.91  0.001177823    3.313    0.698
        37  -9.9116     67.5865    143.8788   9.0169790753e+01   3.7750643009e+01     2.047963    0.6130337 -64.12  0.007700605    3.152    0.683
        38 -12.1717     50.8897    134.1056   9.3138505162e+01   4.2105521164e+01     1.618272     1.096313  -1.60  0.008003071    2.773    0.639
        39 -11.3117     57.6765    133.8292   9.1306640151e+01   4.1335712911e+01    0.7089172    0.4488167 -54.30  0.002094749    1.638    0.389
        40  -8.6475    226.4629    131.4892   5.3339994323e+01   1.0676162986e+01    0.2157388    0.1280764  45.94   0.00094126    1.752    0.429
        41 -13.1369    248.5271     64.7795   3.3949040286e+01   1.5166910060e+01    0.6918261    0.4053418 -22.09  0.001639727    1.529    0.346
        42  -9.5279    222.5176    137.2472   5.5270885508e+01   1.0621643824e+01    0.3119354    0.2611569 -85.09 0.0005561377    1.942    0.485
        43 -10.2784    221.0193    133.4730   5.4674011647e+01   1.1436171642e+01    0.3179258    0.2618539  45.99  0.001125844    1.347    0.258
        44 -10.0400    209.5704    137.4179   5.7499898206e+01   1.3073663757e+01    0.3574923    0.2622752  61.76  0.001872761    1.801    0.445
        45  -9.7920    197.9616    134.2601   5.8858194239e+01   1.5844900313e+01    0.4311703    0.3438242 -26.85  0.002400636    1.220    0.180
        46 -10.0857    196.4539    128.9312   5.7907691533e+01   1.6991210674e+01    0.3809909    0.3218981  20.91  0.002144672    1.151    0.131
        47  -7.8006    230.1784    135.4484   5.3633743892e+01   9.4375338304e+00    0.1703867    0.1300071  60.66 0.0009405467    1.769    0.435
        48 -10.7402     41.8484    136.7541   9.5837961297e+01   4.2530149282e+01    0.4004373    0.3440464  18.49 0.0009390403    1.554    0.356
        49 -10.5269    223.0561    129.1505   5.3358547317e+01   1.1655378965e+01    0.4353581    0.2367326  31.24   0.00199717    2.049    0.512
        50 -10.4316    185.1659    124.7033   5.9032364490e+01   2.0024134037e+01    0.7264034    0.3594719 -36.90  0.003064003    1.989    0.497
        51  -8.4581    161.0791    128.6968   6.4860620324e+01   2.4364978803e+01    0.2743046    0.2469815 -65.86  0.001102873    1.258    0.205
        52  -9.0727    192.6031    125.2529   5.7753991628e+01   1.8377194132e+01    0.2923592    0.1853119  37.51  0.001390236    1.601    0.375
        53  -8.8477    177.3170    119.9254   5.9415046766e+01   2.2508821261e+01    0.3873043    0.2591228 -58.40  0.001733897    1.989    0.497
        54  -8.5870     61.0240    119.1453   8.8108283537e+01   4.4337115080e+01    0.2138284    0.1701515 -75.14  0.001241793    1.118    0.105
        55  -9.8894    175.4875    112.4136   5.7903096210e+01   2.4222567943e+01    0.4735676    0.3379917  -7.19  0.001099733    1.752    0.429
        56 -10.5603    134.4196    110.0542   6.6382678154e+01   3.3600016683e+01    0.8332691    0.2557965 -45.82  0.002613879    3.240    0.691
        57  -9.4996    134.1081    102.3682   6.4447245137e+01   3.5242289654e+01    0.3182537    0.2488388 -69.99 0.0007254004    1.518    0.341
        58  -9.2239    197.5698    110.9391   5.3332943026e+01   1.9634915863e+01    0.3833851    0.1622532 -36.58 0.0008627436    2.232    0.552
        59  -7.4679    117.2454    128.5401   7.4923904242e+01   3.3124755282e+01    0.1953392    0.1371845  29.75 0.0009342883    1.666    0.400
        60 -10.2713    147.0495    107.9231   6.2852166618e+01   3.1321711242e+01    0.3871806    0.3180339   1.69  0.001081099    1.472    0.321
        61 -10.5696    126.5046    105.1617   6.7076926138e+01   3.6270897640e+01     0.505168    0.3653067  81.04  0.002248829    1.938    0.484
        62 -10.1265     80.0779    102.0603   7.9125422669e+01   4.5601048248e+01    0.2127317    0.1960608 -72.78  0.001231182    1.017    0.017
        63 -10.0408    140.9325     98.5887   6.1769276238e+01   3.4514594049e+01    0.3531471    0.3358304 -21.40  0.001188862    1.064    0.060
        64  -7.9627    157.7141     90.9454   5.5786199428e+01   3.2152927340e+01    0.2247572    0.1873006 -35.73 0.0005237568    1.163    0.140
        65 -10.0996    187.0907     82.8410   4.7637380242e+01   2.6577084858e+01    0.5224996    0.3662983 -61.06  0.002346099    1.804    0.446
        66 -10.8434    183.1793     77.9762   4.6924633174e+01   2.8304527771e+01    0.6308772     0.516934 -31.30 0.0008854367    1.154    0.134
        67 -10.2633    179.8458     72.6474   4.5935809429e+01   2.9977860263e+01    0.4703428    0.4210122 -23.11 0.0009444053    1.072    0.068
        68  -8.1159    171.0507     75.5231   4.8454121162e+01   3.1671074914e+01    0.2204707    0.1547128  56.87 0.0003858606    1.499    0.333
        69  -9.5097    167.2462    158.6440   6.9940870678e+01   1.7850249546e+01    0.2224909     0.209207   9.97  0.000292989    1.052    0.050
        70  -9.1974    173.2573     68.9707   4.6016586087e+01   3.2203796163e+01    0.2238856     0.196978 -31.83 0.0005648229    1.083    0.077
        71  -8.5745    237.6615    237.3054   7.0809668245e+01  -3.2018522684e+00   0.08941196   0.07502715  38.90 0.0007040745    1.676    0.403
        72  -8.3943    153.4239     58.2394   4.6405720480e+01   3.8948033973e+01    0.2209291    0.1389443 -41.77 0.0004687216    1.555    0.357
        73  -8.7029    145.9885     56.0149   4.7203044543e+01   4.1192705570e+01      0.23124    0.2188381 -46.32  0.001214435    1.058    0.055
        74  -8.7723    167.1584    236.5208   8.1960457257e+01   6.6401883933e+00    0.1549457    0.1400671  16.01 0.0002614882    1.229    0.186
        75 -11.2536    161.9366     51.6587   4.2496089063e+01   3.7802201977e+01    0.6626222    0.4788703 -74.80  0.002829471    1.775    0.437
        76  -8.4212    193.6568    155.8857   6.4306354597e+01   1.3337950035e+01    0.3770844    0.1825319 -49.53  0.001547932    2.949    0.661
        77 -10.0487    151.4151     49.1258   4.3649201603e+01   4.0905013164e+01    0.3959508    0.3056273  13.57    0.0018207    1.535    0.349
        78 -10.1566    188.8328     48.1248   3.6855241523e+01   3.1366400553e+01    0.7075894    0.1497064 -32.21  0.002014898    3.668    0.727
        79  -9.9732    191.9582     40.2217   3.3922599527e+01   3.1610483082e+01    0.6224436    0.4815917  74.35  0.003140965    1.388    0.280
        80  -9.4005    197.1783     40.2074   3.3221932517e+01   3.0277037634e+01    0.5380232    0.3135025 -23.21  0.001692014    1.667    0.400
        81  -8.9158    198.6740     34.9603   3.1411495398e+01   3.0546341345e+01    0.2429176    0.2339705  49.80 0.0003870082    1.111    0.100
        82  -8.8728    115.1328     47.2816   5.1357013933e+01   5.0219197861e+01    0.2776042    0.2087514 -37.58 0.0003548933    1.273    0.215
        83  -8.1505    168.2450    232.0216   8.1225814275e+01   7.0251741953e+00    0.1436016    0.1193698  32.50            0    1.091    0.083
        84  -8.7154    181.8156     34.3476   3.3432503568e+01   3.4988280088e+01    0.4636886    0.2788149   5.70  0.001840304    2.350    0.574
        85  -8.9377    185.1104     28.6701   3.1125482553e+01   3.4810640536e+01    0.3934526    0.3753088 -13.60  0.002049621    1.070    0.065
        86  -8.4852    169.5562     36.6056   3.6020095586e+01   3.7931218542e+01    0.3276141    0.1893461  33.85  0.001302203    2.167    0.539
        87  -8.6874    111.1492     31.1663   4.5745742623e+01   5.3728197055e+01    0.4137016    0.2266643  10.06  0.001057716    3.579    0.721
        88  -8.3934    158.9884     31.0670   3.5775657829e+01   4.1447094014e+01    0.2247898    0.2175585 -16.11 0.0004736154    1.026    0.025
        89  -8.2612    193.7652     28.8815   3.0112502659e+01   3.2529979336e+01    0.2188807    0.1913105  17.32  0.001007973    1.266    0.210
        90  -9.2660    139.1219     25.7464   3.7273441309e+01   4.7377472983e+01       0.3137    0.1981309   0.56 0.0007984851    1.977    0.494
        91  -7.5900    195.8263    229.5867   7.6296947101e+01   3.3054049939e+00    0.1449601   0.08504519  44.34 0.0003597719    1.582    0.368
        92  -9.3530    240.2831    226.2965   6.8806541872e+01  -2.5593467090e+00    0.1717554    0.1233146 -43.71  0.001172996    2.466    0.594
        93 -10.2047    135.3551    224.6301   8.6081946289e+01   1.2815523619e+01    0.1994855    0.1761689  49.58 0.0004677595    1.134    0.118
        94  -9.1247    128.0071     22.5051   3.8140597388e+01   5.0673091273e+01    0.2346435    0.1469323  63.10  0.001045179    1.627    0.386
        95  -8.1376    161.0594     18.1120   3.0743887129e+01   4.2408012896e+01    0.2169254     0.185997  27.81 0.0003804731    1.240    0.194
        96  -7.7864    130.5219     18.4741   3.5949012574e+01   5.0496960605e+01    0.1484224    0.1403619  22.13 0.0008094173    1.038    0.037
        97  -8.3300     86.9593    218.0288   9.4248995235e+01   2.0636830806e+01    0.1627294    0.1257699  57.32  0.001185965    1.021    0.021
        98  -8.2552    172.6769    155.8596   6.8312745028e+01   1.7292978856e+01    0.2275898    0.1709106  30.73 0.0006220713    1.283    0.221
        99  -8.4542    110.9082    153.0928   8.1121228576e+01   2.9106445759e+01    0.1915675    0.1753635  68.68 0.0002890496    1.012    0.012
       100  -8.8021    158.4641    211.1918   8.0230056555e+01   1.1218784081e+01    0.1949939    0.1327676  38.30 0.0002770238    1.198    0.165
       101  -7.9448    143.8502    207.7339   8.2454356979e+01   1.3995874377e+01    0.2485061   0.08668243 -52.30  0.001087021    3.678    0.728
       102 -10.5851    241.6440    199.4263   6.4304990237e+01  -1.2930818505e-01    0.2961077    0.2479831  40.04  0.001525886    1.566    0.362
       103  -9.1775     19.2362    201.4053   1.0578568138e+02   3.1413177901e+01    0.1787748    0.1370343  69.78 0.0004610963    1.093    0.085
