#   1 NUMBER                 Running object number                                     
#   2 MAG_AUTO               Kron-like elliptical aperture magnitude                    [mag]
#   3 X_IMAGE                Object position along x                                    [pixel]
#   4 Y_IMAGE                Object position along y                                    [pixel]
#   5 X_WORLD                Barycenter position along world x axis                     [deg]
#   6 Y_WORLD                Barycenter position along world y axis                     [deg]
#   7 A_WORLD                Profile RMS along major axis (world units)                 [deg]
#   8 B_WORLD                Profile RMS along minor axis (world units)                 [deg]
#   9 THETA_WORLD            Position angle (CCW/world-x)                               [deg]
#  10 FWHM_WORLD             FWHM assuming a gaussian core                              [deg]
#  11 ELONGATION             A_IMAGE/B_IMAGE                                           
#  12 ELLIPTICITY            1 - B_IMAGE/A_IMAGE                                       
         1  -8.4804    111.6887     34.5342   4.2256778030e+01   5.2875549453e+01    0.2847292    0.1754907 -33.99 0.0005957371    1.569    0.363
         2  -7.6593    119.7677     10.9903   3.0625928363e+01   5.3625538434e+01    0.1806712    0.1167154 -21.44 0.0006866485    1.576    0.365
         3  -8.5637     55.7303      9.8845   4.6716060980e+01   6.9429066970e+01    0.2419553     0.172526 -43.44 0.0006986042    1.538    0.350
         4  -7.8546     28.2787      9.6444   6.1358603101e+01   7.4696511373e+01    0.1232341     0.103415 -66.25 0.0003882502    1.656    0.396
         5  -8.0236     90.9975      8.5223   3.4937575676e+01   6.1252429395e+01    0.2083005    0.1362804  69.25 0.0006613535    1.541    0.351
         6  -8.6555      6.3708      8.2292   7.8297030148e+01   7.7802249731e+01    0.1719294    0.1118726 -61.94 0.0007975693    1.663    0.399
         7  -8.5423     33.4549      4.7774   5.4299011906e+01   7.4563384611e+01    0.3127957    0.1890642 -54.38   0.00144456    2.522    0.604
         8  -8.5077     79.1790      3.6057   3.5093543912e+01   6.4665154554e+01    0.2875946    0.1497584 -38.59  0.001282629    2.000    0.500
         9  -7.5455    192.2526      3.6767   2.0714950119e+01   3.6197446371e+01    0.1363129    0.0772728 -49.11 0.0003270386    1.541    0.351
        10  -7.8755     44.6474      2.8724   4.6741810628e+01   7.2637398089e+01     0.186574    0.1111919 -36.66 0.0005137131    1.722    0.419
        11  -8.1038     62.7265      1.4899   3.8545061835e+01   6.8806088815e+01    0.1730853    0.1312584  81.95 0.0009214345    1.581    0.367
        12  -7.5025     39.2976      1.3306   4.8239120273e+01   7.3908158092e+01    0.1372091   0.09289762  15.03 0.0002471829    1.641    0.390
        13 -10.0675    223.9260    243.8962   6.9155070665e+01   4.3873762994e-01    0.3367533    0.1797802 -38.22  0.002298201    2.482    0.597
        14  -8.7666    248.9775    249.1623   6.6193408636e+01  -2.4919077313e+00    0.2389932    0.1112626  -8.99  0.001593836    2.087    0.521
        15  -9.4262    246.5206    228.8044   6.3710113949e+01  -4.0950910886e-01    0.2659402    0.1585395 -32.22  0.001127979    1.940    0.485
        16  -9.5869    248.6485    241.6897   6.5226248627e+01  -1.8045193177e+00    0.2921991     0.140635 -30.92  0.001418111    2.145    0.534
        17  -8.8698    247.9704    234.7031   6.4347401277e+01  -1.1051450021e+00    0.2071746    0.1610615 -24.51  0.001282272    1.764    0.433
        18  -7.4667    125.2677    250.6356   8.6762581491e+01   1.0588243307e+01   0.09972886   0.07060229  51.88 0.0006992804    1.652    0.395
        19  -9.0001    210.8279    246.3407   7.1503373160e+01   1.5553058972e+00    0.1610474    0.1527593  -1.57  0.001080491    1.859    0.462
        20  -9.7092    147.2738    245.3503   8.2178121677e+01   8.7528904451e+00    0.2552965     0.222685 -48.60  0.001701842    1.589    0.371
        21  -8.9833      9.8739    244.4505   1.0841255224e+02   2.3260772067e+01    0.2899881   0.08508762  81.23  0.001380109    4.060    0.754
        22  -8.3655     67.5069    245.0124   9.7327915494e+01   1.7766627744e+01    0.1339821    0.1040922 -80.15  0.001028708    1.577    0.366
        23  -8.5772    139.4137    244.1666   8.3486104582e+01   9.8180705596e+00    0.1208983    0.1056511 -78.69 0.0009387474    1.769    0.435
        24  -9.3785     77.7172    242.8805   9.5182292206e+01   1.7014407826e+01    0.2723245    0.1171844  56.92  0.001303213    2.889    0.654
        25  -8.3167     34.3920    244.2060   1.0372431754e+02   2.1160491908e+01    0.1311448   0.08293166  71.80 0.0004964911    1.566    0.361
        26  -8.3959    201.7665    242.9098   7.2501560760e+01   2.8773804183e+00    0.1517534    0.1332452 -24.20 0.0008930179    1.655    0.396
        27  -8.8005    168.8895    243.1496   7.8069405072e+01   6.5309435833e+00    0.2098514    0.1172768  36.82 0.0008612995    1.635    0.388
        28  -9.5609    194.3981    240.3706   7.3376115970e+01   3.9618388272e+00    0.2596582    0.1708419 -32.33  0.001144558    1.724    0.420
        29  -9.2527    182.9862    239.9559   7.5238826876e+01   5.2937355941e+00      0.30345    0.2031817  51.93  0.001901778    2.711    0.631
        30  -9.9846    160.0098    239.6259   7.9218317386e+01   7.9925425138e+00    0.2902792    0.2104239 -54.29  0.001687835    2.082    0.520
        31  -8.1611     88.1594    242.1381   9.3077745350e+01   1.5985665385e+01    0.1430501    0.1062201  54.86 0.0007319879    1.348    0.258
        32  -8.1256    240.4991    240.0382   6.6166730416e+01  -8.6247294134e-01    0.1349331   0.07766628 -21.26 0.0007981579    1.555    0.357
        33  -8.8022    242.3383    236.3589   6.5388474375e+01  -7.0235586602e-01    0.2037621   0.09571494  -0.40  0.001214487    2.384    0.581
        34  -9.3082    120.0989    245.0538   8.7184352496e+01   1.1936771980e+01    0.3017048    0.1886438  61.13  0.001627888    2.408    0.585
        35  -9.3026    135.4681    238.7744   8.3633560846e+01   1.1004363871e+01    0.2003029     0.138638  44.00 0.0009440447    1.481    0.325
        36  -8.5222    129.1225    238.5020   8.4803970680e+01   1.1794296742e+01    0.1675376    0.1327853  46.86 0.0009088996    1.381    0.276
        37  -7.8780     40.7948    239.0764   1.0223694740e+02   2.1400402457e+01    0.1222825   0.07990525 -87.61 0.0007326099    1.726    0.421
        38  -8.9209    230.8763    236.8948   6.7151222404e+01   4.0587983482e-01    0.1865679    0.1602597 -33.95  0.001340978    2.077    0.518
        39  -8.3088    209.1323    238.2207   7.0696620577e+01   2.5722498070e+00    0.1265545    0.1045044  13.40 0.0005134433    1.362    0.266
        40  -8.5042     26.0236    237.0328   1.0506211288e+02   2.3110677664e+01    0.2809575   0.08317173  53.41  0.001406523    2.700    0.630
        41  -8.1274     13.9734    238.0000   1.0744976602e+02   2.3992794958e+01    0.1661455   0.04708931  26.91   0.00079978    2.924    0.658
        42  -9.0386    217.3136    235.6794   6.9058576757e+01   1.9532827834e+00    0.1741395    0.1270894  29.71 0.0006963999    1.547    0.354
        43  -9.4238    213.6752    231.6547   6.9072615375e+01   2.7699742404e+00    0.2388857     0.210027  47.40  0.001406759    2.160    0.537
        44  -9.0504    203.1062    234.4262   7.1154196439e+01   3.6431129196e+00    0.2306738    0.1581055 -46.97  0.001214369    2.443    0.591
        45  -9.8144    175.7240    233.1536   7.5619151215e+01   6.9428603815e+00    0.3656588    0.2047639 -50.79  0.002192588    2.798    0.643
        46  -8.4158    170.1545    235.6564   7.6921209360e+01   7.2930449502e+00    0.1539895    0.1397537 -11.44 0.0006038703    1.366    0.268
        47  -7.9394     57.7120    236.7521   9.8736441572e+01   2.0105700491e+01     0.185421    0.0524276  38.51 0.0008971017    2.370    0.578
        48  -9.4218    108.7377    234.2673   8.8321656410e+01   1.4823770192e+01    0.3115517    0.1893592  51.20  0.001218226    1.755    0.430
        49  -8.6183     78.8020    234.4196   9.4323646924e+01   1.8233143328e+01    0.2007479    0.1286495  73.40  0.001280942    1.966    0.491
        50  -8.5336    122.8776    233.7730   8.5499590470e+01   1.3213227776e+01    0.1869364    0.1326641  64.98  0.001093797    2.044    0.511
        51  -8.2281     99.7167    234.3286   9.0117560235e+01   1.5871096157e+01    0.1796138    0.1049716  53.27   0.00108743    1.851    0.460
        52  -9.7504     68.5339    231.8324   9.6213006448e+01   1.9779800955e+01    0.4789803    0.2218748  63.53   0.00243565    2.865    0.651
        53  -8.6900    194.7418    232.6949   7.2299646994e+01   4.7826784548e+00    0.1465176    0.1426642 -71.18 0.0008223753    1.937    0.484
        54  -8.9166    142.0471    231.1718   8.1524718621e+01   1.1260276716e+01    0.5496963    0.2007258  48.52  0.001995607    5.387    0.814
        55  -8.8427    132.5998    232.8457   8.3520086970e+01   1.2174028989e+01    0.1756853    0.1454672 -83.33  0.001088427    1.853    0.460
        56  -8.6266     92.4365    231.8046   9.1348877337e+01   1.7109928206e+01    0.2844576    0.1579046  70.16  0.001063382    2.961    0.662
        57  -9.4690    186.4527    230.4923   7.3405357114e+01   5.9997791370e+00    0.2464918     0.208829 -66.83  0.001465508    2.381    0.580
        58  -9.2414    236.1181    230.0965   6.5410966363e+01   5.2910637742e-01    0.2745387    0.1315102 -27.49  0.001531568    1.940    0.485
        59  -8.0143    153.5591    241.8178   8.0638956741e+01   8.4712450266e+00     0.118831    0.1066589 -63.60 0.0008929987    1.719    0.418
        60  -8.9637      1.7265    230.8394   1.0964700759e+02   2.6214688929e+01    0.1885689   0.09897345  61.88 0.0007606542    1.515    0.340
        61  -8.7178    142.9011    216.3691   7.9525836828e+01   1.3278417818e+01    0.2267702    0.1842327  84.14  0.001125558    2.038    0.509
        62 -10.1544    149.5023    225.6578   7.9440417792e+01   1.1107363145e+01    0.4654666    0.3277441  89.07  0.002444594    3.764    0.734
        63  -9.1015    147.4410    220.4394   7.9170251524e+01   1.2103139705e+01    0.4025807    0.1925702  20.54  0.001808119    2.281    0.562
        64  -8.8485    229.8297    228.6989   6.6151172506e+01   1.3286039578e+00    0.1661452    0.1057621 -32.46 0.0009810139    1.828    0.453
        65  -8.9239    162.2695    227.6640   7.7319372149e+01   9.2585625779e+00    0.2460896    0.1685469  50.29   0.00157345    2.024    0.506
        66  -8.8283    127.7518    226.8667   8.3784524111e+01   1.3634651871e+01    0.2337776    0.1487284  51.31  0.001127471    1.846    0.458
        67  -8.1764    120.1833    227.2176   8.5320038198e+01   1.4513383492e+01    0.1495514    0.1172085  50.32 0.0004885584    1.380    0.276
        68  -8.0648    223.4758    226.0595   6.6741843040e+01   2.2853730763e+00    0.1504913   0.08534261 -23.67  0.001039309    1.627    0.385
        69  -8.7179    205.9607    225.6376   6.9464493759e+01   4.2947361265e+00    0.1751213    0.1382079 -42.82  0.000940807    1.977    0.494
        70  -8.0089    199.6575    225.7934   7.0525336212e+01   5.0054514024e+00    0.1282125   0.09263007 -33.47 0.0004872982    1.643    0.391
        71  -8.0712     49.2284    226.1900   9.9819023696e+01   2.2766134584e+01    0.1603359   0.07984412  83.83 0.0008752957    2.526    0.604
        72  -8.9401     94.1537    224.1894   9.0293948966e+01   1.8139988835e+01      0.32848    0.1556618  54.27  0.001634187    2.566    0.610
        73  -8.9596    216.3801    223.2864   6.7449588377e+01   3.3696269202e+00    0.1956998    0.1642697 -25.85 0.0009771087    1.609    0.378
        74  -8.8813    180.5619    223.9533   7.3536905894e+01   7.4998077081e+00    0.2114896    0.1517988  40.39 0.0009002758    1.632    0.387
        75  -7.9164    113.8213    223.8560   8.6229852175e+01   1.5812988786e+01    0.1523766     0.117588  48.88 0.0004562899    1.325    0.245
        76  -8.8523    104.8873    223.4350   8.8006760970e+01   1.6973160174e+01     0.279022    0.1722519  67.97  0.001549894    2.476    0.596
        77  -8.7847     74.3379    223.1022   9.4335595737e+01   2.0615911383e+01    0.3029045    0.1847846 -89.27  0.001822826    2.153    0.536
        78 -10.3574     10.9071    223.2555   1.0760922869e+02   2.6821478220e+01     0.273965    0.1656652  46.45  0.001910026    1.229    0.186
        79  -8.3358    173.0276    223.0024   7.4747078706e+01   8.5432964044e+00    0.1501359    0.1313049  49.55 0.0006789162    1.666    0.400
        80  -8.4855    163.2213    222.4147   7.6454872219e+01   9.8385752327e+00    0.2643044    0.1410212  39.67   0.00155156    1.810    0.448
        81  -8.6028    158.8951    220.1946   7.6963014776e+01   1.0684603432e+01    0.1731945    0.1523562  50.60 0.0006528472    1.536    0.349
        82  -8.2333     59.6535    223.3602   9.7449044274e+01   2.2179364895e+01    0.1849053    0.1001996  54.07  0.001093866    1.695    0.410
        83  -9.1146    238.9538    220.7507   6.3625208928e+01   1.1612155198e+00    0.2599245    0.1250052 -27.42  0.001026519    1.886    0.470
        84  -9.3741    225.5813    221.6709   6.5775443805e+01   2.5160498611e+00    0.1921425    0.1625981  14.85  0.001174604    1.479    0.324
        85  -9.2328    192.3455    221.2603   7.1114250471e+01   6.4052909603e+00    0.2106808    0.2074853  84.50  0.001098831    1.804    0.446
        86  -7.7437    140.4747    222.4943   8.0776487851e+01   1.2688441192e+01    0.1144133   0.09290044  26.38 0.0001223556    1.064    0.061
        87  -9.1000    120.6410    219.2731   8.4332178662e+01   1.5682034007e+01     0.389714    0.1969114  55.25  0.001840325    3.055    0.673
        88  -8.7071     82.9061    220.3151   9.2288084314e+01   2.0113541103e+01    0.2566798    0.1589273  67.04  0.001511267    1.991    0.498
        89  -7.7361     27.4080    220.8365   1.0409947529e+02   2.5826717762e+01    0.1363766   0.09516861 -67.99 0.0009445318    1.691    0.409
        90  -8.1466    202.7155    220.0195   6.9188712285e+01   5.3157876183e+00    0.1501646    0.1134817  -3.59 0.0004235207    1.114    0.102
        91  -8.3141    210.0754    218.8918   6.7815635910e+01   4.5816925359e+00    0.1490981    0.1252017   7.73 0.0005442824    1.293    0.227
        92  -9.3739    132.9661    216.2404   8.1479096734e+01   1.4580223414e+01    0.3810464    0.2876251  79.29  0.002304431    2.223    0.550
        93  -8.6088    249.1182    217.9912   6.1740207110e+01   3.6778861952e-01     0.174952    0.1558861  51.31   0.00133821    2.687    0.628
        94  -9.0532     51.3472    217.0668   9.8787873983e+01   2.4179179423e+01    0.2310222    0.1663318  85.33 0.0009633631    1.489    0.328
        95  -8.8683    169.4098    216.0205   7.4438180079e+01   9.9187406849e+00    0.2274011    0.1925817 -83.25  0.001070413    2.241    0.554
        96  -8.3014     61.9605    217.0022   9.6492532822e+01   2.3061434323e+01    0.1957853    0.1058257  55.53 0.0007407004    1.776    0.437
        97  -8.6580     18.5675    215.2888   1.0573181951e+02   2.7636794805e+01    0.1922572   0.09555888  87.46  0.001129801    2.060    0.514
        98  -9.0048    232.2611    213.8068   6.3573360336e+01   2.6087405740e+00    0.2515396    0.1485002 -29.78  0.001582527    1.679    0.404
        99  -7.9987    154.7106    215.1434   7.7074510406e+01   1.1929432483e+01     0.168884    0.1173168  63.08 0.0009344547    2.671    0.626
       100  -7.8161     41.6800    215.3517   1.0076887344e+02   2.5476414237e+01    0.1254675     0.063782  55.62 1.416685e-05    1.745    0.427
       101  -8.4671    185.5851    213.9747   7.1232128612e+01   8.1414798410e+00    0.1777582    0.1378023 -44.06 0.0009372499    1.760    0.432
       102  -9.1777     93.2995    213.7218   8.9439539520e+01   2.0009207803e+01    0.2992317     0.152467  51.08  0.001573287    2.053    0.513
       103  -9.4423     73.4108    211.9174   9.3583879270e+01   2.2697306943e+01    0.6034642     0.201439  53.24  0.002298019    3.986    0.749
       104  -9.4635    214.1149    211.9806   6.6123143283e+01   4.8977731821e+00    0.2767387    0.2250341  44.36  0.001714838    1.960    0.490
       105  -7.9848    224.9786    212.2354   6.4446205661e+01   3.6023250936e+00    0.1315343    0.1033166 -28.97 0.0005976957    1.596    0.373
       106  -9.4135    175.6756    210.0240   7.2427275418e+01   9.9241810786e+00    0.3196049    0.2439113  63.98  0.001547761    2.540    0.606
       107  -8.8145    161.4971    212.0072   7.5348620598e+01   1.1493806501e+01    0.1738693    0.1694497 -78.31 0.0009215797    1.506    0.336
       108  -7.7804    106.4899    212.4998   8.6495097222e+01   1.8575674250e+01    0.1195721   0.09836199  38.57 -0.0001512761    1.075    0.069
       109  -8.9170    204.3298    210.7179   6.7531962721e+01   6.2235118214e+00    0.1788496    0.1718652   2.87 0.0008363296    1.628    0.386
       110  -8.2991    192.4703    210.4637   6.9507185368e+01   7.7237291515e+00    0.1652614    0.1037027 -45.48 0.0007811876    2.168    0.539
       111  -8.8950    148.2015    210.5572   7.7710000646e+01   1.3451513656e+01    0.2299453    0.1795888  59.57   0.00130176    1.820    0.451
       112  -8.8691    116.2540    210.1646   8.4162158669e+01   1.7714745753e+01    0.2673598    0.1865163  68.32  0.000994929    2.067    0.516
       113  -9.4286      6.2010    208.2107   1.0813137838e+02   3.0006135589e+01    0.5095107    0.1252649  70.28  0.001898607    4.775    0.791
       114  -8.3225     46.4726    209.4936   9.9348527323e+01   2.6091558858e+01    0.2734053    0.1148336  56.47   0.00108766    2.346    0.574
       115  -8.2161     32.4003    210.1864   1.0250106896e+02   2.7347628729e+01    0.1578234   0.09007515  75.78 0.0006377323    1.764    0.433
       116  -8.4393     85.3133    208.8678   9.0682958088e+01   2.1839962292e+01    0.2226777    0.1535284  62.92 0.0008515959    1.599    0.374
       117  -9.4034    246.4559    207.0680   6.0435380563e+01   1.7489119589e+00    0.2283742    0.1412583 -23.69 0.0006802225    1.430    0.300
       118  -8.2815    156.4966    207.9520   7.5729474747e+01   1.2737106700e+01    0.1505148    0.1143016 -40.30 0.0005546295    1.512    0.339
       119  -8.4190    139.0522    207.7656   7.9151963248e+01   1.5093841606e+01    0.1815634    0.1566495 -78.30 0.0006102364    1.663    0.399
       120  -8.0899    126.4049    208.2219   8.1801013982e+01   1.6703326889e+01     0.141731    0.1169404 -74.27 0.0007560502    1.646    0.393
       121  -9.1582     99.5665    205.9454   8.7246424894e+01   2.0587849434e+01    0.3397624    0.2013135  64.19  0.001221213    2.379    0.580
       122  -8.2898     11.7146    206.9332   1.0689227181e+02   2.9806843291e+01    0.1565544    0.1218738  65.13 0.0008117115    1.091    0.083
       123  -8.5792     56.6795    205.4233   9.6767454118e+01   2.5788248144e+01    0.3211839     0.144494  58.51  0.001558258    2.419    0.587
       124  -8.1163    109.2068    205.2095   8.5066614091e+01   1.9472432659e+01    0.1611194    0.1279328  56.27  0.000636029    1.365    0.268
       125  -7.7266     92.6349    205.3062   8.8698635094e+01   2.1578718863e+01     0.128417   0.07855279  54.78 0.0007037355    1.744    0.427
       126  -8.2142     25.1537    205.1749   1.0384880283e+02   2.8986297445e+01    0.1673272    0.1030595  56.11 0.0005574779    1.338    0.253
       127  -9.2374    194.8718    203.4771   6.8016684349e+01   8.3090285312e+00     0.244214    0.1967257 -25.95  0.001009789    1.355    0.262
       128  -9.3262    192.4091    197.1861   6.7445231764e+01   9.4530465565e+00    0.3190375    0.2579478 -51.87  0.001270556    1.911    0.477
       129  -8.8433    183.7068    203.7315   7.0024222649e+01   9.7255869670e+00     0.224168    0.1827041  44.95  0.001326464    1.642    0.391
       130  -9.5752    163.7438    202.8057   7.3583813407e+01   1.2517650483e+01    0.3482464    0.2175633  47.66  0.001252342    1.989    0.497
       131  -8.7209    131.2816    203.6849   8.0192425028e+01   1.6789833128e+01    0.2384165     0.178573  60.28  0.001001612    1.757    0.431
       132  -9.3710     17.0219    203.6044   1.0559130104e+02   3.0010536213e+01    0.2239226    0.1445756 -87.76  0.000711516    1.541    0.351
       133  -9.3757    250.1813    201.7312   5.9056224831e+01   1.8929152187e+00    0.3299171    0.1244456 -29.19  0.001422349    2.289    0.563
       134  -9.4471    246.1852    194.0038   5.8364462889e+01   3.1574705622e+00    0.3403353    0.2296119 -50.03  0.001987353    3.355    0.702
       135  -9.2174    236.5196    207.9396   6.2024616527e+01   2.7573393286e+00    0.2373731    0.1791546 -33.58  0.001214336    1.772    0.436
       136  -9.1030    243.1431    200.5341   5.9870786747e+01   2.8022337121e+00    0.2510997     0.141447 -33.65  0.001092077    1.858    0.462
       137  -8.3652    211.0230    201.9732   6.5059226348e+01   6.4542860726e+00    0.1435641    0.1382676 -25.97 0.0007415615    1.702    0.412
       138  -8.9335    140.6147    200.9945   7.7896348453e+01   1.5952671253e+01    0.3001017    0.2128323  63.97  0.001214046    2.218    0.549
       139  -7.9879    222.2270    201.2244   6.3141940941e+01   5.1703658382e+00    0.1571996   0.07784781 -40.37 0.0006394536    2.465    0.594
       140  -8.5330     80.0253    200.9258   9.1064314879e+01   2.3947877815e+01    0.2641597    0.1394827  58.16  0.001088103    2.202    0.546
       141  -9.4030    149.5831    198.4079   7.5703345832e+01   1.5123907272e+01    0.3335901    0.2489858 -84.86  0.001373603    2.635    0.620
       142  -8.7617    123.9500    198.9717   8.1101181016e+01   1.8573195113e+01    0.2495417    0.1904745  87.22  0.001002158    1.993    0.498
       143  -9.1281    237.1035    198.1595   6.0371380332e+01   3.7527183663e+00    0.2574956    0.1236562 -32.08  0.001257106    1.946    0.486
       144  -8.4204    176.8616    198.6994   7.0487232892e+01   1.1330289289e+01    0.1746282    0.1562491 -79.19 0.0006064194    1.911    0.477
       145  -9.3082    112.7562    198.1476   8.3415738365e+01   2.0237454602e+01    0.3534232    0.2071847  59.24  0.001511187    2.385    0.581
       146  -8.9633     88.9561    198.2549   8.8749186430e+01   2.3339783200e+01    0.3165505     0.201384  73.48  0.001402174    2.138    0.532
       147  -9.2025     61.4317    196.9044   9.4967876034e+01   2.6917428379e+01    0.3860604    0.1838157  62.56  0.001630436    2.555    0.609
       148  -8.4647     29.0638    197.7740   1.0257137456e+02   3.0095170007e+01    0.1900984    0.1370251 -62.53 0.0007912123    1.609    0.379
       149  -8.1418    202.2034    197.2890   6.5772575398e+01   8.1559712101e+00    0.1391784    0.1276523  -2.28 0.0008410088    1.387    0.279
       150  -8.4203     12.7638    197.1897   1.0628722560e+02   3.1646557762e+01    0.2152961   0.06398463  55.34 0.0009537668    2.790    0.642
       151  -8.6904    215.9534    195.4460   6.3197745358e+01   6.6291998450e+00    0.1936249    0.1436866 -37.67  0.001092026    1.698    0.411
       152  -8.3414     53.3814    196.1637   9.6789349831e+01   2.7959877557e+01    0.1643084    0.1038268  83.20 0.0007522092    1.740    0.425
       153  -7.7775    209.2882    195.6261   6.4314970482e+01   7.4531535734e+00   0.09626124   0.09084527 -41.68 0.0007019988    1.721    0.419
       154  -8.7173    185.1763    194.6293   6.8318763120e+01   1.0770399250e+01    0.1942102    0.1767721 -51.97 0.0007343662    1.638    0.390
       155  -8.0463    230.9900    194.0303   6.0609467976e+01   4.9421145177e+00    0.1460817    0.1275377 -29.24 0.0005737712    1.646    0.393
       156  -8.6849    224.6548    193.6894   6.1527660330e+01   5.7550420693e+00    0.2264286    0.1309652 -38.51  0.001179445    1.999    0.500
       157  -8.8747    160.7344    193.9738   7.2814553747e+01   1.4251574617e+01    0.2462287    0.1800622  49.99 0.0009720231    1.724    0.420
       158  -9.0095     77.0002    193.7298   9.1018524322e+01   2.5701762030e+01     0.235873    0.1752777  66.43 0.0007050772    1.415    0.293
       159  -9.1474     43.7332    193.0888   9.8829081457e+01   2.9605525678e+01    0.3642116    0.2021456  63.03  0.001768201    1.776    0.437
       160  -8.2826    198.9711    191.4792   6.5367620177e+01   9.3360236853e+00    0.1730063    0.1352919 -15.67 0.0004955615    1.169    0.144
       161  -8.3774    172.5004    191.5148   7.0156152596e+01   1.2966527701e+01    0.1746802    0.1625989  72.36 0.0005679778    1.634    0.388
       162  -9.0288    139.4808    190.3409   7.6569148536e+01   1.7857290954e+01    0.2805128    0.2098581  64.55  0.001094999    1.947    0.486
       163  -7.7704     22.9732    192.0000   1.0367899710e+02   3.1829188893e+01    0.1868956   0.05939655  25.45 0.0008022529    2.941    0.660
       164 -10.3650     92.1712    188.6478   8.6885208516e+01   2.4757193943e+01    0.8339117    0.2147816  42.99  0.002963324    3.557    0.719
       165  -7.9158      6.6563    190.3419   1.0743327160e+02   3.3536038314e+01    0.1317543   0.05953319  55.22 0.0007047588    1.783    0.439
       166  -8.2942    237.2806    188.3973   5.8720153250e+01   4.8263075108e+00    0.1657284    0.1128428 -35.62 0.0005265097    1.728    0.421
       167  -8.6670    148.5923    188.9497   7.4461972913e+01   1.6776336147e+01    0.2059678    0.1573529 -61.87 0.0009632602    1.810    0.447
       168  -8.9528    129.3090    188.5030   7.8465646667e+01   1.9631217093e+01    0.2440247    0.2003051  67.68  0.000876009    1.585    0.369
       169  -8.8233     34.2842    187.8905   1.0073010976e+02   3.1629897596e+01     0.360882    0.1516621  69.26  0.001593849    2.785    0.641
       170  -8.7993    216.4914    187.6361   6.1799803676e+01   7.5205065456e+00    0.2001111    0.1665971 -22.61 0.0008025845    1.348    0.258
       171  -8.8890    191.4821    187.1921   6.5955509519e+01   1.0934544077e+01    0.2368312    0.1909463 -56.86  0.001078603    2.000    0.500
       172  -9.2585    155.9405    187.1531   7.2682371363e+01   1.6002498948e+01    0.2865321    0.1971958 -52.13 0.0008483925    1.818    0.450
       173  -9.5386    120.7042    186.1318   8.0010170246e+01   2.1287277059e+01    0.4002831    0.2599861 -79.33  0.001967967    2.622    0.619
       174  -9.1215     54.3986    186.3842   9.5714345660e+01   2.9844975076e+01    0.4280461    0.2023724  67.41  0.001578407    2.713    0.631
       175  -8.1174    230.6635    187.3268   5.9529977990e+01   5.7600638528e+00    0.1433365    0.1301887 -36.01 0.0007148415    1.748    0.428
       176  -8.7115    164.9333    186.8274   7.0845538151e+01   1.4751217101e+01    0.1921171     0.185361 -37.15 0.0007088293    1.343    0.255
       177  -9.0868    109.4379    185.9142   8.2526096152e+01   2.2924830342e+01    0.3068801    0.2180224  65.90  0.001133987    1.812    0.448
       178  -8.9371    249.2456    185.3803   5.6481996350e+01   3.7408789558e+00    0.1949579    0.1427707 -22.54 0.0007135302    1.321    0.243
       179  -9.0312    244.1914    184.1616   5.6990503704e+01   4.4739727169e+00     0.243393    0.2003577  78.66  0.001415417    3.879    0.742
       180  -8.7128    183.0233    184.9901   6.7108483193e+01   1.2431857572e+01    0.1813671    0.1589379   3.12 0.0007701612    1.120    0.107
       181  -9.0579     66.6928    184.3242   9.2506768846e+01   2.8850118999e+01    0.3417186    0.1866703  57.30  0.001102679    1.930    0.482
       182  -8.4640    223.9652    183.3295   5.9872768265e+01   7.0857265522e+00    0.1812909    0.1334024 -26.48 0.0005666348    1.339    0.253
       183  -8.7044    210.0750    183.9059   6.2204019120e+01   8.8392902419e+00    0.1936417    0.1427446 -20.56  0.000536911    1.220    0.180
       184  -8.1666    197.2611    183.4314   6.4294835358e+01   1.0650787507e+01    0.1841536    0.1390764 -47.04 0.0007534364    1.814    0.449
       185  -9.0996    174.2123    183.2483   6.8457637005e+01   1.3953654850e+01    0.2509559    0.2079189 -55.54 0.0008769443    1.700    0.412
       186  -8.8649     44.6064    182.4352   9.7791670300e+01   3.1739347311e+01     0.342057    0.1595645  52.63  0.001050335    1.993    0.498
       187  -7.9429      1.7639    183.5504   1.0835155133e+02   3.5327424637e+01    0.1665349   0.08081748  40.94 0.0009408048    1.656    0.396
       188  -9.1206    147.8212    180.6887   7.3293083752e+01   1.8260293464e+01    0.2853636    0.2393695  77.38  0.001233351    1.775    0.437
       189  -8.1948    235.3672    181.2430   5.7772837517e+01   5.8883025104e+00     0.146115   0.08854011 -32.07 0.0003836427    1.590    0.371
       190  -8.7911     26.2029    180.0284   1.0220909890e+02   3.4069365386e+01    0.3605221    0.1380375  62.72  0.001379235    2.754    0.637
       191  -8.6229     23.7622    175.7201   1.0255653913e+02   3.5230771890e+01     0.260297    0.1344085  74.87  0.001343888    1.921    0.479
       192  -8.5894    202.8668    184.5541   6.3524833525e+01   9.7284293559e+00    0.2019444    0.1490034 -45.84 0.0008266923    1.855    0.461
       193  -9.1996    191.5340    178.2091   6.4388327824e+01   1.2188418438e+01    0.2283156     0.211711  53.48 0.0006879712    1.585    0.369
       194  -8.4664    137.5396    179.0545   7.5214184144e+01   2.0082964473e+01    0.2414567    0.1643564  49.39  0.001321188    1.644    0.392
       195  -8.5279    250.5659    172.3241   5.4022339332e+01   5.0359969623e+00    0.1954203    0.1212012 -19.82 0.0005536969    1.268    0.211
       196  -8.4142    244.3990    169.1856   5.4318513119e+01   6.1635302412e+00    0.1959608    0.1472773 -41.76 0.0008105006    1.849    0.459
       197  -8.5885    247.4534    173.5222   5.4667787257e+01   5.2817125865e+00    0.2403004   0.08453957 -32.96  0.001109156    2.441    0.590
       198  -8.8409    205.0591    177.3323   6.1884048380e+01   1.0393403462e+01    0.2431989    0.1495334 -39.54 0.0008611615    1.775    0.437
       199  -7.8340    169.4598    178.4944   6.8553525075e+01   1.5381125604e+01    0.1236802     0.108759   7.91 8.884438e-05    1.058    0.055
       200  -8.6366    129.4031    177.4197   7.6738968483e+01   2.1597496535e+01    0.2719741    0.1880744  70.90   0.00103439    2.390    0.582
       201  -9.0533     35.8411    176.3867   9.9524006693e+01   3.3944546745e+01    0.4714847    0.1784668  69.02  0.001771304    3.687    0.729
       202  -8.6836    231.1768    176.7940   5.7616231746e+01   6.9502764987e+00     0.191713    0.1307477 -30.31 0.0009248764    1.434    0.303
       203  -8.4918    217.7153    176.9038   5.9727314919e+01   8.7128668005e+00    0.1961911      0.14401 -37.57 0.0009473341    1.596    0.373
       204  -8.2984     97.7294    177.3749   8.4093924403e+01   2.6224793069e+01     0.180438    0.1164272  23.48 0.0005871385    1.615    0.381
       205  -8.9709     89.2123    176.6767   8.6071722773e+01   2.7542712171e+01    0.2746293    0.1838318  61.53 0.0008434484    1.699    0.411
       206  -9.3158     58.7983    175.4023   9.3561459567e+01   3.1676581775e+01    0.4840309    0.1996362  58.68  0.001900258    3.139    0.681
       207  -9.4257     56.0095    170.7668   9.3801956372e+01   3.3015797912e+01    0.4016748    0.2025586  66.90  0.001781802    2.478    0.596
       208  -8.5779     12.7973    176.6383   1.0537452784e+02   3.5963416167e+01    0.2160781    0.1128083  66.59 0.0007416279    1.714    0.416
       209  -8.2465    211.5040    175.9753   6.0567579554e+01   9.6801520607e+00    0.1735905    0.1019934 -29.69 0.0007711318    1.554    0.357
       210  -8.8693    183.0789    175.7867   6.5492798364e+01   1.3772732176e+01    0.2179602    0.1946886 -43.41 0.0009331708    1.445    0.308
       211  -9.2023    158.9116    174.8390   7.0012592290e+01   1.7559110125e+01    0.3380201    0.2557758  80.51  0.001377184    2.591    0.614
       212  -9.2515    104.3730    174.6207   8.2103048890e+01   2.5829740199e+01    0.4776525    0.2279789  54.56  0.001876737    2.895    0.655
       213  -8.5410    224.5389    174.2662   5.8178755215e+01   8.1318545384e+00    0.1999185   0.09702265 -34.87 0.0007109157    1.937    0.484
       214 -10.7520     75.7783    169.7686   8.8553578985e+01   3.0792255159e+01     1.126365    0.4600356 -78.89  0.003755525    4.612    0.783
       215  -9.2804    175.8377    172.0917   6.6188066399e+01   1.5418038760e+01    0.2942634    0.1856697 -38.75     0.001026    1.618    0.382
       216  -8.3141    142.8837    172.3857   7.2944154363e+01   2.0445374241e+01    0.2194466    0.1770518 -80.70 0.0007741948    1.854    0.461
       217  -8.3158    134.8279    171.4807   7.4553914277e+01   2.1854659666e+01    0.2335472    0.1779511 -71.14 0.0009524678    1.821    0.451
       218  -9.0864     44.9327    170.7949   9.6705072395e+01   3.4244724346e+01    0.3796997    0.1888062  67.73  0.001738552    2.319    0.569
       219  -8.5003    205.9647    170.3923   6.0471408923e+01   1.1208467793e+01    0.2173662    0.1526856 -42.63 0.0007306064    1.716    0.417
       220  -9.4749    121.3779    170.1495   7.7388963773e+01   2.4174043953e+01    0.3239069    0.2544531  85.92 0.0008851843    1.776    0.437
       221  -8.3474    237.2870    169.4141   5.5380583924e+01   7.0487237475e+00    0.1768611    0.1202256 -38.08 0.0007114402    1.711    0.415
       222  -8.9131    230.0592    169.1414   5.6402544644e+01   8.0339370598e+00    0.3334378    0.1282342 -38.99  0.001595199    2.701    0.630
       223  -8.6082    198.5462    169.9650   6.1659886522e+01   1.2342285858e+01    0.1851715    0.1687425 -63.06  0.000935637    1.721    0.419
       224  -8.4410    149.9565    169.4975   7.0927406083e+01   1.9849204359e+01    0.2202865    0.1850612 -68.93 0.0008082914    1.626    0.385
       225  -9.2136    167.0654    168.3806   6.7218172556e+01   1.7357530601e+01    0.2970777    0.2304911  66.49  0.001122893    2.066    0.516
       226  -8.3848     88.9450    168.9326   8.5083027365e+01   2.9189657169e+01    0.2156217    0.1457521  62.13 0.0009965308    1.693    0.409
       227  -8.5383    218.8587    168.2077   5.7961910927e+01   9.6792478902e+00    0.1670098    0.1447002 -12.55 0.0005419811    1.228    0.186
       228  -7.8923    211.4969    168.0180   5.9113277200e+01   1.0740577109e+01    0.1535745   0.09817041 -50.87 0.0007877279    2.484    0.597
       229  -9.1227    157.4279    167.9994   6.9097647560e+01   1.8931729705e+01    0.2211673    0.1742035  27.37 9.863383e-05    1.185    0.156
       230  -8.7674    159.6472    164.3169   6.7963807211e+01   1.9203619462e+01    0.2441896    0.2208537 -85.42  0.000872414    1.560    0.359
       231  -8.6187    111.9519    167.5343   7.9192636779e+01   2.6120806567e+01    0.2785975    0.1996453  79.24  0.001040341    2.045    0.511
       232  -8.9258    191.8757    166.5939   6.2207078811e+01   1.3819641486e+01    0.2232726    0.1644911 -34.99 0.0005363555    1.383    0.277
       233  -8.5489    185.1309    166.5817   6.3428781010e+01   1.4845832852e+01    0.2048734    0.1563231 -37.32 0.0006164779    1.388    0.279
       234  -8.9965     20.5668    165.9640   1.0277509068e+02   3.7696234109e+01    0.4219654    0.1508599  58.14  0.001545271    2.769    0.639
       235  -9.7120    137.1770    164.4124   7.2800413618e+01   2.2784847723e+01    0.5799485    0.2674978  52.46   0.00214103    3.232    0.691
       236  -9.9188     95.1344    162.7334   8.2600928872e+01   2.9617167724e+01    0.7938848    0.4108177  69.17  0.002603255    4.652    0.785
       237  -8.2424    233.9552    164.5537   5.4974651139e+01   8.0801677941e+00    0.1843346    0.1224273 -23.60 0.0006446739    1.258    0.205
       238  -9.6027     33.5283    163.2438   9.9091298752e+01   3.7125777944e+01    0.5834603    0.1616518  48.51  0.002161627    3.309    0.698
       239  -9.0745    248.9868    177.1673   5.5097637673e+01   4.6823351969e+00    0.2286529    0.1557596 -30.08 0.0005392404    1.474    0.322
       240  -8.6889    212.9530    163.5537   5.8037318792e+01   1.1134055331e+01    0.2246317    0.1536194 -32.54 0.0006357162    1.405    0.288
       241  -7.9738     55.4689    164.4908   9.3274401225e+01   3.4482153133e+01    0.1254681     0.120446  66.02 0.0008078601    1.100    0.091
       242  -9.1925    246.1425    162.6622   5.2880717443e+01   6.7058309061e+00    0.1872749    0.1239987 -27.36 0.0005019158    1.319    0.242
       243  -8.4075    204.8770    162.5254   5.9177780970e+01   1.2458109115e+01    0.2226381    0.1447991 -44.54 0.0005992761    1.857    0.461
       244  -9.4321      3.3840    162.3145   1.0714699827e+02   3.9880141534e+01     0.399317    0.1409058  48.40  0.001447237    2.288    0.563
       245  -9.0075    177.3993    160.3355   6.3689750215e+01   1.7021906767e+01    0.2581269    0.2091099 -53.40 0.0008643399    1.610    0.379
       246  -8.6529    151.6761    160.8147   6.8974271110e+01   2.1095801980e+01     0.233467    0.1993172 -88.52 0.0009867814    1.710    0.415
       247  -8.7376     60.9084    160.2299   9.1310478142e+01   3.4798822125e+01    0.3228274    0.1938446  68.02  0.001219955    1.916    0.478
       248 -10.1006    249.5676    157.1388   5.1383331895e+01   6.9125436804e+00    0.3088446    0.2523625 -43.01  0.001524634    1.751    0.429
       249  -7.5380    242.2626    159.6731   5.2866403390e+01   7.5685412269e+00    0.1030693   0.08008005 -36.83 0.0006958299    1.564    0.361
       250  -8.3165    237.2596    158.5945   5.3375213171e+01   8.3697845427e+00    0.2064489    0.1164897 -35.11 0.0009235086    1.677    0.404
       251  -8.6815    227.4453    158.8536   5.4871504395e+01   9.6901024430e+00    0.1994273    0.1687891 -38.44  0.001133436    1.528    0.345
       252  -9.2324    167.7096    157.2529   6.4982470161e+01   1.9088557608e+01    0.2942996    0.2328302 -71.68   0.00108394    2.024    0.506
       253  -8.4336    128.2051    159.0480   7.3884377718e+01   2.5244344748e+01    0.2449129    0.1671426  61.03 0.0006958777    1.976    0.494
       254  -9.4839    105.9182    157.8096   7.9074720441e+01   2.9032096731e+01    0.4321409    0.2709496  65.30  0.001250643    2.305    0.566
       255  -8.6241    196.5884    157.7725   5.9681508413e+01   1.4397605144e+01    0.2178812    0.1819701 -53.35 0.0008975717    1.669    0.401
       256  -8.0912    188.1229    157.6855   6.1174506623e+01   1.5733898728e+01    0.2140776    0.1590174 -39.69 0.0007173756    1.433    0.302
       257  -8.6268     79.9797    157.7796   8.5820413981e+01   3.2858121558e+01    0.2450269    0.1583531  30.60 0.0007416866    1.528    0.346
       258  -9.3983     81.8036    154.7830   8.4885198633e+01   3.3272532365e+01    0.4720086    0.2717292  65.18  0.001572185    2.369    0.578
       259  -8.3832    218.1138    156.4427   5.5846199541e+01   1.1342947629e+01    0.2267591    0.1376044 -43.12 0.0007068799    1.932    0.483
       260  -8.7974    157.8283    156.0775   6.6769466575e+01   2.0916923237e+01    0.1917746      0.18391 -88.53 0.0008138745    1.338    0.253
       261  -9.1851    119.4987    154.7160   7.5170649210e+01   2.7514379722e+01    0.3787514    0.2631042 -81.26  0.001257683    2.229    0.551
       262  -9.1593     49.7963    155.0805   9.3790439045e+01   3.7304436732e+01    0.4271488    0.1866563  55.88  0.001755631    2.568    0.611
       263 -10.0476    242.8211    149.9412   5.0934534241e+01   8.6755849876e+00    0.2984107    0.2601419 -53.99  0.002104931    1.823    0.452
       264  -9.4950    241.6795    154.0460   5.1882637496e+01   8.3291013732e+00    0.2979978     0.239528  73.05  0.001284193    2.651    0.623
       265  -9.7439    240.8880    144.6072   5.0158972498e+01   9.6027035511e+00    0.3536149    0.1934085  -2.08  0.001237764    2.348    0.574
       266  -9.7389    242.6654    139.1952   4.8841277623e+01   1.0024920285e+01    0.3935752    0.1834205 -41.87   0.00198682    2.377    0.579
       267  -7.9525    204.7377    155.2082   5.7780653016e+01   1.3515175059e+01    0.1810461    0.1392916 -40.05 0.0006127366    1.466    0.318
       268  -8.3939    144.8100    154.7163   6.9298899722e+01   2.3329755643e+01    0.2273815    0.1796495 -82.46 0.0008576607    1.938    0.484
       269  -9.4628     68.0915    153.5101   8.8462922483e+01   3.5430511919e+01    0.4494864    0.2500674  68.82  0.001535409    2.426    0.588
       270  -9.5859    132.9613    152.7498   7.1602933419e+01   2.5683766740e+01    0.3987944    0.3095624  78.58  0.001183461    1.891    0.471
       271  -8.9165    133.5691    148.2169   7.0578547930e+01   2.6463332105e+01    0.2796793    0.1898626 -34.33 0.0009424938    1.560    0.359
       272  -9.7832     29.5342    150.7370   9.9143442845e+01   4.0446022599e+01    0.5299489    0.2467291  68.05  0.002287052    2.389    0.581
       273  -8.8670     20.0430    152.0672   1.0197615212e+02   4.0977754330e+01    0.2217929    0.1196118  61.24   0.00112215    1.737    0.424
       274  -8.9208     10.2724    152.8883   1.0479823185e+02   4.1565167746e+01     0.429133   0.08981308  17.33  0.001254322    6.504    0.846
       275  -8.8167    189.4023    149.8401   5.9374764391e+01   1.6733512980e+01    0.2598787      0.19976 -54.33 0.0009104378    1.767    0.434
       276  -8.0814    182.4597    150.9560   6.0876322376e+01   1.7693937983e+01    0.1899608    0.1189676 -38.00 0.0005560181    1.556    0.357
       277  -8.7452     98.3003    150.6788   7.9816873131e+01   3.1734789696e+01    0.2890576    0.2122771  70.56 0.0008288976    1.685    0.407
       278  -9.4458    248.8410    149.0843   4.9951861671e+01   7.9635058580e+00    0.2601512    0.1421808 -27.05 0.0006934934    1.465    0.317
       279  -8.3066    162.6656    150.2252   6.4604279832e+01   2.1123309113e+01    0.1958023    0.1677941 -55.11 0.0006206858    1.419    0.295
       280  -7.9794    213.0385    149.5300   5.5287538564e+01   1.3046532395e+01    0.1602451    0.1167667  35.13 8.012314e-05    1.467    0.318
       281  -8.4387    198.9020    148.5484   5.7437311803e+01   1.5396974189e+01    0.2170139    0.1612354 -42.23 0.0005595409    1.497    0.332
       282 -10.0538     89.3262    146.1844   8.1452624038e+01   3.4105980369e+01    0.6222951    0.3610433  86.67  0.002354699    3.237    0.691
       283  -9.7400     39.8735    147.7378   9.5840121806e+01   4.0137121530e+01    0.5201984    0.2310772  61.25   0.00170959    2.656    0.623
       284  -9.3718    233.7174    147.3520   5.1710766222e+01   1.0274829312e+01    0.2591865    0.1299673 -28.29 0.0008786343    1.671    0.401
       285 -10.2780     54.9178    144.5794   9.1031636038e+01   3.9197636207e+01    0.8087215    0.3684141  67.69  0.002837897    3.595    0.722
       286  -9.5481     55.9237    135.5447   8.9470947840e+01   4.1269083842e+01    0.5688347    0.3066965  -3.77  0.001873192    4.615    0.783
       287  -8.4296    223.3430    146.5715   5.3086885275e+01   1.1894160479e+01    0.1797224    0.1698353 -25.45 0.0006206714    1.389    0.280
       288 -10.4151    149.0279    144.9620   6.6417796704e+01   2.4412459274e+01    0.5071297     0.377534  84.93  0.001885569    2.384    0.581
       289  -9.7771    139.2369    144.9722   6.8614545077e+01   2.6116304304e+01    0.4172661    0.2957605 -83.94  0.001520687    2.573    0.611
       290 -10.1870    106.5835    143.8391   7.6405386440e+01   3.1900371176e+01    0.6911077    0.4609388  89.75  0.002516569    2.446    0.591
       291  -8.7976     78.1561    146.8984   8.4669197734e+01   3.5583010826e+01    0.3030212    0.1777578  65.83  0.001032242    2.278    0.561
       292  -9.4202     13.5666    146.1568   1.0343710513e+02   4.2920309524e+01    0.3633322    0.1737624  55.73  0.001280501    1.925    0.481
       293  -8.0536    206.7930    146.3215   5.5653154173e+01   1.4469559775e+01    0.1684525    0.1367841 -25.62 0.0005526756    1.157    0.136
       294  -8.2744    175.7564    145.9754   6.1125128234e+01   1.9619592569e+01    0.1975486    0.1526312 -64.36 0.0007032574    1.936    0.483
       295  -9.8354    125.0658    142.5404   7.1473400305e+01   2.9056593743e+01    0.4733016    0.3334068 -85.18  0.001487651    2.354    0.575
       296  -9.0562    246.9862    143.7570   4.9165188909e+01   8.8581007364e+00    0.2271135    0.1360898 -25.55 0.0004256844    1.329    0.248
       297  -8.2304    250.2328    140.6034   4.8118527284e+01   8.7930317404e+00    0.1597959    0.1278179  -1.04 0.0007618468    1.138    0.121
       298  -8.6829    165.7980    143.8106   6.2640481861e+01   2.1695704288e+01     0.241899    0.1803264 -48.54 0.0006703342    1.498    0.333
       299  -7.5107    194.3026    143.6825   5.7232244111e+01   1.6875661410e+01    0.1182744    0.1025301 -61.01 0.0003520142    1.622    0.384
       300  -8.3930    182.0016    141.4744   5.8992800086e+01   1.9289913940e+01    0.2371121    0.1759723 -48.57 0.0006104803    1.571    0.363
       301 -10.3850     60.1632    124.8753   8.6447767344e+01   4.3361015323e+01     0.886012    0.4536548  75.99  0.003038877    3.581    0.721
       302 -10.6665     69.6520    140.6565   8.6123224945e+01   3.8234082541e+01    0.6729662    0.3912044  78.25  0.002807569    2.506    0.601
       303  -9.6333     70.2459    133.8560   8.4835797805e+01   3.9780367407e+01    0.3889759    0.2438433   9.41  0.001690235    2.357    0.576
       304  -9.4027      2.5802    141.4929   1.0639693778e+02   4.4832968495e+01    0.3784799    0.1540806  62.99  0.001703141    2.301    0.565
       305  -7.8215    238.6301    140.2874   4.9610970067e+01   1.0466601663e+01    0.1072139   0.08909174 -50.25 0.0007021123    1.709    0.415
       306 -10.0630     23.6208    138.0594   9.9779455222e+01   4.4071831210e+01    0.5570359    0.2203065  60.75  0.001968632    2.856    0.650
       307  -9.2258    139.4862    137.6063   6.7014075592e+01   2.7497737789e+01    0.4053491    0.2285589 -16.41  0.001438446    3.501    0.714
       308  -7.9317    218.5360    138.4607   5.2162037700e+01   1.3731572491e+01    0.1244786    0.1037343 -17.11 0.0005001645    1.070    0.066
       309  -8.3389    207.6673    137.6145   5.3698537535e+01   1.5586932981e+01    0.2012697    0.1367715 -44.46 0.0005617463    1.655    0.396
       310  -8.6636    197.6333    137.3569   5.5316485450e+01   1.7283609889e+01     0.236491    0.1740008 -49.19 0.0007565666    1.658    0.397
       311  -8.3474    172.3433    138.0026   6.0094039801e+01   2.1543332562e+01    0.2166916    0.1932064 -89.18 0.0008047905    1.579    0.367
       312  -9.1043    150.5524    135.9541   6.4165330615e+01   2.5814871271e+01    0.4530638    0.2187812  27.53  0.001711549    2.886    0.654
       313 -10.4309     83.3830    133.0190   8.0783428673e+01   3.8045545799e+01    0.5563548    0.3675478 -68.79  0.001343702    1.628    0.386
       314  -8.9167    248.4526    134.7543   4.7187356512e+01   9.7511737988e+00     0.240174    0.1449988 -33.63 0.0008993072    1.450    0.310
       315  -8.5570    246.9091    130.1031   4.6445973681e+01   1.0543574963e+01    0.2296391    0.1378809 -33.43 0.0006172027    1.430    0.301
       316  -8.3185    162.6269    136.1836   6.1649438524e+01   2.3590702912e+01    0.2036708    0.1648113 -51.79 0.0005805243    1.409    0.290
       317  -9.4100     39.1572    135.7849   9.4708984822e+01   4.3138920605e+01    0.2965195    0.1960979  64.38 0.0008613291    1.519    0.342
       318  -8.1599    187.9883    134.9307   5.6484711496e+01   1.9305875720e+01      0.25882    0.1246672 -40.31 0.0008670906    1.995    0.499
       319  -8.6150    179.4589    133.8334   5.7813561430e+01   2.0980446212e+01    0.2366564    0.2063061 -59.95 0.0007553133    1.468    0.319
       320  -8.9381    112.7396    132.8773   7.2598017626e+01   3.3229434757e+01    0.3134017    0.2466556  78.91 0.0008959713    1.645    0.392
       321  -8.1130    237.4541    133.2411   4.8341631029e+01   1.1535920746e+01    0.1661602   0.09386139 -37.06 0.0005654655    1.637    0.389
       322  -7.7757    231.4872    133.5803   4.9240836792e+01   1.2389371809e+01    0.1231196   0.09770764 -12.01 2.964993e-05    1.036    0.035
       323 -10.1642    132.4179    130.8880   6.7211668297e+01   3.0111545938e+01    0.5592241    0.3876893 -68.32  0.001528618    2.007    0.502
       324  -9.3445    143.0972    131.5052   6.4846406005e+01   2.8023071213e+01    0.3001843    0.2586301 -62.72 0.0007532051    1.352    0.260
       325 -10.3318     98.1995    128.8729   7.5711468375e+01   3.6616095535e+01    0.9761601    0.3346083 -51.91  0.003413893    2.851    0.649
       326  -8.7059    250.7936    129.6604   4.5862354757e+01   1.0040159217e+01    0.3888264   0.08045821 -29.37  0.001331404    4.266    0.766
       327 -10.2161     12.7432    128.5336   1.0240709365e+02   4.7329167185e+01    0.7005627     0.280771  84.37  0.002331382    2.650    0.623
       328  -8.0571    204.6944    130.1707   5.2580638511e+01   1.7170186759e+01    0.1970992    0.1444614 -42.25 0.0005773747    1.446    0.308
       329  -8.2425    192.9310    129.9679   5.4516567802e+01   1.9224770906e+01    0.1879808    0.1589875 -61.55 0.0004812893    1.597    0.374
       330  -9.3928    168.4734    129.3632   5.8939778690e+01   2.3722762619e+01    0.2589217    0.2290863 -81.38 0.0005434009    1.528    0.346
       331  -9.3417    152.8140    128.9761   6.2110538848e+01   2.6697618242e+01    0.3715031     0.240286 -55.83 0.0008881385    1.901    0.474
       332  -9.8302     73.0813    128.8979   8.3105102013e+01   4.0571694982e+01    0.4599729    0.2941364 -88.85  0.001461796    2.037    0.509
       333 -10.8114     44.9256    123.1222   9.1156838340e+01   4.5688274178e+01     1.274647    0.5639232  72.69  0.003960091    4.400    0.773
       334  -8.2381      1.8679    130.2892   1.0600611688e+02   4.7625408318e+01     0.205889    0.1317546  48.54  0.001162836    1.452    0.311
       335  -7.6450    220.5152    129.5853   4.9990263983e+01   1.4643463698e+01    0.1251317    0.1041809 -15.89 0.0002141347    1.033    0.032
       336  -8.0669    211.5820    128.8100   5.1184977675e+01   1.6213463378e+01    0.1797807    0.1047187 -40.38 0.0006386307    1.682    0.406
       337  -9.7922    117.6844    124.8562   6.9546490207e+01   3.4070045371e+01    0.4729498    0.3457987  88.03   0.00151964    2.070    0.517
       338  -7.4902    228.2876    125.3219   4.7952673142e+01   1.3981807157e+01    0.1257226     0.084113  -1.90 0.0003630754    1.601    0.375
       339  -8.9879    179.2747    124.5125   5.5742033951e+01   2.2555996211e+01    0.2573472    0.2171575 -57.56  0.000503232    1.456    0.313
       340 -10.3403     28.5300    122.0347   9.6526482147e+01   4.7667435277e+01    0.8596088    0.3437433  67.92  0.002903065    3.763    0.734
       341  -7.8493    188.5872    123.7641   5.3878057823e+01   2.0975319988e+01    0.1863725    0.1162989 -42.47  0.000484256    1.599    0.375
       342  -9.8222    158.5227    121.2738   5.9091672366e+01   2.7032455532e+01     0.371769    0.2628748 -70.01  0.001145024    2.242    0.554
       343  -8.2959    154.3250    123.3041   6.0466030929e+01   2.7464248334e+01    0.1453707    0.1083785   1.56 0.0007032714    1.642    0.391
       344  -7.9378     84.3247    122.3679   7.8410756236e+01   4.0415824694e+01    0.2344689    0.1330216 -51.18  0.001025655    1.734    0.423
       345  -8.2275     87.6776    121.6560   7.7251829040e+01   4.0039552937e+01     0.243063    0.1440748  30.12  0.001061674    1.842    0.457
       346  -7.9723    203.3617    122.1242   5.1008107543e+01   1.8595175476e+01    0.1881054    0.1057268 -41.08 0.0004457976    1.729    0.422
       347  -8.5746    171.9487    121.3238   5.6391967841e+01   2.4462024424e+01    0.2284809    0.1808646 -44.38 0.0005918258    1.301    0.231
       348  -8.4989    167.8102    121.2579   5.7189622539e+01   2.5258580388e+01    0.2089894    0.1841322  83.52 0.0007930801    1.505    0.336
       349  -9.6341     71.2109    119.3630   8.1885973241e+01   4.3170792445e+01    0.4354723     0.232532 -68.28  0.001452424    2.030    0.507
       350 -10.1394    141.6367    117.7882   6.1971365467e+01   3.0966853052e+01    0.6176358    0.3176614 -50.04  0.001844693    2.094    0.523
       351  -9.9710    130.7054    117.9186   6.4610714741e+01   3.3067409304e+01    0.4997058    0.2875164 -52.30  0.001726371    1.864    0.463
       352  -9.7411      3.1675    117.3194   1.0475724807e+02   5.0810026651e+01    0.5818794    0.2064426  62.56  0.002243801    3.027    0.670
       353  -7.8756    231.4883    117.4779   4.5818765267e+01   1.4515096195e+01    0.1255058    0.1013906 -21.82 0.0001873878    1.041    0.039
       354  -8.2446    185.9152    115.9505   5.2525337857e+01   2.2720135042e+01    0.2054183    0.1584036 -57.68  0.000458586    1.634    0.388
       355  -9.8603    109.3596    114.0353   6.9241004567e+01   3.7965502053e+01    0.4941332    0.3272406 -74.93  0.001471984    2.222    0.550
       356  -8.4080    250.1544    114.8172   4.2877294887e+01   1.1950020795e+01    0.1722894    0.1389128 -29.74  0.001196035    1.182    0.154
       357  -8.1850    193.0713    115.0532   5.1074836156e+01   2.1527688554e+01    0.1982546    0.1560455 -56.72 0.0004907721    1.584    0.369
       358 -10.2484     92.6558    111.5635   7.3485563702e+01   4.1561747043e+01    0.8239435    0.3476052 -58.72  0.002642115    2.656    0.624
       359  -8.6998     59.0564    114.7436   8.4993693009e+01   4.6046882861e+01    0.2942308    0.1808914  -8.15   0.00114289    2.978    0.664
       360  -8.0723    167.2066    114.1331   5.5588758776e+01   2.6620062049e+01    0.1897894    0.1645571 -57.10 0.0005988888    1.323    0.244
       361  -9.8862     78.7944    112.2013   7.7953140234e+01   4.3746064227e+01    0.5183438    0.3510351  84.85  0.001624229    2.061    0.515
       362 -10.0914    133.7823    109.1480   6.1661533776e+01   3.4236435208e+01    0.6442096    0.3003196 -51.56   0.00242127    2.418    0.586
       363 -10.1317    121.8743    112.2394   6.5438339149e+01   3.5961367333e+01     0.358295    0.2960255 -79.10 0.0007079796    1.487    0.328
       364  -8.6241    174.7716    111.6467   5.3516171732e+01   2.5566357812e+01    0.2755938    0.1738081 -44.13 0.0006282111    1.578    0.366
       365  -8.5120    159.1947    111.6180   5.6587375174e+01   2.8651872410e+01    0.2502205    0.1806036 -46.52 0.0006951008    1.406    0.289
       366 -10.0616     66.3797    110.2950   8.1628996114e+01   4.6128250845e+01    0.4266298     0.295321  80.90  0.001509968    1.816    0.449
       367  -8.6186     67.3209    105.3303   8.0233183505e+01   4.7224500679e+01    0.2155906    0.1382367  -0.63 0.0008467473    2.691    0.628
       368  -9.9207     14.1832    110.7441   1.0030265785e+02   5.1773542539e+01    0.4633861    0.2252014  69.07  0.002022691    2.237    0.553
       369 -11.1102    248.6359    105.4335   4.1059503226e+01   1.3337899545e+01    0.6754877    0.2308111 -28.27   0.00300192    2.385    0.581
       370  -8.6359     42.9253    109.2981   8.9650839288e+01   4.9458529631e+01    0.3437989    0.1407047  13.46  0.001084552    4.394    0.772
       371  -8.2807    189.4624    108.0102   4.9995153890e+01   2.3313229288e+01    0.2105282    0.1220438 -34.50 0.0006547172    1.543    0.352
       372  -8.6553    109.1259    107.2863   6.7619623509e+01   3.9499016427e+01    0.3348939    0.2215867  -1.26  0.001220744    2.780    0.640
       373  -9.4610    139.9896    104.3930   5.8941150041e+01   3.3911623848e+01    0.4053904     0.272265 -65.97 0.0008440958    2.108    0.526
       374 -10.8052    109.5228     98.9859   6.5303901083e+01   4.1240075112e+01    0.9180226    0.5075769  66.27  0.003083119    3.431    0.709
       375  -9.1984    108.3350     92.1000   6.3700284205e+01   4.2971101095e+01    0.6997504    0.2993098  33.65  0.002276465    3.273    0.694
       376 -10.4425     45.6604    102.1126   8.7345269942e+01   5.0992141126e+01    0.8506688    0.4207512  65.99   0.00302065    3.248    0.692
       377  -9.3945     45.6671     92.5812   8.5395332718e+01   5.3449936925e+01    0.4507172    0.2838273 -11.97  0.001902181    2.516    0.603
       378 -10.6725     22.8614    102.4889   9.6073599890e+01   5.3242502230e+01     0.797637    0.3667987  69.98  0.002211222    2.870    0.652
       379  -9.6347    150.6332    102.9175   5.6157012050e+01   3.1989235606e+01    0.4505296    0.2634562 -58.32  0.001405035    2.355    0.575
       380  -8.7757     79.0125    104.6687   7.6142765391e+01   4.5534103809e+01    0.2871108    0.1991646  15.74  0.001291076    1.902    0.474
       381  -8.7242    166.7245    103.8266   5.3083923597e+01   2.8511735987e+01    0.2837779    0.1776829 -43.98 0.0006866729    1.563    0.360
       382  -9.1563      6.8916    102.9006   1.0223472511e+02   5.4301811315e+01    0.3292028    0.1824529  67.56 0.0009436674    1.812    0.448
       383  -9.8827    128.5162    102.0230   6.1076235213e+01   3.6747526976e+01    0.3472554    0.2772285 -67.10 0.0009222208    1.477    0.323
       384  -7.8676    175.5824    101.8163   5.0890780613e+01   2.7053382922e+01    0.1985535    0.1215618 -44.58 0.0004882118    1.619    0.382
       385  -8.4137    159.7221    100.6134   5.3636581581e+01   3.0518419050e+01    0.2370518    0.1632665 -53.35 0.0005254752    1.629    0.386
       386  -9.2873     82.1342     99.8745   7.3928093816e+01   4.6157773619e+01    0.3890226    0.2764386 -83.63  0.001148447    1.841    0.457
       387  -9.2580     95.0290     96.9179   6.9025189455e+01   4.4515396123e+01    0.3292596    0.2348608 -64.03 0.0006254922    1.542    0.351
       388 -10.1037     63.9688     95.7071   7.9177678537e+01   5.0128713315e+01    0.5710781    0.3481385  88.09  0.001525679    2.615    0.618
       389  -8.3616    151.5053     94.9915   5.3821924450e+01   3.3263107000e+01    0.2065058    0.1277263 -13.03 0.0005754136    2.416    0.586
       390  -7.6683    182.9988    109.4882   5.1480331492e+01   2.4322469892e+01     0.165819    0.1249664 -89.34  0.000442201    2.173    0.540
       391  -8.2693    176.4752     93.0145   4.8428541947e+01   2.8319850620e+01    0.2166116    0.1285927 -35.68 0.0004434653    1.526    0.345
       392  -9.2778    139.0202     92.1238   5.5785069890e+01   3.6481240754e+01    0.3575757    0.2660306 -68.70 0.0009178605    1.740    0.425
       393 -10.2295    123.9361     90.5555   5.9011234840e+01   4.0032740683e+01    0.6385505    0.5035369 -17.66  0.002487662    1.463    0.316
       394  -9.4542      5.2172     91.9456   1.0180153585e+02   5.7262098421e+01    0.3671342    0.1742733  56.33   0.00112988    2.255    0.557
       395  -9.6807     34.8751     89.6037   8.9128620707e+01   5.5468860286e+01    0.4947164    0.2661699  87.87  0.001553037    2.474    0.596
       396  -9.1231     22.8177     89.7653   9.4177614375e+01   5.6587071879e+01    0.3317062      0.23527 -41.54  0.001041234    1.505    0.335
       397  -7.9600    150.8740     88.8398   5.2226755300e+01   3.4511938315e+01    0.2019603    0.1697209 -60.24 0.0003741384    1.307    0.235
       398  -7.7530    174.2975     88.2964   4.7545281275e+01   2.9545301693e+01    0.1410306    0.1084034   7.17   0.00023052    1.569    0.363
       399 -10.0576     86.5791     85.5905   6.8506578748e+01   4.8704053122e+01    0.6984847    0.4151706 -58.86  0.001544683    1.811    0.448
       400  -8.9404     65.0237     87.3074   7.6636741213e+01   5.2045398703e+01    0.3990807    0.2371073   6.17  0.001432024    3.263    0.694
       401  -9.7151     48.5494     84.1100   8.2264574580e+01   5.5246730923e+01    0.5461037    0.3109967  67.00  0.001721304    2.719    0.632
       402  -9.9735    104.8523     82.9277   6.1958403155e+01   4.5653138727e+01    0.4721053    0.3218202 -67.17 0.0008323045    1.902    0.474
       403  -8.1731    158.0119     83.5658   4.9258290560e+01   3.3867687771e+01    0.2298424    0.1802725 -35.79 0.0003375508    1.187    0.158
       404  -8.9817    140.9088     82.6611   5.2580884112e+01   3.7836000843e+01    0.2934971    0.2047791 -47.36 0.0006505158    1.423    0.297
       405  -8.0336    157.7932     91.5878   5.1574500809e+01   3.2523084609e+01    0.1878809    0.1441661  66.22 0.0004151197    1.556    0.357
       406  -9.6061     24.6700     80.4071   9.1697457834e+01   5.8877661897e+01     0.465453    0.2626415  79.60  0.001456317    2.244    0.554
       407  -9.5147      9.7507     80.7712   9.8474137789e+01   5.9924545349e+01    0.3765593    0.1695455  53.28  0.001250976    2.565    0.610
       408  -8.4461    150.4976     80.4920   4.9871155629e+01   3.6074405808e+01    0.2615786    0.1893903 -62.44 0.0006391464    1.669    0.401
       409  -8.7070    119.4141     79.8821   5.6943046951e+01   4.3150128934e+01    0.3651075    0.2230587 -48.57  0.001282625    1.645    0.392
       410  -8.7529     74.6983     79.9723   7.0946112776e+01   5.2184378934e+01    0.4045788      0.22969 -67.58  0.001279845    2.343    0.573
       411  -8.1966    164.9361     93.9451   5.0812925194e+01   3.0588486836e+01    0.2209778    0.1679665 -62.24 0.0004832577    1.601    0.375
       412  -8.2717    166.9466     79.4834   4.6398593264e+01   3.2572279076e+01    0.2262627    0.1773806 -34.72 0.0004335479    1.172    0.147
       413  -8.6732    184.1536     78.1291   4.3116442521e+01   2.9036609302e+01    0.2146312    0.1802953  -4.54 0.0006128988    1.271    0.214
       414  -8.6334     91.9835     79.0000   6.4694376829e+01   4.9134592866e+01    0.2469079   0.08748063  43.52 0.0006644899    2.937    0.660
       415  -7.6983    157.1258     76.1746   4.7262586583e+01   3.5316209147e+01    0.2028655    0.1657834 -59.32 0.0004741118    1.324    0.245
       416  -9.2557    128.0679     75.1425   5.3241461502e+01   4.2125559149e+01    0.3625611    0.2477713 -58.67 0.0007189467    1.709    0.415
       417  -8.4131    140.6334     75.1510   5.0340606939e+01   3.9254390844e+01    0.2390704    0.1745389 -51.08 0.0005243277    1.408    0.290
       418  -9.9614     63.1547     73.3261   7.3283238601e+01   5.5733262826e+01     0.496177    0.2930417 -63.66  0.001046783    1.856    0.461
       419  -9.6564     82.5200     72.5079   6.5753392846e+01   5.2434390957e+01    0.4256557    0.2882183 -71.83  0.001080492    2.017    0.504
       420  -8.2174    163.4711     73.0580   4.5152408436e+01   3.4388678023e+01    0.2259832    0.1325268 -36.57   0.00101061    1.558    0.358
       421  -8.7072    115.6705     72.6798   5.5602715048e+01   4.5396412250e+01    0.2979382    0.1824394 -42.49 0.0006190781    1.569    0.363
       422  -8.2298     42.9394     72.9339   8.1728219896e+01   5.8803123244e+01    0.2256828    0.1674081  73.59  0.000559193    1.651    0.394
       423  -7.5673    175.5238     72.4133   4.2896139509e+01   3.1785488521e+01    0.1412313     0.130678 -28.70 0.0002195678    1.027    0.026
       424  -8.0097    151.3159     72.6848   4.7342818426e+01   3.7226928373e+01    0.1523938       0.1123 -65.58 0.0003333789    1.646    0.393
       425  -9.3937    105.9283     71.6278   5.7968058736e+01   4.7763727113e+01    0.2918443    0.2164685 -49.11 0.0006216092    1.333    0.250
       426  -9.3376     95.1304     70.9131   6.1002899644e+01   5.0227127099e+01    0.4532684     0.249621 -56.96  0.001293473    2.177    0.541
       427  -9.5293     51.7165     69.5921   7.6879809638e+01   5.8418813007e+01    0.4687104     0.285305 -81.70   0.00135097    2.495    0.599
       428  -9.0420     29.4892     69.8269   8.7130043325e+01   6.1151263641e+01    0.3105112    0.1862954 -11.89  0.001166397    2.438    0.590
       429  -8.8008    147.0336     67.8492   4.6689516846e+01   3.9029889571e+01    0.3270922    0.1937921 -45.33 0.0007186185    1.657    0.397
       430  -8.5290    138.7929     66.1094   4.7845377786e+01   4.1257310771e+01    0.3091816    0.1859215 -46.92 0.0007639589    1.671    0.402
       431  -8.8209    121.6729     65.6959   5.1681057431e+01   4.5342032294e+01    0.3012208    0.2153956 -54.35   0.00070141    1.500    0.333
       432  -9.0237     37.3717     64.0417   8.1756456866e+01   6.1721690390e+01    0.3461446    0.2245894  87.41  0.001268425    2.168    0.539
       433  -8.7898    110.0463     63.4701   5.3955787820e+01   4.8434523580e+01    0.2791063    0.2023493 -54.12 0.0006124249    1.466    0.318
       434  -8.4285     66.6953     61.6227   6.7873595262e+01   5.7824802303e+01    0.2623816    0.1503576  27.96 0.0007924806    2.195    0.544
       435  -7.5886    214.2085     60.9680   3.4516539588e+01   2.5142608428e+01    0.1759511   0.09074822 -29.98 0.0003588356    1.627    0.385
       436  -8.1455    158.3618     61.3281   4.2484534781e+01   3.7413537573e+01    0.2056439    0.1242973 -40.22 0.0005586352    1.532    0.347
       437  -9.3242     97.7053     60.3184   5.6397157669e+01   5.1814594152e+01    0.3241357    0.2573585  65.79 0.0009423499    1.428    0.300
       438  -9.6677     73.4561     59.4899   6.4420608405e+01   5.7030383103e+01    0.4325754    0.2731269 -57.79  0.001040772    1.756    0.431
       439  -8.9937     16.6975     69.8701   9.3351990044e+01   6.2291668468e+01    0.2926114    0.1860334 -88.27 0.0008068474    1.628    0.386
       440  -8.1535     89.0148     59.2918   5.8787845426e+01   5.3906306053e+01    0.2066821    0.1979727 -49.84 0.0005095947    1.036    0.035
       441  -9.9465     23.4895     56.2141   8.6554726405e+01   6.5194238807e+01    0.4912191     0.287285  75.53  0.002066832    2.641    0.621
       442  -9.5214      7.3686     56.9751   9.5618380829e+01   6.6255510868e+01    0.3182738    0.2084088  75.05  0.001036815    1.730    0.422
       443  -8.4005    130.8308     57.2494   4.6582348077e+01   4.4644499087e+01    0.2294909    0.2006186 -67.43  0.000658224    1.221    0.181
       444  -8.2260    139.9477     56.1218   4.4260002396e+01   4.2627134738e+01    0.2323526     0.189112 -58.33 0.0004486762    1.286    0.222
       445  -9.3446    119.1334     55.1154   4.8548502557e+01   4.7811454792e+01    0.4497257    0.2249379 -47.17  0.001215072    2.100    0.524
       446  -8.9084     44.0636     54.9164   7.5480261029e+01   6.3037675309e+01    0.3760681    0.1986261 -60.91  0.001493104    1.954    0.488
       447  -9.0917     62.8963     54.5032   6.6730660638e+01   6.0075708068e+01    0.3180031    0.2046283 -56.88 0.0006372717    1.646    0.392
       448  -8.6198    105.8605     53.0670   5.1247058355e+01   5.1308163866e+01    0.2376692    0.1987245 -62.95 0.0006606385    1.310    0.237
       449  -9.5349     92.6261     50.4924   5.4147659730e+01   5.4808589321e+01    0.4556977    0.2520511 -51.12 0.0009556778    2.020    0.505
       450  -8.1356    144.8185     48.8022   4.0808963625e+01   4.2559591430e+01    0.2062038    0.1605165 -53.63 0.0004307649    1.302    0.232
       451  -8.3993    129.8221     48.8074   4.3782259915e+01   4.6245950970e+01    0.2122812    0.1701761 -59.97 0.0005778518    1.331    0.249
       452  -9.0218     54.1643     53.8151   7.0291735049e+01   6.1733718785e+01    0.3892827    0.2249874 -65.00  0.001196098    2.218    0.549
       453  -8.6049    120.8661     46.9975   4.5096437234e+01   4.8727770575e+01    0.2711993    0.1962715 -38.85 0.0007663589    1.330    0.248
       454  -8.3280    112.2231     46.7060   4.7073074939e+01   5.0879112665e+01    0.2608906    0.1881178 -45.28 0.0006765175    1.380    0.275
       455  -8.8761     82.2032     46.3651   5.5879362480e+01   5.7872445639e+01    0.2814446    0.2222074 -56.50 0.0006828149    1.381    0.276
       456  -8.6981     45.0416     44.4753   7.0870667743e+01   6.5261977077e+01    0.2591581     0.193578 -66.63  0.000680215    1.543    0.352
       457  -9.0554     16.7084     44.4079   8.6881181731e+01   6.8728935772e+01    0.2887388    0.2020118 -80.33 0.0008645814    1.553    0.356
       458  -8.7276    132.9943     43.0406   4.1014010999e+01   4.6327851283e+01     0.241237    0.1665774 -59.79 0.0005312922    1.639    0.390
       459  -9.3618     69.8025     41.6045   5.8374507029e+01   6.1373959602e+01    0.4215694    0.2692661 -62.90  0.001159421    2.217    0.549
       460  -8.9250     58.3077     42.3238   6.3559417359e+01   6.3464175119e+01    0.3629179    0.2299507 -64.35  0.001116363    2.214    0.548
       461  -9.4741      5.3648     42.1587   9.3392387987e+01   7.0107976463e+01    0.3174696    0.2132255  84.33  0.001058201    1.702    0.412
       462  -8.3576     92.8423     42.2058   5.0602245619e+01   5.6225912558e+01    0.2110495    0.1761534  14.94 0.0007700847    1.362    0.266
       463  -8.3328    140.3761     41.1482   3.8928398928e+01   4.4755635930e+01    0.2122437    0.1233509 -40.53 0.0004127829    1.629    0.386
       464  -8.8012    105.8311     40.5978   4.6242665880e+01   5.3406133029e+01    0.3472604    0.1869566 -38.99 0.0008713519    1.793    0.442
       465  -8.4827     36.8687     40.5874   7.3534737604e+01   6.7325707239e+01    0.2631883    0.1817493 -71.53 0.0007592652    1.842    0.457
       466  -8.5148     95.6197     37.7737   4.7839786966e+01   5.6303868768e+01    0.2605884    0.1764124 -42.38 0.0006934301    1.469    0.319
       467  -8.1830     80.7329     36.6121   5.2008837040e+01   5.9929059602e+01    0.2500758    0.1690282 -53.65 0.0007939195    1.699    0.412
       468  -7.5625    133.6355     36.2745   3.8373342229e+01   4.7115976550e+01    0.1537512    0.1077563 -67.22  0.000461375    1.667    0.400
       469  -8.6632    125.8994     35.6022   3.9609144487e+01   4.9159448298e+01    0.2445695    0.1985423 -16.00 0.0004262741    1.302    0.232
       470  -9.2748     26.1886     35.0512   7.7407489148e+01   6.9948588548e+01    0.3742076    0.2226719 -65.59 0.0009785045    1.882    0.469
       471  -8.4087    191.9500    249.5005   7.4938954287e+01   3.2411496916e+00    0.1520302    0.0773926  29.58   0.00101368    1.556    0.358
       472  -8.4300    119.2205     32.8320   3.9880211012e+01   5.1223566123e+01    0.2903475      0.14166 -42.79  0.000607694    2.046    0.511
       473  -8.7277     60.8275     32.3457   5.7611930934e+01   6.4887321923e+01    0.2394026      0.18681 -47.54 0.0005843499    1.322    0.243
       474  -9.1804     72.2704     31.2134   5.2418698345e+01   6.2697212594e+01    0.3066637    0.2124509 -44.65 0.0007377948    1.478    0.323
       475  -9.0986     12.9289     29.8461   8.4088827381e+01   7.2510982609e+01     0.376321    0.1828931 -71.14  0.001300676    2.408    0.585
       476  -8.3294    101.6561     29.1483   4.2354855995e+01   5.6124424766e+01      0.23588    0.1705215 -47.91 0.0006196287    1.446    0.308
       477  -8.0199     42.3136     29.6832   6.5255034660e+01   6.8771693378e+01    0.1326264    0.1115357 -85.72 0.0004720137    1.645    0.392
       478  -8.8604     81.6551     27.2888   4.7179229768e+01   6.1199893801e+01    0.2942132     0.222703 -67.25 0.0008016612    1.685    0.407
       479  -9.1039      3.7369     27.2097   8.9931559197e+01   7.3818141029e+01    0.2863086     0.187577  84.92  0.001144072    1.977    0.494
       480  -8.0046    156.8103     27.5841   3.1602452357e+01   4.2364190450e+01    0.1801691    0.1325357 -87.00 0.0002906918    1.468    0.319
       481  -8.9909     48.6609     33.1563   6.3731617844e+01   6.7013657946e+01    0.2763948    0.2225515 -69.17 0.0005521504    1.585    0.369
       482  -8.8794     91.7693     26.1297   4.3573468427e+01   5.8963746499e+01    0.3296377    0.1962251 -49.09 0.0008221485    1.889    0.471
       483  -7.6201    145.7212     25.3859   3.2359425594e+01   4.5410185169e+01    0.1575112   0.09524687 -53.63 0.0007002474    1.727    0.421
       484  -8.4942    104.5164     22.5540   3.8679266572e+01   5.6274459584e+01    0.1414388     0.139469 -71.48 0.0001867604    1.025    0.025
       485  -8.9206     63.6224     20.7226   5.0130975042e+01   6.6221682449e+01    0.3179282    0.2058506 -49.42  0.001013614    1.788    0.441
       486  -8.7728     48.3881     21.5048   5.7436652979e+01   6.9186298826e+01    0.2687178    0.2203413 -59.66 0.0006765109    1.500    0.333
       487  -8.9623     74.0367     19.0737   4.5379402038e+01   6.4129852473e+01    0.3247046    0.1858052 -39.83 0.0008702921    1.778    0.438
       488  -8.2340     38.6526     17.8498   6.0438942340e+01   7.1572180535e+01    0.1902695    0.1176725 -46.89 0.0004841627    1.694    0.410
       489  -8.1328    113.0076     16.9514   3.4395060229e+01   5.4761463385e+01    0.1723466    0.1631839 -28.40 0.0005614831    1.064    0.060
       490  -8.1492     87.8624     17.1778   4.0197910602e+01   6.1078361637e+01    0.2179784    0.1838406 -57.49 0.0005329822    1.304    0.233
       491  -8.5064     30.0356     15.7428   6.4404962024e+01   7.3360397576e+01     0.233901    0.1657147 -54.74   0.00124663    1.658    0.397
       492  -7.6285      1.6869     16.3428   8.7182155301e+01   7.6442939698e+01    0.1211936   0.09455182  69.08 0.0007046865    1.705    0.413
       493  -8.2735     97.2014     15.1249   3.6845420110e+01   5.8993876455e+01    0.1998987    0.1599029 -53.34 0.0005086855    1.340    0.254
       494  -8.2283      7.5033     15.0021   8.1328430441e+01   7.6286954480e+01     0.168042    0.1103962 -87.88 0.0008099013    2.481    0.597
       495  -8.2378     17.2447     13.9820   7.2551153174e+01   7.5471624133e+01    0.1700084    0.1433541  58.33 0.0005544259    1.612    0.380
       496  -9.2563    156.2300    247.5457   8.0816022121e+01   7.4491989962e+00    0.2267111    0.1721219 -55.65  0.001117884    2.019    0.505
       497  -7.5243     83.3668     10.6956   3.7973680140e+01   6.2923845517e+01    0.1469662    0.1044698 -64.07 0.0007035569    1.744    0.427
       498  -8.2132    113.2702    248.4171   8.8792294010e+01   1.2249579927e+01    0.1565539    0.1192208  70.06   0.00083794    1.816    0.449
       499  -7.8276     47.7193     10.3175   5.0609013133e+01   7.1043716063e+01    0.1285361    0.1049014 -59.76 0.0002486997    1.579    0.367
       500  -9.2156    103.9206    246.6472   9.0407587670e+01   1.3555372836e+01    0.3377284    0.2134864  81.47   0.00202575    2.756    0.637
       501  -8.3658     93.8867    249.1592   9.2535661855e+01   1.4308937591e+01    0.1697065    0.1114634  46.11 0.0008066666    1.344    0.256
       502  -9.2635    232.9191    246.3984   6.8141118265e+01  -7.0316210335e-01    0.2701887    0.1440433 -19.58  0.001687018    1.696    0.410
       503  -8.9533    218.6162    246.7703   7.0348138263e+01   7.0360528185e-01    0.2820206   0.09846329 -29.61  0.001609375    2.967    0.663
       504  -9.0901    175.6590    247.3485   7.7405328731e+01   5.2728524450e+00    0.2125569     0.173872  57.81  0.001282276    2.185    0.542
       505  -8.7358    132.1380    247.5922   8.5189372366e+01   1.0207615692e+01    0.1932905    0.1432715  54.08 0.0007375209    1.703    0.413
       506  -8.2983     64.2323    248.2194   9.8167380968e+01   1.7608013185e+01    0.1808004   0.04758599  37.85 0.0008804115    2.452    0.592
       507  -9.1044    243.1506    245.8759   6.6580364078e+01  -1.6521393892e+00    0.2979449    0.1296303 -16.85  0.001914595    2.253    0.556
