#   1 NUMBER                 Running object number                                     
#   2 MAG_AUTO               Kron-like elliptical aperture magnitude                    [mag]
#   3 X_IMAGE                Object position along x                                    [pixel]
#   4 Y_IMAGE                Object position along y                                    [pixel]
#   5 X_WORLD                Barycenter position along world x axis                     [deg]
#   6 Y_WORLD                Barycenter position along world y axis                     [deg]
#   7 A_WORLD                Profile RMS along major axis (world units)                 [deg]
#   8 B_WORLD                Profile RMS along minor axis (world units)                 [deg]
#   9 THETA_WORLD            Position angle (CCW/world-x)                               [deg]
#  10 FWHM_WORLD             FWHM assuming a gaussian core                              [deg]
#  11 ELONGATION             A_IMAGE/B_IMAGE                                           
#  12 ELLIPTICITY            1 - B_IMAGE/A_IMAGE                                       
         1 -15.1580      4.2524    130.1577   1.3963190527e+02   4.8013895875e+01     9.194871     1.534159 -72.28   0.02554605    6.155    0.838
         2 -13.4061    200.7969     29.1076   6.4331115561e+01   3.1906930828e+01     1.311688     1.202518  48.03   0.00689478    1.336    0.251
         3 -13.4386    217.2339     11.1079   5.8497069516e+01   3.0192209802e+01    0.9140359    0.7753688  68.09  0.002485507    1.295    0.228
         4 -11.7814     88.0326    226.2679   1.3207582638e+02   1.5965454804e+01    0.5692285    0.1802512  50.20  0.002138654    2.997    0.666
         5 -12.4887    239.7203    246.9546   1.0510184004e+02  -1.2767363985e+01    0.9187058    0.4683072  16.96  0.004517381    2.386    0.581
         6 -12.7454     11.0885    238.3738   1.4756049529e+02   2.3505291569e+01    0.7453864    0.5214812  82.76   0.00473237    1.063    0.060
         7 -12.4958      6.6898    228.0573   1.4768293356e+02   2.6032542278e+01    0.6070811     0.556525  54.40  0.004882616    1.541    0.351
         8 -12.2649      3.9385    216.2065   1.4742192211e+02   2.8750856480e+01    0.6551125    0.4228138 -83.00  0.004484363    1.230    0.187
         9 -12.2112     98.5202    246.6806   1.3233903600e+02   1.0218576516e+01    0.5212296    0.3485431  52.63  0.002260738    1.245    0.197
        10 -10.7809     64.6985    247.9573   1.3883954414e+02   1.5011239549e+01    0.3198051    0.1913904  73.55  0.001146783    1.545    0.353
        11 -11.5797    123.1703    249.8757   1.2792501117e+02   5.6327982317e+00    0.5938821    0.1282571  42.66  0.001992006    3.718    0.731
        12 -11.4664    198.6228    247.6155   1.1284469146e+02  -6.6114953062e+00    0.3003075     0.207182  35.17  0.001778237    1.252    0.202
        13  -9.7969     81.3895    249.1844   1.3586292017e+02   1.2363528074e+01    0.1674463    0.1043817 -86.54 0.0009354827    1.680    0.405
        14  -9.4002     85.3162    246.3315   1.3483293566e+02   1.2325903864e+01    0.1085661    0.1005187 -14.46 0.0006050564    1.685    0.406
        15 -13.0311     34.3166    246.7047   1.4414837805e+02   1.9225005464e+01     1.203605    0.6353715  44.47  0.007293286    1.743    0.426
        16 -11.5153    139.1764    250.3741   1.2485564577e+02   2.8726580265e+00    0.5722114    0.1698038  49.44  0.002012277    3.474    0.712
        17  -9.9054    185.7656    239.0302   1.1396231034e+02  -3.1363105873e+00    0.1585055    0.1096629 -42.69 0.0004962304    1.632    0.387
        18 -13.4260      6.5188    246.3989   1.4877142808e+02   2.2416165930e+01     1.372927    0.9494382  47.70   0.01018635    1.520    0.342
        19 -11.0795    175.3159    249.5995   1.1766050154e+02  -3.0869239593e+00    0.3492612    0.1062939  41.86  0.001345731    2.798    0.643
        20  -9.3668    228.6667    228.3242   1.0388386497e+02  -8.4808330261e+00    0.1140758    0.1031134  76.05 0.0007050812    1.709    0.415
        21 -12.7314    107.1517    230.3354   1.2866336769e+02   1.2047519743e+01     1.222243    0.1681667  43.31   0.00332926    5.397    0.815
        22  -8.3790    152.5199    213.0145   1.1650122534e+02   7.5384352368e+00    0.1862671    0.1408863 -52.32 0.0003397367    1.433    0.302
        23 -12.4828      9.7781    207.0120   1.4572105491e+02   3.0142769513e+01    0.6507276    0.4459065  34.83  0.002954621    1.813    0.448
        24 -10.5240     53.2457    203.5142   1.3670595752e+02   2.5982365657e+01    0.4376836    0.2067873  63.37   0.00196672    2.349    0.574
        25  -9.5450     34.7882    202.2144   1.4040732595e+02   2.8546745227e+01    0.1895697    0.1358259  81.01 0.0005525145    1.154    0.134
        26 -11.6604     56.1917    197.1639   1.3535942225e+02   2.7044883058e+01    0.2849599    0.2295473 -69.39 0.0005543795    1.232    0.189
        27  -8.9898    191.3514    192.0183   1.0438579069e+02   4.3020418094e+00    0.2346185    0.1187579 -63.66 0.0007046764    4.525    0.779
        28 -11.8978     62.9964    188.8443   1.3282793828e+02   2.8061200087e+01    0.2734389    0.2406766 -70.52 0.0004328337    1.193    0.161
        29 -11.5555      3.5113    184.1985   1.4520605838e+02   3.5731171587e+01    0.4094202    0.2392242 -74.01  0.002535816    1.352    0.261
        30 -13.1735     60.4102    174.0134   1.3142826433e+02   3.1943928417e+01     0.552911    0.2823569 -47.33  0.001786593    2.280    0.561
        31 -10.8104     74.0719    176.1297   1.2845866613e+02   2.9508188654e+01    0.2560194    0.2321006 -75.75 0.0003361821    1.107    0.097
        32  -9.3723     92.9611    170.0557   1.2285483160e+02   2.8007736254e+01    0.2392791    0.1646718  75.42 0.0007718511    1.702    0.413
        33 -11.8175     81.8513    167.0665   1.2510561265e+02   3.0522940891e+01    0.7089053    0.5389044 -50.11  0.003735025    1.373    0.271
        34 -12.4255     12.2351    121.6231   1.3632894773e+02   4.9419381029e+01    0.5288041    0.3621356  67.68  0.001584549    1.736    0.424
        35 -12.8660     27.9260    230.2176   1.4408131736e+02   2.3299693004e+01    0.3201232    0.2711989 -83.42 0.0007829374    1.321    0.243
        36 -10.1451     95.3216    151.8510   1.1887917688e+02   3.2035801102e+01    0.3313581    0.2633023 -67.13 0.0007998861    1.203    0.168
        37 -11.8708     83.7991    150.5921   1.2166442577e+02   3.4240714814e+01    0.3203543     0.251192 -49.81 0.0005320321    1.270    0.213
        38  -9.1768     98.8177    147.5948   1.1710329865e+02   3.2465816482e+01    0.2440738    0.1919522 -48.38 0.0005185807    1.266    0.210
        39 -12.0915     67.4006    143.4581   1.2471779945e+02   3.8426235910e+01    0.6897576    0.4497847  65.04  0.003135153    1.877    0.467
        40  -9.7892    108.1085    136.8558   1.1231713635e+02   3.3370602237e+01    0.4235561    0.2894505 -16.06  0.001601822    2.425    0.588
        41 -10.5061     94.9108    134.1529   1.1529529579e+02   3.6392545753e+01     0.251056    0.2131807 -48.52 0.0003001251    1.144    0.126
        42  -9.0112    105.8298    123.6313   1.0984904069e+02   3.6917131007e+01    0.1943211    0.1815562  53.39 0.0003561914    1.112    0.101
        43  -9.0842    167.2218    112.2602   9.1521783390e+01   2.6208063940e+01    0.2167877    0.1803072 -85.58 0.0005373489    1.363    0.266
        44 -13.9522     43.4649    212.7441   1.3965545875e+02   2.5168016531e+01     1.867967     1.217524  58.90   0.01122951    1.362    0.266
        45 -11.3120    244.0079     97.8609   7.4313357553e+01   1.1541846898e+01    0.2861337     0.234652  11.31  0.001544563    1.803    0.445
        46 -10.3793     61.5904     78.6959   1.1148458932e+02   5.3925637623e+01    0.4204164    0.2119646  45.44  0.001319298    2.512    0.602
        47  -9.5514    159.4862     77.5268   8.3896786942e+01   3.4749365417e+01    0.1492245    0.1432845  76.42 0.0001780783    1.005    0.005
        48  -8.9114     52.0008     72.4855   1.1298201821e+02   5.6390452017e+01    0.1723862    0.1241875  29.92 0.0006535795    1.514    0.339
        49  -8.8552     43.2991     67.5032   1.1462516154e+02   5.8368621813e+01     0.147216    0.1178378  36.60 0.0009176236    1.504    0.335
        50 -10.7907    163.0372    249.0594   1.1998388856e+02  -9.3473601241e-01    0.2124105    0.1812961 -49.46  0.001356339    1.382    0.276
        51 -14.0372     32.9270    223.8552   1.4266897135e+02   2.4046046215e+01    0.8922213    0.5940808  66.13  0.002523178    1.238    0.192
        52 -10.5924    156.9799    249.3171   1.2121143301e+02   4.6894982865e-02    0.1941697    0.1487592  40.09 0.0007691612    1.113    0.101
