#   1 NUMBER                 Running object number                                     
#   2 MAG_AUTO               Kron-like elliptical aperture magnitude                    [mag]
#   3 X_IMAGE                Object position along x                                    [pixel]
#   4 Y_IMAGE                Object position along y                                    [pixel]
#   5 X_WORLD                Barycenter position along world x axis                     [deg]
#   6 Y_WORLD                Barycenter position along world y axis                     [deg]
#   7 A_WORLD                Profile RMS along major axis (world units)                 [deg]
#   8 B_WORLD                Profile RMS along minor axis (world units)                 [deg]
#   9 THETA_WORLD            Position angle (CCW/world-x)                               [deg]
#  10 FWHM_WORLD             FWHM assuming a gaussian core                              [deg]
#  11 ELONGATION             A_IMAGE/B_IMAGE                                           
#  12 ELLIPTICITY            1 - B_IMAGE/A_IMAGE                                       
         1 -12.4854    200.0706     37.2042   4.6628038906e+01   3.0608051556e+01     1.179536    0.9253639  51.66  0.006471477    1.365    0.268
         2 -12.4623    211.2784     25.4128   4.2196972525e+01   2.9377858257e+01    0.9482862    0.7630193  27.30  0.003726729    1.649    0.393
         3  -9.4675     32.8474     24.2201   8.6137362428e+01   6.7809627716e+01    0.3152796   0.06853833 -41.66  0.001124074    3.872    0.742
         4  -9.3327     32.6760      5.6493   7.7159527878e+01   7.0503029331e+01    0.2451977    0.0912606 -30.41  0.001168425    2.441    0.590
         5 -10.4476    235.7664      2.2933   3.4525651848e+01   2.6330578770e+01    0.6282498    0.2358693  76.70  0.002846097    2.557    0.609
         6 -11.0077     46.7254    222.1450   1.2030113672e+02   2.2398571188e+01    0.4858202    0.2290243  66.62  0.001305338    2.092    0.522
         7 -12.0844     13.7441    190.9241   1.2440827746e+02   3.2421625593e+01     1.500546    0.4001744 -64.38 0.0007141547    3.140    0.682
         8 -12.3391     85.4266    229.6369   1.1355989198e+02   1.5857248199e+01     1.225823    0.9585977  72.08   0.00276394    1.139    0.122
         9 -11.9454     43.3999    203.6907   1.1944420510e+02   2.6579935756e+01    0.9113929    0.5792062 -87.69   0.00173866    1.394    0.282
        10 -12.4285     53.3715    193.0297   1.1637704155e+02   2.7687289667e+01      2.13654     1.353972  81.92   0.01045148    1.511    0.338
        11  -8.6255     93.1218    218.4038   1.1083106172e+02   1.6906215656e+01     0.226281    0.1666129 -85.21  0.001365252    1.411    0.292
        12  -7.7977     56.6439    218.3459   1.1808981487e+02   2.1938428119e+01    0.1343156   0.07097153  66.25 0.0007035172    1.832    0.454
        13  -8.3878    113.4673    207.8496   1.0528111565e+02   1.5844900669e+01    0.1813589    0.1289496 -65.55  0.001002786    1.524    0.344
        14  -9.3672    178.2200    222.7370   9.4250762502e+01   2.3315957218e+00    0.2044411    0.1856758 -16.52 0.0009084751    1.194    0.162
        15  -9.6309     64.2716    202.6703   1.1506165813e+02   2.4203742546e+01    0.2785712    0.2019356 -79.02  0.001194118    1.292    0.226
        16  -7.9190     33.2398    204.9686   1.2156945180e+02   2.7457816612e+01    0.1485057   0.08391415 -80.19 0.0004484796    1.551    0.355
        17 -14.4189      2.3280    200.2407   1.2718010033e+02   3.1476769747e+01     9.764507          nan -73.53   0.02143504   13.030    0.923
        18 -15.3275      8.4074    241.4354   1.2816440377e+02   2.2892324097e+01     17.53225     1.390083 -77.59  0.008824303   12.113    0.917
        19  -8.3001     55.2821    223.0963   1.1875619271e+02   2.1162245698e+01    0.2830839    0.1035183  51.09    0.0013449    2.330    0.571
        20  -7.5590     71.2938    185.6862   1.1161164798e+02   2.6979980246e+01    0.1370356   0.08881205  71.91   0.00070078    1.597    0.374
        21 -14.0164     61.9961    246.6380   1.1938851143e+02   1.5887316590e+01     7.670622     2.381238  29.54  0.002743503   11.006    0.909
        22  -7.8871     99.5129    180.9869   1.0448988731e+02   2.3809841418e+01    0.1983887    0.1324196 -62.75 0.0005335792    1.501    0.334
        23 -10.2485     68.2317    177.1910   1.1123870837e+02   2.9335752334e+01    0.4071617     0.260764 -40.36  0.002020851    2.150    0.535
        24 -10.3450     72.9880    171.7883   1.0939382573e+02   2.9932992391e+01    0.3517967    0.2498613 -47.95  0.000994221    1.598    0.374
        25 -10.1781    102.8891    171.1197   1.0211660545e+02   2.5492921974e+01    0.4732219    0.1431683  47.88  0.001497496    3.637    0.725
        26  -9.1969     33.7524    166.1692   1.1798284212e+02   3.6034048922e+01    0.4202649      0.23292  51.50  0.002270956    1.783    0.439
        27 -11.5615     59.1244    133.4790   1.0703210198e+02   4.1036810085e+01     1.459863    0.5086577 -74.16  0.003917786    5.476    0.817
        28 -11.8785     69.6297    157.9135   1.0820137244e+02   3.3690349899e+01    0.6131421    0.3979585 -43.66  0.001281991    1.809    0.447
        29 -11.8610     68.7384    144.3605   1.0626669027e+02   3.7100942229e+01    0.9074438    0.5796314  80.57  0.004223696    1.958    0.489
        30 -10.3616     88.1294    155.7280   1.0315265659e+02   3.1492276825e+01    0.5692983    0.3861063 -27.80  0.002583175    2.213    0.548
        31  -9.4814     32.2009    156.3561   1.1729134010e+02   3.8501189440e+01    0.3755726    0.1557962 -58.81  0.001748005    2.126    0.530
        32  -9.2131     38.3019    146.0753   1.1452621255e+02   4.0343360081e+01    0.2366588    0.1730117  54.39 0.0007121086    1.425    0.298
        33 -10.0050     32.5080    145.0167   1.1588105165e+02   4.1182232373e+01    0.2577797    0.1990119 -50.13  0.001573858    1.404    0.288
        34  -9.2057    133.8253    143.4416   8.9095743233e+01   2.6196864561e+01     0.301432    0.1143927 -51.42 0.0009968712    2.704    0.630
        35  -8.1046    159.4706    162.9559   8.7253711978e+01   1.6804193570e+01    0.2230597    0.1464155 -48.98  0.001014654    1.575    0.365
        36  -8.9660    101.2846    141.6005   9.7064639220e+01   3.2717550059e+01      0.32333    0.2496983 -33.73  0.001306593    1.499    0.333
        37  -7.8346    104.3195    138.3176   9.5575220273e+01   3.2973143506e+01    0.2415289      0.16475 -14.90 0.0009066567    2.467    0.595
        38 -10.6831     89.6326    140.4498   9.9945693721e+01   3.4941182259e+01    0.3115357    0.2592932 -42.95 0.0002377096    1.268    0.211
        39  -8.7264     83.6848    143.3339   1.0209134402e+02   3.5176290939e+01    0.2434395     0.193197 -65.65 0.0007862324    1.170    0.145
        40  -8.6961    105.9500    130.5625   9.3442860814e+01   3.4534553393e+01    0.3902575    0.1923941 -47.17  0.001533952    1.967    0.492
        41 -10.3842     32.3858    129.5545   1.1385949706e+02   4.4939655231e+01    0.6834435    0.1566769 -71.47  0.001978399    4.849    0.794
        42  -8.8816    111.1699    130.6529   9.2053760425e+01   3.3554302946e+01     0.279271    0.2269716  -3.51 0.0007454516    1.602    0.376
        43  -9.2875     98.7573    126.7649   9.4563349374e+01   3.6722173337e+01    0.3042478    0.2555602   1.42 0.0008458708    1.490    0.329
        44  -8.1250    107.7886    119.2772   9.0287434636e+01   3.6872757578e+01    0.1999778    0.1724883 -21.00 0.0003669863    1.303    0.233
        45 -10.8911     81.9376    162.4164   1.0581933304e+02   3.0844753556e+01    0.6737902    0.3887381  66.38 0.0006161914    2.203    0.546
        46  -8.5627     33.2748    118.3794   1.1191769750e+02   4.7575215754e+01    0.1394997   0.08135576 -46.16 0.0007001297    1.702    0.412
        47 -11.6991     19.4050    109.7932   1.1470962301e+02   5.0817195788e+01     0.823104    0.2720916 -63.55  0.003552635    2.219    0.549
        48  -7.9126    205.5453    110.4609   6.5190859703e+01   1.7417257138e+01    0.1510101    0.1405445 -28.18 6.039661e-05    1.024    0.023
        49  -8.6516    115.0000    109.9979   8.5920825815e+01   3.7638526660e+01    0.2609678   0.08538349 -47.63 0.0007954198    2.922    0.658
        50  -9.9535     32.6438    107.7125   1.1031329495e+02   5.0217245586e+01    0.4559779    0.1112922 -66.19  0.001494306    3.621    0.724
        51  -9.6982     45.1658    105.9296   1.0604911378e+02   4.9405476206e+01    0.2128433     0.198808  33.58 0.0009082613    1.255    0.203
        52  -8.3967    134.5975    106.7696   7.9795928479e+01   3.4281468496e+01    0.2369023     0.145048 -54.08 0.0009563955    1.761    0.432
        53  -7.7564     49.1840    216.3372   1.1936663652e+02   2.3267431642e+01    0.2612323    0.1520319  69.83  0.001256932    1.563    0.360
        54  -8.4106     52.4918     91.4945   1.0045600128e+02   5.2011742921e+01    0.1385377     0.119834 -52.11 0.0008105309    1.020    0.020
        55  -8.1561    168.6824    113.3502   7.3395557191e+01   2.5232953941e+01    0.2486718     0.191365 -77.01  0.001100481    1.723    0.420
        56  -8.0402    158.4787     81.4786   6.6742142640e+01   3.3912228148e+01    0.1558411    0.1495716 -62.32 -9.655323e-06    1.061    0.057
        57 -10.5493    187.9439     51.7659   5.2415818587e+01   3.1578675532e+01    0.4296733    0.2647682 -56.46  0.001918115    1.793    0.442
        58  -7.6849     67.4856     51.5561   8.2862511206e+01   5.8436658929e+01    0.1381577    0.1181522 -15.04 0.0002487428    1.037    0.036
        59  -9.4335    143.9996     48.7200   5.9634976614e+01   4.2985428299e+01    0.3013003    0.2462981 -81.24  0.001008753    1.471    0.320
        60 -11.5800    190.5547     44.1343   4.9860392627e+01   3.2020439328e+01    0.7679149    0.4297567  46.01  0.002073543    1.997    0.499
        61  -9.4928     61.1629    234.3882   1.1858144803e+02   1.8238414678e+01    0.2217218     0.163433  79.15 0.0006344991    1.177    0.150
        62  -8.3866     53.9963    231.4370   1.1966812599e+02   1.9702048093e+01    0.1899186    0.1262073  71.17 0.0007732457    1.264    0.209
        63  -7.9852    146.8063     43.1860   5.7210552553e+01   4.3099741310e+01    0.1977495    0.1645047  28.88 0.0003406251    1.276    0.217
        64 -12.3564     29.4548    248.2411   1.2506261397e+02   1.9470251926e+01    0.6642468    0.6376762   2.73  0.005537226    1.803    0.445
        65 -12.8430     10.3972    206.4558   1.2603283250e+02   2.9466169829e+01    0.6625748    0.5188923  30.08  0.002704132    1.718    0.418
