#   1 NUMBER                 Running object number                                     
#   2 MAG_AUTO               Kron-like elliptical aperture magnitude                    [mag]
#   3 X_IMAGE                Object position along x                                    [pixel]
#   4 Y_IMAGE                Object position along y                                    [pixel]
#   5 X_WORLD                Barycenter position along world x axis                     [deg]
#   6 Y_WORLD                Barycenter position along world y axis                     [deg]
#   7 A_WORLD                Profile RMS along major axis (world units)                 [deg]
#   8 B_WORLD                Profile RMS along minor axis (world units)                 [deg]
#   9 THETA_WORLD            Position angle (CCW/world-x)                               [deg]
#  10 FWHM_WORLD             FWHM assuming a gaussian core                              [deg]
#  11 ELONGATION             A_IMAGE/B_IMAGE                                           
#  12 ELLIPTICITY            1 - B_IMAGE/A_IMAGE                                       
         1 -10.1878    189.1313     26.4694   7.0282545698e+01   3.4953265857e+01    0.6516699    0.1972893 -35.11  0.002277368    2.941    0.660
         2  -9.8628    198.2440     14.5340   6.5702891343e+01   3.3962588332e+01    0.3249401     0.253547  35.37  0.001061243    1.536    0.349
         3 -10.5469    203.2633      6.8194   6.3026730860e+01   3.3490276074e+01    0.7183903    0.5899867 -87.56  0.004214908    1.105    0.095
         4  -9.3964    235.3632      3.7350   5.9455076207e+01   2.5942555249e+01    0.3268531    0.2429128 -39.35  0.001230286    1.295    0.228
         5  -7.4102    106.7189    243.9655   1.3467552973e+02   1.2252489856e+01    0.1556715    0.1248704  63.39   0.00066139    1.077    0.071
         6  -9.2373     57.3005    249.7416   1.4350511387e+02   1.8096156175e+01     0.175725    0.1457107  64.57 0.0003521164    1.286    0.222
         7  -9.0280     28.0977    249.9978   1.4815310875e+02   2.1492454102e+01    0.2200032   0.09231564  53.43   0.00142201    1.676    0.403
         8 -12.2275     16.0365    241.4614   1.4962688209e+02   2.4225617820e+01     1.956094    0.4227851 -66.40  0.009135208    4.558    0.781
         9  -8.1879     68.3354    234.9072   1.4059238985e+02   1.9203778812e+01    0.2071783    0.1406964  43.82 0.0008272623    1.442    0.306
        10  -9.7995     51.9258    233.7507   1.4333684092e+02   2.1509485071e+01    0.2650827    0.2400163  87.94  0.001218666    1.456    0.313
        11 -10.0288      4.6167    249.6902   1.5168671827e+02   2.3989067921e+01    0.6286579    0.2885585  75.28  0.004423263    1.622    0.383
        12  -7.7721    129.9734    232.6412   1.2930399862e+02   1.0482912599e+01    0.1708124    0.1291939  50.37 0.0006451078    1.060    0.057
        13  -7.6693     43.5902    231.2399   1.4459024939e+02   2.2967140320e+01    0.1361877   0.08744709 -71.21 0.0009017629    1.666    0.400
        14  -7.9297     37.2743    231.5567   1.4567717062e+02   2.3647912297e+01    0.1283216   0.09258357  42.72 0.0006025978    1.556    0.357
        15  -9.8110     11.0701    239.1976   1.5030011912e+02   2.5121847577e+01    0.3337452    0.2530792  34.25  0.002228514    1.913    0.477
        16  -9.2275     35.2798    227.7300   1.4578275942e+02   2.4567004328e+01    0.1825935     0.153709  82.34 0.0004340341    1.320    0.242
        17  -8.2058    109.8802    223.8840   1.3202351757e+02   1.5141556124e+01    0.2078028    0.1561071 -83.99  0.001128817    1.426    0.299
        18  -9.9353     83.9048    223.7259   1.3683884463e+02   1.9057863371e+01    0.4556197    0.1156159  47.95  0.001859861    3.085    0.676
        19  -8.4426      7.8404    224.1463   1.5015887209e+02   2.8107786807e+01    0.2053403   0.09467135  54.37  0.000901698    1.621    0.383
        20  -9.3583     53.7275    221.0302   1.4210495207e+02   2.3603315607e+01    0.2395837    0.1796428 -76.48 0.0007105019    1.402    0.287
        21  -7.0544    124.7631    237.9412   1.3085135094e+02   1.0458999723e+01    0.1272199   0.09862246 -64.13 0.0008582308    1.547    0.354
        22  -9.2636     46.2405    200.8442   1.4190484373e+02   2.8436722263e+01    0.3081524    0.1646142 -81.70  0.001415165    1.696    0.410
        23 -11.3172     62.0836    208.6727   1.3954380874e+02   2.4897323306e+01    0.7222238    0.5923495  64.97  0.004584063    1.147    0.128
        24 -10.0623     53.8610    205.2866   1.4081663324e+02   2.6617065886e+01    0.4987493    0.2108946  41.04  0.001979151    2.173    0.540
        25  -7.9420     40.6155    214.4662   1.4398426315e+02   2.6428439840e+01    0.1957944    0.0840336  45.68 0.0007020239    1.942    0.485
        26  -8.2974     32.8725    214.1706   1.4535115909e+02   2.7366499895e+01    0.1786508    0.1105993  71.77 0.0008050218    1.241    0.194
        27 -10.1916     11.6084    206.4506   1.4865661887e+02   3.1059558921e+01    0.3925848    0.2298721  45.34  0.001954423    1.623    0.384
        28  -8.9967     27.0151    203.3373   1.4570222095e+02   3.0108720663e+01    0.2598833    0.2049494  88.76  0.001965664    1.200    0.167
        29 -10.0919    179.5109    199.0836   1.1510072366e+02   7.4128773677e+00    0.2311431    0.1994042  42.68 0.0003047876    1.060    0.056
        30  -8.1471     66.5219    196.3501   1.3750819327e+02   2.6771397182e+01    0.2622681    0.1398269  62.89 0.0007283404    1.762    0.432
        31  -9.1442     37.6384    194.7693   1.4307784570e+02   3.0667680033e+01    0.3030813    0.1210896  67.32  0.001403637    2.706    0.631
        32 -10.2546     31.5221    190.0205   1.4390163606e+02   3.2316807629e+01    0.8508562    0.1442897 -70.73  0.003071305    4.583    0.782
        33  -8.9141     76.0862    188.9789   1.3475669073e+02   2.6969242041e+01    0.3640686    0.1951758 -50.43  0.001168824    2.363    0.577
        34  -8.7326     79.9775    182.8105   1.3320103761e+02   2.7707016731e+01    0.2423809    0.2175597 -50.47 0.0007109566    1.450    0.310
        35  -7.6591    180.0639    184.4437   1.1241154022e+02   9.7606460766e+00    0.1969316    0.1236287  44.27 0.0002909375    1.457    0.314
        36  -7.8931     25.2145    179.6032   1.4435529637e+02   3.5151307580e+01    0.1346766    0.1110285  28.35 0.0009494815    1.703    0.413
        37  -9.1687     87.5088    171.8809   1.3010960482e+02   2.8933753004e+01    0.3656139    0.2111342 -72.41  0.001298707    1.762    0.433
        38 -10.3119     75.8986    168.4089   1.3225093174e+02   3.1426076905e+01    0.4098106    0.2494154 -45.61  0.001718276    2.148    0.534
        39  -8.8094     92.8703    164.9179   1.2786943922e+02   2.9625431115e+01    0.3152042    0.2492246 -32.04  0.001435198    1.804    0.446
        40  -7.1798     54.9476    163.8037   1.3642782505e+02   3.5264461296e+01     0.147718   0.09501658  40.07 0.0002984626    1.657    0.396
        41  -8.8572      8.7102    153.6558   1.4581359310e+02   4.2253031062e+01    0.2587715    0.1993787 -14.98  0.001081258    2.206    0.547
        42  -9.2406     93.7482    147.2730   1.2476436525e+02   3.3461792308e+01    0.2415453    0.2335401 -15.49 0.0004202455    1.303    0.232
        43  -8.0630      9.8515    148.1650   1.4511406796e+02   4.3370009111e+01    0.1725375    0.1216133  79.58 0.0003541005    1.166    0.142
        44  -9.6268     68.5767    144.6678   1.3058052473e+02   3.7857281764e+01    0.5787455    0.3529628  74.19  0.002822697    1.913    0.477
        45  -9.2931    125.0309    144.8898   1.1670387329e+02   2.8406388309e+01    0.2280518    0.2006281 -70.42  0.001240017    1.121    0.108
        46  -8.5957    190.0473    135.7650   1.0024358176e+02   1.6539205913e+01    0.2376583    0.2039428 -37.85 0.0003087689    1.165    0.142
        47  -7.5549    101.2292    131.7453   1.1991973007e+02   3.5769307880e+01    0.1854969     0.168192 -24.43 0.0004411181    1.347    0.258
        48  -8.6971    122.5286    129.9287   1.1412051090e+02   3.2219039513e+01    0.2528257     0.210672  47.81 0.0003013421    1.216    0.178
        49 -10.3347    236.1109    127.8879   9.0012791039e+01   8.0328666713e+00    0.2613715     0.241459  31.03 0.0003875408    1.136    0.119
        50  -7.1825    165.2246    119.9318   1.0162649816e+02   2.5205314671e+01    0.1964886    0.1258436 -43.91 0.0003698206    1.554    0.357
        51  -7.2781     45.7803    119.0777   1.3252386349e+02   4.6688385701e+01    0.1713054    0.0917749 -68.33 0.0002063022    1.598    0.374
        52  -7.4541     46.7881    114.8759   1.3153747827e+02   4.7564456611e+01    0.1681412    0.1306797  87.72 0.0002222772    1.262    0.207
        53  -8.1571    182.6199    113.1141   9.6190964954e+01   2.2522207705e+01    0.2355989    0.2145398  74.32 0.0004346189    1.172    0.146
        54  -8.4458    239.4094    109.0785   8.5059731639e+01   1.0366202290e+01    0.2587843     0.202818 -52.06 0.0009977118    1.343    0.256
        55  -7.4470     25.1032    110.5612   1.3703743933e+02   5.0686863241e+01    0.1529376    0.1212739  35.65 0.0005503362    1.526    0.345
        56  -7.5382    186.7151    108.5676   9.4187241611e+01   2.2420316799e+01    0.2045056    0.1508229  65.64 0.0006123213    1.524    0.344
        57  -7.6223    207.2955     87.1323   8.4697666916e+01   2.1317177916e+01    0.2091115    0.1853994 -39.17 0.0007847563    1.079    0.073
        58  -7.8069    152.9578     69.0327   8.9997986656e+01   3.7979311739e+01     0.220493    0.2165152  -0.06  0.001186206    1.046    0.044
        59  -8.6439    190.7124     65.5137   8.1532447139e+01   2.9025246553e+01    0.2499876    0.2366801 -12.73 0.0004148223    1.135    0.119
        60  -9.7875    245.9660     52.5675   7.0355034570e+01   1.7481545390e+01    0.2718543    0.2461515 -35.79 0.0005379975    1.127    0.113
        61  -8.4292    249.8949     48.2812   6.8888485063e+01   1.7181846746e+01    0.2423144    0.2103739 -26.70 0.0006955976    1.225    0.184
        62  -8.4537    131.2779     53.9191   9.0072174651e+01   4.5813179864e+01    0.2457673    0.2061797  44.20 0.0002406291    1.189    0.159
        63  -7.9772    178.9885     51.5040   7.9400501825e+01   3.4214407497e+01    0.2392438    0.1461649  61.82  0.001042291    1.618    0.382
        64  -7.6742    246.6518     41.7876   6.7654254246e+01   1.8786209632e+01    0.2473328    0.1022917  64.81  0.001036222    2.488    0.598
        65  -8.8132    187.1127     38.9297   7.4283018121e+01   3.3890331052e+01    0.2472818    0.2025526 -38.94 0.0004143664    1.217    0.179
        66  -9.5598    182.3807     31.1116   7.2628229248e+01   3.6139450732e+01    0.2951776    0.2607825 -60.58  0.001322223    1.119    0.107
        67  -8.0001    159.3878     31.8280   7.6573019960e+01   4.2030323290e+01    0.3154621    0.2158456  13.85  0.001142514    1.956    0.489
        68 -10.3518    141.2433     30.3618   7.9511279550e+01   4.6832011526e+01    0.2553004    0.2406069  -2.54 0.0003502444    1.095    0.087
        69  -7.3268     92.4274    248.5335   1.3755832464e+02   1.3594913529e+01    0.1131052   0.08357386  60.52  7.69449e-05    1.012    0.012
        70  -7.3715    152.1434     25.8534   7.5847080517e+01   4.4630397811e+01    0.1883665    0.1596526  31.51 0.0002894638    1.239    0.193
        71  -8.8331    227.4360    246.1702   1.1403383221e+02  -6.8424126173e+00    0.2150865    0.1084963  30.01  0.001249251    1.671    0.402
        72  -9.6496     30.5817    244.0527   1.4746706749e+02   2.2219322932e+01     0.217046    0.1641267 -82.59  0.001233391    1.448    0.310
