#   1 NUMBER                 Running object number                                     
#   2 MAG_AUTO               Kron-like elliptical aperture magnitude                    [mag]
#   3 X_IMAGE                Object position along x                                    [pixel]
#   4 Y_IMAGE                Object position along y                                    [pixel]
#   5 X_WORLD                Barycenter position along world x axis                     [deg]
#   6 Y_WORLD                Barycenter position along world y axis                     [deg]
#   7 A_WORLD                Profile RMS along major axis (world units)                 [deg]
#   8 B_WORLD                Profile RMS along minor axis (world units)                 [deg]
#   9 THETA_WORLD            Position angle (CCW/world-x)                               [deg]
#  10 FWHM_WORLD             FWHM assuming a gaussian core                              [deg]
#  11 ELONGATION             A_IMAGE/B_IMAGE                                           
#  12 ELLIPTICITY            1 - B_IMAGE/A_IMAGE                                       
         1 -14.3063     68.6854    144.2677   9.7653712862e+01   3.7514159042e+01      3.88674     2.314301  80.93  0.003342962    2.754    0.637
         2 -11.4508      2.0089     60.2914   1.0466601571e+02   6.3961168441e+01    0.6156164    0.1140434 -61.53  0.002196496    3.764    0.734
         3 -13.3494    202.4725     42.6830   3.9603352913e+01   2.9951043682e+01     1.253675      1.02631 -23.68  0.003992043    1.488    0.328
         4 -13.4127    213.6035     32.2630   3.5981927142e+01   2.8835928792e+01    0.8607005    0.7563372  35.45  0.002255515    1.555    0.357
         5 -12.3955      2.9679     23.3865   9.2929068772e+01   7.1045895829e+01    0.8304693    0.3977589 -55.62  0.004494858    2.290    0.563
         6 -11.1546      2.0304      7.5400   8.6609721996e+01   7.3637575640e+01    0.8014498    0.1518084 -45.54  0.003148354    4.352    0.770
         7 -12.8239    239.5622      6.6347   2.8562025523e+01   2.6405916855e+01    0.7718521    0.5812887 -76.63  0.005131398    1.059    0.056
         8 -10.5796     55.9711      5.6956   5.8270464146e+01   6.6725488306e+01    0.3332548    0.1983247  58.87  0.001789081    2.183    0.542
         9  -8.3383     67.4800    197.4928   1.0600743195e+02   2.4414379980e+01    0.1380513    0.1225058  71.30 -8.782787e-05    1.036    0.035
        10 -11.0133    138.9801    249.7589   9.6414593078e+01   3.1272274502e+00    0.5092617    0.1866933  36.48  0.002191523    2.266    0.559
        11 -10.4538    102.0000    249.0245   1.0414928436e+02   8.6128722461e+00    0.2705792    0.2270928 -88.30  0.001091561    1.360    0.265
        12 -12.2618    101.2659    243.0125   1.0363000675e+02   9.8576294305e+00    0.8125786    0.5894918  89.16  0.001276247    1.708    0.414
        13 -12.9765     51.5997    186.3041   1.0862657535e+02   2.9111330958e+01     1.177888    0.8711016  65.26  0.006131716    1.329    0.248
        14 -14.4026     36.9239    191.8880   1.1285554845e+02   2.9426458061e+01     4.622435     1.753538  65.71        0.014    4.516    0.779
        15 -15.3146      6.7953    158.0076   1.1724779031e+02   4.0388562186e+01      7.40941     1.286016 -73.26   0.01003695    4.396    0.773
        16  -9.3837    149.1934    190.7620   8.4813329882e+01   1.2957979989e+01    0.4995881    0.3231436  87.27  0.001744851    3.819    0.738
        17  -9.3405    146.5796    185.7810   8.4500145586e+01   1.4489732040e+01    0.2951798    0.1470385 -52.82  0.000993556    2.173    0.540
        18  -9.9713    117.9582    189.8865   9.2251332525e+01   1.8541665022e+01    0.4104281    0.1975256 -68.88  0.001404017    3.321    0.699
        19 -10.5684     81.0996    182.1997   1.0046436116e+02   2.6196563844e+01     0.359182    0.3166093 -61.41  0.001027281    1.137    0.121
        20 -10.3006     41.3800    181.1780   1.1063465344e+02   3.1536818288e+01     0.251102      0.23309 -48.80 0.0005312961    1.236    0.191
        21  -9.5568     99.3727    180.8954   9.5476983368e+01   2.3711173945e+01      0.26001    0.2137202  27.32 0.0006056183    1.263    0.208
        22  -9.4925     90.3596    175.2218   9.6912585467e+01   2.6512623429e+01    0.2099896     0.171472  76.91 0.0008048188    1.340    0.254
        23 -10.2333    186.5323    174.6178   7.3219955772e+01   9.6265787468e+00     0.372953    0.3523025 -65.43  0.001413333    1.285    0.222
        24 -13.3701     79.2122    158.3445   9.7104135784e+01   3.2420180726e+01     3.126881     1.039859  52.76 0.0006632498    7.331    0.864
        25 -12.6979     67.7220    154.1029   9.9673928042e+01   3.5134009738e+01    0.6012992    0.4256548 -45.84  0.000940991    1.436    0.304
        26 -11.4038    128.3335    249.2847   9.8602029351e+01   4.7694223009e+00      0.37623    0.2220187  32.12   0.00202201    1.463    0.317
        27 -13.1550     18.1274    217.5831   1.1916111079e+02   2.5457651926e+01    0.6982098    0.5043938 -19.61  0.004106464    2.339    0.572
        28 -10.3351    240.3186    169.0643   6.1876958383e+01   1.6686797127e+00    0.1915213    0.1479472 -29.82 0.0004349173    1.089    0.082
        29  -8.6180    110.7775    167.5647   9.0082157152e+01   2.5028729665e+01    0.2092304    0.1382486  47.85 0.0003938426    1.572    0.364
        30  -8.0996    102.7092    165.2538   9.1818755505e+01   2.6967441305e+01    0.1467139    0.1145406  67.36            0    1.484    0.326
        31 -11.4811     66.5701    171.7657   1.0278528821e+02   3.0815509642e+01    0.4770351    0.3291161 -28.45  0.002258129    1.941    0.485
        32 -10.0215     35.9361    161.9522   1.0983211823e+02   3.6901545166e+01    0.2483965    0.2342142  77.30 0.0006541745    1.101    0.092
        33 -10.8983     32.4648    155.7243   1.1002539673e+02   3.8818522372e+01    0.4661165    0.3380419  77.65  0.002551352    1.413    0.293
        34 -11.4624     87.0673    152.2908   9.3742519282e+01   3.2748776080e+01    0.6310218    0.4554993 -19.41  0.002501082    1.835    0.455
        35 -10.4227    133.7467    145.2695   7.9306479956e+01   2.6095013841e+01     1.280858    0.3071282 -54.17  0.002703432    6.749    0.852
        36  -8.3488    112.0202    150.2710   8.6265770774e+01   2.9013091994e+01    0.1906398    0.1361787  35.62 0.0003804509    1.421    0.296
        37  -9.3830    174.8509    149.1168   7.0266991846e+01   1.7044739188e+01    0.2285709    0.2100384 -73.78 0.0006669727    1.263    0.208
        38  -9.9710     48.1435    145.0938   1.0397572701e+02   3.9888664132e+01    0.2759639    0.1969362  17.47  0.001411959    1.647    0.393
        39  -9.2227     35.8554    145.1207   1.0764161652e+02   4.1183222686e+01    0.1883871    0.1487282 -43.72 0.0004073648    1.309    0.236
        40  -9.0165    143.3197    144.6847   7.6714661932e+01   2.4330479728e+01     0.156765    0.1262822  84.74  0.000703974    1.655    0.396
        41 -10.2576    101.4017    138.3662   8.6699248532e+01   3.3831653956e+01    0.5534871     0.355015 -19.32  0.002144253    2.387    0.581
        42 -11.5416     88.6572    137.7997   9.0348305298e+01   3.6138914238e+01    0.2999754    0.2647319 -40.74 0.0004225921    1.121    0.108
        43 -11.5300     24.9235    136.9720   1.0978724415e+02   4.4253487999e+01    0.4525392    0.2950106  43.34  0.002413152    1.690    0.408
        44 -11.2642     43.8174    129.3862   1.0271509973e+02   4.4380122586e+01    0.4241145    0.2426076  53.27   0.00189056    2.169    0.539
        45 -10.1499    106.0711    131.0192   8.3658729262e+01   3.4784702407e+01    0.4743384     0.339523 -58.88  0.002087439    1.455    0.313
        46  -9.6344    110.9342    129.2383   8.1825009067e+01   3.4306374902e+01    0.3797906    0.2600096  11.22  0.001045138    2.026    0.506
        47 -10.1815    134.7294    128.6737   7.5122628639e+01   2.9724359741e+01    0.3598098    0.3013541 -45.73  0.001515619    1.176    0.150
        48 -16.8424     13.9944    242.4993   1.2144804939e+02   2.0653802518e+01     6.662368     2.310919  22.90   0.02688389    4.642    0.785
        49 -10.2826     97.9342    125.0140   8.4654733266e+01   3.7711819029e+01    0.3355399    0.2738669  -5.00 0.0008557434    1.439    0.305
        50 -10.5185     47.7296    125.2244   1.0069928701e+02   4.5006831249e+01    0.2866697      0.20615 -36.26  0.001467368    1.443    0.307
        51 -10.1082    117.8915    123.0651   7.8323657634e+01   3.4418098865e+01    0.5455547     0.337856   0.80   0.00178635    3.416    0.707
        52  -9.5934     58.2382    195.6174   1.0805653258e+02   2.6054138734e+01    0.2258105    0.1986452 -83.24 0.0005086203    1.083    0.077
        53  -8.5558    163.3706    121.1870   6.6231702737e+01   2.5295270261e+01    0.2183669    0.1401864 -51.90 0.0004556868    1.628    0.386
        54  -9.0764    135.0000    119.9685   7.2868500898e+01   3.1628290786e+01    0.2639546   0.08847588 -45.64 0.0008018063    2.938    0.660
        55  -8.8947    107.2407    118.2303   8.0190049076e+01   3.7616276033e+01    0.2174292    0.1999024 -16.12 0.0005419111    1.112    0.101
        56  -8.7704     83.0502    117.3352   8.7453169839e+01   4.2114742240e+01     0.202423    0.1968605  37.90 0.0005410669    1.090    0.083
        57  -9.9037    231.3170    113.6722   5.1782826511e+01   1.2803361675e+01     0.258464    0.2241738 -52.07 0.0007987313    1.089    0.082
        58 -10.0833     40.1116    113.7988   1.0107972104e+02   4.8693061049e+01    0.2041917    0.1832931  80.30 0.0004968265    1.249    0.199
        59  -8.3823    134.7574    112.7266   7.1052952073e+01   3.3274791183e+01    0.2516945    0.1257661 -54.73 0.0008876366    2.385    0.581
        60 -11.3492     33.3526    108.7932   1.0246306706e+02   5.0588734750e+01    0.5366847    0.2610488 -69.36  0.002323277    2.063    0.515
        61  -9.3441    205.4294    110.1559   5.5161480473e+01   1.8510464478e+01    0.2916549    0.2073392  41.58  0.001028583    1.589    0.371
        62 -10.3656    119.1529    104.1020   7.2982702338e+01   3.8444212742e+01    0.2441624    0.2125323  -4.87  0.000635197    1.258    0.205
        63 -10.1713     41.9957    103.5181   9.8304229121e+01   5.1025732210e+01    0.3137926    0.2093669  52.87  0.001168433    1.927    0.481
        64 -10.3036     35.9692    101.0145   9.9954669320e+01   5.2240753980e+01    0.3209046    0.2588165  72.91  0.001105649    1.561    0.359
        65  -9.5675    120.4970     98.0370   7.0912697911e+01   3.9462805113e+01     0.236239    0.1510645 -44.77 0.0007472373    1.562    0.360
        66  -9.4799     22.4380    195.8620   1.1663012521e+02   2.9956158460e+01    0.4073756    0.1297833  46.18  0.001698407    2.837    0.648
        67  -9.3741     52.7408     90.9817   9.1353156026e+01   5.2759157629e+01    0.1889407    0.1124186 -52.39 0.0005298227    1.540    0.350
        68 -10.9198    193.2148    195.4188   7.5938760120e+01   4.4912403898e+00    0.8487875    0.4197427 -58.54  0.002931288    4.067    0.754
        69 -11.4407     71.0803    167.1230   1.0084534865e+02   3.1368025524e+01    0.4565768    0.2895045 -48.05  0.001142503    1.621    0.383
        70  -8.5251     73.5256     83.7661   8.1683755213e+01   5.1388201734e+01    0.1869224    0.1387926 -58.18 0.0003935826    1.526    0.345
        71  -9.0585    159.5086     83.4911   5.7206663125e+01   3.3554994637e+01    0.1464596    0.1443723 -85.10 3.548264e-05    1.011    0.011
        72  -8.9231     52.7036     64.7228   8.3676284215e+01   5.8419935202e+01    0.1611646     0.159669  60.90 0.0004822973    1.313    0.238
        73 -12.2590    114.9952    242.8654   1.0065225918e+02   7.8980874873e+00    0.5692027    0.3508341  42.66  0.003092033    1.415    0.293
        74 -10.4934     13.3932     59.7847   9.9345129062e+01   6.3416868731e+01    0.2415834    0.1988252 -43.31 0.0005186187    1.099    0.090
        75 -12.7905    192.5489     49.8175   4.2605932960e+01   3.1224602500e+01    0.8398652    0.7601981  -0.01  0.001034183    1.422    0.297
        76 -10.0421    107.6047    203.8074   9.7032569930e+01   1.7077358227e+01    0.2055459    0.1636362  63.85  0.001091218    1.351    0.260
        77 -14.5899      9.5575    207.3900   1.2031202615e+02   2.8507642434e+01     1.131548     0.994043 -36.28  0.007402195    1.562    0.360
        78  -8.1624    234.2880     45.3017   3.6718997081e+01   2.2832576243e+01    0.1058689   0.09737539  22.47   0.00028099    1.561    0.360
        79 -10.2364    111.0394    203.5112   9.6155524722e+01   1.6598721423e+01    0.2413785    0.1976685  89.35 0.0003962017    1.417    0.294
        80  -8.5799     88.5884    209.7368   1.0244292300e+02   1.8637716408e+01    0.1823265    0.1293609 -81.87 0.0009382521    1.587    0.370
        81  -8.7824    198.3778     23.7140   3.5617443313e+01   3.3206904686e+01    0.1538724    0.1199559 -26.24 0.0007384704    1.551    0.355
        82  -9.0592     78.3592     57.5556   7.1393061229e+01   5.5681096882e+01    0.2460649    0.1309245  44.63  0.001094802    1.930    0.482
        83  -8.6045    189.5175     14.9758   3.4484948917e+01   3.6164676791e+01    0.1734492    0.1172586 -37.45 0.0006835693    1.556    0.357
        84 -10.0308    122.5940    199.1610   9.2664049989e+01   1.5683783369e+01    0.3235705    0.2452533 -78.22  0.001280114    1.649    0.394
