#   1 NUMBER                 Running object number                                     
#   2 MAG_AUTO               Kron-like elliptical aperture magnitude                    [mag]
#   3 X_IMAGE                Object position along x                                    [pixel]
#   4 Y_IMAGE                Object position along y                                    [pixel]
#   5 X_WORLD                Barycenter position along world x axis                     [deg]
#   6 Y_WORLD                Barycenter position along world y axis                     [deg]
#   7 A_WORLD                Profile RMS along major axis (world units)                 [deg]
#   8 B_WORLD                Profile RMS along minor axis (world units)                 [deg]
#   9 THETA_WORLD            Position angle (CCW/world-x)                               [deg]
#  10 FWHM_WORLD             FWHM assuming a gaussian core                              [deg]
#  11 ELONGATION             A_IMAGE/B_IMAGE                                           
#  12 ELLIPTICITY            1 - B_IMAGE/A_IMAGE                                       
         1 -11.2939     31.0110     15.8964   6.4613076140e+01   7.1946281640e+01    0.2822921    0.1580723 -38.37  0.001361842    1.599    0.375
         2 -11.2914     84.5965      9.4176   3.6373285645e+01   6.3007705832e+01    0.3833415      0.20318 -48.88  0.001598335    2.621    0.618
         3 -10.8963     79.0586      8.0307   3.7438045904e+01   6.4431798813e+01    0.2847562    0.2039024  68.89 0.0008103451    1.635    0.388
         4 -10.5314     54.5261     10.8563   4.8857481848e+01   6.9120713503e+01    0.2683978    0.1878676  15.10  0.001457975    1.498    0.332
         5 -11.1280      3.6887      5.6428   7.8716476151e+01   7.6405067989e+01    0.2536829    0.1301556 -32.46  0.001425928    1.716    0.417
         6 -10.5621     88.6480      4.4214   3.2602631578e+01   6.2575392882e+01    0.2632636    0.1325564  66.15  0.001010491    2.085    0.520
         7  -9.8074    101.6584      2.6717   2.8412748353e+01   5.9527786492e+01    0.1556502    0.0914677  35.43 0.0002493612    1.740    0.425
         8 -12.6690    116.1790    240.1279   8.4414238779e+01   1.2038227988e+01    0.2283538    0.1862175  46.84 0.0005937492    1.113    0.101
         9 -10.6652     93.1127    249.0606   8.9635915789e+01   1.3842710875e+01    0.1669052    0.1433816 -87.33 0.0006675892    1.439    0.305
        10 -10.4927     83.9269    250.6470   9.1484847616e+01   1.4795104496e+01    0.2818749   0.08445756  34.40  0.000936682    2.738    0.635
        11 -13.9587     32.6935    206.4940   9.8765176613e+01   2.8606576023e+01    0.9646385    0.5880327  71.00  0.003216839    1.407    0.289
        12 -15.2622     64.5328    241.4792   9.4518315633e+01   1.8675145036e+01     2.558834     1.120916  71.71   0.01289805    3.016    0.668
        13 -15.6304     94.8390    194.2220   8.3947204129e+01   2.3062813609e+01     1.822797     1.294363 -84.90   0.01053531    1.651    0.394
        14 -11.7187    220.0508    231.0092   6.3996535854e+01  -1.7470313201e+00    0.2467881    0.1692463  23.70 0.0004181493    1.105    0.095
        15 -10.0825    180.7611    232.4566   7.1167588525e+01   3.6583982228e+00    0.1717458   0.08850033  28.88 0.0009514042    1.614    0.380
        16 -10.0708    130.9855    232.4918   8.0706702745e+01   1.1044531308e+01    0.1948269   0.09269921  37.74  0.001036825    1.602    0.376
        17 -15.5477     72.1882    209.7907   9.0574891150e+01   2.3270466057e+01     2.923692    0.4491999  41.19   0.01029809    3.782    0.736
        18  -9.5899    178.3062    229.2604   7.1185223060e+01   4.4280355129e+00     0.116703   0.07548285  16.73  0.000692206    1.522    0.343
        19 -11.3569    214.9760    226.4686   6.4187079479e+01  -5.4667504753e-01    0.1689566    0.1522784  -1.54 0.0004897249    1.412    0.292
        20  -9.7205     99.4578    223.8998   8.6150339245e+01   1.6999731180e+01    0.1457405    0.1174707 -79.71 0.0007514883    1.489    0.329
        21 -15.7631      5.8102    224.0957   1.0483462213e+02   2.7955810873e+01      1.54037     0.666503  89.02  0.008453309    2.148    0.534
        22 -11.5485    125.6154    221.7586   8.0549603339e+01   1.3509193343e+01    0.2734022    0.2334465 -62.54 0.0009633162    1.487    0.328
        23 -10.8566    159.9710    221.6743   7.3650990050e+01   8.2437421160e+00    0.2623106     0.157179  21.80 0.0009780783    1.726    0.421
        24 -11.1773    223.1738    220.2709   6.1833875950e+01  -9.9558072479e-01    0.1917222    0.1534843  11.30 0.0003748433    1.130    0.115
        25 -11.0998    173.5142    219.9107   7.0779838936e+01   6.3989841090e+00    0.2146658    0.2091374  82.65  0.001138799    1.457    0.314
        26 -10.2711    193.4567    219.5263   6.6977465076e+01   3.4091475995e+00    0.1210331   0.09381615  23.03 0.0001239395    1.020    0.019
        27 -17.1336     68.2681    188.0728   8.9428287743e+01   2.8065244160e+01     3.629335     2.877415  31.67    0.0227629    1.342    0.255
        28 -10.1955    207.9986    218.4783   6.4191162353e+01   1.3816071054e+00    0.1788808   0.09441084  34.82 0.0005538607    1.547    0.354
        29 -10.9039    112.9922    228.0169   8.3811356751e+01   1.4376202417e+01    0.2141684    0.2035017  70.01  0.001148631    1.261    0.207
        30 -11.4319    184.4655    213.5439   6.7752195070e+01   5.5703119736e+00    0.2079889    0.1499071 -28.10 0.0005897683    1.583    0.368
        31 -11.7751    125.1635    212.6262   7.9539863413e+01   1.5074033049e+01    0.2898348    0.2228158 -44.72  0.001118662    1.629    0.386
        32 -10.8742    103.0142    213.9660   8.4379733329e+01   1.8196729087e+01    0.1870085    0.1468335  43.32 0.0003528238    1.043    0.042
        33 -11.7127    153.9286    210.8819   7.3356987011e+01   1.0799688633e+01    0.2979975    0.2511027   9.52  0.001960455    1.244    0.196
        34 -11.0699    142.5267    212.0155   7.5845828243e+01   1.2442985358e+01    0.1622168    0.1271771 -45.21  0.001023624    1.574    0.364
        35 -11.2495    137.8280    210.6067   7.6629693920e+01   1.3416683112e+01     0.320371    0.1952681  16.05  0.001583626    2.247    0.555
        36 -10.2249    227.5104    211.5300   5.9707126533e+01  -6.1587256646e-01    0.1180403   0.08918758  13.40 0.0001306425    1.007    0.007
        37 -10.2410    209.6941    211.3528   6.2769590748e+01   1.9992126283e+00    0.1039308   0.09385083  55.23  0.000704182    1.712    0.416
        38 -11.6107    227.8812    207.2204   5.8937589693e+01  -1.7172659174e-01    0.3892877    0.2424971  47.38  0.002157274    2.108    0.526
        39 -10.2983    248.2298    206.4077   5.5471914601e+01  -2.9086876978e+00    0.1485832   0.09467593  38.60 0.0009532572    1.697    0.411
        40 -10.9406    123.9689    205.7463   7.8921157616e+01   1.6432909343e+01     0.188947    0.1850208  60.94 0.0005499306    1.203    0.169
        41 -13.7271    149.2931    203.5977   7.3261689104e+01   1.2701655977e+01     1.362424    0.5798069  56.44  0.004275558    5.361    0.813
        42 -12.6110    124.1512    195.7572   7.7544395744e+01   1.8171989347e+01    0.4205335    0.3455603 -26.43  0.002548535    1.553    0.356
        43 -10.8495    224.6980    198.9810   5.8093298188e+01   1.2759477139e+00    0.2089491    0.1736286   8.18  0.001459813    1.125    0.111
        44 -11.7422    134.7067    198.5685   7.5630915403e+01   1.5944146860e+01    0.2378325    0.1898996  50.04 0.0004652546    1.182    0.154
        45 -10.7077    214.3167    233.1607   6.5289912557e+01  -1.1985744326e+00    0.1885096     0.115849  23.76 0.0003378604    1.252    0.201
        46  -9.9372    245.3072    197.6774   5.4454198695e+01  -1.5495230494e+00    0.0958227    0.0917471  -7.69 0.0002630205    1.644    0.392
        47 -12.7675    191.3096    194.2197   6.3338937659e+01   7.1672155409e+00    0.6477947    0.3054629  31.70  0.003081392    1.949    0.487
        48 -10.1996    212.3903    200.2008   6.0455026428e+01   2.9910552250e+00    0.1506917    0.1114772 -37.61 0.0006356307    1.673    0.402
        49 -10.2868    212.1728    192.9998   5.9258019141e+01   3.9593974234e+00     0.172684     0.148038 -63.81 0.0007759371    2.014    0.503
        50 -11.0441    163.7982    193.2444   6.8655175708e+01   1.1942809294e+01    0.2452576    0.1410547  40.39   0.00125878    1.490    0.329
        51 -11.5057    111.5962    192.3090   7.9889942729e+01   2.0836568011e+01    0.2518629    0.2267597  57.67 0.0005356388    1.095    0.087
        52 -11.9248    110.4810    188.0057   7.9565769794e+01   2.1837939831e+01    0.3774964    0.2328132 -55.42  0.001165319    1.868    0.465
        53 -10.9932     17.7521    179.5952   1.0056398894e+02   3.5536213942e+01    0.2159438    0.2021586 -42.88 0.0007138205    1.494    0.330
        54 -11.5642     10.6536    183.5787   1.0236583656e+02   3.5334694639e+01    0.5850554    0.3687778 -73.93   0.00245188    1.597    0.374
        55 -11.1734      7.1546    189.8792   1.0339707485e+02   3.4346565246e+01    0.3431552    0.2617257 -38.91  0.002354198    2.040    0.510
        56  -9.8818      6.4563    185.4864   1.0337296700e+02   3.5299225694e+01    0.1861218    0.1245283  75.01  0.000526429    1.188    0.158
        57 -10.9671    121.4859    200.4910   7.8771761283e+01   1.7751797702e+01    0.1986713    0.1759496  45.37 0.0008847073    1.073    0.068
        58 -10.7083     17.2985    188.7283   1.0113803582e+02   3.3678789919e+01    0.2419694    0.2233676  52.83  0.001098165    1.311    0.237
        59  -9.9737     18.3102    184.3336   1.0068887325e+02   3.4491941015e+01    0.1798312    0.1534859 -30.44   0.00125902    1.760    0.432
        60 -11.0566    123.6344    187.6718   7.6510358799e+01   1.9744504038e+01    0.2593523    0.1826578  51.84 0.0009159518    1.334    0.251
        61 -10.0080    219.9927    187.5062   5.6899469730e+01   3.4434397062e+00    0.1785881     0.106724  35.35 0.0004366894    1.502    0.334
        62 -11.7769    136.1296    186.8919   7.3584896345e+01   1.7773676318e+01    0.2268436    0.1914254 -37.75  0.001362554    1.388    0.280
        63 -10.7337    248.4546    185.9400   5.1886421947e+01  -6.5302342731e-01    0.2185303    0.1517852  26.26 0.0005618319    1.294    0.227
        64 -12.0934    128.4880    184.5191   7.4938331448e+01   1.9515677150e+01    0.3101278    0.2627317  18.54 0.0009854202    1.267    0.211
        65 -11.8367    144.4231    182.1162   7.0981959322e+01   1.7194178974e+01    0.2890091    0.1701592  37.02  0.001429372    1.485    0.327
        66 -10.0019      2.2132    182.6823   1.0419318682e+02   3.6221917112e+01    0.1310556   0.09732358  27.22 0.0004295641    1.576    0.365
        67 -11.0652     24.1482    179.1093   9.9056627015e+01   3.5038035132e+01    0.2922354    0.1949652  76.76  0.001708009    1.273    0.215
        68 -10.4327     22.2348    174.9992   9.9255295577e+01   3.6099320599e+01    0.2290076    0.1454941 -88.23 0.0007161168    1.415    0.293
        69 -11.6877    189.6817    180.6725   6.1274807078e+01   9.4394175469e+00    0.2656715    0.1674897  -4.70  0.000871912    2.119    0.528
        70 -11.8812    164.3555    177.3871   6.5844968819e+01   1.4463802870e+01     0.321953    0.2080824  50.20  0.000940171    1.611    0.379
        71 -11.6805    154.2534    178.0062   6.8127594748e+01   1.6175991865e+01     0.261307    0.1646032  26.98  0.001284055    1.623    0.384
        72 -10.9046    234.6035    191.1877   5.5063555395e+01   7.4669502096e-01    0.1691348   0.09761384 -15.56 0.0009505266    1.742    0.426
        73 -12.7322     50.7058    166.1807   9.1538017180e+01   3.5002287782e+01    0.6890797    0.2453303  45.74  0.002956408    2.397    0.583
        74 -12.3822     45.8522    176.0264   9.3659056443e+01   3.3404947068e+01    0.4077482    0.3609427  84.49   0.00278229    1.153    0.132
        75 -11.7352     47.0880    170.3320   9.2848223346e+01   3.4506904105e+01    0.2991833    0.2808091  74.50  0.001461651    1.190    0.160
        76 -11.5035     32.0548    177.0157   9.7057333219e+01   3.4696459586e+01    0.4046496    0.1540121  41.47  0.001570081    2.110    0.526
        77 -11.3111     26.8788    173.2063   9.8033318574e+01   3.6039958125e+01    0.3513274    0.1943881  77.50  0.001140051    1.665    0.400
        78 -10.8523     38.3942    176.2091   9.5479218479e+01   3.4199623560e+01    0.1891674    0.1740443 -66.57 0.0004007665    1.340    0.253
        79 -12.7347    123.8134    176.3005   7.4740722213e+01   2.1887429325e+01    0.7067667    0.1708338  35.32  0.002003229    4.561    0.781
        80 -11.1957    101.0226    175.9860   8.0134977399e+01   2.5757547531e+01    0.1962802    0.1698896  54.83  0.001176595    1.025    0.025
        81 -10.7474      1.8849    170.9260   1.0380939879e+02   3.8707575815e+01    0.1779819    0.1550115 -38.89  0.001132098    1.631    0.387
        82 -10.8781    196.2396    170.6127   5.8126542230e+01   9.8154786910e+00    0.1960698    0.1112882  31.80 0.0009539673    1.663    0.399
        83 -13.1502    153.2505    166.6608   6.6316464741e+01   1.8397800991e+01    0.6753271    0.3103128 -31.85  0.002502897    3.279    0.695
        84 -13.6849    124.8179    168.9286   7.3303713378e+01   2.3165773625e+01    0.5999813    0.4574738  11.14  0.003115724    1.662    0.398
        85 -13.0950    131.0792    169.2693   7.1876020569e+01   2.1980135795e+01    0.4522617    0.2851794  39.82  0.001724487    1.409    0.290
        86 -14.6993     20.3151    219.2666   1.0189204479e+02   2.7464086588e+01     0.748357    0.4565744  75.55  0.005191787    1.392    0.282
        87 -10.8113     40.4772    168.5107   9.4338854408e+01   3.5657251981e+01    0.2582756      0.11317 -75.72   0.00122518    2.220    0.549
        88 -11.5619    172.4452    167.2469   6.2266060200e+01   1.4704138104e+01    0.3196426    0.1359193 -44.91  0.001299176    2.663    0.624
        89 -15.4727     15.7142    238.9426   1.0348190565e+02   2.4452251098e+01    0.8202947    0.4999711  88.12  0.006103908    1.586    0.369
        90 -10.6423     11.1812    167.8924   1.0148241262e+02   3.8618044179e+01    0.2818623    0.1462396  36.90  0.001261767    1.761    0.432
        91 -17.1729     27.8568    235.2581   1.0111814606e+02   2.3865214339e+01     2.416523     1.598665  72.34   0.01803368    1.284    0.221
        92 -10.2746     18.9430    167.0203   9.9556904411e+01   3.8136618833e+01    0.1683862     0.136618 -45.74  0.001116258    1.644    0.392
        93 -11.6812     81.7552    169.1729   8.3979254554e+01   3.0177360696e+01    0.3295634    0.1828554  42.81 0.0005084328    1.580    0.367
        94 -10.9521     27.1864    166.3831   9.7485139637e+01   3.7505926665e+01    0.2117762    0.1243072  44.63 0.0007626189    1.491    0.329
        95 -10.8928    205.3309    164.9328   5.5303366650e+01   9.0527416991e+00    0.1893459    0.1565392  -6.43 0.0006160783    1.136    0.120
        96 -11.6728    103.9680    164.8096   7.7747781979e+01   2.7614678751e+01    0.2238927    0.2041314 -76.12 0.0004666815    1.176    0.150
        97 -10.6851    108.8706    238.3518   8.5666550560e+01   1.3337250622e+01    0.2484174    0.1388607 -40.70  0.001381607    2.811    0.644
        98 -10.8322     35.9332    162.9834   9.5016856602e+01   3.7380133333e+01    0.1922268    0.1544098  69.22 0.0003634608    1.036    0.035
        99 -12.6784    170.1564    160.1238   6.1366465380e+01   1.6365283730e+01    0.4120254    0.3420712  35.63  0.002325561    1.101    0.091
       100  -9.4445    224.7785    160.9477   5.1042665475e+01   6.2335959352e+00    0.1530601   0.09701762 -26.59 0.0003406455    1.510    0.338
       101 -11.5505     27.9308    160.2500   9.6842758690e+01   3.8804488373e+01    0.2793326    0.1927457  73.94 0.0007421582    1.254    0.202
       102 -14.0010     21.7979    152.7668   9.7869214088e+01   4.1076352320e+01    0.8083272    0.7528657  66.19  0.004605848    1.196    0.164
       103 -10.8322    208.8734    238.1329   6.6937953249e+01  -9.9760274205e-01    0.3496492   0.09593333  30.89  0.001385371    3.604    0.723
       104 -11.8471    127.0574    156.2132   7.0525712467e+01   2.5335026627e+01    0.2958238    0.2424245  69.09 0.0002400881    1.356    0.263
       105 -12.3292    131.0165    155.7246   6.9465599182e+01   2.4695243384e+01    0.3933358     0.209577 -50.21  0.001246543    2.057    0.514
       106 -10.7105     98.0411    233.5265   8.7352297925e+01   1.5607477354e+01    0.2804213    0.1863753 -51.26  0.001560567    2.011    0.503
       107 -10.3700     78.0196    228.7611   9.0952276291e+01   1.9100529633e+01    0.2307926    0.1206323  35.31 0.0005276306    1.612    0.379
       108 -12.5461    100.9843    155.2621   7.6974404467e+01   3.0178314448e+01    0.4193418    0.1707442  42.69  0.001433991    2.208    0.547
       109 -12.0203     81.3464    155.9713   8.2267196840e+01   3.3165276102e+01    0.3283405    0.1890196  37.01  0.001059543    1.636    0.389
       110 -11.2651     83.2312    227.1795   8.9767764898e+01   1.8680973962e+01    0.4215313    0.2215303  59.73  0.001811675    1.880    0.468
       111 -10.3314      3.3416    154.0686   1.0270098520e+02   4.2272876591e+01    0.2634296    0.1897408 -37.83  0.001672899    1.953    0.488
       112 -11.3518    212.4759    154.0039   5.1793938730e+01   9.3960276738e+00    0.2114991     0.168812  31.03 0.0006558265    1.189    0.159
       113 -12.5600     88.8405    153.2118   7.9850281474e+01   3.2626631257e+01    0.3061164     0.248296 -70.04  0.001707234    1.279    0.218
       114 -10.7376     37.3213    154.3048   9.3883020083e+01   3.9209704209e+01    0.2657893    0.1752901  25.71  0.001116709    1.707    0.414
       115 -11.8467    126.1499    151.5889   6.9884603243e+01   2.6461490113e+01    0.2869114    0.2387725  51.21 0.0007096808    1.139    0.122
       116 -11.3843    171.9840    150.7317   5.9068180290e+01   1.7665950479e+01    0.2125684    0.1844488  34.34  0.001187616    1.073    0.068
       117 -12.2068    147.1840    150.4072   6.4559085747e+01   2.2640783879e+01    0.2980454    0.2552239  40.20  0.001626951    1.077    0.072
       118 -13.5602    109.3343    147.6246   7.3452940734e+01   3.0403094351e+01    0.8092448    0.3615084 -47.37  0.002579802    2.477    0.596
       119 -13.7764    102.6471    142.4480   7.4285067794e+01   3.2741866417e+01    0.7922395    0.4369899  51.28  0.002244398    1.842    0.457
       120 -10.6492    180.7739    150.5710   5.7189726509e+01   1.5959994426e+01    0.2019468    0.1300311  52.25 0.0009521659    1.701    0.412
       121 -11.1631     90.8387    236.8915   8.9073819801e+01   1.6046135211e+01    0.4427637    0.1687839  43.20  0.002206717    1.897    0.473
       122 -12.8925     79.6352    142.1022   8.0608626879e+01   3.6615372950e+01    0.6287842    0.2680862  51.61  0.002396855    2.575    0.612
       123 -12.3122     80.5882    148.1244   8.1296124279e+01   3.5071715208e+01    0.3906507    0.2087112  54.13 0.0007913382    1.945    0.486
       124 -11.2343    154.5963    149.2602   6.2608286893e+01   2.1394172334e+01    0.2669614    0.1675677  50.74 0.0006314215    1.620    0.383
       125 -10.9900     44.9034    150.4158   9.1443601538e+01   3.9281638258e+01    0.2736545    0.1561816 -68.54  0.000653318    1.672    0.402
       126 -10.2627     34.0470    149.5118   9.4317627967e+01   4.0658738942e+01    0.1744716     0.119966  32.67 0.0004727119    1.513    0.339
       127 -10.2267    224.3720    148.2440   4.8523258162e+01   8.0949770103e+00    0.1805164    0.1137545 -38.49 0.0005047863    1.654    0.395
       128 -10.9390    133.4842    148.4806   6.7463303460e+01   2.5704632142e+01    0.1469306    0.1357694  39.64 0.0008101159    1.015    0.015
       129 -10.1887    128.5331    147.4329   6.8484482220e+01   2.6875621392e+01    0.1469288    0.1348274  45.58 2.223856e-05    1.009    0.009
       130 -11.4337     24.9714    144.9461   9.6395489375e+01   4.2597720967e+01    0.2432565    0.1880397 -79.59 0.0004239386    1.191    0.160
       131 -10.7974     50.5246    143.5188   8.9084908376e+01   4.0249446089e+01    0.2201563     0.125304  32.79 0.0006594998    1.770    0.435
       132 -11.5662     54.4923    144.5471   8.8088476768e+01   3.9522869071e+01    0.3475047    0.2389736 -89.94  0.001679663    1.445    0.308
       133 -10.6949     57.5333    143.5077   8.7091655887e+01   3.9386222859e+01    0.2956868    0.1688276  55.98  0.001423692    1.749    0.428
       134 -10.4756    209.9979    160.5342   5.3569749929e+01   8.8736850395e+00     0.203001    0.1204719  39.10  0.001030995    1.595    0.373
       135 -10.1880     35.3355    144.9432   9.3522377468e+01   4.1596491929e+01    0.1799155    0.1478319 -85.73  0.000593235    1.111    0.100
       136 -10.9577     40.0208    142.8089   9.1983441583e+01   4.1609202553e+01    0.3439415    0.1746866  29.47  0.001221207    2.048    0.512
       137 -11.5222     93.9856    141.6140   7.6508622788e+01   3.4422553649e+01    0.2843143    0.1894889 -65.80 0.0009562708    1.596    0.374
       138 -11.5929     11.6247    141.2318   9.9777678225e+01   4.4578387377e+01    0.3876863    0.1690236  52.06  0.001939245    2.079    0.519
       139 -11.3183    139.8282    141.1643   6.4407212935e+01   2.5949198372e+01    0.2005956    0.1743851   8.51 0.0004257601    1.282    0.220
       140 -10.7597     60.1604    150.0741   8.7208352215e+01   3.7504677291e+01     0.195743    0.1806137 -55.80 0.0007255138    1.256    0.204
       141 -11.9294     39.0180    137.9559   9.1735949683e+01   4.2871177248e+01    0.4284242     0.237432  11.44  0.001954127    2.709    0.631
       142  -9.6512    177.3053    138.3036   5.5260679617e+01   1.8800092595e+01    0.1475726    0.1096422   9.09   0.00047452    1.599    0.375
       143 -11.2729    159.3664    137.4507   5.8990183554e+01   2.2677513967e+01    0.2795875    0.1864405 -44.41 0.0008299247    1.594    0.373
       144 -10.6895     50.9938    138.1025   8.8267102995e+01   4.1484065171e+01    0.1974759    0.1731266  77.62 0.0003051789    1.010    0.010
       145 -11.0637     52.9099    135.3537   8.7338800691e+01   4.1911848303e+01    0.4224322    0.1664973  44.25  0.001743181    2.386    0.581
       146 -11.2195     12.9380    133.7970   9.8876595630e+01   4.6216961028e+01    0.3571092    0.2161028  66.71  0.001533244    1.506    0.336
       147 -11.8061    133.7653    131.3455   6.3784474107e+01   2.9213511128e+01    0.3450146    0.2147533  37.53  0.000969571    1.585    0.369
       148 -11.4996    140.2568    134.4037   6.2839505443e+01   2.7244479118e+01     0.336464    0.2480505  52.26 0.0009130359    1.357    0.263
       149 -13.2194    143.9738    132.0542   6.1403379842e+01   2.6953495194e+01    0.6912125    0.4001315 -25.03  0.002635532    2.626    0.619
       150 -10.9763    133.0610    135.4845   6.4872996555e+01   2.8487333029e+01    0.2290348    0.1413125  42.59 0.0005932234    1.527    0.345
       151 -11.8846     61.8285    134.4545   8.4567980998e+01   4.0986673754e+01    0.4543889    0.2246557  38.10  0.002045906    1.927    0.481
       152 -13.1244    103.0164    132.9914   7.2360373587e+01   3.4819466833e+01    0.7555567     0.240334  40.49  0.002500453    2.932    0.659
       153 -11.0757     88.4079    231.0999   8.9060308325e+01   1.7322890910e+01    0.3205902    0.2145987 -71.24  0.001805193    1.827    0.453
       154  -9.9824     70.9686    133.7702   8.1754564571e+01   3.9878264119e+01    0.1767287    0.1133981  35.28 0.0002684039    1.562    0.360
       155  -9.8265    237.5061    237.5016   6.2071731544e+01  -4.7005887885e+00    0.1102987   0.07700751  14.32 -1.703923e-05    1.006    0.006
       156 -11.1454     35.8374    131.8697   9.1983410768e+01   4.4662659136e+01    0.1971437    0.1673698 -62.40 0.0007621459    1.233    0.189
       157 -13.1163    152.8797    129.9987   5.8802308567e+01   2.5487433963e+01    0.6942064    0.3114106  46.13  0.002634483    2.140    0.533
       158 -11.4429    138.0558    130.8167   6.2584611895e+01   2.8439250899e+01    0.3112668    0.2535366 -63.45 0.0009145642    1.396    0.284
       159 -11.7457     30.4941    130.0086   9.3377776506e+01   4.5634781529e+01    0.3448203    0.1736432  71.62  0.001499061    2.216    0.549
       160 -11.4108     92.3712    129.0982   7.4622134621e+01   3.7596702172e+01    0.2434436    0.2026468  28.77 0.0005720476    1.292    0.226
       161 -10.8430     81.9871    234.7933   9.0645153573e+01   1.7565521532e+01    0.2238095    0.1665729 -81.56  0.001301183    1.586    0.369
       162 -12.9363    158.4549    128.5745   5.7177482965e+01   2.4574898224e+01    0.5138475    0.4140141 -84.67  0.002493999    1.689    0.408
       163 -11.6164     59.2590    126.8021   8.4164711847e+01   4.3177952082e+01    0.3352638    0.2091707 -51.85  0.001647957    1.669    0.401
       164 -10.6833     15.1507    126.8491   9.7671958427e+01   4.7698365445e+01    0.2267204    0.2100307 -75.98  0.001110496    1.183    0.155
       165 -10.9987     11.6292    124.1438   9.8502413364e+01   4.8602389917e+01    0.3439642    0.1704214  45.29  0.001798198    1.933    0.483
       166 -11.0806    190.2406    122.2355   4.8932513054e+01   1.8882520225e+01    0.3452383    0.2368799 -85.88  0.001365975    2.967    0.663
       167 -11.3765     67.4434    122.5004   8.0904295026e+01   4.3104411028e+01    0.2822222    0.2219083  73.42 0.0006208033    1.310    0.237
       168 -10.9522    205.4913    121.4710   4.5901611188e+01   1.5799618775e+01    0.2441148    0.2179846 -19.34 0.0005546442    1.066    0.062
       169 -10.3236     48.9581    122.5076   8.6718872248e+01   4.5508988714e+01     0.369402    0.1625476  70.59  0.001165833    4.392    0.772
       170 -12.3180     54.1225    117.2254   8.4235282619e+01   4.6179790079e+01    0.5318289    0.3068784  62.18  0.002410257    2.029    0.507
       171 -11.9147     49.0150    115.7495   8.5658346317e+01   4.7163714386e+01    0.4869363    0.3099775 -29.04  0.002270309    2.267    0.559
       172 -11.0191     42.2376    121.1073   8.8647475076e+01   4.6612574017e+01    0.2678677    0.2469743  85.69  0.001055753    1.053    0.050
       173 -10.8053     36.4791    120.5239   9.0401109345e+01   4.7358461035e+01    0.2693449    0.2275016  44.86  0.001117625    1.224    0.183
       174 -10.0888      1.8581    120.8697   1.0119737683e+02   5.0014014855e+01    0.1768714    0.1459568 -68.38  0.000651822    1.218    0.179
       175 -10.8116     24.3002    119.6597   9.4162792877e+01   4.8699616807e+01    0.2833193    0.1474817  81.61  0.001338492    2.032    0.508
       176 -10.1033     23.4066    115.7319   9.4013050828e+01   4.9732217268e+01    0.1954722    0.1426845 -74.34  0.001151037    1.204    0.169
       177 -12.1327    100.9194    119.7946   7.0178841674e+01   3.8237683307e+01    0.6564181    0.2833003  54.27  0.002172424    3.097    0.677
       178 -10.8987     31.5186    119.0871   9.1801336726e+01   4.8193814422e+01    0.2531828     0.161271  48.85  0.001069538    1.557    0.358
       179 -11.1444    155.6949    117.4291   5.5134973319e+01   2.7344571187e+01    0.2946044     0.145875  51.67 0.0007682917    2.083    0.520
       180 -11.0366    105.4709    114.9982   6.7752744999e+01   3.8480936027e+01    0.2491012     0.219089   9.68  0.001053444    1.326    0.246
       181 -10.8711    108.5668    112.7671   6.6319988831e+01   3.8385485466e+01    0.3093791    0.1955011 -52.65  0.001360712    1.624    0.384
       182 -10.6761     82.9671    114.5192   7.4476613668e+01   4.2639690781e+01    0.3376087    0.2250403  86.41  0.001465608    2.051    0.513
       183 -11.2703     70.4730    114.6764   7.8482750742e+01   4.4567189487e+01    0.2823323    0.1837756 -44.76  0.000584799    1.680    0.405
       184 -11.5904    191.6970    112.1960   4.6219936453e+01   2.0273046528e+01     0.414065    0.2770338  15.75 0.0006422719    2.024    0.506
       185  -9.6063     30.3024    113.3250   9.1469596783e+01   4.9720794277e+01     0.132569   0.09013727 -44.84 0.0003213475    1.639    0.390
       186 -11.8198     53.5034    110.8465   8.3346545893e+01   4.7828705789e+01    0.2991152    0.2615785  87.92 0.0007299337    1.086    0.079
       187 -11.3436     50.3926    107.4900   8.3804719034e+01   4.9038957679e+01    0.2874581    0.2296877 -28.52  0.001210264    1.518    0.341
       188 -10.3702    242.0358    111.3079   3.7717415570e+01   1.0088879041e+01    0.1768551    0.1611166  19.23 0.0004886769    1.150    0.131
       189 -10.7671    160.2437    108.1902   5.1743000782e+01   2.8102828908e+01    0.2490699    0.1963865  -8.74  0.001173505    1.528    0.346
       190 -10.1698     91.9825    108.0152   7.0186850711e+01   4.2622768235e+01    0.1794047    0.1734136  75.04 0.0003915197    1.007    0.007
       191 -12.0387     56.7083    106.6016   8.1482492388e+01   4.8467149216e+01     0.395184    0.2357673  63.63   0.00176142    2.078    0.519
       192  -9.9562    217.5118    107.5849   4.0563964085e+01   1.5475310232e+01    0.1370882    0.1281686 -15.84 8.454211e-05    1.031    0.030
       193 -11.2714    153.0566    107.1739   5.3139176716e+01   2.9947837930e+01    0.2577994    0.1835779  75.71  0.001091341    1.950    0.487
       194  -9.8913    155.6768    103.3170   5.1506117980e+01   3.0092565054e+01    0.1568178    0.1241352 -83.72 0.0003045001    1.667    0.400
       195 -10.1184    117.1083    103.3545   6.1480899836e+01   3.8742502868e+01    0.2456068    0.1928848  24.93  0.001018247    1.449    0.310
       196 -11.6400     79.1895    101.0295   7.2663979538e+01   4.6498048153e+01    0.3490666    0.2789563  72.66  0.001288995    1.409    0.290
       197 -12.5008     57.7887     99.7744   7.9748225017e+01   5.0004776062e+01    0.4914707    0.3508248 -63.62  0.002397352    1.317    0.241
       198 -10.8664     60.1568     95.9076   7.8077347345e+01   5.0631281204e+01    0.2771127    0.2012299  43.75 0.0009806295    1.425    0.298
       199 -10.1483     90.6667     99.3564   6.8481039570e+01   4.4891213585e+01    0.1597082     0.117033  79.46 0.0007043186    1.795    0.443
       200  -9.9772    237.8199     98.6181   3.5407681286e+01   1.2668987656e+01    0.1646589    0.1300995  74.71  0.000204493    1.637    0.389
       201 -10.6764     21.6624     97.8626   9.2404993281e+01   5.4257308331e+01    0.3296484    0.1874547  -0.73  0.001591924    2.532    0.605
       202  -9.9277    197.3934     96.2532   4.1150187882e+01   2.1645908628e+01    0.1964614    0.1316609 -42.18 0.0002506209    1.481    0.325
       203 -11.0938    149.9774     95.9543   5.0837328704e+01   3.2853716751e+01    0.2348183    0.2309318  58.06 0.0004429141    1.022    0.021
       204 -11.2390     54.2142     92.6544   7.9521976675e+01   5.2218502023e+01     0.246428    0.2067811  70.86 0.0008959215    1.272    0.214
       205 -11.6355     59.7757     92.1378   7.7365670220e+01   5.1602679801e+01    0.3444414    0.1931929  39.82  0.001567274    1.835    0.455
       206 -11.2857    114.0049    233.0294   8.4127567146e+01   1.3435586774e+01    0.2240847    0.1677923  70.68 0.0003290426    1.553    0.356
       207 -10.1469    104.7004     91.3481   6.1881718852e+01   4.3987270269e+01    0.1578187    0.1223333  89.20 0.0004478012    1.685    0.407
       208 -10.1460     21.5086     91.5160   9.1568936243e+01   5.5830115456e+01    0.1296087    0.1120735 -76.00 9.836292e-05    1.002    0.002
       209 -10.7646      3.7270     88.8307   9.7884973855e+01   5.7597048044e+01    0.3955108     0.128593 -65.58  0.001506142    2.331    0.571
       210 -10.2275     95.0832     89.4844   6.4403893577e+01   4.6330281465e+01    0.2221797    0.1490273  41.29 0.0003867046    1.497    0.332
       211 -13.2955     53.3855     85.0145   7.8097403654e+01   5.4186326433e+01    0.8238786    0.5384507  71.15  0.003795497    2.082    0.520
       212 -12.6121     51.1516     79.3824   7.7604170220e+01   5.5830912675e+01    0.7400125    0.2139354  39.69  0.002520144    3.545    0.718
       213 -11.1527    208.0746     86.9965   3.6974693653e+01   2.0682357226e+01    0.2181394    0.2062667  40.80  0.001259371    1.105    0.095
       214 -11.9139     45.4724     86.6421   8.1514329277e+01   5.4755599704e+01    0.2525305    0.1938908  87.18 0.0009908631    1.427    0.299
       215  -9.9988     11.7431     86.9985   9.4649379440e+01   5.7601174582e+01    0.1667441    0.0934735 -74.62 0.0004303863    1.507    0.336
       216 -10.9733    171.4801     83.4934   4.2584859973e+01   2.9940143748e+01    0.4138935    0.2378458  -0.37 0.0007044299    4.376    0.771
       217 -10.9091     62.3431     83.0132   7.4180287276e+01   5.3437894878e+01    0.2102135    0.1800802 -57.46  0.001158439    1.104    0.095
       218 -11.0806    212.3022     81.2237   3.4836341738e+01   2.0598735630e+01    0.3690872    0.2410189  14.30   0.00133052    2.279    0.561
       219 -10.6147    153.1263     80.3140   4.5585394583e+01   3.5039402504e+01    0.2524933    0.2151091 -21.35 0.0005045565    1.262    0.207
       220 -10.6899     21.9530     80.4882   8.9651088623e+01   5.8499792304e+01    0.2056248    0.1509495 -70.62 0.0004418855    1.184    0.155
       221 -10.7304    207.5287     79.2942   3.5062916989e+01   2.1978744674e+01    0.2866757    0.2327888  16.30  0.000832212    1.436    0.304
       222 -10.5678     88.0051     78.9739   6.3701664323e+01   5.0055492603e+01    0.2368246    0.2338686 -36.25  0.001320767    1.006    0.006
       223 -10.4494    183.3590     77.1294   3.8512695177e+01   2.8087258137e+01    0.2765377    0.2030144  45.06  0.001323763    1.405    0.288
       224 -10.8243    112.0074     76.2894   5.5109500215e+01   4.5642384977e+01    0.2904051    0.2617788   6.51 0.0008488094    1.221    0.181
       225 -10.9008    115.5229     74.9579   5.3640499195e+01   4.5118593126e+01    0.3464032    0.2618926  -2.66   0.00135981    1.804    0.446
       226 -11.2344     75.1246     75.5094   6.7265898417e+01   5.3165406409e+01    0.2703612    0.2563129   3.05 0.0006321908    1.103    0.093
       227 -11.6419     30.6825     74.6679   8.4924222573e+01   5.9193430615e+01    0.2395074     0.172381 -52.56  0.001338254    1.248    0.199
       228 -11.5934     33.7059     73.6568   8.3425090594e+01   5.9155654785e+01     0.205593    0.1635674 -18.10 0.0005630704    1.436    0.304
       229 -10.6417     50.8793     74.1232   7.6364948238e+01   5.7121160012e+01    0.2064836    0.1866969  75.22 0.0005005126    1.214    0.176
       230 -12.2153     29.0009     79.9264   8.6682448695e+01   5.8064275163e+01    0.3428031    0.1946727  37.94   0.00167919    1.904    0.475
       231 -10.4667     94.4884     72.0051   5.9292506408e+01   5.0295721510e+01    0.2278402    0.1481894 -45.65 0.0004547928    1.532    0.347
       232 -11.5726    100.5356     69.5723   5.6489651378e+01   4.9539812932e+01    0.5247584    0.2054431 -38.64  0.001761191    2.775    0.640
       233 -10.6801    101.5206     63.4823   5.4084325884e+01   5.0557508504e+01    0.2592063    0.1918983 -15.44 0.0006539106    1.685    0.407
       234 -11.2047    197.8019     66.5604   3.3142916276e+01   2.6192389421e+01    0.4343355    0.2761532  28.78  0.001870007    2.146    0.534
       235  -9.8755    188.5841     65.7967   3.4398975695e+01   2.8575670869e+01     0.230886    0.1254189 -43.77 0.0009561921    1.824    0.452
       236 -11.9194    177.7702     64.7035   3.5933498309e+01   3.1464300499e+01    0.3037165    0.2515286 -27.04 0.0005332177    1.240    0.194
       237 -13.0983     31.8451     64.8441   8.2171311143e+01   6.1440136328e+01    0.7086859    0.3164984  43.08  0.003068487    2.652    0.623
       238  -9.9472    113.7746     62.8736   5.0101993801e+01   4.7891057268e+01    0.2045484    0.1798217 -80.46 0.0003337079    1.313    0.238
       239 -10.7793     46.0005     60.9834   7.4741718269e+01   6.0800592771e+01    0.2262815    0.1531157 -26.68 0.0007319006    1.694    0.410
       240 -10.6199      3.8801     59.1452   9.3932876087e+01   6.4704206719e+01    0.2378625    0.1707607  -8.28  0.001215236    1.638    0.389
       241  -9.9478    166.0178     58.4852   3.6202544845e+01   3.5455576478e+01     0.223185    0.1491799  61.33 0.0006632055    1.484    0.326
       242 -11.8212     52.3895     56.5903   7.0496433063e+01   6.0952638730e+01    0.6155151    0.2490263  47.86  0.002189274    3.514    0.715
       243 -10.2703    153.5070     57.4997   3.8372070682e+01   3.8868635650e+01    0.1535529    0.1495569  57.49 2.324156e-05    1.021    0.020
       244 -10.5297     27.9870     55.0213   8.1432989645e+01   6.4093070204e+01    0.2066635    0.1527778  67.77  0.001139762    1.749    0.428
       245  -9.6405    208.4125     54.5590   2.8345033962e+01   2.5331844275e+01    0.1383566    0.1321989 -40.28 2.823605e-05    1.051    0.048
       246 -10.0547    112.3325     52.6901   4.6856380997e+01   5.0097421321e+01    0.1553748    0.1220542 -79.85 0.0007042519    1.672    0.402
       247 -10.0815     94.7834     51.3978   5.1863959201e+01   5.4356018127e+01    0.2214295    0.1356002  37.02  0.000953019    1.717    0.418
       248 -11.2351     45.4910     49.9168   7.1388693745e+01   6.3340871365e+01    0.2478293    0.1849813  48.47 0.0007709818    1.599    0.375
       249 -10.1922     30.5935     50.4916   7.8849873599e+01   6.4887456970e+01    0.2439616    0.1286997  23.78  0.001188952    2.091    0.522
       250 -10.3604     18.3055     49.0582   8.4692221304e+01   6.6243383641e+01    0.1832022    0.1425367 -58.87 0.0003775046    1.111    0.100
       251 -10.7109      1.5588     47.6676   9.3059936941e+01   6.7477779420e+01     0.237118   0.09012752 -66.34 0.0007923882    2.011    0.503
       252 -11.4314    196.0325     44.6607   2.7244124124e+01   2.9713638229e+01    0.4846914    0.2783563 -79.24  0.001375884    2.407    0.585
       253 -10.0973    122.4960     41.5098   3.9864805996e+01   4.9427585263e+01    0.1515265    0.1459851  52.43 -9.96832e-05    1.013    0.013
       254 -11.3759     34.5209     39.9316   7.3293293429e+01   6.6804679406e+01      0.49677      0.22815  21.09  0.002194281    2.574    0.612
       255 -11.9893     55.3560     37.4262   6.1839788106e+01   6.4504587264e+01    0.4203212    0.3020815   4.14  0.001331223    1.656    0.396
       256 -11.0507     10.0442     36.9285   8.5925226428e+01   6.9514617213e+01    0.2458246    0.1694931  -0.88  0.001206229    1.623    0.384
       257 -10.0972    169.5950     35.8431   2.8410074254e+01   3.7747859724e+01    0.2176373    0.1269658 -42.09 0.0006525287    1.703    0.413
       258 -11.8119     31.7064     32.1748   7.1811385442e+01   6.8735177319e+01       0.4287    0.2303869 -42.94  0.002172404    1.639    0.390
       259 -10.3773     43.9084     33.5363   6.5796352898e+01   6.6954918186e+01    0.1938745    0.1281933  28.56 0.0006682047    1.584    0.369
       260 -11.5282     77.8106     31.1759   4.9442609637e+01   6.1502128682e+01    0.2480004    0.2173511 -80.31 0.0007318414    1.509    0.337
       261 -10.9413    155.9894     30.9929   2.9023781877e+01   4.2020827796e+01    0.2266607    0.2163617 -89.18 0.0003680651    1.022    0.021
       262  -9.5776    232.2791     30.7082   1.9539021585e+01   2.2744305382e+01    0.1360041   0.08477055 -56.57 0.0002018098    1.527    0.345
       263 -10.4201     71.6750     29.6818   5.1160999046e+01   6.2985563286e+01    0.1464844     0.104698   8.30 0.0006206637    1.674    0.403
       264  -9.5078    179.3197     28.2690   2.4620871743e+01   3.6105717010e+01    0.1451309    0.1059022  39.88 0.0002220969    1.562    0.360
       265 -11.0319    106.6010     32.0995   4.0352191602e+01   5.4815022230e+01    0.3133776    0.2552524 -28.70 0.0009924424    1.272    0.214
       266  -9.8516    119.1226     25.8479   3.4503641505e+01   5.2506996314e+01    0.2043557     0.165303  28.93 0.0003348413    1.299    0.230
       267 -11.5764     84.8437     24.3104   4.3667818163e+01   6.1045088587e+01    0.3684069    0.2794136  73.30  0.001792777    1.699    0.411
       268  -9.9314     20.6920     22.6850   7.4402248480e+01   7.1763730676e+01    0.1316901   0.07926419 -28.11 0.0007028604    1.629    0.386
       269 -10.8434     99.8196     19.0961   3.6557287881e+01   5.8232348678e+01    0.2018928    0.1596297  22.99 0.0005066863    1.313    0.238
       270 -10.4881    238.0430    248.8408   6.3613100274e+01  -5.8419115567e+00    0.1732153    0.1244328  -1.48 0.0008723089    1.246    0.197
       271 -10.6268    215.8307     15.6473   1.7122974681e+01   2.8250391403e+01    0.2042313    0.1797267 -20.08 0.0005505429    1.272    0.214
       272 -11.3023     83.2190    243.5332   9.1087729325e+01   1.5991392424e+01    0.3261899    0.1717112 -69.77  0.001236458    2.396    0.583
       273 -11.1225    179.7327    244.6673   7.2963171167e+01   2.3123707897e+00    0.1914965    0.1476385  32.40 0.0003686263    1.154    0.133
       274  -9.9035    115.5372    245.4941   8.5058983233e+01   1.1332791761e+01    0.1168884     0.085955  41.97 4.349039e-05    1.009    0.009
       275 -10.4871    214.0664     10.5054   1.5918705046e+01   2.9207460194e+01    0.1993349    0.1235223  80.00  0.001028027    1.576    0.366
       276 -10.3990     40.6928     10.3580   5.5740423259e+01   7.1526194439e+01    0.1172164    0.1036265 -70.02 0.0007041115    1.728    0.421
       277  -9.8803    103.6858    245.3305   8.7311538727e+01   1.2989504869e+01    0.1183143   0.06780892  56.48 0.0002527824    1.678    0.404
       278 -10.0249    133.5376    240.9526   8.1145503227e+01   9.4368458147e+00    0.1367837    0.1187446 -55.93  0.001014916    1.546    0.353
