#   1 NUMBER                 Running object number                                     
#   2 MAG_AUTO               Kron-like elliptical aperture magnitude                    [mag]
#   3 X_IMAGE                Object position along x                                    [pixel]
#   4 Y_IMAGE                Object position along y                                    [pixel]
#   5 X_WORLD                Barycenter position along world x axis                     [deg]
#   6 Y_WORLD                Barycenter position along world y axis                     [deg]
#   7 A_WORLD                Profile RMS along major axis (world units)                 [deg]
#   8 B_WORLD                Profile RMS along minor axis (world units)                 [deg]
#   9 THETA_WORLD            Position angle (CCW/world-x)                               [deg]
#  10 FWHM_WORLD             FWHM assuming a gaussian core                              [deg]
#  11 ELONGATION             A_IMAGE/B_IMAGE                                           
#  12 ELLIPTICITY            1 - B_IMAGE/A_IMAGE                                       
         1 -12.8459    160.6270    101.0040   3.8176806418e+01   2.9439474229e+01     2.306818    0.7744523 -43.31  0.003965907    3.074    0.675
         2 -14.4953    242.8543     18.9907   6.3033276604e+00   2.2796200866e+01     4.215865     2.925419  80.11   0.02740606    1.515    0.340
         3 -11.8514    140.2255     41.7341   2.4938167405e+01   4.4206853759e+01    0.4404903     0.423704 -46.41  0.002507142    1.089    0.082
         4 -13.0059    250.0735     42.4022   1.0835676891e+01   1.8857749306e+01     1.603607    0.7871247 -12.81  0.006964258    3.370    0.703
         5 -16.3591    235.8811     94.0774   2.3668851361e+01   1.4992371702e+01     6.049776     5.059863 -13.55   0.03888949    1.166    0.143
         6  -9.3133    189.6994     14.7356   9.5130443763e+00   3.4921395244e+01    0.2751097    0.1718958 -51.21 0.0008116931    1.513    0.339
         7  -9.9524    213.8278      1.7463   4.2710432942e+00   3.0584788996e+01    0.5031263     0.159399  80.59  0.001620941    3.267    0.694
         8  -8.5731    196.5037      2.0227   5.5527552100e+00   3.4522022014e+01    0.1622758    0.1045498  19.87 0.0008080245    2.403    0.584
         9  -7.9776    235.6546    205.2934   4.5407148301e+01   2.1240605921e-01   0.09561395   0.08810923  22.68 0.0007029953    1.664    0.399
        10  -9.9811    249.9964    249.2280   4.9824043675e+01  -6.0805649922e+00    0.2257988    0.1274809  -8.59  0.001626947    1.485    0.327
        11 -10.4597    203.9015    201.3860   5.0287084956e+01   4.9705775999e+00    0.2756291    0.2097587  -0.05 0.0006874636    1.122    0.109
        12 -10.9556    192.8674    194.6816   5.1240046087e+01   7.5206133147e+00     0.816324    0.4601079 -60.06  0.002888215    5.986    0.833
        13  -9.1672    120.0056    196.9069   6.7272887716e+01   1.8439508729e+01    0.1892462    0.1636085  31.24 0.0003871591    1.025    0.024
        14 -12.9929    178.5392     93.0190   3.2436059371e+01   2.6844988388e+01     1.272931       0.7159 -19.79 0.0009084273    2.372    0.578
        15 -13.8057    211.0152    175.5888   4.4455999438e+01   7.5152067849e+00     2.691247     1.564005  31.30   0.01138995    1.607    0.378
        16  -8.6553    104.9810    247.2901   7.6363207187e+01   1.1978282820e+01    0.1604236    0.1140554  33.52 0.0002795108    1.059    0.056
        17  -8.8883     30.1378    242.0802   9.1294168901e+01   2.1410181990e+01    0.1448523    0.1249357  40.29 0.0002909236    1.238    0.192
        18  -9.7164    168.5007    155.4980   4.8976732755e+01   1.7879711733e+01    0.1408584    0.1263954  13.89 -9.415489e-06    1.014    0.014
        19 -10.2422    134.6215    148.9072   5.5572929920e+01   2.5393360789e+01    0.8269043    0.2771895 -53.24  0.002615199    3.876    0.742
        20 -10.3119    132.6307    139.2299   5.4079191636e+01   2.7752293521e+01    0.5382624     0.189865 -53.44  0.001699499    3.673    0.728
        21 -10.8677    173.4831    149.2027   4.6617976254e+01   1.8076060270e+01    0.3488444    0.2561813 -20.74  0.001827045    1.430    0.300
        22 -12.1532      2.1419    137.8092   9.2856693101e+01   4.5495656421e+01    0.9997696    0.2290381 -81.13  0.003481921    3.947    0.747
        23 -13.1779     13.0197    133.5129   8.9248986485e+01   4.5821795063e+01     1.558551     1.344295 -69.97   0.01012721    1.152    0.132
        24 -12.7069     59.0025    124.9613   7.3180361480e+01   4.3377159892e+01     1.790349     1.231679  39.48   0.00903993    1.411    0.291
        25 -12.2335     46.6610    130.1205   7.8053965063e+01   4.3598167034e+01    0.6522351    0.4324916 -74.87  0.001660011    1.507    0.337
        26 -12.9089     39.1435    129.7330   8.0467234325e+01   4.4502960244e+01    0.8699633     0.668905 -87.61  0.002587106    1.282    0.220
        27 -12.3674     31.0673    131.3698   8.3297204719e+01   4.4884450674e+01    0.5621576    0.4659698   8.78  0.001435599    1.383    0.277
        28  -9.1600    250.5759    171.9158   3.7265140679e+01   2.3141703646e+00    0.1695976   0.09440733 -26.87 0.0004391572    1.543    0.352
        29 -11.2714     42.9813    124.2986   7.8456362568e+01   4.5448613356e+01     0.326114    0.2751018  33.67 0.0003428774    1.202    0.168
        30 -11.8906    143.0638    123.9594   4.8014984101e+01   2.8798674860e+01    0.5922791    0.5312723  39.40  0.003190362    1.083    0.077
        31 -11.4580    141.2053    117.7213   4.6985680120e+01   3.0435557491e+01    0.4569597    0.3772533  28.17  0.001388522    1.210    0.174
        32 -12.6660    135.9968    123.9978   4.9809196907e+01   3.0233926944e+01     1.534824    0.6813883 -48.77  0.005714624    2.452    0.592
        33 -10.9395    135.1874    103.5251   4.4924810919e+01   3.4580285757e+01    0.5161085    0.3885155 -34.10  0.001665403    1.395    0.283
        34 -12.8588    249.1831     61.2861   1.4988542553e+01   1.6795090538e+01    0.6078467    0.3394968 -34.79  0.001125391    1.487    0.328
        35 -10.5929    246.1716    185.6980   4.0393050098e+01   1.2110658334e+00    0.2086807     0.167946  10.95 0.0003849244    1.195    0.163
        36 -10.9063    174.6234    128.5439   4.1875920215e+01   2.1509971388e+01    0.4282062    0.2630676 -50.63  0.001939431    1.934    0.483
        37  -7.3858     63.5475    181.4707   7.9366888878e+01   2.9549933029e+01    0.1292955    0.1162149  47.16 0.0001424466    1.052    0.049
        38 -10.6585    134.8684    111.6385   4.7098232681e+01   3.3003081107e+01    0.6191596    0.2048134 -43.75  0.001979702    3.128    0.680
        39 -11.4224     67.3900    143.7004   7.3497922059e+01   3.7700172462e+01    0.8687903    0.4166426  51.10  0.003536725    2.279    0.561
        40 -13.2234    247.7401     68.2564   1.6640729917e+01   1.6200066593e+01    0.7902371    0.3852233 -31.66  0.002808548    1.748    0.428
        41  -7.8372     91.2877    119.6745   6.1628477988e+01   3.9741975206e+01    0.1512761    0.1161959  73.06 0.0002456976    1.609    0.378
        42 -10.7386    127.1760    112.0045   4.9234314760e+01   3.4543949139e+01    0.4359612    0.2647202 -34.25  0.001542863    1.862    0.463
        43 -11.8682    125.3310    104.2365   4.7746317970e+01   3.6559103173e+01    0.7152799    0.5474297  73.49  0.002869559    1.715    0.417
        44 -10.9795    150.3425    108.6273   4.2488638274e+01   3.0274252457e+01    0.3751901    0.3538561   3.97 0.0008760428    1.054    0.052
        45 -10.2360    143.5492    109.8352   4.4440298481e+01   3.1509229843e+01    0.2574436    0.1786941  48.89 0.0009028158    1.437    0.304
        46 -10.0240    112.8597    104.4688   5.1364085099e+01   3.9113239175e+01    0.3207199    0.2040252 -30.42  0.001338857    1.915    0.478
        47 -10.5002    144.2661     99.8222   4.1655541374e+01   3.3308054548e+01    0.3389601    0.3001997 -75.43 0.0008084101    1.324    0.245
        48  -8.9007    116.7262     92.4547   4.6973186789e+01   4.0863972333e+01    0.2153563    0.1446713  32.67   0.00093425    1.577    0.366
        49 -10.0962    195.8768     90.9135   2.8810130504e+01   2.3400755069e+01    0.2445023    0.1950561 -42.49 0.0007112116    1.226    0.184
        50 -11.3317    199.1525    163.3714   4.4326392764e+01   1.1223703416e+01    0.7261871    0.5694095 -78.76  0.003719305    2.596    0.615
        51  -9.5196    126.8753     81.6245   4.0972971358e+01   4.0777336376e+01    0.3268999    0.2180108 -51.33  0.000717802    1.661    0.398
        52 -12.2650    193.4994    165.6049   4.5841948611e+01   1.1819083208e+01      1.09244    0.6525647 -60.25  0.004403236    3.760    0.734
        53  -9.3496    202.0115     76.6454   2.4279280643e+01   2.4233538561e+01    0.2086558    0.1727776 -45.61 0.0002851333    1.163    0.140
        54  -8.0115     88.5174     77.6032   5.1612521215e+01   4.9864012297e+01    0.1500008    0.1430212  28.35 0.0001008438    1.023    0.022
        55 -12.9135    200.1719     98.8447   3.0029773222e+01   2.1260368842e+01     1.795912    0.3066847  49.01  0.004907909    5.502    0.818
        56 -10.9054    191.6943    144.1480   4.1858584757e+01   1.5584295540e+01     0.600827    0.3249755 -19.44  0.002235999    2.435    0.589
        57 -10.2082    193.9402     67.3513   2.3114651258e+01   2.7375603868e+01    0.3931832    0.3036762  39.96  0.001508242    1.430    0.301
        58 -12.0130    191.1114    156.4319   4.4500878203e+01   1.3687880267e+01    0.7047567    0.3859524 -36.91  0.003023695    1.832    0.454
        59  -9.2048    106.1927     63.2574   4.1059782246e+01   4.9021290560e+01    0.5906383    0.1255085 -37.34  0.001401195    5.736    0.826
        60 -10.9361    218.4593     62.2774   1.8528161406e+01   2.2715476050e+01    0.3301262    0.2803005 -49.19  0.001158237    1.091    0.084
        61 -11.2442    177.8243    170.4835   4.9917786648e+01   1.3674663324e+01    0.4253886    0.2211801 -42.28  0.002001629    2.083    0.520
        62 -11.5955    167.9223     58.3872   2.4886186566e+01   3.4836176149e+01     0.543332    0.4052808 -71.43   0.00267708    1.578    0.366
        63 -12.1819    154.9207     48.8546   2.4375244193e+01   3.9459878567e+01    0.7743805    0.4568738 -84.52   0.00294992    2.746    0.636
        64  -9.4729    139.0248     58.4713   3.0712751996e+01   4.1981371593e+01    0.2245137    0.1437538  55.22 -2.582872e-05    1.498    0.333
        65 -10.0880    199.7866     49.4975   1.7643452467e+01   2.8491398410e+01    0.3593022    0.2227485 -14.98  0.001087656    2.016    0.504
        66  -8.7181    174.2671     50.3614   2.1501030708e+01   3.4431762096e+01    0.1418409    0.1096075  18.97 0.0003482756    1.644    0.392
        67 -10.6753    187.5419    152.4757   4.4403479942e+01   1.4962726665e+01    0.3710371    0.2635223 -13.30  0.000689959    1.501    0.334
        68  -9.1829    206.7072     47.1775   1.6201703484e+01   2.7221852717e+01    0.2366044    0.1807933  62.10 0.0006085734    1.366    0.268
        69 -10.1719    184.9501     55.5516   2.1311274978e+01   3.1136511762e+01    0.4990693    0.2483725 -21.34  0.001571281    2.500    0.600
        70 -10.1188    243.4713    228.5329   4.7819552478e+01  -3.3144091412e+00     0.222037    0.1109791  35.86  0.001248523    2.078    0.519
        71  -9.1458    123.4481     41.4472   2.8566291567e+01   4.8515595259e+01    0.1491886    0.1384032  46.06 0.0001771132    1.036    0.034
        72  -8.6782    176.9502     39.6937   1.8027352504e+01   3.5188291422e+01    0.1920669    0.1684908  80.16 0.0002297255    1.105    0.095
        73  -9.9873    185.5418    169.1608   4.8093917155e+01   1.2588160447e+01    0.2441689    0.1270134 -41.54  0.001151182    2.064    0.516
        74  -9.6652    168.8341     36.1737   1.8173539875e+01   3.7652281025e+01    0.2186452    0.1840468 -67.41 0.0006572936    1.190    0.159
        75  -8.8904     40.6235     34.6289   5.7023926577e+01   6.6932382839e+01    0.2669616    0.1150142 -44.18  0.001131955    2.206    0.547
        76 -10.2967    185.0397     49.3909   1.9604013132e+01   3.1956710008e+01    0.2720837    0.2137717 -41.36 0.0003739063    1.230    0.187
        77  -8.6129    193.4808     32.7164   1.3969861203e+01   3.2042042558e+01    0.1690935    0.1305415 -10.97 0.0009245797    1.549    0.355
        78  -9.8563    184.3365     31.1753   1.4633797125e+01   3.4420326787e+01    0.2581747     0.216907  -7.14 0.0006485907    1.413    0.292
        79 -10.1819    221.1106     21.5229   8.4656481655e+00   2.7024239307e+01    0.2906109    0.2335243  -3.21  0.001154711    1.587    0.370
        80  -8.3514    246.2929    216.2897   4.5472952734e+01  -2.3259862869e+00    0.1113242   0.06441335   2.43 0.0002560007    1.548    0.354
        81  -8.4860    199.0000     21.9346   1.0527273379e+01   3.1957386893e+01    0.2074397   0.07093585 -26.92 0.0007976418    2.909    0.656
        82  -9.7676    221.5290    212.5308   4.8961672711e+01   1.1494826444e+00    0.2015219    0.1694655  16.35  0.000612229    1.328    0.247
        83  -9.0992    185.8546    208.5264   5.4870397193e+01   6.5686048606e+00     0.176056    0.1557474  27.33 0.0006091891    1.321    0.243
        84 -11.0871    164.8731    163.4877   5.1343980894e+01   1.7115201500e+01    0.4641881    0.3108545 -62.49  0.002161903    2.371    0.578
        85 -10.2360    214.5217    162.4637   4.1347621333e+01   8.8568729901e+00    0.4062798    0.2790509 -62.76   0.00191847    3.134    0.681
        86  -8.6819    240.4827    206.9783   4.4899551228e+01  -5.8567879060e-01    0.1292011   0.09398533 -46.31 0.0008084468    2.405    0.584
