#   1 NUMBER                 Running object number                                     
#   2 MAG_AUTO               Kron-like elliptical aperture magnitude                    [mag]
#   3 X_IMAGE                Object position along x                                    [pixel]
#   4 Y_IMAGE                Object position along y                                    [pixel]
#   5 X_WORLD                Barycenter position along world x axis                     [deg]
#   6 Y_WORLD                Barycenter position along world y axis                     [deg]
#   7 A_WORLD                Profile RMS along major axis (world units)                 [deg]
#   8 B_WORLD                Profile RMS along minor axis (world units)                 [deg]
#   9 THETA_WORLD            Position angle (CCW/world-x)                               [deg]
#  10 FWHM_WORLD             FWHM assuming a gaussian core                              [deg]
#  11 ELONGATION             A_IMAGE/B_IMAGE                                           
#  12 ELLIPTICITY            1 - B_IMAGE/A_IMAGE                                       
         1 -14.1303    217.1596      4.1755   4.1211132988e+01   2.9629504122e+01     2.006477     1.010404  69.99  0.005527495    1.851    0.460
         2 -15.1689    192.2849     33.8003   5.2385395020e+01   3.2648479297e+01     3.470177     2.032101  20.22   0.01362357    2.691    0.628
         3 -12.5872     48.9267    233.1211   1.2516858702e+02   2.1446802411e+01    0.2532308    0.1509842  75.84 0.0007717175    1.421    0.296
         4 -10.8711    248.9966    249.5691   9.2516883296e+01  -1.0532545380e+01    0.2335989    0.1329947  28.39   0.00153073    1.332    0.249
         5 -16.6798     70.7458    146.4569   1.1160504031e+02   3.6426728377e+01     8.567465     4.340399  74.98   0.03143148    3.657    0.727
         6 -10.7683     59.3688    228.7294   1.2308620295e+02   2.0948247003e+01    0.1680675    0.1111144  69.39  0.001161191    1.217    0.178
         7 -13.4495     58.4933    202.6216   1.2104909139e+02   2.5943863467e+01    0.4727473    0.3506251 -88.27  0.001822807    1.183    0.155
         8  -9.7246     44.1065    211.3044   1.2442922929e+02   2.5993401257e+01    0.2783184    0.1493287 -78.96  0.001718489    1.695    0.410
         9 -12.4797     50.1240    208.2884   1.2310198128e+02   2.5863942466e+01      0.39171    0.2536017  61.47  0.001668372    1.272    0.214
        10 -11.7631     39.4700    212.1691   1.2531782397e+02   2.6357787854e+01    0.2095004    0.1469492 -83.92   0.00142148    1.266    0.210
        11 -10.8212     30.9560    210.8176   1.2671997865e+02   2.7547635605e+01    0.1572816   0.09552902  60.74 0.0004218694    1.323    0.244
        12 -11.2739     53.5175    231.4688   1.2428532797e+02   2.1185129720e+01      0.20008    0.1408836  86.54 0.0009302763    1.238    0.192
        13 -10.7177     74.7523    206.9881   1.1837309688e+02   2.2966220703e+01    0.2830799    0.2683709 -48.44  0.001750131    1.489    0.329
        14 -11.5444     69.6489    208.7354   1.1951328353e+02   2.3316450930e+01    0.2165821     0.167273  80.60  0.000302191    1.103    0.093
        15 -12.5451    196.0027    197.8111   9.3144965875e+01   4.3099688388e+00     1.254577      1.02245 -89.39  0.006969151    2.014    0.503
        16  -9.0762     34.3094    205.5608   1.2576118168e+02   2.8193664372e+01    0.1172351   0.09441459  59.75 0.0006254368    1.245    0.197
        17  -9.7097     43.8856    220.1895   1.2512111091e+02   2.4356564605e+01    0.1749933    0.1150276 -61.22  0.001187884    1.826    0.452
        18 -10.4574     48.8071    217.2260   1.2404418823e+02   2.4328183285e+01    0.2583028    0.1577808  32.89  0.001359665    2.040    0.510
        19 -11.4084     96.3286    200.8160   1.1346749700e+02   2.1057069515e+01     0.462864    0.3281417 -33.56  0.001442378    2.280    0.561
        20 -10.6477     80.6043    194.6143   1.1588828653e+02   2.4591578381e+01    0.3711269    0.1903213  51.53  0.001938463    1.768    0.434
        21 -11.0686     97.7300    193.3853   1.1224897176e+02   2.2305201317e+01    0.3242437    0.2538861 -33.30  0.001637878    1.855    0.461
        22  -9.9641     44.5604    195.3401   1.2305721623e+02   2.9067564391e+01    0.1701837    0.1035213  55.40 0.0003680533    1.436    0.304
        23 -12.9964     68.4469    188.5334   1.1766876217e+02   2.7502467527e+01    0.6901124    0.5769212 -71.11  0.004660172    1.257    0.204
        24 -12.5342    149.3455    187.4208   1.0061524422e+02   1.4671225131e+01    0.4822336    0.3455562 -78.25  0.002435316    1.959    0.489
        25 -10.7239    154.9853    187.3016   9.9426806189e+01   1.3652291027e+01    0.2466711    0.1952267 -87.34  0.001222618    1.667    0.400
        26 -12.1015     98.9055    182.0200   1.1046161354e+02   2.4434403247e+01    0.5264503     0.347807 -55.13  0.001633487    1.595    0.373
        27 -18.0311     31.1841    243.1938   1.2862439797e+02   2.1740883488e+01     7.638443     3.552944  38.87   0.04898699    2.160    0.537
        28 -10.1018     71.9407    179.3334   1.1587535658e+02   2.8961643219e+01    0.2163584    0.1864955 -82.30 0.0006786393    1.122    0.109
        29 -10.7002     51.9775    226.9975   1.2422238254e+02   2.2164460061e+01    0.1682729   0.09863618  68.91  0.001099645    1.425    0.298
        30 -10.3768    204.2178    175.5420   8.7286858141e+01   6.2848757078e+00    0.3873674    0.1774815 -50.46  0.001443942    3.306    0.697
        31  -9.7193     65.9393    175.6782   1.1671694148e+02   3.0545403198e+01    0.1741233    0.1402486  62.42  0.000598917    1.151    0.131
        32  -9.6121     50.8865    172.6569   1.1959166371e+02   3.3072200337e+01    0.2457804    0.1035437  53.75  0.001067834    2.393    0.582
        33  -9.5084     47.3351    172.3323   1.2031178847e+02   3.3555830193e+01    0.2718366    0.1765346 -36.77  0.001456492    2.566    0.610
        34 -10.1694     42.4841    171.2907   1.2123105410e+02   3.4327899905e+01    0.2484553    0.1667724  41.36 0.0009484852    1.596    0.373
        35 -10.2219    163.4810    169.1468   9.4271173051e+01   1.5406331205e+01    0.2535821    0.2145332  80.61 0.0009992259    1.454    0.312
        36  -9.5365    200.9220    168.4859   8.6470919733e+01   8.0877378511e+00    0.2110287     0.132318  42.88   0.00101112    1.530    0.346
        37 -10.3782    230.4833    166.9660   8.0598322027e+01   2.6387880455e+00    0.1855546     0.113534 -52.92 0.0008101071    2.569    0.611
        38 -10.2667    192.7337    164.9113   8.7341763380e+01   1.0328433377e+01    0.2733401    0.2270195 -36.56 0.0007083821    1.262    0.208
        39 -19.1723     11.0323    102.7476   1.2081491454e+02   5.2610127786e+01     15.53882    0.6962312 -69.79   0.02785259   14.723    0.932
        40 -11.6042     58.6335    214.7741   1.2209201575e+02   2.3589043315e+01    0.2883519    0.1919007  56.85  0.000624209    1.242    0.195
        41 -10.7796    158.5875    161.9373   9.3876839138e+01   1.7767024532e+01     0.256804      0.19542  31.33 0.0007006488    1.348    0.258
        42 -12.7504     95.9770    153.7312   1.0670355211e+02   3.1023282195e+01    0.6546981    0.4968537 -26.21  0.003378812    1.871    0.465
        43 -10.7615    188.3854    154.9414   8.6069447359e+01   1.2989856092e+01    0.5298891    0.2512962  42.05  0.002130065    2.050    0.512
        44 -11.6924    133.8389    145.4035   9.6049621170e+01   2.6091276358e+01     1.231938    0.3051333 -53.78  0.003026808    5.712    0.825
        45 -10.1231    113.1333    151.2101   1.0214835825e+02   2.8687193790e+01    0.2804585    0.1829435 -83.98  0.001227504    2.146    0.534
        46 -10.6961    174.3918    148.5737   8.7583716398e+01   1.7112297356e+01    0.3811659    0.2752382 -59.49  0.001448389    1.715    0.417
        47 -10.8391    144.0475    146.6882   9.3937594127e+01   2.3788983444e+01    0.3443336    0.2172877 -63.27  0.001472018    1.993    0.498
        48 -12.1195    108.0992    139.5059   1.0107683025e+02   3.2195093358e+01    0.5360168    0.5032786 -15.14  0.003073469    1.238    0.192
        49 -12.5499     95.4630    139.3493   1.0421292706e+02   3.4372708576e+01    0.2918662    0.2803788 -20.93 0.0003873068    1.216    0.177
        50 -11.3123    135.8714    128.2127   9.1687113962e+01   2.9403596373e+01    0.5439707     0.193808 -48.70  0.001789273    2.841    0.648
        51 -11.2222    114.6507    130.0028   9.7403192897e+01   3.3159868169e+01     0.339549    0.2922916 -24.74 0.0007868084    1.334    0.250
        52 -10.1830    160.4148    127.2668   8.5646794868e+01   2.4366674997e+01    0.3848185    0.2554389 -59.57  0.001630369    1.864    0.464
        53 -11.1382    102.3969    125.8699   9.9654362467e+01   3.6303090367e+01     0.300319    0.2309127 -30.76 0.0008959235    1.528    0.346
        54 -11.2658    120.2782    123.4546   9.4459294361e+01   3.3564270704e+01    0.5493485    0.3072975 -25.37  0.001887265    3.241    0.691
        55 -11.2688    105.9741    130.8100   9.9799037926e+01   3.4546233532e+01    0.3847989    0.3073471 -68.99  0.001168258    1.268    0.212
        56 -10.1609    110.0487    119.0015   9.6064870194e+01   3.6500540385e+01    0.2148078    0.2054107 -57.67            0    1.012    0.012
        57 -10.1441    168.0257    112.9648   8.0248830467e+01   2.5530139499e+01    0.3655646    0.2554249 -79.14  0.001436348    2.370    0.578
        58  -9.3080    152.5217    119.9423   8.5633284809e+01   2.7614949458e+01    0.2351668    0.1515953 -42.18 0.0005842744    1.532    0.347
        59 -11.5919    118.7875    110.2908   9.1585417723e+01   3.6786588875e+01    0.5913814    0.3984266  63.77  0.002575429    1.927    0.481
        60 -10.2301    205.4698    110.1308   7.1799960130e+01   1.7347725934e+01    0.3237922    0.2180139  39.99 0.0009557058    1.555    0.357
        61 -11.8359     53.0827     90.6007   1.0585428048e+02   5.1671573897e+01    0.3366576    0.1889335 -51.10  0.001422159    1.489    0.328
        62 -11.3313     41.8563     91.7049   1.0964307961e+02   5.2627200702e+01    0.2346182    0.2092406 -68.90 0.0007587996    1.111    0.100
        63 -10.1622    187.2710     87.4205   6.9106770291e+01   2.5726207805e+01    0.3535716    0.2541887 -74.91  0.001492291    1.983    0.496
        64  -9.7842     68.9408     71.9025   9.5656607297e+01   5.3776553272e+01    0.2006111    0.1768757 -42.61 0.0002926925    1.059    0.056
        65 -12.0868    162.7715     63.5786   6.6896991275e+01   3.5947750386e+01    0.7127354    0.6096603 -32.46  0.002953313    1.156    0.135
        66  -9.3901    169.2518    236.9493   1.0433086000e+02   3.1876761195e+00    0.1537957    0.1358496  32.52 0.0004093961    1.112    0.101
        67 -13.3693    177.2574     48.2795   5.9236675102e+01   3.4600235402e+01    0.8191829    0.6991308  14.50 0.0009008775    1.291    0.225
        68 -11.2275     62.3889    236.3749   1.2315425574e+02   1.9235233128e+01    0.1963477    0.1377763  81.20  0.001430314    1.232    0.188
