#   1 NUMBER                 Running object number                                     
#   2 MAG_AUTO               Kron-like elliptical aperture magnitude                    [mag]
#   3 X_IMAGE                Object position along x                                    [pixel]
#   4 Y_IMAGE                Object position along y                                    [pixel]
#   5 X_WORLD                Barycenter position along world x axis                     [deg]
#   6 Y_WORLD                Barycenter position along world y axis                     [deg]
#   7 A_WORLD                Profile RMS along major axis (world units)                 [deg]
#   8 B_WORLD                Profile RMS along minor axis (world units)                 [deg]
#   9 THETA_WORLD            Position angle (CCW/world-x)                               [deg]
#  10 FWHM_WORLD             FWHM assuming a gaussian core                              [deg]
#  11 ELONGATION             A_IMAGE/B_IMAGE                                           
#  12 ELLIPTICITY            1 - B_IMAGE/A_IMAGE                                       
         1 -13.6212     55.2525    146.9440   1.0969442064e+02   3.8380610444e+01     5.370422    0.8926682 -65.24   0.01386175    5.658    0.823
         2 -14.8830     68.5512    144.2086   1.0563214020e+02   3.7379965486e+01     5.124149     2.195311  60.01  0.007801453    4.626    0.784
         3 -14.4539    200.0762     38.1637   4.5620877319e+01   3.0957055898e+01     1.889379     1.359721  29.85  0.007054337    1.852    0.460
         4 -14.4440    211.3974     26.5804   4.1265439410e+01   2.9701851584e+01      1.26346    0.9889031   5.15  0.003878218    1.782    0.439
         5 -12.3582      2.3791     21.8719   1.0080866748e+02   7.0998087154e+01    0.6596758    0.1011671 -52.15  0.002540792    3.756    0.734
         6 -12.6453      2.4121      3.2729   9.2726416251e+01   7.4106695625e+01    0.6151701    0.4007271 -19.42  0.004374206    1.162    0.140
         7 -12.5672    237.5906      3.1643   3.3484283259e+01   2.6388334184e+01    0.5929098    0.3309713  62.89  0.003101574    1.859    0.462
         8 -12.0327    233.1912      2.4018   3.3632808648e+01   2.7418971225e+01    0.3987172    0.2101781  78.19   0.00145553    1.772    0.436
         9 -14.0372     53.5265    190.6463   1.1555469789e+02   2.8244819629e+01     2.056629     1.228297  82.25   0.01087717    1.733    0.423
        10 -11.7645    139.9144    249.6349   1.0433158887e+02   4.3678432825e+00    0.3350668    0.2144467  51.54   0.00198336    1.504    0.335
        11 -13.5595     50.2053    220.2050   1.1895507632e+02   2.2328665471e+01     1.799904     1.421877 -79.24   0.01244598    1.263    0.208
        12 -15.3533     85.6367    224.0605   1.1220213641e+02   1.6956275723e+01     5.486547     1.274164  41.48 0.0005861626    3.332    0.700
        13 -13.8892     68.4209    243.1158   1.1732830369e+02   1.5650741060e+01    0.6287821    0.4655338  63.72  0.001778196    1.100    0.091
        14 -15.7277     41.9501    249.6585   1.2255958799e+02   1.7671037746e+01     10.25548     2.821367  28.33   0.02239206   16.292    0.939
        15 -12.5195    196.0927    197.3997   8.4897869456e+01   3.8801093071e+00     1.215076    0.9114787  73.14  0.005922059    2.436    0.589
        16 -10.9757    112.1559    197.5113   1.0315725053e+02   1.8388173731e+01    0.3108779     0.219602 -40.09  0.001619717    1.706    0.414
        17  -9.1507     92.4839    184.5028   1.0581259988e+02   2.4331844142e+01    0.1370833    0.1249979  74.08 0.0008104679    1.003    0.003
        18 -14.7355     10.4596    206.3609   1.2570487030e+02   2.9340933569e+01     0.686437    0.6154141  26.42  0.002540746    1.572    0.364
        19 -11.0092    145.2877    180.5509   9.2719685899e+01   1.6240936189e+01    0.3130783    0.2905417  63.93  0.000982366    1.143    0.125
        20 -10.4917     99.4092    180.6547   1.0358871194e+02   2.4129284737e+01    0.2385865    0.2336367 -76.88 0.0005512533    1.109    0.098
        21 -10.4045     43.0017    179.9977   1.1683864083e+02   3.1877783832e+01    0.2071725    0.1659893  49.80 0.0003310793    1.264    0.209
        22 -10.2147     46.4235    177.2094   1.1575681859e+02   3.2140824717e+01    0.2559362    0.2120528 -76.48 0.0008256331    1.126    0.112
        23  -9.6505    150.2968    178.4560   9.1173497048e+01   1.5754007300e+01    0.2325566    0.1782637 -75.54 0.0007128913    1.728    0.421
        24 -12.1599     68.5584    175.7273   1.1032286658e+02   2.9770792827e+01    0.4024178    0.2737728 -36.05  0.002037461    2.021    0.505
        25 -12.1378     72.9058    170.7971   1.0859157288e+02   3.0345241313e+01    0.3692161    0.2852669 -40.98  0.000871368    1.545    0.353
        26  -9.6583    204.5253    176.2739   7.9040446221e+01   6.0645916155e+00    0.2658969    0.1324501 -43.29  0.001136866    2.076    0.518
        27  -9.7977    197.1189    176.1977   8.0521349137e+01   7.4330059324e+00    0.2307298    0.1861168   5.03  0.001242539    1.246    0.197
        28  -9.8154    188.1785    174.6583   8.2058859032e+01   9.3806370044e+00    0.2671835    0.1998779 -65.49  0.001282258    1.931    0.482
        29 -13.8298     58.3224    242.2582   1.1912994510e+02   1.7077535886e+01    0.5102577    0.2861495  61.27  0.001965217    1.538    0.350
        30 -13.1098     13.4433    189.5612   1.2407044742e+02   3.2649552249e+01    0.4164277    0.2713371 -65.33  0.002679796    1.519    0.342
        31 -10.0430     35.8375    167.0271   1.1717444586e+02   3.5658546123e+01    0.1946092     0.163372  60.77 0.0002635307    1.189    0.159
        32 -10.3966    158.0925    160.6588   8.5780572235e+01   1.8002025016e+01    0.3290229    0.2629203  86.83  0.001060902    1.733    0.423
        33 -13.0390     81.6367    161.6916   1.0502289050e+02   3.1282885392e+01     1.194033     0.483939  54.33 0.0005051023    3.431    0.709
        34 -12.2856     88.4570    154.7279   1.0207875306e+02   3.1939394433e+01    0.6178284    0.4524283 -24.80  0.001879967    1.864    0.463
        35 -11.1857    133.6328    144.3601   8.8174532197e+01   2.6431621721e+01     1.165984    0.2919053 -54.20  0.002686235    5.869    0.830
        36  -8.8395    112.5029    150.5363   9.4953163337e+01   2.8949934729e+01    0.1493621    0.1426079  87.45 6.908676e-05    1.046    0.044
        37 -10.6222    174.3085    148.7170   7.9439351429e+01   1.7226222574e+01    0.3547204    0.2914841 -74.26  0.001457892    1.589    0.371
        38 -10.0059     83.3269    142.9064   1.0132270296e+02   3.5602937635e+01    0.2252888    0.1901635  61.63 0.0003723168    1.240    0.194
        39 -10.8751    102.2387    140.0761   9.5552123753e+01   3.3245936334e+01    0.5467766    0.3360007 -28.84  0.002200208    2.325    0.570
        40 -12.3943     89.6777    139.8701   9.8978233723e+01   3.5367340171e+01    0.2909272    0.2501942 -48.40 0.0004430713    1.149    0.130
        41 -10.5236    106.0314    130.8033   9.2486429302e+01   3.4814313348e+01    0.3437701    0.3089662 -77.94  0.001167453    1.166    0.142
        42 -10.2720    111.4351    130.3697   9.0885717459e+01   3.3938096656e+01    0.3120496    0.2500988  -9.02 0.0008455105    1.569    0.363
        43 -11.0251    135.6008    128.3111   8.3910846620e+01   2.9696068991e+01    0.4857194     0.150173 -48.49  0.001435141    3.256    0.693
        44 -12.3156     44.0001    129.0078   1.1008390168e+02   4.4058218019e+01    0.4969197     0.250512  41.47  0.002338254    2.171    0.539
        45 -10.9731     32.2530    130.0293   1.1361531540e+02   4.4943953231e+01    0.2687218    0.1496573 -54.36  0.001376979    1.593    0.372
        46 -10.8906     28.5234    129.0081   1.1453421084e+02   4.5521489523e+01    0.2204762    0.1492641 -89.75   0.00122395    1.445    0.308
        47 -10.2324    160.5075    127.5246   7.7542846098e+01   2.4592450755e+01     0.339755    0.1522839 -43.03  0.001101884    2.183    0.542
        48 -11.1810    120.7730    121.6318   8.6212585775e+01   3.4212238286e+01    0.4383929    0.2498522 -23.39  0.001482319    3.035    0.670
        49 -11.0206     98.7474    126.4362   9.3557694600e+01   3.7141007145e+01    0.3111127    0.2542831  -5.53  0.001157665    1.514    0.339
        50 -10.1076    135.0000    119.9987   8.1981652958e+01   3.1695847406e+01    0.2631733   0.08814912 -45.78 0.0007984493    2.915    0.657
        51 -11.5980     33.7308    118.9606   1.1152995373e+02   4.7525209009e+01    0.3514134    0.1998059 -27.68  0.001645558    2.449    0.592
        52 -11.1819    139.4991    171.2085   9.2305472432e+01   1.9301738784e+01    0.2934084    0.2701328  42.02 0.0007875695    1.057    0.054
        53  -9.5661    168.2694    113.1264   7.2044658355e+01   2.5880571795e+01    0.2945354    0.2141763  85.80  0.001215466    2.118    0.528
        54  -9.9888    107.9331    119.0951   8.9183026865e+01   3.7256288238e+01    0.2185582    0.2111848 -38.49 0.0002985257    1.018    0.018
        55 -10.2057    205.4273    110.1239   6.3648275371e+01   1.8121160442e+01    0.3171494    0.2267303  43.65  0.001079165    1.496    0.331
        56 -11.2602    117.2243    109.2083   8.3992700606e+01   3.7766439536e+01    0.4655345    0.3497073  43.13  0.002200543    1.383    0.277
        57 -11.9777     45.3088    105.6968   1.0551431206e+02   4.9647170388e+01    0.4342036    0.2452191  35.81   0.00157055    1.999    0.500
        58 -10.8440     40.4837    102.9983   1.0656089387e+02   5.0786156313e+01    0.2618054     0.181609 -79.01  0.001392027    1.522    0.343
        59 -10.4372    134.5690    105.3222   7.8181982721e+01   3.5028234285e+01     0.483814    0.1503729 -45.31  0.001435323    3.171    0.685
        60  -9.7838     34.0277    100.4678   1.0821056122e+02   5.1995100645e+01    0.1733408    0.1328135  21.88 0.0005241456    1.549    0.355
        61  -9.7681     31.9956     96.0132   1.0803052939e+02   5.3237946298e+01    0.1604667     0.131864 -56.84 0.0003311548    1.005    0.005
        62 -10.0908     41.7824     91.8417   1.0376850776e+02   5.3324499368e+01    0.2048682    0.1575077 -41.11 0.0005181025    1.183    0.155
        63 -13.7371     69.8639    156.9851   1.0733571156e+02   3.4073740652e+01    0.6232259    0.5317175 -27.80   0.00219603    1.450    0.310
        64  -9.8639    158.4043     81.7316   6.5504301321e+01   3.4331108164e+01    0.2116711    0.1486427 -26.12 0.0004496907    1.534    0.348
        65  -9.0960     56.1891     66.3786   9.1597704751e+01   5.7408474544e+01    0.1657714    0.1261528  38.35 0.0002780669    1.538    0.350
        66  -8.6231     79.3336     62.7065   8.1820014529e+01   5.4706206594e+01    0.1321049    0.1158968  87.63 0.0007025139    1.638    0.390
        67 -10.4431     13.4838     59.7243   1.0700977936e+02   6.2845256833e+01    0.1990755    0.1880612 -83.95 0.0003862122    1.333    0.250
        68 -13.2656    190.5165     45.2144   4.8879279763e+01   3.2339466068e+01    0.8243686    0.5915487  50.65 0.0009224169    1.442    0.307
        69 -11.5094     60.2355    232.3698   1.1799788745e+02   1.8703931622e+01    0.2689207    0.1826248  73.12 0.0005365606    1.315    0.240
        70  -9.0233     66.7858     51.6131   8.2446040843e+01   5.8824153637e+01    0.1730949    0.1268895  40.97 0.0006582597    1.558    0.358
        71 -11.0264    143.4151     48.3411   5.8405206511e+01   4.3538612908e+01    0.3641501    0.2668748 -86.39 0.0004260094    1.858    0.462
        72 -10.5050    146.0535     42.6637   5.5967570854e+01   4.3704938992e+01     0.251327    0.2257229 -59.72 0.0004782544    1.212    0.175
        73 -16.6990      8.3696    242.4702   1.2787530139e+02   2.2495914435e+01     6.109689     3.157375 -78.44   0.03720017    1.767    0.434
        74 -10.9209     33.9174    227.3224   1.2258618928e+02   2.2761640925e+01     0.178276    0.1447464 -84.74 0.0001745928    1.254    0.202
        75 -12.8387     28.1999    215.7420   1.2289914585e+02   2.5687151765e+01     1.088288    0.3535476 -82.62  0.004700117    3.263    0.694
        76 -14.4129     44.6622    202.4995   1.1859293729e+02   2.6674748435e+01     2.628804     1.100671  62.78   0.01017515    2.683    0.627
        77  -9.4744    189.6941     14.9454   4.0683812231e+01   3.6208507996e+01    0.1837931    0.1639353 -57.92  0.000586529    1.117    0.105
        78 -15.7936      2.7130    198.1753   1.2673058102e+02   3.1721553442e+01     9.044622          nan -71.50   0.01862651    9.081    0.890
