#   1 NUMBER                 Running object number                                     
#   2 MAG_AUTO               Kron-like elliptical aperture magnitude                    [mag]
#   3 X_IMAGE                Object position along x                                    [pixel]
#   4 Y_IMAGE                Object position along y                                    [pixel]
#   5 X_WORLD                Barycenter position along world x axis                     [deg]
#   6 Y_WORLD                Barycenter position along world y axis                     [deg]
#   7 A_WORLD                Profile RMS along major axis (world units)                 [deg]
#   8 B_WORLD                Profile RMS along minor axis (world units)                 [deg]
#   9 THETA_WORLD            Position angle (CCW/world-x)                               [deg]
#  10 FWHM_WORLD             FWHM assuming a gaussian core                              [deg]
#  11 ELONGATION             A_IMAGE/B_IMAGE                                           
#  12 ELLIPTICITY            1 - B_IMAGE/A_IMAGE                                       
         1 -13.8934      5.3345     10.5930   1.2116109684e+02   7.2754882021e+01     2.167194    0.8352971 -43.28   0.01214627    1.882    0.469
         2 -14.4065    198.5139     16.1334   6.6530676904e+01   3.3400824097e+01     2.881139     1.642911  31.81   0.01217942    2.558    0.609
         3 -10.3206    162.9758    249.2029   1.2580498562e+02   2.8782096884e+00     0.228823    0.1367366  32.45  0.001366557    1.565    0.361
         4  -9.7539    248.8061    250.3833   1.1145033258e+02  -1.0396494139e+01     0.164615   0.07541637  30.78 0.0009568724    1.727    0.421
         5 -12.0262    140.0363    249.0600   1.2981833108e+02   6.5572741386e+00    0.4200999    0.3136106  64.33  0.002902035    1.335    0.251
         6 -11.3430    106.9078    247.8432   1.3549611116e+02   1.1846132816e+01     0.351832    0.1852017  65.99  0.001620506    2.049    0.512
         7 -11.4859     97.8774    248.8420   1.3714918397e+02   1.3018518679e+01    0.3981795     0.208126  54.34  0.001525276    1.481    0.325
         8 -11.2894    101.5623    246.2135   1.3627626532e+02   1.2895395204e+01     0.294523    0.1991389 -80.27  0.001391225    1.686    0.407
         9 -11.3217     87.1727    248.2550   1.3893429944e+02   1.4642938989e+01    0.5327615    0.1683645  55.57  0.002386173    2.974    0.664
        10 -10.9346     81.8525    249.0680   1.3990321221e+02   1.5253733563e+01    0.2831427    0.1612121  57.68  0.001614028    1.334    0.250
        11 -12.0384     81.1190    242.7553   1.3952624094e+02   1.6387952107e+01    0.3764424    0.3106254 -72.09  0.002869634    1.505    0.336
        12 -11.1586     66.3542    249.8509   1.4255343559e+02   1.7207767341e+01    0.3117435    0.1197317  54.77  0.001733112    1.987    0.497
        13 -14.7576     32.8387    246.3400   1.4777119822e+02   2.1868949997e+01     7.887292     2.426152  32.99   0.03192548    5.577    0.821
        14 -14.9975     51.8451    220.4008   1.4295618999e+02   2.4193297973e+01     2.639981     1.540191  50.77   0.01329321    1.396    0.284
        15 -11.2135    124.7904    244.0031   1.3196674010e+02   9.7074252530e+00    0.3340983     0.175771 -75.79  0.001710932    3.062    0.673
        16 -10.5126    120.4271    238.7755   1.3219326872e+02   1.1206093086e+01    0.1854047    0.1142338 -68.39 0.0004960573    2.008    0.502
        17 -11.1710     34.3887    229.2475   1.4658334378e+02   2.4650811182e+01    0.2457246    0.1530391  77.73  0.001026378    1.253    0.202
        18  -9.8325    228.8922    228.3501   1.1131633494e+02  -5.1275968759e+00    0.2938764    0.1837457 -57.80  0.001402625    3.962    0.748
        19 -15.6424      3.9452    236.7826   1.5185909749e+02   2.6511349388e+01     11.23806    0.4450961 -75.57   0.03602309    8.976    0.889
        20 -11.0781     72.3857    239.6093   1.4078609154e+02   1.8111785335e+01    0.2411147    0.1665203  82.72  0.001051403    1.325    0.245
        21  -9.5546     94.5925    216.5789   1.3464276974e+02   1.9008073916e+01    0.2504723    0.1350392  68.51 0.0009672724    2.042    0.510
        22  -8.7702    152.7641    212.8584   1.2286416890e+02   1.0022854764e+01    0.1665915    0.1307081  61.65 0.0004119351    1.276    0.216
        23 -13.5706     46.9564    231.2721   1.4457022685e+02   2.2819168918e+01    0.8496608    0.3055025  52.68  0.002272758    2.098    0.523
        24 -11.5858     30.4468    205.5964   1.4581070465e+02   2.9500211328e+01    0.3586075    0.1160571  47.62  0.001542817    2.398    0.583
        25 -10.3583    193.7122    195.7926   1.1217438516e+02   5.3055231521e+00    0.6569533    0.3245586 -61.63  0.001872471    7.323    0.863
        26 -11.4974     69.4447    196.3398   1.3749711773e+02   2.6559935782e+01     0.335012    0.2385903 -49.60  0.002019498    1.907    0.476
        27 -11.6526     74.3860    189.0211   1.3569921615e+02   2.7366840551e+01    0.2591915    0.2222908 -58.98 0.0005385021    1.439    0.305
        28 -11.0173     83.1242    176.7158   1.3233243114e+02   2.8682922470e+01    0.2317475    0.1985412 -87.89  0.000382957    1.102    0.092
        29 -13.2254     70.6794    174.4067   1.3479672508e+02   3.0977541777e+01    0.4515605    0.2741367 -46.66  0.001716606    2.201    0.546
        30 -12.2573     89.4195    167.5118   1.2964589826e+02   2.9708452466e+01     1.140808    0.5429464  58.10  0.003170365    2.351    0.575
        31 -12.8590     67.3964    144.0863   1.3145836714e+02   3.8216765253e+01     1.051848    0.5912451  84.81  0.004154106    2.317    0.568
        32 -12.3076     58.1355    132.0368   1.3198583101e+02   4.2216679860e+01     1.892561    0.6061056 -75.66  0.004488448    7.880    0.873
        33  -9.9701    101.6046    151.3743   1.2417657512e+02   3.1286272072e+01    0.3338647    0.2589234 -38.55 0.0009492185    1.600    0.375
        34  -9.3945    104.0393    147.0439   1.2280301713e+02   3.1836374439e+01    0.2597737    0.1924927 -37.85  0.001215998    1.677    0.404
        35 -12.0647     90.4806    150.7505   1.2678557656e+02   3.3270224086e+01     0.264837    0.2502331 -38.21 0.0005368007    1.306    0.234
        36 -11.4403     43.8815    149.6988   1.3800196054e+02   3.9837512428e+01    0.3101019    0.2026926  37.52  0.001823494    1.690    0.408
        37 -12.2977     28.7059    145.1970   1.4113314730e+02   4.2423839148e+01    0.4604949    0.2374588  83.09  0.002372931    1.997    0.499
        38 -12.2778     30.5891    139.8177   1.4008790508e+02   4.3457794960e+01     0.370348    0.2513834  58.11  0.001944565    1.458    0.314
        39 -10.0354    111.7028    136.7814   1.1890034709e+02   3.2767679744e+01    0.3646099    0.2615029 -21.01  0.001452097    2.200    0.545
        40  -8.7180    192.1845    144.1403   1.0211203875e+02   1.4389976956e+01    0.1887116    0.1728517 -77.49 0.0004034329    1.273    0.215
        41 -11.5418     50.4730    129.8558   1.3368098993e+02   4.3646880264e+01     0.338634    0.1973246  48.42 0.0006624953    1.796    0.443
        42 -10.5853     99.4369    133.8618   1.2144767644e+02   3.5628707029e+01    0.2692517    0.2275797 -29.16 0.0004717032    1.476    0.323
        43  -9.4359    108.3575    123.7998   1.1699618194e+02   3.6324238047e+01    0.1948481    0.1733599 -54.97 0.0004209469    1.117    0.105
        44 -14.3864     10.7045    207.3453   1.4944991503e+02   3.1177769172e+01     2.191211     1.567476 -48.39   0.01307534    2.328    0.570
        45 -11.1092    168.2558    113.2472   9.9716019312e+01   2.5729485855e+01    0.3795076    0.3222033 -83.09 0.0007798739    1.375    0.273
        46 -11.3158     32.7608    156.3919   1.4133554492e+02   3.9524318628e+01    0.3619395    0.1384566 -78.32  0.001642572    2.430    0.588
        47 -10.6730    238.2933    249.0055   1.1294094810e+02  -8.7732226766e+00    0.1588082    0.1219811  15.27  0.001187459    1.095    0.087
