#   1 NUMBER                 Running object number                                     
#   2 MAG_AUTO               Kron-like elliptical aperture magnitude                    [mag]
#   3 X_IMAGE                Object position along x                                    [pixel]
#   4 Y_IMAGE                Object position along y                                    [pixel]
#   5 X_WORLD                Barycenter position along world x axis                     [deg]
#   6 Y_WORLD                Barycenter position along world y axis                     [deg]
#   7 A_WORLD                Profile RMS along major axis (world units)                 [deg]
#   8 B_WORLD                Profile RMS along minor axis (world units)                 [deg]
#   9 THETA_WORLD            Position angle (CCW/world-x)                               [deg]
#  10 FWHM_WORLD             FWHM assuming a gaussian core                              [deg]
#  11 ELONGATION             A_IMAGE/B_IMAGE                                           
#  12 ELLIPTICITY            1 - B_IMAGE/A_IMAGE                                       
         1 -14.4082    157.0595     53.8085   8.2371317928e+01   3.9091861840e+01     1.544886     1.289655  22.57  0.005403332    1.362    0.266
         2 -14.4925    169.2253     38.5099   7.5590670013e+01   3.8248085283e+01     1.035601    0.9702076   2.74  0.003845945    1.222    0.182
         3 -14.4296    185.2987      6.7308   6.4539257174e+01   3.7906847740e+01     1.032082    0.8215414  78.02  0.004517697    1.071    0.066
         4 -12.3527    209.0238      1.9977   6.0768489814e+01   3.2658175295e+01    0.7596668    0.1127404  71.37  0.002022636    6.154    0.838
         5 -10.5469    219.7052    226.2228   1.1012209826e+02  -6.4923470329e+00    0.2301667     0.110511 -45.89  0.001059442    2.596    0.615
         6 -19.9594     63.7458    171.6858   1.3417904397e+02   3.1924067998e+01     18.65502     6.221396 -66.08   0.07165302    2.815    0.645
         7 -10.2258    139.9641    249.5847   1.2883854912e+02   3.6895430994e+00    0.1786239    0.1573452  65.39 0.0008231795    1.122    0.109
         8 -11.4914    154.4137    196.1995   1.1787190257e+02   1.0892018212e+01    0.3393448    0.2570023 -82.38  0.001701631    1.664    0.399
         9 -10.2792    112.8182    196.1496   1.2684755727e+02   1.8679447097e+01      0.43714     0.295251  -7.88   0.00162066    4.106    0.756
        10 -13.5780    167.1607    189.0161   1.1382560970e+02   9.8091890052e+00    0.6789436    0.5311748  30.54  0.003119628    1.336    0.252
        11 -12.2983    175.1508    193.6142   1.1300336643e+02   7.3107311808e+00    0.4607517    0.2763541 -60.28 0.0009512522    2.182    0.542
        12 -12.4132    180.0087    192.5114   1.1177893974e+02   6.5568899229e+00    0.3843756    0.3096583 -81.78  0.001229047    1.629    0.386
        13 -13.0201    175.7453    186.7243   1.1155901972e+02   8.5342196094e+00    0.6607048    0.4082221 -66.90  0.002736732    2.443    0.591
        14 -11.1991    169.7814    195.2316   1.1443356952e+02   8.0614449334e+00    0.1919139    0.1685553   8.18  0.001052276    1.294    0.227
        15 -10.5618    110.2791    222.9378   1.3113819626e+02   1.3576437093e+01    0.1686131    0.1465491  87.90 0.0003899106    1.132    0.116
        16 -12.4334    153.3359    184.9780   1.1605702073e+02   1.3406540127e+01    0.4568506    0.2889748 -69.47  0.001968256    2.125    0.529
        17 -13.2736    210.4947    188.4849   1.0480667717e+02   1.2974478938e+00    0.9874328     0.379983 -53.43  0.002918426    4.980    0.799
        18 -12.7400    205.4949    179.5287   1.0397729268e+02   3.8993638003e+00    0.4676839    0.3985923  52.76  0.002263241    1.250    0.200
        19 -11.2853    210.2203    176.2499   1.0235869485e+02   3.5582483135e+00    0.3836151     0.306251 -31.64  0.001189192    1.258    0.205
        20 -10.2113    125.0046    249.9483   1.3165456868e+02   6.1410779056e+00    0.1367575    0.1045524 -66.95 0.0003375825    1.508    0.337
        21 -12.1031    116.0810    211.8920   1.2847460499e+02   1.4801031650e+01    0.2789724    0.2009976  83.05 0.0008138965    1.505    0.335
        22 -10.4131     17.5561    250.0742   1.4998949268e+02   2.1217989223e+01    0.1393658   0.08041729 -79.23 0.0009742588    1.526    0.345
        23 -11.1242    144.5273    179.0027   1.1688404374e+02   1.6434170028e+01    0.2933357    0.2078205  28.15  0.001111577    1.690    0.408
        24 -11.0503    170.9840    177.0135   1.1065396194e+02   1.1457770168e+01    0.2299736    0.2174708  63.71 0.0004971708    1.061    0.058
        25 -12.8962    195.8968    171.0749   1.0415625223e+02   7.4578200703e+00    0.7446042    0.4382264 -49.75  0.002460678    1.849    0.459
        26 -11.3034    193.9823    165.4755   1.0335455332e+02   8.9543725237e+00    0.3361374    0.2707178  76.90   0.00103986    1.575    0.365
        27 -13.7095    137.7893    171.6086   1.1699792397e+02   1.9393143660e+01    0.8607296    0.5587887  62.32  0.003522019    1.749    0.428
        28 -12.1932    177.5458    171.1139   1.0802620032e+02   1.1293154084e+01    0.4960597    0.2281616 -51.16  0.001852085    2.431    0.589
        29 -12.3574    125.9801    172.4234   1.1987683882e+02   2.1513824139e+01    0.4028492    0.2997049  59.60  0.001738737    1.346    0.257
        30 -10.8473    202.9146    172.1253   1.0294956968e+02   5.8074885903e+00    0.2213153    0.2027442  87.95 0.0007066421    1.293    0.227
        31 -10.2695    165.0518    171.5195   1.1083252290e+02   1.3830808559e+01    0.2368457    0.1439231  46.85  0.001028319    1.592    0.372
        32 -12.5519    142.3594    166.2486   1.1488639070e+02   1.9663613323e+01    0.4616726    0.2815602 -67.71  0.001896128    2.094    0.522
        33 -10.6827    109.3683    210.4288   1.2965492546e+02   1.6256733782e+01    0.2408753    0.1856721  66.99 0.0005869846    1.176    0.150
        34 -10.4943    201.0207    164.7861   1.0176221759e+02   7.6069628072e+00    0.3088705    0.1869722 -64.86  0.001178859    2.695    0.629
        35 -10.4692    222.7906    162.3118   9.6955592807e+01   3.5896476714e+00    0.3489474    0.1792535 -52.20  0.001060365    2.434    0.589
        36 -11.3426    229.8159    165.9715   9.6430216574e+01   1.5386146557e+00    0.2326397    0.1632188 -62.63    0.0010204    2.011    0.503
        37 -12.1406    121.3872    156.6565   1.1791690942e+02   2.5996134959e+01    0.2782464    0.2679983 -30.59 0.0007209055    1.182    0.154
        38 -11.9895    161.6655    153.5069   1.0775026446e+02   1.8403343913e+01    0.3239027    0.2945036  89.14  0.001108559    1.164    0.141
        39 -10.5870     14.0376    151.3512   1.4295164738e+02   4.2000850302e+01     0.244811    0.1825071 -10.91   0.00156507    2.157    0.536
        40 -11.3651    174.2748    148.6845   1.0384055504e+02   1.6671221173e+01    0.3711207    0.2874161 -74.15  0.001383216    1.593    0.372
        41 -13.7973    143.8635    143.7692   1.0972194574e+02   2.4387918620e+01     1.050519    0.5227194 -62.37  0.003562278    2.858    0.650
        42 -11.3190      6.4525    140.0195   1.4345445725e+02   4.5125747880e+01     0.188912    0.1699147  44.12  0.001440029    1.417    0.294
        43 -10.7585    107.3430    206.8251   1.2957432029e+02   1.7351964600e+01    0.2179162    0.1953013  85.50 0.0004978187    1.090    0.083
        44 -12.9924    121.9457    223.2153   1.2885345568e+02   1.1530655199e+01     0.448709    0.3122123  23.91  0.002305989    2.039    0.510
        45 -11.8351    160.4705    128.0758   1.0207887368e+02   2.4194118051e+01    0.4134429    0.3423816 -62.06  0.001893611    1.269    0.212
        46 -11.6374     21.3852    127.6731   1.3826115917e+02   4.6749176739e+01    0.3795896    0.2541316 -48.83    0.0015038    1.457    0.314
        47 -13.0601    163.3512    203.0981   1.1720073178e+02   7.7967967780e+00     0.805333     0.297806 -55.13    0.0027617    3.626    0.724
        48 -11.4101      2.1596    122.0913   1.4241389041e+02   4.9391196532e+01    0.2096172    0.1159581 -63.66 0.0003705979    1.353    0.261
        49 -12.5008     27.6983    118.2814   1.3517660990e+02   4.8344594013e+01    0.3401532    0.1762108 -39.17   0.00128441    2.234    0.552
        50  -8.6383     24.9931    205.3128   1.4573735066e+02   2.9150225988e+01    0.4069111    0.1039237 -70.70  0.001723141    3.165    0.684
        51 -10.8431    168.0615    113.0400   9.6549727910e+01   2.5614396841e+01    0.4529881    0.2872324 -82.34  0.001519844    2.986    0.665
        52 -11.3931     30.1920    205.5726   1.4479861000e+02   2.8526432569e+01    0.2196807    0.2029777  17.01  0.001134721    1.736    0.424
        53 -11.1185      3.0427    112.3042   1.4092555308e+02   5.1485956489e+01    0.2254127    0.1475098 -58.56  0.000721618    1.214    0.176
        54 -13.2650    118.7214    109.6058   1.0778887641e+02   3.7285814610e+01    0.6088277    0.4365773 -73.49  0.002715336    1.822    0.451
        55 -10.8296    205.4450    110.1724   8.8124658781e+01   1.7310888796e+01    0.3343925    0.2205657  44.47  0.001098411    1.617    0.382
        56 -11.1522     10.7489    110.9487   1.3866055337e+02   5.1290927775e+01     0.315982    0.1705146  -2.42  0.001661975    3.058    0.673
        57 -11.4372    168.9638    202.5256   1.1592959203e+02   6.8189472491e+00    0.2444925     0.198084 -74.13 -4.377295e-05    1.507    0.336
        58 -10.0985     20.1681    202.7676   1.4642104678e+02   3.0191344485e+01    0.1398091    0.1060772 -78.83 0.0005079831    1.235    0.190
        59 -11.4986     96.6647     80.2208   1.0582362514e+02   4.7644823957e+01    0.4964414    0.2200949  48.91  0.001689948    2.648    0.622
        60  99.0000      7.5812    246.4060   1.5130333400e+02   2.2952527329e+01    0.2316371   0.08575727  68.98  0.001265084    2.367    0.578
        61 -10.7841    156.8629    202.1557   1.1839712705e+02   9.2332954127e+00    0.2273274    0.1835458  73.38  0.001074446    1.379    0.275
        62 -13.0116    173.2397     31.1201   7.2821615862e+01   3.8191730462e+01    0.4343039    0.3736461  -2.71  0.001049066    1.418    0.295
        63 -10.6369     13.5109     59.7930   1.2786409536e+02   6.1791838865e+01    0.1736828    0.1462102 -17.28 0.0003869049    1.236    0.191
        64  -9.8234    139.3979    201.1591   1.2193025780e+02   1.2767747044e+01    0.1942476    0.1317813 -70.90  0.000679207    1.756    0.431
        65 -10.7554    134.6057     30.0561   7.9707302879e+01   4.7664484683e+01    0.2481381    0.1818867  74.44  0.000731437    1.544    0.352
        66  -9.7834    227.9749    231.9769   1.0959758544e+02  -8.6863068272e+00     0.147677    0.1257959   4.38 0.0004388676    1.085    0.078
