#   1 NUMBER                 Running object number                                     
#   2 MAG_AUTO               Kron-like elliptical aperture magnitude                    [mag]
#   3 X_IMAGE                Object position along x                                    [pixel]
#   4 Y_IMAGE                Object position along y                                    [pixel]
#   5 X_WORLD                Barycenter position along world x axis                     [deg]
#   6 Y_WORLD                Barycenter position along world y axis                     [deg]
#   7 A_WORLD                Profile RMS along major axis (world units)                 [deg]
#   8 B_WORLD                Profile RMS along minor axis (world units)                 [deg]
#   9 THETA_WORLD            Position angle (CCW/world-x)                               [deg]
#  10 FWHM_WORLD             FWHM assuming a gaussian core                              [deg]
#  11 ELONGATION             A_IMAGE/B_IMAGE                                           
#  12 ELLIPTICITY            1 - B_IMAGE/A_IMAGE                                       
         1 -10.9415     33.0015     63.4949   1.1124267636e+02   6.0972162225e+01     1.824653    0.6135415 -41.47  0.006088658    4.162    0.760
         2 -10.4512     10.0206     19.1315   1.1193337854e+02   7.3157087868e+01     1.552096    0.3597732 -35.74  0.004002305    8.127    0.877
         3 -10.6535     37.3246      9.9106   8.9297759464e+01   7.2450195421e+01    0.9366357    0.3377524 -50.81  0.002628919    2.957    0.662
         4 -10.9135     21.7510      7.5768   9.8540711089e+01   7.4741784531e+01     1.438797    0.7871049  50.26   0.00594852    3.000    0.667
         5 -11.1265     23.7479     32.3623   1.0766152933e+02   6.9186932882e+01     1.742195    0.4155849 -48.82  0.003582585    3.302    0.697
         6 -10.7928     22.0091     53.6269   1.1415197710e+02   6.4286064011e+01    0.9468017    0.4139207  80.37  0.002862987    4.507    0.778
         7  -9.4473      2.2288     14.2652   1.1591447956e+02   7.4623910167e+01    0.4671101    0.2398442 -89.83  0.001974077    2.405    0.584
         8 -10.5673      4.7896      4.5860   1.1043849439e+02   7.6640618677e+01     0.475881     0.412302 -38.03  0.001800532    1.106    0.096
         9 -10.2923     73.5217     17.7925   7.5448332218e+01   6.4808916518e+01     1.355114    0.4330735 -30.46    0.0038774    3.663    0.727
        10  -8.7010     72.0517      8.6492   7.0951576394e+01   6.6498609378e+01     0.272662    0.1940059 -23.48  0.000996819    1.367    0.268
        11  -9.5397     78.0655      4.3779   6.6191490007e+01   6.5746778117e+01    0.6375708    0.3594706 -11.96  0.001786498    2.054    0.513
        12 -10.0895     69.6256     40.9697   8.7955323092e+01   6.1257718453e+01     1.244914    0.4542957 -44.58  0.003738258    2.585    0.613
        13 -10.0243     79.2701     24.1999   7.6453419798e+01   6.2557769259e+01    0.7999185    0.3747152  29.87  0.002296868    3.519    0.716
        14  -9.9181     60.7494     31.6874   8.7897400949e+01   6.4673449461e+01     1.024803    0.4055149 -38.46  0.003215919    2.637    0.621
        15  -9.6749     63.1537     21.0746   8.1656644533e+01   6.6267555285e+01    0.5562146    0.2969078 -53.98  0.001786031    2.465    0.594
        16 -10.0521     64.6245     13.3925   7.6822280427e+01   6.7293785962e+01    0.4338732    0.2996565 -29.65  0.001918152    1.379    0.275
        17 -10.4273     52.2846     13.6282   8.2921770120e+01   6.9491059603e+01     1.367781    0.7414949  13.57  0.004949963    3.828    0.739
        18  -9.4877    101.0690     31.7545   7.2414423557e+01   5.6431359433e+01    0.5229207    0.2316221 -38.22   0.00107067    2.208    0.547
        19 -10.2617     46.2528     29.5519   9.4095792226e+01   6.7324918247e+01    0.7788943    0.4004723 -61.93  0.003123194    2.412    0.585
        20  -8.8527    128.6187     24.6123   6.2000350358e+01   5.0542637229e+01    0.5805337    0.3137104 -15.69  0.002037045    2.225    0.551
        21  -9.7690    119.5573     20.7882   6.2464197173e+01   5.3443402539e+01    0.6672023    0.4448991 -28.08  0.002057436    1.512    0.339
        22  -9.2045    125.9290      4.6654   5.3941594667e+01   5.3599888414e+01    0.4821846    0.2638005  20.93  0.001824642    2.443    0.591
        23  -8.3856    125.0750     13.2387   5.7908431329e+01   5.2913206597e+01    0.3583345    0.3132035 -33.84 0.0008194265    1.174    0.149
        24  -9.4799    126.5157      9.0021   5.5752554748e+01   5.2994735104e+01    0.3211418    0.2523982  71.05 0.0006751353    1.265    0.210
        25  -8.8797    139.8098     17.5893   5.6834683757e+01   4.8403896828e+01    0.3677573    0.1568278 -17.99  0.001158772    2.718    0.632
        26  -8.2106    141.3905     12.4726   5.4484452955e+01   4.8548260468e+01    0.2816872    0.1390295 -28.79 0.0006849767    1.988    0.497
        27  -9.2717    114.1911      9.9703   5.8812472212e+01   5.6184462510e+01    0.3972411     0.247648  44.57 0.0004844055    1.573    0.364
        28  -9.2497    110.1724      6.2159   5.7947053704e+01   5.7654238082e+01    0.7174692      0.28235 -27.38  0.002683284    2.461    0.594
        29  -8.8906    112.5566     15.6142   6.1838205411e+01   5.5934424203e+01    0.3791218    0.2377319 -36.03  0.001043515    1.613    0.380
        30  -8.6465    104.4927     15.1631   6.3723845954e+01   5.8050132198e+01    0.5868856    0.3280717   3.49  0.002167707    2.810    0.644
        31  -9.3751    131.3967     17.1372   5.8281419077e+01   5.0748240608e+01    0.5557716     0.277283  73.83  0.001655224    2.303    0.566
        32  -8.7596     95.8795     16.4091   6.6825156356e+01   6.0003363072e+01    0.3738782    0.2185621 -32.90  0.001140772    1.689    0.408
        33  -8.2226     97.6475     11.6737   6.3916525363e+01   6.0201199868e+01    0.3265752    0.1924351  33.06   0.00134698    1.909    0.476
        34  -9.5646     85.2940     13.1078   6.8550195939e+01   6.2949208523e+01    0.4833191    0.2834001 -55.34   0.00159181    2.460    0.593
        35  -7.9180     80.6086     12.6054   6.9930165638e+01   6.4077650272e+01    0.2850605    0.1470093 -47.80 0.0008706072    2.420    0.587
        36  -8.8669     88.9711      2.7514   6.1713981650e+01   6.3384421210e+01    0.4680772    0.3013954 -56.05  0.001620399    2.070    0.517
        37  -8.5093     97.5292      5.9797   6.1014710813e+01   6.0915928314e+01     0.288759    0.2035487  31.03 0.0006665668    1.467    0.318
        38  -8.4491     95.7730      2.9925   5.9913095385e+01   6.1685655960e+01    0.2610978    0.2349374  37.23 0.0003371363    1.047    0.045
        39  -9.4536    133.3128     11.2472   5.5423982424e+01   5.0900482023e+01    0.6389634    0.1765192 -37.88  0.001967683    3.441    0.709
        40  -9.5143    142.9902      4.9905   5.1192219653e+01   4.8869191708e+01    0.6000676    0.1997651 -35.97  0.001805725    2.821    0.646
        41  -9.4866    133.6185      4.2343   5.2387032674e+01   5.1534584874e+01    0.3814842    0.2661538  42.91  0.001163243    1.438    0.304
        42  -8.4846    137.6133      9.7366   5.4018002541e+01   4.9881130013e+01    0.2164785    0.1311902 -34.83 0.0009481382    1.654    0.396
        43  -8.5835    101.8987      8.0777   6.0919330217e+01   5.9576363938e+01    0.3325799     0.181213 -37.66 0.0007758721    1.893    0.472
        44  -8.8590    115.2774      4.0527   5.5775595422e+01   5.6531833148e+01    0.3194272    0.2244872 -28.64 0.0007129274    1.451    0.311
        45  -9.7288     63.9021      2.9843   7.0890118827e+01   6.8977326697e+01    0.4076464    0.2756579 -55.75  0.001834489    2.100    0.524
        46  -8.4205    172.0070      3.7098   4.6927454852e+01   4.0946511434e+01     0.225185    0.2028652 -29.15 0.0004369052    1.132    0.117
        47  -7.6730    180.1934      3.5963   4.6020634654e+01   3.8725247538e+01    0.2004491    0.1255657  61.70 0.0002183538    1.555    0.357
        48  -8.2863    104.2880      2.2231   5.7343969791e+01   5.9602105170e+01    0.2821204    0.1952095  34.61 0.0009059183    1.464    0.317
        49 -10.3762    108.8880    112.8571   9.5925134175e+01   3.8147660971e+01     1.138547    0.4546652 -53.98  0.002321816    2.652    0.623
        50  -8.9523    238.5815    250.3932   9.2811588894e+01  -2.7817510216e+00    0.1671886   0.09041628  30.09  0.001246698    1.302    0.232
        51 -10.9119    197.6675    247.1339   9.8741516761e+01   2.5771641979e+00    0.5195459    0.1306633  39.65  0.002455167    2.950    0.661
        52  -9.4639    206.6625    247.6875   9.7369186420e+01   1.3705410737e+00    0.2745082    0.1358404  15.55  0.001638333    2.311    0.567
        53  -9.9777    187.2445    249.5454   1.0071348382e+02   3.6971754930e+00     0.317683     0.106039  36.05  0.001732367    2.111    0.526
        54 -10.2173    173.3190    249.6774   1.0302477754e+02   5.5047791125e+00    0.3694693    0.1196578  36.48  0.001963835    2.175    0.540
        55  -9.9978    127.8026    102.3091   8.8297618667e+01   3.6632134478e+01    0.6061324    0.4095277 -40.09  0.002239363    1.565    0.361
        56 -11.1520    121.0832    110.1205   9.1981430709e+01   3.6379323969e+01     1.222028    0.6234083 -52.57  0.003518442    2.100    0.524
        57  -8.4339     14.4793    105.0979   1.2403952180e+02   5.2297150138e+01    0.1804401    0.1515233 -57.17 0.0004211515    1.321    0.243
        58  -9.9622     27.0240    122.5159   1.2168090883e+02   4.7206090104e+01    0.7846538    0.2661096  63.49  0.002892574    3.724    0.731
        59  -9.7592     14.5205    111.7811   1.2455950493e+02   5.0715318724e+01    0.5898016    0.2115079  64.62  0.002337833    3.030    0.670
        60  -9.4042     41.4314    121.9716   1.1735502023e+02   4.5943961246e+01    0.4695891    0.2102436 -88.89  0.002007499    2.553    0.608
        61 -10.1438    140.6814    118.3486   8.8910032778e+01   3.0735175263e+01    0.4340548    0.3192901 -79.08  0.001147792    1.961    0.490
        62 -10.4869    108.3948     99.6466   9.2982380896e+01   4.1133048855e+01     1.045464    0.6056713  68.31  0.002928244    2.844    0.648
        63  -8.4769    157.4927    121.6386   8.5752554886e+01   2.6636238712e+01     0.376293    0.2448064  79.97  0.001425334    3.147    0.682
        64  -8.6170    152.2167    121.7903   8.6981100396e+01   2.7702245848e+01    0.2035127    0.1667443  16.68  0.000771961    1.342    0.255
        65  -6.8216     81.3038    121.3060   1.0545959938e+02   4.0949512846e+01    0.1317095    0.1090658 -24.09  0.000701293    1.601    0.375
        66  -8.4328      1.4417    116.4672   1.2878285364e+02   5.0477193026e+01    0.3215873   0.09519015 -88.94  0.001329594    2.984    0.665
        67 -10.1003     91.8032    112.9285   1.0081584635e+02   4.1171881736e+01    0.5761598     0.416703  81.80  0.001861401    1.662    0.398
        68  -8.9686     92.6429    103.7488   9.8610643065e+01   4.3120116507e+01     0.667579    0.3899852  24.77  0.002582542    2.325    0.570
        69  -8.5055    152.3924    115.2542   8.5422109751e+01   2.8881041044e+01    0.2521438    0.2095088  46.75 0.0006707133    1.159    0.137
        70 -10.2004     78.2749    113.0589   1.0486859694e+02   4.3314465956e+01    0.5275034    0.3189296  86.44  0.001723836    2.299    0.565
        71  -8.2348    167.0310    114.2985   8.1938523466e+01   2.5929521250e+01    0.2074206    0.1850654  39.47 0.0006920994    1.077    0.072
        72 -10.4655     62.9770     95.7016   1.0642861852e+02   4.9648943499e+01    0.7198484    0.4075032  88.21  0.001549569    2.531    0.605
        73  -9.2035     64.9240     84.9537   1.0345381400e+02   5.1965213088e+01    0.5857264    0.4738757 -38.00  0.002736455    1.380    0.275
        74  -9.4439     59.0176    109.3309   1.1018812945e+02   4.6899099552e+01    0.3800192    0.2131627 -69.49  0.001285388    1.709    0.415
        75 -10.3318     65.4983    110.6384   1.0836526421e+02   4.5730123476e+01    0.8140602    0.5637751 -74.51  0.002037697    1.412    0.292
        76  -8.5604     69.0125    103.0308   1.0586432151e+02   4.7047332361e+01    0.3124416    0.2204078 -45.20  0.001151688    1.572    0.364
        77  -8.6307    158.8577    112.0582   8.3186534303e+01   2.8087640004e+01    0.2180229    0.2000672 -84.38 0.0005280747    1.276    0.216
        78  -8.7729    141.0070    112.0564   8.7356047226e+01   3.1896503525e+01    0.2304633    0.2204079  61.52  0.001288434    1.066    0.062
        79 -10.9353     45.3510    102.9168   1.1362386333e+02   5.0071043551e+01     1.104401    0.4410544  65.21  0.003491942    4.671    0.786
        80  -9.4686     35.7055    110.9499   1.1783490317e+02   4.9133391469e+01    0.3852991    0.1847032  57.06  0.001794267    2.161    0.537
        81 -10.0397     33.1534    107.1265   1.1819959867e+02   5.0293246149e+01    0.4802282    0.2430585 -39.36  0.002125854    2.878    0.653
        82 -10.9163     21.1632    101.5931   1.2152834212e+02   5.2646134933e+01     1.232567    0.4427636  75.59  0.003175632    4.014    0.751
        83  -9.2428    217.2581    248.5897   9.5817515858e+01  -4.4865398104e-02    0.2006895   0.07154472  38.61  0.001150859    2.128    0.530
        84  -9.9658     20.1596     84.4273   1.1994991357e+02   5.6887107325e+01    0.9480464    0.2987792 -68.94  0.003929846    2.502    0.600
        85 -10.5647     25.8472     78.3654   1.1692986276e+02   5.7940641860e+01    0.9781145    0.4406815  72.48  0.002833819    3.139    0.681
        86 -10.1182     49.9159     54.5011   1.0140934018e+02   6.1264242690e+01    0.5928342    0.3888572 -82.49  0.001571998    1.971    0.493
        87  -9.8310     55.7035     43.7612   9.5174626587e+01   6.2916047178e+01     1.080967    0.5961292 -10.08  0.003136663    5.876    0.830
        88 -10.1179     34.5531     90.6213   1.1551534612e+02   5.4172041256e+01    0.5844924    0.2664924  89.52  0.001686121    2.714    0.632
        89  -9.9228     37.3175     80.6317   1.1284566400e+02   5.6358352836e+01    0.6294764    0.3406264 -24.34  0.002597842    3.219    0.689
        90  -8.8148    149.7265    109.9743   8.4767047836e+01   3.0441688064e+01    0.2495501    0.2054694  20.12  0.001191434    1.330    0.248
        91  -8.6325     40.3494    107.4702   1.1590952994e+02   4.9503739656e+01    0.2359814     0.162814  63.37 0.0008108306    1.409    0.290
        92  -8.2909    160.9585    106.3596   8.1308268060e+01   2.8661579352e+01    0.2087214    0.1892217  34.04 0.0005652998    1.061    0.058
        93 -10.4017    139.7047    103.2245   8.5492495370e+01   3.3908787276e+01    0.8637404    0.4053547 -40.20   0.00168783    2.247    0.555
        94  -9.2897    138.5860     92.5115   8.2936750650e+01   3.6263158073e+01    0.3977448    0.3662072 -77.92  0.001268159    1.186    0.157
        95  -8.3569    139.3029     87.6999   8.1413983613e+01   3.7040556323e+01    0.3711566    0.2065802  35.56  0.001451431    2.091    0.522
        96  -9.3862    140.4721     81.9473   7.9458647204e+01   3.7878781195e+01    0.7926991    0.3326935 -38.69  0.001452191    2.430    0.588
        97  -9.4117    139.9586     75.4928   7.7642596695e+01   3.9222437737e+01    0.5739058    0.2932162 -35.68  0.001727223    2.026    0.506
        98  -8.2006     78.3356    105.1203   1.0331085574e+02   4.5160678224e+01    0.3148773     0.231136  -2.31  0.001490556    2.130    0.531
        99  -9.5309      6.3054    103.4730   1.2654472663e+02   5.3207781241e+01     0.475868    0.1968031  58.01  0.001815996    2.302    0.566
       100  -9.6067    149.6761    103.3397   8.3115222123e+01   3.1707733279e+01    0.3992583    0.3124791 -66.84 0.0009421947    1.586    0.369
       101  -8.0990      1.4208    105.2366   1.2820208157e+02   5.3072121719e+01    0.1733125   0.08954305  81.28 0.0009411806    1.641    0.391
       102  -8.3314    165.9854    103.8942   7.9585209924e+01   2.7987418714e+01    0.2485461    0.2085689 -42.10 0.0005770119    1.244    0.196
       103  -9.3082    241.2144     96.7711   6.4749920856e+01   1.3023303162e+01    0.3395939    0.1881997  66.42  0.001557255    2.680    0.627
       104  -9.5277    247.1983    102.6031   6.5289235887e+01   1.1176557496e+01    0.2395588    0.1693256 -22.83  0.001107097    1.236    0.191
       105  -8.2620     73.8681    102.5921   1.0421624493e+02   4.6439009210e+01    0.2735092    0.1751328 -81.12 0.0006976158    1.811    0.448
       106  -9.6079    217.2883    101.5106   6.9421782747e+01   1.7194112576e+01    0.2385547    0.2150402 -16.27 0.0002684784    1.070    0.065
       107  -8.4786    158.9711    101.3516   8.0469758200e+01   3.0009731054e+01    0.2672818    0.2022006 -55.65 0.0004312197    1.528    0.346
       108  -9.5548     81.4168    100.0755   1.0128055946e+02   4.5855469573e+01    0.4077262    0.2595088 -77.53 0.0008234401    1.881    0.468
       109  -9.4983     94.3590     97.2398   9.6580729986e+01   4.4301584835e+01    0.3658229    0.2781152 -84.02 0.0007992571    1.545    0.353
       110  -8.6526     95.9200     90.9928   9.4546610181e+01   4.5434964580e+01     0.515017    0.3280975 -14.21  0.001857451    3.342    0.701
       111  -7.6166    221.8112     97.8335   6.7817699732e+01   1.6763467013e+01    0.1846728    0.1563994 -49.14 0.0005148171    1.374    0.272
       112  -8.6820    150.1567     96.9431   8.1328714141e+01   3.2807416343e+01    0.3026781    0.1945647  23.47  0.001236378    2.129    0.530
       113  -7.5983     82.3162     94.2968   9.9691874474e+01   4.7060952138e+01    0.2421386     0.169234 -37.26 0.0009161337    1.695    0.410
       114 -10.3707      4.3463     89.6029   1.2620859185e+02   5.6611669496e+01    0.8074603    0.3192212  73.47  0.002569197    2.598    0.615
       115  -9.6445      5.8686     79.1463   1.2477175871e+02   5.9048596622e+01    0.5465639     0.267078 -38.22   0.00270409    2.538    0.606
       116  -7.2013    171.3095     95.7061   7.6323954782e+01   2.8208167534e+01    0.1454682      0.11941 -77.82 0.0001997236    1.588    0.370
       117  -8.2125    164.3697     94.5268   7.7477000818e+01   3.0006091255e+01    0.2477421    0.2135737  83.82 0.0005360385    1.396    0.284
       118  -8.8435    157.7863     90.6207   7.7858148754e+01   3.2225738177e+01     0.436167    0.2441682 -29.41  0.001590926    1.997    0.499
       119  -9.2684    150.5924     89.6363   7.9229994343e+01   3.4075066156e+01    0.4931797    0.2579305 -29.83  0.001890196    2.241    0.554
       120  -8.3293    107.2837     91.4662   9.1213727180e+01   4.3145482725e+01    0.4165221    0.1785957  40.60  0.001156374    2.383    0.580
       121  -9.3585    112.8105     89.2769   8.9005169864e+01   4.2501397136e+01     0.402871    0.3290167  26.14  0.002015866    1.379    0.275
       122 -10.3166     47.9110     84.4541   1.0955565861e+02   5.4285895866e+01    0.6200212    0.3980306 -82.30   0.00202503    1.606    0.377
       123  -9.2763     48.1947     77.7909   1.0808356694e+02   5.5881501241e+01    0.5767306    0.2503917 -40.77  0.002172633    3.091    0.677
       124  -7.3585     78.2676     89.6358   9.9929672432e+01   4.8816573116e+01    0.1477958    0.1082413  83.84 0.0004397857    1.651    0.394
       125  -7.6520     80.4727     85.0675   9.8059622304e+01   4.9525470531e+01    0.2250904    0.1376247 -55.62  0.001027098    1.578    0.366
       126 -10.1619     85.3276     86.6111   9.6826765749e+01   4.8339797006e+01    0.4825049    0.3358614 -89.87 0.0008314468    1.939    0.484
       127  -9.6113     87.2544     78.7667   9.4076578871e+01   4.9800374622e+01    0.6269394    0.4148194  17.80  0.001912789    2.210    0.547
       128  -9.9164     81.4422     72.2720   9.4220554464e+01   5.2317148904e+01     0.488176     0.329825 -76.24 0.0009586976    1.929    0.482
       129  -9.1199     83.5550     64.4577   9.1054557000e+01   5.3694788843e+01    0.5625264    0.3837544 -13.92  0.002375542    2.331    0.571
       130  -8.0338    163.6511     86.5840   7.5445006263e+01   3.1569086481e+01    0.3511777    0.1855628 -23.52  0.001307171    2.424    0.587
       131 -10.4415    104.0258     82.7841   8.9812364490e+01   4.5697168236e+01    0.5809949     0.342259 -60.42  0.001129875    1.979    0.495
       132  -9.5224    105.1266     71.2862   8.6019897971e+01   4.7946211687e+01    0.7896271    0.3785603 -37.92  0.002400805    2.298    0.565
       133  -8.4842    243.9763     85.0135   6.1591101482e+01   1.3934330052e+01    0.2028181    0.1752396 -14.48   0.00125924    1.005    0.005
       134  -7.8585    116.3627     85.2406   8.6855488086e+01   4.2616362743e+01    0.2115357    0.1911694  43.99 0.0008967006    1.104    0.094
       135  -8.7137    157.8985     82.9296   7.5658232419e+01   3.3578521381e+01    0.5213654    0.2163747 -34.69  0.001608628    2.488    0.598
       136  -8.5829    157.0007     76.7827   7.4049980261e+01   3.4880927308e+01    0.3306853    0.2256595 -58.57 0.0005375039    1.809    0.447
       137  -7.2377    170.3353     83.6503   7.3215378379e+01   3.0487029862e+01    0.1580896    0.1190835 -70.99 0.0007047024    1.782    0.439
       138  -8.2511    149.8022     80.7196   7.6853122128e+01   3.5907208967e+01    0.2987355    0.2012424 -50.82 0.0007657448    1.626    0.385
       139  -9.3404    115.5355     72.0894   8.3140199174e+01   4.5529462038e+01    0.6030573    0.3400142 -39.54  0.001722507    1.811    0.448
       140  -8.8145    119.1357     80.5843   8.4712308420e+01   4.2990246854e+01    0.3324318    0.2577635 -66.02 0.0007045912    1.487    0.328
       141  -8.1603    119.7243     75.9833   8.3154891939e+01   4.3804336919e+01    0.2844255    0.2414947  -5.39 0.0009129111    1.403    0.287
       142  -9.2061     74.1830     79.4530   9.8797846123e+01   5.1871105526e+01    0.6261578    0.2488208 -56.13  0.002174885    2.403    0.584
       143  -8.1474    166.3511     78.9416   7.2684783733e+01   3.2240355338e+01    0.2197172    0.1875091 -32.59 0.0007880647    1.169    0.144
       144  -8.1940    184.2156     78.0842   6.8946013627e+01   2.8072501700e+01    0.2293292    0.1965182   8.10 0.0007018427    1.239    0.193
       145  -7.4456    174.4576     78.5533   7.0933515723e+01   3.0344812086e+01    0.1487027    0.1457134  -1.21 0.0002021176    1.015    0.015
       146  -9.3318    138.1820     65.2015   7.4811324614e+01   4.1553924107e+01    0.6396035    0.3092541 -30.81  0.001531907    2.295    0.564
       147  -8.9287    129.9425     58.0731   7.4487288541e+01   4.4865851222e+01    0.6546136    0.2737507 -31.29  0.002079061    2.704    0.630
       148  -9.4122    127.3479     75.1624   8.0796967875e+01   4.2241717376e+01    0.4286928    0.2616231 -51.84 0.0007953778    1.792    0.442
       149  -9.1537    129.3484     69.0290   7.8319284277e+01   4.2967460267e+01     0.683354    0.3627749  28.68  0.002262556    3.152    0.683
       150  -8.6132    130.6041     64.0569   7.6354411230e+01   4.3606552906e+01    0.4869927    0.2401906 -31.62  0.001698208    2.251    0.556
       151  -9.6361    158.8685    246.6624   1.0514138966e+02   7.7414582584e+00    0.2258595   0.07264315  33.22  0.001097696    2.553    0.608
       152  -9.8717     15.9709     70.7298   1.1978891395e+02   6.0523584371e+01    0.5435719    0.2467672 -53.75  0.001380333    2.002    0.501
       153 -10.0391     16.9514     60.8046   1.1784876856e+02   6.2887271087e+01    0.8072565    0.5531856 -56.22  0.004732166    1.305    0.233
       154 -10.2008    182.6768    244.5465   1.0089423097e+02   4.7977545345e+00    0.2199979    0.1339587  24.47   0.00156218    1.326    0.246
       155  -7.7251     96.0952    242.4545   1.1581136186e+02   1.6462039176e+01    0.1614314   0.07682342  37.38 0.0005205163    1.535    0.349
       156 -10.1918    131.9238    236.0675   1.0880290793e+02   1.2644464626e+01    0.1754526    0.1477786  40.22 0.0003056359    1.170    0.145
       157  -9.8372    187.9876    235.0085   9.8869563325e+01   5.0724249450e+00    0.2409198    0.1697587  -6.01  0.001775795    1.633    0.388
       158 -10.1316     12.1485     45.5743   1.1739641761e+02   6.6861750867e+01    0.8590692    0.4187272  -9.89   0.00303462    2.927    0.658
       159 -10.1508      5.0262     41.7132   1.2040509212e+02   6.8128382599e+01    0.6713678     0.293908 -76.82  0.002297706    1.930    0.482
       160  -7.6573    247.4394    225.4586   8.8117716219e+01  -1.8453704511e+00    0.1040947   0.07181714  16.31 0.0001796783    1.030    0.029
       161  -8.1442      3.9345    222.0665   1.3152045550e+02   2.9438857308e+01     0.116527    0.1119389  87.59  0.000435884    1.584    0.369
       162  -9.6733      6.9020     32.5210   1.1755315486e+02   7.0225914576e+01     0.294995    0.2185549 -17.72  0.001047334    1.534    0.348
       163 -10.1418      7.4029     28.4916   1.1630888907e+02   7.1145288338e+01    0.3908708    0.2755645  55.79  0.001435424    1.722    0.419
       164  -8.2755    162.8506     73.1764   7.1707125627e+01   3.4071591696e+01    0.3237293    0.1989347 -49.50 0.0006997769    1.810    0.448
       165 -10.5790     54.8252     70.8228   1.0385858001e+02   5.6749439729e+01    0.6194995    0.3884079  61.64  0.001134566    2.010    0.502
       166 -10.1357     61.9994     60.8376   9.8189166898e+01   5.8111962495e+01    0.8500724    0.2988498  32.59  0.002720271    3.257    0.693
       167  -7.1934    175.6280     72.3060   6.8886400669e+01   3.1069327113e+01    0.1582672    0.1181481 -71.92 0.0002746696    1.762    0.432
       168  -7.7199    169.1752     71.1199   6.9793246172e+01   3.2852166101e+01    0.2158143    0.1753697 -56.06 0.0005681998    1.355    0.262
       169  -9.2941    147.0579     69.3758   7.4027459048e+01   3.8623413307e+01    0.4135467    0.2776679 -61.19 0.0009676008    1.911    0.477
       170  -8.3964    156.7852     70.1265   7.2071468283e+01   3.6089517707e+01    0.2335599    0.2074295 -62.70 0.0005701628    1.223    0.182
       171 -10.4120     95.6488     64.3146   8.6812654826e+01   5.1384407674e+01     1.582744    0.4403991 -40.42   0.00437132    4.226    0.763
       172  -8.9512     55.9572     63.0109   1.0131210624e+02   5.8462439932e+01    0.4259792    0.2768294   9.46  0.001611631    2.220    0.550
       173  -7.8994     23.3062     68.9974   1.1646125596e+02   6.0438936823e+01    0.1829657    0.1410342 -75.08 0.0003394602    1.111    0.100
       174 -10.2907    120.3359     64.3980   7.9251100547e+01   4.5973517232e+01    0.5308689    0.4378492 -39.40  0.002641314    1.213    0.175
       175  -8.2385     75.6115     66.5496   9.4624052999e+01   5.4629500420e+01    0.3451448    0.1378542 -57.23  0.001223244    2.670    0.626
       176  -8.0447    170.8485     64.8219   6.7550128453e+01   3.3447416137e+01    0.2112048    0.1782819 -60.63 0.0004114446    1.304    0.233
       177  -9.3221    109.8600     63.9731   8.2169685775e+01   4.8436391112e+01    0.3946782    0.2761408 -60.69 0.0009649313    1.679    0.404
       178  -8.9081    110.8185     58.2298   7.9891460844e+01   4.9362879983e+01    0.3806565     0.303217   7.16 0.0008179699    1.582    0.368
       179  -9.6131     49.4944     63.6178   1.0417780662e+02   5.9157486824e+01    0.4797967    0.2482323 -49.29  0.002188794    1.806    0.446
       180  -8.1014    147.6051     63.5609   7.2033886153e+01   3.9509725056e+01    0.3264381    0.2039036  37.95  0.001089533    1.778    0.438
       181  -8.0177    157.6476     63.1378   6.9686776907e+01   3.7053008868e+01    0.2446101    0.1783657 -46.93 0.0007660438    1.426    0.299
       182  -8.1257    152.8236     60.7620   6.9954221935e+01   3.8670470740e+01    0.2125072    0.1813441 -71.95 0.0006021449    1.330    0.248
       183 -10.4495     90.0630     38.0182   7.8804311263e+01   5.7818287652e+01     1.105755    0.4912126  32.65  0.003548789    3.589    0.721
       184 -10.0806     73.4731     57.2142   9.2434232208e+01   5.7097549498e+01      1.19259    0.3985054 -44.40  0.002448817    3.008    0.667
       185  -9.2437     87.6142     57.3043   8.7183909949e+01   5.4475963446e+01    0.8098325    0.4058186 -33.65  0.003035337    2.486    0.598
       186 -10.3183     85.2093     48.0650   8.4645979100e+01   5.6871190934e+01    0.5208824    0.3957228 -84.54  0.001011043    1.877    0.467
       187  -9.1787     80.1487     46.3045   8.5861922499e+01   5.8219333465e+01    0.3538181    0.2074208 -42.30 0.0002543344    1.642    0.391
       188  -7.9345    164.3639     60.1411   6.7352905843e+01   3.5832693538e+01    0.2172938    0.1927746 -37.44  0.001112688    1.121    0.108
       189  -8.4601    149.8361     48.2911   6.6382435939e+01   4.1460456899e+01    0.2850922    0.2259794 -26.89 0.0006358609    1.284    0.221
       190  -8.7777    146.7411     58.5943   7.0588922802e+01   4.0578104601e+01    0.4746057     0.239109 -32.56  0.001312861    2.015    0.504
       191  -8.1155    147.7728     52.9937   6.8457042927e+01   4.1244905660e+01    0.3473499    0.1521077 -31.97 0.0005363309    2.302    0.566
       192  -9.2341    138.9127     56.7839   7.1801873475e+01   4.2865562747e+01    0.3628271    0.2294649 -44.92 0.0005023514    1.628    0.386
       193  -9.1239    118.0933     55.4195   7.6760865829e+01   4.8211836440e+01    0.3434448    0.2812915 -76.29 0.0006929207    1.479    0.324
       194  -9.2163    120.6620     47.8743   7.3263832487e+01   4.8960366536e+01    0.6043258    0.3352151 -24.14 0.0009489164    2.183    0.542
       195  -8.2267    122.6920     41.1106   7.0120139290e+01   4.9607041103e+01    0.4385754    0.2590168  15.70  0.001492212    3.143    0.682
       196  -8.9771    215.2504     53.2124   5.7076739818e+01   2.4156056104e+01    0.3894281    0.2216721 -24.78  0.001366661    1.661    0.398
       197  -9.3286    162.5278     53.5526   6.5581953175e+01   3.7336539722e+01    0.3570164    0.2835425 -37.25   0.00173915    1.246    0.198
       198  -9.0701    105.5744     51.7021   7.9121765229e+01   5.1814924127e+01    0.6089886    0.3255154 -33.47  0.002034648    2.000    0.500
       199  -8.8543    157.7890     49.4331   6.5141701675e+01   3.9203767410e+01    0.5910048    0.1421273 -41.45  0.001570647    4.213    0.763
       200  -7.8487    152.9639     53.9417   6.7658235241e+01   3.9752182531e+01    0.2441203    0.1815824 -64.67 0.0004429124    1.616    0.381
       201  -8.9912    142.0011     48.5275   6.8184603855e+01   4.3459832582e+01    0.3245883    0.2117836 -37.89 0.0009106916    1.522    0.343
       202  -9.6604    130.5154     45.9582   6.9976132522e+01   4.6827088609e+01    0.9156987    0.3630778 -24.05  0.002199706    3.627    0.724
       203  -9.2929    139.2998     39.9916   6.5674550275e+01   4.5505063438e+01    0.4727714    0.3985516 -67.98  0.001419003    1.322    0.243
       204  -8.6806    111.9720     46.9049   7.5355797739e+01   5.1228053825e+01    0.3029378    0.2153028 -48.42 0.0004825848    1.472    0.321
       205  -7.6569    189.3942     44.7653   5.8178236130e+01   3.1628422286e+01    0.1938652    0.1411051 -11.62  0.000249451    1.498    0.332
       206  -7.6535    133.8095    221.5979   1.0696866585e+02   1.4316470962e+01    0.1573633   0.08045335  44.57  0.000144436    1.542    0.352
       207  -8.5723    242.0692    208.6203   8.6421508731e+01   3.2966678570e-01    0.1762405    0.1223568   2.68 0.0003318155    1.200    0.166
       208  -9.9027     11.5183    207.2746   1.2976359015e+02   3.1272568521e+01    0.5519606     0.212434  30.78  0.003226817    2.339    0.572
       209  -8.0626    123.9821    205.9726   1.0713577028e+02   1.8012338448e+01    0.1671667    0.1305568  42.12 -0.002661949    1.006    0.006
       210 -10.0277     76.2500     32.1194   8.1401873037e+01   6.1761689848e+01    0.7899759     0.445441  63.71  0.001120146    2.899    0.655
       211  -9.1875    191.5851    193.5228   9.2469233641e+01   9.3201823809e+00    0.5176854    0.2838754 -57.12  0.002213011    4.679    0.786
       212  -8.8149     84.7936     21.7782   7.3194590466e+01   6.1766308650e+01    0.2670898    0.2242771 -42.95 0.0006233067    1.242    0.195
       213  -8.9221    153.0435     40.5071   6.2981725419e+01   4.1788762244e+01    0.3927915    0.2474922 -45.16  0.001169588    1.644    0.392
       214  -8.8421     40.0215     34.7944   9.9516752821e+01   6.6990229311e+01    0.3304944    0.2956118  43.75  0.001567818    1.283    0.220
       215  -9.8359     37.9685     42.2584   1.0321420505e+02   6.5534807669e+01    0.3951111    0.2823519  71.74  0.001365307    1.893    0.472
       216 -10.2744     35.8980     37.9731   1.0284384717e+02   6.6742534092e+01    0.3472927    0.2311549 -52.13 0.0003458685    1.300    0.231
       217  -9.2261    110.2943     33.1925   7.0280533630e+01   5.3978033992e+01    0.4457389    0.2564627 -41.16 0.0009190226    1.760    0.432
       218  -9.1628    104.9357     41.1009   7.5174842166e+01   5.3922477541e+01    0.4568872    0.2751275 -56.52  0.001675289    2.143    0.533
       219  -8.5276    105.9980     36.4978   7.2942939062e+01   5.4470955404e+01    0.3496412    0.2206741  40.74  0.001134768    1.655    0.396
       220  -8.3085    114.4169     40.8044   7.2250818297e+01   5.1709872826e+01    0.4855409    0.2466246 -17.43  0.001596416    3.202    0.688
       221  -9.3603     54.1770     36.8985   9.3224460948e+01   6.4632770667e+01    0.6126691    0.2236105 -43.05  0.002279951    2.665    0.625
       222  -9.1595    240.1290    190.4816   8.3811588700e+01   2.3512747416e+00     0.228234    0.2222557  76.24  0.001194013    1.939    0.484
       223  -7.3185    152.7733    187.9552   9.9015574211e+01   1.6315467772e+01    0.1353285    0.1045616 -40.98 0.0003357198    1.566    0.361
       224  -9.0428    228.1445    185.5998   8.4895957619e+01   4.6144579392e+00    0.2146108    0.1649036  22.39  0.001093471    1.106    0.096
       225  -9.2979    229.2448    180.6898   8.3874833778e+01   4.9866602705e+00    0.2431055    0.1542932  13.31 0.0001489325    1.448    0.309
       226  -8.4556     41.8822     28.1614   9.5825225518e+01   6.8200592685e+01    0.2332577    0.1706197 -34.83 0.0002759544    1.293    0.227
       227  -7.5571    160.3433     39.1693   6.1125295296e+01   4.0031239274e+01    0.2341796    0.1293756 -38.53 0.0009491594    1.773    0.436
       228  -7.5783    190.5155     37.9968   5.5918471526e+01   3.2212811762e+01    0.2099597    0.1034479 -48.91  0.000377912    2.212    0.548
       229  -8.8304    144.1021     36.4501   6.3315358851e+01   4.4760041465e+01    0.2905823     0.210798 -41.53 0.0006184281    1.393    0.282
       230  -8.7100    132.7585     35.9768   6.5629192719e+01   4.7829020652e+01    0.2995768    0.2468713 -25.39 0.0004321293    1.237    0.192
       231 -10.8525    134.0434     30.9415   6.3359598745e+01   4.8226598441e+01    0.4024416    0.3188742   1.24  0.001934106    1.444    0.308
       232  -8.8102    118.9559     34.6651   6.8518074989e+01   5.1586350704e+01    0.3731401    0.2086397 -35.28 0.0006958144    1.768    0.434
       233  -7.4119     10.2332    180.4033   1.2918937075e+02   3.6296317056e+01    0.1449133     0.074471  45.17 0.0003171405    1.496    0.332
       234  -8.5792    153.5269     34.8540   6.0858941034e+01   4.2459567155e+01    0.2273844    0.1508748 -28.05 0.0004893675    1.515    0.340
       235  -8.4115    163.1456     34.1111   5.8864752095e+01   3.9968087924e+01    0.2220342    0.2008688  29.02 0.0003787585    1.164    0.141
       236  -7.6475    239.3430    175.9592   8.1434806687e+01   3.9756493310e+00    0.1636067    0.1231965   1.59 0.0004065082    1.105    0.095
       237  -9.1619     91.2993     25.9908   7.2964762199e+01   5.9633873626e+01    0.4308649    0.2538515 -51.07  0.001304571    2.049    0.512
       238  -8.8021     92.0556     20.9820   7.0300993925e+01   6.0244986481e+01    0.3663656    0.2594641  12.95  0.001271185    1.739    0.425
       239  -9.2177    154.7569     26.7697   5.7682179908e+01   4.3193920466e+01    0.4265414    0.1912268  77.10  0.001421106    2.935    0.659
       240  -9.3428    229.1585    175.5562   8.2987447609e+01   5.5721355219e+00    0.2358048    0.1758909 -23.63 0.0004130607    1.422    0.297
       241  -8.8773    144.4057     25.9942   5.9282948574e+01   4.6111981541e+01    0.2794611    0.2140668 -86.12 0.0007613339    1.493    0.330
       242  -8.0206    140.4973     23.0368   5.8881655209e+01   4.7551903922e+01    0.2228066    0.1496029 -27.33 0.0004584481    1.505    0.335
       243 -10.1319    101.0054    175.9974   1.0844916616e+02   2.6520144558e+01    0.1795051    0.1494989  50.35            0    1.003    0.003
       244 -10.3273    197.2149    173.0159   8.8039259619e+01   1.1051123415e+01    0.2306018    0.2019996  17.91 0.0003582178    1.115    0.103
       245  -8.3989    149.9476    174.9671   9.7618536871e+01   1.8812743106e+01    0.1853839    0.1576791  31.19  0.001178132    1.046    0.044
       246  -9.1146     83.1801    174.1912   1.1231251887e+02   2.9433862345e+01    0.1894537    0.1615183  49.99 0.0003546263    1.082    0.076
       247  -7.4251      8.5142    170.9849   1.2923797364e+02   3.8276970501e+01    0.1569044   0.05802279  65.78 0.0005140757    2.244    0.554
       248  -8.4149    230.3696    168.0679   8.1438262945e+01   6.2340818031e+00    0.2199966    0.1413724 -37.92  0.001295923    1.916    0.478
       249  -8.7636     82.9236    158.9521   1.1059123093e+02   3.2509218502e+01    0.1811835    0.1614084  56.36  0.001171698    1.073    0.068
       250  -8.9402    217.1995    156.0486   8.1359058770e+01   9.8605013857e+00    0.1967559    0.1531224  25.26 0.0002909257    1.118    0.105
       251  -8.9950    111.5693     20.9767   6.4551501854e+01   5.5481700453e+01    0.4021046    0.1490923 -27.65  0.001374408    2.749    0.636
       252  -8.1884    203.2601    155.0407   8.3610086403e+01   1.2427821090e+01    0.2930216    0.1483296 -39.83  0.001414914    2.237    0.553
       253  -9.1155    103.0561     21.1354   6.6974065259e+01   5.7591489959e+01      0.33102    0.2530601 -43.84  0.000623724    1.380    0.275
       254  -7.5783    145.4933    152.0753   9.4692775571e+01   2.3483095109e+01     0.176091    0.1368109 -44.24 0.0002914374    1.445    0.308
       255  -8.6396     41.0949     20.9081   9.2926779449e+01   6.9806089746e+01     0.217505    0.1783239 -13.62 0.0004334054    1.246    0.198
       256  -8.7587    133.5773    146.2984   9.6353962232e+01   2.6723349579e+01    0.4789806     0.140171 -52.38  0.001561733    4.188    0.761
       257  -8.5509    154.4885     16.9851   5.4082640358e+01   4.4434980030e+01    0.3383766    0.1585858 -65.99  0.001050814    3.610    0.723
       258  -9.3956     66.8580    144.2818   1.1286943568e+02   3.7837199593e+01    0.4791164    0.2509212  58.07  0.002304596    1.937    0.484
       259  -8.5541    244.4953    144.4573   7.4680271038e+01   6.6741404148e+00    0.1241644   0.09969736   4.45 4.214117e-05    1.004    0.004
       260  -9.4833    238.1239    134.7164   7.3649889240e+01   8.8999093471e+00    0.2120622    0.1509171 -28.71 0.0007313716    1.388    0.280
       261  -7.3940     86.9798    134.0000   1.0599902298e+02   3.7225254284e+01    0.2922896    0.1266882  41.88  0.001235118    2.094    0.522
       262  -8.4991     82.3275    131.2143   1.0682712338e+02   3.8554015516e+01    0.4101177    0.2391889 -88.87  0.001807893    2.334    0.572
       263  -9.6851    134.0407    131.7920   9.3432930483e+01   2.9427975550e+01    0.5378803    0.3503701  51.35   0.00260379    1.512    0.339
       264  -6.9096      9.6669    133.2851   1.2733117964e+02   4.6138970684e+01    0.1258882   0.06588408  59.01 0.0004283272    1.619    0.383
       265 -10.7404     69.8161    126.6280   1.0964355149e+02   4.1403357090e+01    0.7024035    0.5810959 -27.82  0.001817978    1.614    0.380
       266 -10.0694     58.3079    124.6016   1.1269277575e+02   4.3387718767e+01    0.6127613    0.3057982  71.29  0.002467665    2.698    0.629
       267  -8.5534    112.2929    133.8637   9.9271377958e+01   3.3040657312e+01    0.2992952    0.2156306  79.11  0.001018359    1.767    0.434
       268  -9.7531     98.5161    128.5804   1.0193538892e+02   3.6551742490e+01     0.580018    0.3286538  68.46  0.002210967    2.642    0.621
       269  -7.7135    160.5219    128.9971   8.6728697428e+01   2.4695151096e+01     0.212233     0.141506 -39.88  0.001034572    1.598    0.374
       270 -10.0610    117.3756    124.2871   9.6076186314e+01   3.4117015449e+01    0.8705279     0.552294 -55.60  0.002439388    1.692    0.409
       271 -10.7212    131.6379    119.5659   9.1412070868e+01   3.2326694061e+01    0.9645104    0.5861139  76.35  0.002849082    3.405    0.706
       272 -11.0208    133.5269    109.5339   8.8606450623e+01   3.3963002695e+01     1.422592    0.4665654 -51.19  0.004381299    3.726    0.732
       273 -10.5821    123.7273     90.7578   8.6343026673e+01   3.9886670916e+01     1.240206    0.5941631 -35.01  0.002421037    2.563    0.610
