#   1 NUMBER                 Running object number                                     
#   2 MAG_AUTO               Kron-like elliptical aperture magnitude                    [mag]
#   3 X_IMAGE                Object position along x                                    [pixel]
#   4 Y_IMAGE                Object position along y                                    [pixel]
#   5 X_WORLD                Barycenter position along world x axis                     [deg]
#   6 Y_WORLD                Barycenter position along world y axis                     [deg]
#   7 A_WORLD                Profile RMS along major axis (world units)                 [deg]
#   8 B_WORLD                Profile RMS along minor axis (world units)                 [deg]
#   9 THETA_WORLD            Position angle (CCW/world-x)                               [deg]
#  10 FWHM_WORLD             FWHM assuming a gaussian core                              [deg]
#  11 ELONGATION             A_IMAGE/B_IMAGE                                           
#  12 ELLIPTICITY            1 - B_IMAGE/A_IMAGE                                       
         1 -12.4647    210.7382      3.0594   6.0107203624e+01   3.2257131798e+01     1.152243    0.6271695  66.96  0.002762698    1.592    0.372
         2 -13.2431    187.9910     27.0968   6.8649547273e+01   3.5100454502e+01      1.63124     1.324559 -29.79  0.005842982    1.419    0.295
         3 -13.0556    196.0082     20.8799   6.5995052206e+01   3.3862892980e+01     1.171413     0.890742 -75.14  0.004728297    1.276    0.216
         4 -11.9906    201.9488     12.6458   6.3267587576e+01   3.3342828976e+01    0.5922343    0.4847259  62.61  0.001204953    1.230    0.187
         5 -11.0928     29.5308     18.0429   1.0694987862e+02   6.7592641865e+01    0.5415084   0.09340609 -40.97  0.001894653    5.246    0.809
         6  -9.0832     58.3196      5.3138   9.0275686697e+01   6.5326355034e+01    0.1217155    0.0721184  14.96 0.0005593252    1.651    0.394
         7 -10.6919     46.7164      3.5823   9.3726170251e+01   6.7209984588e+01    0.2502177     0.144355  44.43  0.001162124    1.955    0.489
         8 -11.0480     77.0364    184.2758   1.3213196651e+02   2.7206107405e+01    0.3002969    0.2386507 -56.65 0.0006248213    1.362    0.266
         9  -9.2713    249.1740    250.3845   1.0783026723e+02  -1.4311642909e+01    0.1603136   0.09543727  40.89 0.0009551811    1.706    0.414
        10 -11.7689    139.8066    249.2189   1.2789859679e+02   3.6659644282e+00    0.7046522    0.2763139  49.91  0.003109549    2.256    0.557
        11 -11.6387    126.8996    244.1858   1.2971281289e+02   6.7210532423e+00    0.4218121    0.2937294  61.85  0.002490064    1.324    0.245
        12 -12.4210     97.5044    247.6518   1.3560901294e+02   1.0883506433e+01    0.7755277    0.6265538  27.35  0.004959789    1.718    0.418
        13 -11.1156     81.8397    249.0702   1.3858092231e+02   1.3007401410e+01    0.3809809     0.245298  65.31  0.002373867    1.291    0.225
        14 -10.9514     83.2430    243.2305   1.3776550523e+02   1.3885292001e+01    0.2792376    0.1880944 -76.37  0.001741124    1.501    0.334
        15 -10.6250     62.2571    248.8679   1.4199623124e+02   1.5837551099e+01    0.6199801    0.2231354  59.18  0.002837745    2.695    0.629
        16 -11.2982     70.0547    245.1924   1.4031881971e+02   1.5437872206e+01    0.3330216    0.3194177 -84.02  0.002493353    1.511    0.338
        17 -13.9677     34.5578    247.4058   1.4653711179e+02   1.9676477436e+01     2.089176     1.269457  51.43   0.01426549    1.430    0.301
        18 -12.4822     48.6306    231.1986   1.4292323778e+02   2.1049573422e+01    0.7353083    0.4402589  44.12  0.002678263    1.642    0.391
        19 -12.4464     49.5608    222.8427   1.4203909190e+02   2.2613872465e+01    0.5369442    0.4284687 -63.16  0.001379709    1.532    0.347
        20 -14.8999     57.4113    210.4971   1.3937483330e+02   2.4163447279e+01     7.259705     1.476612  49.10   0.02257868    4.408    0.773
        21  -9.8849     37.6483    176.7650   1.3987532460e+02   3.4052483360e+01    0.2746719    0.1262891  44.02  0.001388973    2.181    0.541
        22 -10.5324    118.7057    174.4181   1.2097393245e+02   2.2483803857e+01    0.5554081    0.1515618  45.69  0.001697665    3.567    0.720
        23 -10.6598     84.9714    172.7960   1.2862452470e+02   2.8652358318e+01    0.3387201    0.2575283  77.58 0.0004767065    1.310    0.237
        24 -12.7302     57.5244    128.8768   1.2811801939e+02   4.2926662179e+01     2.435324    0.7695681 -70.24   0.00600005    6.822    0.853
        25 -11.9871     91.0410    165.0704   1.2591808863e+02   2.9498380084e+01     1.800425    0.7551638  54.49  0.001386603    2.961    0.662
        26 -13.0565     68.4457    145.5403   1.2819806520e+02   3.7549792395e+01     1.872043    0.9681673  85.00  0.006210294    4.161    0.760
        27 -10.0961     44.3770    173.1639   1.3798673209e+02   3.4107592780e+01    0.2009791    0.1430649  51.77 0.0007821286    1.430    0.301
        28  -9.3192    138.6141    171.7923   1.1584142441e+02   1.9235078658e+01    0.2154457    0.1413666 -63.76 0.0009545434    1.692    0.409
        29  -8.3849    229.6823    166.3352   9.5446170177e+01   1.5961898745e+00    0.1389398    0.1133516 -75.19 0.0004429252    1.697    0.411
        30 -13.9853     11.3489    206.7584   1.4772353432e+02   3.0269524442e+01     1.227893     0.909743  51.32  0.005195384    1.435    0.303
        31  -9.5236    163.7655    156.4495   1.0686714818e+02   1.7376710727e+01    0.3429344    0.2587224 -89.28  0.001530562    1.769    0.435
        32 -11.8074     45.7135    145.3996   1.3396072778e+02   4.0426751818e+01    0.5362014    0.2969642 -85.23  0.002546297    2.047    0.511
        33  -9.4355    134.3365    146.8715   1.1169897258e+02   2.5759409021e+01    0.6293921    0.1451857 -53.35  0.001482198    5.453    0.817
        34  -9.2899    103.0647    148.4946   1.1987028590e+02   3.1384148346e+01    0.2859246    0.2660381 -69.40 0.0008735612    1.047    0.045
        35  -9.0746    105.4741    144.9964   1.1854598890e+02   3.1782359296e+01    0.3544241    0.2234965 -34.80  0.001137191    2.055    0.513
        36 -11.4613     92.0726    147.8858   1.2255584501e+02   3.3407982762e+01     0.288776    0.2602001 -42.31 0.0004443808    1.226    0.184
        37 -11.9347     55.0516    146.2695   1.3173891731e+02   3.9123319789e+01    0.5695193    0.3843823 -42.19  0.003042147    1.705    0.414
        38  -9.3953    112.9925    134.7892   1.1440652315e+02   3.2793355205e+01    0.3507689    0.2743785 -15.55  0.001045265    1.747    0.428
        39 -10.0760    100.4236    131.7619   1.1704996604e+02   3.5803905702e+01     0.300123    0.2358361 -32.42 0.0004911775    1.462    0.316
        40 -12.5811     41.6078    123.2616   1.3148282589e+02   4.6044742850e+01    0.7607806    0.3591216 -71.08  0.003456373    2.108    0.526
        41  -9.3617    161.1541    127.1337   1.0063421167e+02   2.4331796815e+01     0.228396    0.1920118 -79.88  0.001087814    1.348    0.258
        42  -8.8687    108.9916    122.4698   1.1261722864e+02   3.6404521786e+01    0.2120694    0.1940262 -55.54 0.0003400118    1.047    0.044
        43 -12.5985     73.1241    169.9268   1.3096686095e+02   3.1108168573e+01    0.4975929    0.2862614 -45.88  0.001429732    2.070    0.517
        44 -10.1799    168.3216    113.1458   9.5470527355e+01   2.5626159594e+01    0.3774361    0.3129683 -71.66 0.0008826712    1.339    0.253
        45 -10.8504     33.3636    110.4494   1.3153934096e+02   4.9781155778e+01    0.4688752    0.1653523 -69.06  0.001798475    3.068    0.674
        46  -8.9639    205.7754    110.3798   8.7087203501e+01   1.7309903712e+01    0.2731503    0.1924682  45.16  0.001074568    1.508    0.337
        47 -16.1499      7.6681    241.4860   1.5047194651e+02   2.3790728814e+01     22.13319    0.9597575 -74.72   0.02495344   13.304    0.925
        48  -9.4099    226.0435    200.8388   1.0314605241e+02  -3.6470006092e+00    0.2610616    0.1908399 -47.87 0.0007198415    1.607    0.378
        49  -8.6949    114.3311     45.6431   8.8750702546e+01   5.0199480862e+01    0.1374489    0.1097551 -74.51 0.0007043607    1.790    0.441
        50 -11.2122    179.4099    248.6482   1.2031144754e+02  -3.0249013913e+00    0.5364625    0.2100393  36.60  0.002327897    2.339    0.572
        51 -11.2332    108.7819    245.8973   1.3333338510e+02   9.4097106312e+00    0.3498974    0.2392036  71.69  0.001264416    1.427    0.299
        52 -11.4058     74.4746    233.4503   1.3841463455e+02   1.7063490383e+01    0.6585431    0.2804421  79.08  0.002220459    5.047    0.802
        53 -11.5600     67.5969    232.6270   1.3960800856e+02   1.8211029983e+01    0.5212288    0.3089079 -56.83  0.002987784    2.013    0.503
        54 -10.3196     32.6776     31.0665   1.1072251598e+02   6.5385978588e+01     0.357557   0.07741632 -41.03    0.0013685    3.823    0.738
        55 -11.0868     72.7253    190.7997   1.3395163807e+02   2.6357271214e+01    0.4192302    0.2567852 -45.98  0.001833187    2.120    0.528
        56 -10.0568    192.1942    193.1697   1.0831707018e+02   4.0372260460e+00    0.5401332    0.3067396 -69.08  0.001774912    4.381    0.772
        57 -11.6268    152.1151    228.4737   1.2262327102e+02   5.1231838415e+00    0.6414043      0.25244  39.82  0.002630801    2.315    0.568
