#   1 NUMBER                 Running object number                                     
#   2 MAG_AUTO               Kron-like elliptical aperture magnitude                    [mag]
#   3 X_IMAGE                Object position along x                                    [pixel]
#   4 Y_IMAGE                Object position along y                                    [pixel]
#   5 X_WORLD                Barycenter position along world x axis                     [deg]
#   6 Y_WORLD                Barycenter position along world y axis                     [deg]
#   7 A_WORLD                Profile RMS along major axis (world units)                 [deg]
#   8 B_WORLD                Profile RMS along minor axis (world units)                 [deg]
#   9 THETA_WORLD            Position angle (CCW/world-x)                               [deg]
#  10 FWHM_WORLD             FWHM assuming a gaussian core                              [deg]
#  11 ELONGATION             A_IMAGE/B_IMAGE                                           
#  12 ELLIPTICITY            1 - B_IMAGE/A_IMAGE                                       
         1 -13.9260    213.5688      3.6921   4.4358929270e+01   3.0925758919e+01      1.73498    0.6822013  62.45  0.005488907    2.262    0.558
         2 -15.1554    190.0149     32.9849   5.6099385468e+01   3.3766816071e+01     3.376784     1.921816  17.98   0.01241115    2.892    0.654
         3 -11.3852     58.0047      3.6905   7.7065713340e+01   6.6471353437e+01    0.1736694    0.1397932   4.62 0.0009574419    1.091    0.084
         4  -9.3509     67.9825    225.5555   1.2162313740e+02   2.1668273653e+01    0.1642282   0.08798935  44.75 0.0003387197    1.710    0.415
         5 -17.0368     61.4667    248.3349   1.2421843371e+02   1.8847368426e+01     8.082831     2.720806  35.29   0.02967605    6.506    0.846
         6 -19.3908     17.7227    134.0895   1.2303877480e+02   4.4881191063e+01     16.61097     2.602068 -73.38   0.05180505    5.815    0.828
         7 -11.7009     39.7252    212.9710   1.2527300089e+02   2.7242125846e+01    0.2071696    0.1007103  57.54  0.001029187    1.619    0.382
         8 -11.8430     71.7116    210.9950   1.1980873275e+02   2.3688344527e+01     0.238909    0.1687087  54.71 0.0005657444    1.246    0.197
         9 -10.4941     76.3849    206.4596   1.1859105622e+02   2.3871855117e+01    0.3259466    0.1408167 -63.65  0.001158193    2.353    0.575
        10 -11.6714     54.5683    210.5639   1.2266836481e+02   2.5937565415e+01    0.4758244    0.1619878  51.86  0.001626092    2.360    0.576
        11 -12.4084     63.3412    205.7177   1.2078945316e+02   2.5718391674e+01     0.341994    0.2060229  74.24  0.001441757    1.432    0.301
        12 -12.6793     60.6795    202.4957   1.2097548624e+02   2.6640820696e+01    0.4957255    0.2871933 -74.68  0.001565118    1.608    0.378
        13  -9.9224     37.7985    207.0000   1.2518674628e+02   2.8517141584e+01    0.1331269    0.0508976  40.97 0.0003507549    2.508    0.601
        14 -10.0105     50.4908    204.7100   1.2290369933e+02   2.7478596718e+01    0.1630833    0.1121727  44.63 0.0009805948    1.568    0.362
        15 -13.0640    116.0132    201.2506   1.1088773081e+02   1.8915982181e+01    0.9448208    0.3264869  57.89  0.003394271    4.013    0.751
        16 -12.7872    113.0954    195.7250   1.1074211551e+02   2.0373349116e+01    0.5265189    0.3810058  11.41  0.002707962    2.873    0.652
        17  -9.0192     87.3301    204.6766   1.1648388120e+02   2.2668789359e+01    0.1244052   0.07150649  70.52 0.0003096966    1.699    0.411
        18  -9.6719     87.8353    201.6012   1.1607623587e+02   2.3152628580e+01     0.201812    0.1176767  72.39  0.001161941    1.711    0.415
        19  -9.1026     45.7526    204.6443   1.2369844541e+02   2.8044539406e+01    0.1351246   0.07554156  56.83 0.0003279907    1.454    0.312
        20 -11.2473    157.5082    201.0604   1.0317909172e+02   1.1845305338e+01    0.3360699     0.217501 -85.69   0.00164822    2.597    0.615
        21 -10.6490     95.1250    200.2693   1.1460977557e+02   2.2329768813e+01    0.2966276     0.180639  73.85 0.0009337859    1.664    0.399
        22 -11.3800     99.6123    197.0535   1.1342033204e+02   2.2241953156e+01    0.3141303    0.2459728  22.84  0.001517854    1.972    0.493
        23 -10.4960     25.6625    202.4593   1.2687857011e+02   3.0625627887e+01    0.2073289   0.08584005  46.11 0.0009889929    2.090    0.522
        24 -11.9343    192.8875    194.3559   9.5600419433e+01   6.3692943033e+00    0.8326478    0.4356901 -63.21  0.002927358    5.161    0.806
        25  -9.6165     43.1737    200.0489   1.2379306306e+02   2.9179472688e+01    0.1383932   0.09870277  80.47 0.0003018357    1.051    0.048
        26 -11.6541    121.1483    197.9389   1.0951560865e+02   1.8664208888e+01    0.2583822    0.1633556 -70.70 0.0009072429    1.788    0.441
        27 -10.8971    208.6542    196.6104   9.3151288830e+01   3.1188528268e+00     0.217566    0.1587794 -37.01 0.0005872113    1.589    0.371
        28 -10.1687     81.9690    195.5757   1.1651400873e+02   2.5096444250e+01    0.2448969    0.1783665 -66.78  0.001636237    1.454    0.312
        29 -11.3426    153.2752    193.8163   1.0288287692e+02   1.3799593314e+01    0.3589388    0.2173095  67.15  0.001405824    2.077    0.518
        30 -13.0439     70.3864    189.0189   1.1797772403e+02   2.7918150909e+01    0.6261668    0.5104511  89.33  0.004518149    1.130    0.115
        31 -11.3605     96.4732    187.9704   1.1293572114e+02   2.4413774184e+01     0.393243    0.2973642  65.58  0.001348084    1.121    0.108
        32 -12.2195    110.5595    188.5712   1.1030664239e+02   2.2097336192e+01      0.38855    0.2824896 -11.44  0.001864015    3.362    0.703
        33 -10.0701    128.3171    184.6500   1.0631500037e+02   1.9854400087e+01    0.1353426   0.09081794  76.39 0.0001281534    1.733    0.423
        34 -11.0229    150.9356    182.5076   1.0155689370e+02   1.6177361290e+01    0.2274888    0.1767964 -79.90  0.000591929    1.527    0.345
        35 -11.8722    116.4517    182.0511   1.0827395619e+02   2.2358692654e+01    0.2936556    0.2274393 -27.86  0.001661011    2.063    0.515
        36 -11.0762     99.4344    180.7013   1.1144866003e+02   2.5357079413e+01    0.2270024    0.1904022  71.11 0.0005725866    1.029    0.028
        37 -11.4110    143.7052    179.3120   1.0246327456e+02   1.8084885954e+01    0.2566679     0.197689   4.99  0.001348595    2.087    0.521
        38 -10.0203     70.0806    178.6075   1.1694220848e+02   2.9990077417e+01    0.1939596    0.1337363  80.52 0.0007441747    1.280    0.219
        39 -10.2895     94.4418    250.2178   1.1940316496e+02   1.4235525690e+01    0.1789337    0.1095837  53.16 0.0005676917    1.218    0.179
        40 -12.5299    134.3888    172.3487   1.0320556636e+02   2.1081057554e+01    0.8680817    0.2777893  43.37  0.003225037    2.928    0.658
        41  -9.9837    165.1816    171.9581   9.6944394131e+01   1.5326052163e+01    0.2004559    0.1713348  80.65 0.0004990533    1.305    0.234
        42 -10.5582    201.6963    168.9520   8.9310686708e+01   8.5453188150e+00    0.3954299    0.2562786 -56.28  0.001891917    2.139    0.533
        43 -10.7525    204.2100    165.3187   8.8116853023e+01   8.6124581860e+00    0.5005266    0.2823728 -46.01  0.001891627    2.066    0.516
        44 -11.4491    194.0286    166.9994   9.0379161953e+01   1.0405312021e+01    0.3117231    0.2992995  54.79 0.0008061557    1.124    0.110
        45 -10.4389    190.4876    161.3435   8.9936565768e+01   1.2066253726e+01    0.3140005    0.2589861 -79.67  0.001226543    1.609    0.379
        46 -10.2807    139.7878    168.0080   1.0137870650e+02   2.0915304343e+01    0.2091299    0.1704574  78.88 0.0008868907    1.277    0.217
        47  -9.1134     64.2648    223.7409   1.2208326005e+02   2.2448609564e+01    0.1993375    0.0689024  61.91 0.0004336196    3.055    0.673
        48 -10.5466    159.7879    164.4179   9.6646987659e+01   1.7744287014e+01    0.2547364    0.2052698 -88.74 0.0007689849    1.489    0.328
        49 -12.6549     97.2030    154.0858   1.0812176638e+02   3.1097266661e+01    0.5834275    0.4384295 -36.57  0.003247639    1.842    0.457
        50 -11.1286    188.9525    154.9618   8.8932407031e+01   1.3472254719e+01    0.4496635     0.372611  72.29  0.002425401    1.429    0.300
        51 -11.5411    133.8101    145.1343   9.8479440975e+01   2.6568377960e+01      1.09205    0.2820168 -55.71  0.002858231    5.744    0.826
        52  -9.8865    113.3506    151.4130   1.0414623384e+02   2.8993385474e+01      0.25864    0.1515172 -78.91 0.0008018104    2.335    0.572
        53 -10.3313    174.6758    148.9218   9.0536063793e+01   1.7549065071e+01    0.2578167    0.2219222  89.28 0.0006985064    1.368    0.269
        54 -11.2080    143.9445    146.9589   9.6620517572e+01   2.4229548552e+01     0.437971    0.2391974 -65.69  0.001748482    2.605    0.616
        55  -9.5766     81.0374    220.5273   1.1906844956e+02   2.0780517345e+01    0.1601532    0.0895476  47.95  0.000427034    1.525    0.344
        56  -9.6590    115.8296    144.5916   1.0238401851e+02   2.9988226100e+01    0.1936428    0.1197338  56.77 0.0006651728    1.662    0.398
        57 -11.8995    108.1413    139.8897   1.0326811079e+02   3.2318208578e+01    0.5152888    0.3072233 -38.92  0.002369907    2.199    0.545
        58 -12.5795     96.4877    139.6356   1.0590253706e+02   3.4290694526e+01    0.2901451    0.2437603 -75.25 0.0008824109    1.091    0.084
        59 -11.3936    105.9614    130.3491   1.0197274745e+02   3.4744157450e+01    0.4195211     0.280403 -60.86  0.002079961    1.440    0.306
        60 -11.2847    103.1392    126.2106   1.0183326849e+02   3.6121232031e+01     0.287272    0.2425879 -38.12  0.001633944    1.365    0.267
        61 -11.1246    115.3001    130.1152   9.9715939005e+01   3.3160695151e+01    0.3145576    0.2630306 -35.23  0.000821634    1.400    0.286
        62 -11.1610    135.9063    127.7270   9.4399532028e+01   2.9753365606e+01     0.552634    0.1389234 -50.99  0.001550553    4.400    0.773
        63 -10.7126    120.0121    124.4633   9.7417805947e+01   3.3510606466e+01    0.2690809    0.1979424 -36.30 0.0008342046    1.570    0.363
        64 -10.3813    160.4001    127.5828   8.8857907038e+01   2.4671272527e+01    0.3252096    0.2598695 -75.72  0.001609074    1.505    0.336
        65 -10.2665    110.3217    119.0364   9.8593664422e+01   3.6442727156e+01    0.2175582    0.1956438  57.21 0.0003693074    1.141    0.124
        66 -10.2093    167.8933    112.8696   8.3663148694e+01   2.5881506731e+01    0.3854854    0.2570237 -81.21  0.001195673    2.610    0.617
        67 -10.3864    135.0000    112.4430   9.1079163245e+01   3.3126250453e+01     0.331616   0.08267991 -45.97 0.0009366046    3.950    0.747
        68 -11.5231    119.5462    110.7417   9.4435980290e+01   3.6538387577e+01    0.5619081    0.3006301  59.04  0.002253936    2.407    0.585
        69 -10.1535    205.6195    110.1175   7.5282120614e+01   1.7581048685e+01    0.2845347    0.2147981  41.91 0.0006132616    1.324    0.245
        70 -10.2144     41.6657     91.8546   1.1123526399e+02   5.1935181990e+01    0.1761592     0.158418 -37.52 0.0004302122    1.279    0.218
        71 -10.8383     53.0595     90.8310   1.0779642672e+02   5.0976738692e+01    0.2385041    0.1605465 -50.50  0.001214713    1.312    0.238
        72  -9.2491    153.5059     80.4686   7.8051391938e+01   3.5443234999e+01    0.1525256    0.1496112  -7.51  0.000151462    1.015    0.014
        73 -12.2439    166.2217     66.4283   7.0983864770e+01   3.4883577725e+01    0.5940765    0.3966503 -61.42  0.000813593    1.956    0.489
        74  -9.8957     62.7185    234.2418   1.2309200138e+02   2.0907507373e+01     0.144197   0.09096902  61.22 0.0006164631    1.163    0.140
        75 -13.4568    175.0512     47.9599   6.3411456978e+01   3.5596959420e+01     0.900968    0.6809497 -19.43 0.0008606064    1.405    0.288
        76 -10.3561     72.0639    230.0038   1.2131259880e+02   2.0401569883e+01    0.1534657    0.1071815  67.10 0.0003486699    1.045    0.043
        77  -8.6916     62.6088    214.6983   1.2165226299e+02   2.4212701095e+01    0.3114316   0.08299515  54.41  0.001360254    3.351    0.702
