#   1 NUMBER                 Running object number                                     
#   2 MAG_AUTO               Kron-like elliptical aperture magnitude                    [mag]
#   3 X_IMAGE                Object position along x                                    [pixel]
#   4 Y_IMAGE                Object position along y                                    [pixel]
#   5 X_WORLD                Barycenter position along world x axis                     [deg]
#   6 Y_WORLD                Barycenter position along world y axis                     [deg]
#   7 A_WORLD                Profile RMS along major axis (world units)                 [deg]
#   8 B_WORLD                Profile RMS along minor axis (world units)                 [deg]
#   9 THETA_WORLD            Position angle (CCW/world-x)                               [deg]
#  10 FWHM_WORLD             FWHM assuming a gaussian core                              [deg]
#  11 ELONGATION             A_IMAGE/B_IMAGE                                           
#  12 ELLIPTICITY            1 - B_IMAGE/A_IMAGE                                       
         1 -13.8622    216.5809      8.6228   3.7508086004e+01   3.0018982712e+01     2.029366     1.121704  46.15   0.00993795    2.319    0.569
         2 -13.0908    176.1240     53.5970   5.4915023114e+01   3.4255458110e+01      1.79157     1.101131  32.23  0.005308202    2.188    0.543
         3 -13.3961    191.1672     40.2313   4.8677125607e+01   3.2401241777e+01     1.028081    0.9807302  52.95  0.003656854    1.134    0.118
         4 -12.8419    196.2043     34.2806   4.6340947950e+01   3.1936389942e+01    0.6857315    0.6075172  84.64  0.001199227    1.074    0.069
         5 -11.7297    210.0872     33.2535   4.4342837826e+01   2.8691673887e+01     0.504304     0.413353  33.43  0.002848668    1.533    0.348
         6 -10.5033    189.6122     14.6844   4.1790046188e+01   3.5860665491e+01    0.2575684    0.2133417 -67.95 0.0006935038    1.152    0.132
         7 -10.7334     67.6337      2.8500   6.1576850321e+01   6.5263794292e+01    0.2620082     0.130065  31.30  0.001177175    1.933    0.483
         8 -10.9200     54.9855    222.5093   1.1876386631e+02   2.1315443026e+01    0.1745733    0.1279633  60.31  0.000689442    1.119    0.107
         9 -12.0105    248.4681    246.0892   8.5271188473e+01  -1.1277721710e+01    0.4979116    0.3210975 -34.95  0.003299279    1.881    0.468
        10 -11.1105     33.5214    207.0543   1.2167345706e+02   2.6990346815e+01    0.3094438    0.1459619  71.58  0.001264816    2.125    0.529
        11  -9.4934    193.3451    205.2895   8.8325387682e+01   2.5918955051e+00    0.1377088   0.09534995   8.72  0.000702493    1.655    0.396
        12  -8.7771     93.4915    205.4868   1.0921538978e+02   1.9460351777e+01     0.189208    0.1223515  29.33 0.0009134828    1.812    0.448
        13  -9.7749     96.4376    202.2448   1.0817322547e+02   1.9685362623e+01    0.3266917    0.1495665 -56.94  0.001145573    2.266    0.559
        14 -10.7691     66.1365    204.6187   1.1487485485e+02   2.3542689637e+01    0.2496969    0.1666314 -57.19 0.0009832268    1.667    0.400
        15 -10.9632    192.3555    194.3035   8.6504115438e+01   4.6034493785e+00     1.155987    0.6067601 -62.57  0.003576468    5.661    0.823
        16  -9.2205    163.6352    202.8246   9.3903734437e+01   8.2166206454e+00    0.1814156    0.1295474 -58.58 0.0007607364    1.720    0.419
        17 -10.1711     55.9663    201.4217   1.1666597686e+02   2.5540955263e+01    0.3131651    0.2170914 -28.15  0.001627602    2.760    0.638
        18 -12.1121     58.2852    195.4323   1.1557431036e+02   2.6543418064e+01    0.5318892    0.2476309 -51.46  0.001519184    2.609    0.617
        19  -9.3208     74.9493    250.6964   1.1741218095e+02   1.3484996326e+01    0.1053558   0.08305419  57.49 0.0002170885    1.077    0.072
        20  -8.7037     70.5516    200.0132   1.1345251228e+02   2.3929168496e+01    0.1687775    0.1148472 -70.74 0.0006782454    1.425    0.298
        21  -9.7404     36.0609    197.8627   1.2043714739e+02   2.8658958986e+01    0.1433598     0.114015  64.21  0.000368946    1.136    0.120
        22  -9.4664     81.9230    194.8965   1.1039300262e+02   2.3431346086e+01    0.1988648    0.1697027  72.44 0.0006631282    1.021    0.021
        23 -11.5491    149.5257    188.1831   9.4357873632e+01   1.3548662756e+01    0.4672582     0.348135 -77.28  0.001797274    1.806    0.446
        24 -10.8285     95.4521    187.6468   1.0640559242e+02   2.2975361258e+01    0.5359204    0.4030977 -57.57  0.001694464    1.382    0.276
        25  -9.1425      1.1250    187.3369   1.2667322007e+02   3.4296633203e+01    0.1042486   0.05557218 -73.17 0.0001916922    1.576    0.366
        26 -10.8251     99.3607    180.8944   1.0451110265e+02   2.3855080788e+01    0.2800395    0.2711557  35.62 0.0005913395    1.187    0.157
        27 -11.5449    143.7597    178.1866   9.3820054421e+01   1.6655285644e+01    0.4535239    0.3149925 -50.37  0.001426989    1.504    0.335
        28 -11.5885    126.5789    174.5868   9.7106369078e+01   2.0589427448e+01    0.6298913    0.4289823 -45.19  0.003077599    1.564    0.361
        29 -10.1295    188.2296    176.7349   8.3906860385e+01   8.4876386183e+00    0.3948731    0.3491853 -61.79  0.002211646    1.381    0.276
        30  -9.2575     59.1285    176.7353   1.1329079389e+02   3.0640846227e+01     0.168932      0.15107  82.81 0.0004268992    1.089    0.081
        31  -9.6386     83.9720    173.7019   1.0705003487e+02   2.7892321862e+01    0.2286126     0.172825 -59.75 0.0003958601    1.313    0.238
        32  -9.6160     48.7000    217.9470   1.1959193690e+02   2.3000474043e+01    0.2314979     0.142142  59.63  0.001420476    1.368    0.269
        33  -8.9314    194.0755    171.6989   8.1678063560e+01   8.3015996506e+00    0.2039721    0.1798582  21.01 0.0009603672    1.084    0.078
        34 -10.8641    139.5037    171.5552   9.3542231026e+01   1.8857748544e+01    0.4081066    0.2710181  48.18   0.00193376    1.490    0.329
        35 -10.7588     56.4512    218.1412   1.1810947638e+02   2.2003946207e+01    0.2978024    0.1470313  77.41   0.00117538    2.341    0.573
        36 -11.2004    240.5222    169.6359   7.2520963079e+01   2.2476963465e-01    0.2857476    0.2257833  70.32 0.0009117342    2.127    0.530
        37 -10.3153    149.6090    177.4096   9.2357994546e+01   1.5718162242e+01    0.2622125    0.2270702  70.37 0.0006924456    1.289    0.224
        38  -9.7973    184.6128    212.6014   9.1323323669e+01   2.8897957892e+00    0.2374619    0.2099251 -65.71   0.00146117    1.512    0.339
        39  -9.2435    187.4802    162.7515   8.1137218693e+01   1.1261814426e+01    0.2747999    0.1399828 -46.21 0.0008094818    2.055    0.513
        40 -11.0436     89.8248    157.8147   1.0308212452e+02   3.0727348280e+01    0.3049689     0.273495  34.23 0.0004282608    1.244    0.196
        41 -10.8528    133.8516    145.7664   8.9603948036e+01   2.5663938020e+01     1.467195     0.326479 -53.81  0.003140528    6.864    0.854
        42 -11.6726     95.9739    151.1875   1.0032553483e+02   3.1317080353e+01     0.622148    0.5214522 -22.89   0.00328265    1.503    0.335
        43  -9.9455    187.1750    151.9324   7.8815965131e+01   1.3416261967e+01    0.2656271    0.2167028  39.04 0.0008650753    1.238    0.192
        44  -9.3044    112.5922    150.7110   9.5977209719e+01   2.8554343589e+01    0.2079928    0.1402702 -65.69 0.0008229895    1.582    0.368
        45  -9.6739    174.6628    149.1212   8.0850783691e+01   1.6561984944e+01     0.259297    0.2111892  56.75 0.0007111616    1.358    0.264
        46  -9.7847    108.9803    147.0363   9.6160660318e+01   3.0068878626e+01    0.2243565      0.20605  87.67            0    1.086    0.079
        47  -9.6579     56.7799    210.0753   1.1732149440e+02   2.3612603099e+01    0.2546037    0.1320943 -65.07  0.001376526    1.896    0.473
        48 -10.9853    107.7807    137.5119   9.4482633607e+01   3.2546728965e+01     0.557542    0.3965542 -47.32  0.002661067    1.381    0.276
        49 -10.7420    105.9140    130.8731   9.3522441829e+01   3.4466970459e+01    0.4028233     0.348577 -61.99  0.001153517    1.114    0.102
        50  -8.5129    101.7018    132.7378   9.5079489708e+01   3.4772153062e+01    0.2066441    0.1375463 -64.62  0.000342301    1.566    0.362
        51 -11.6410     95.6809    137.0896   9.7637440056e+01   3.4759790293e+01     0.293609    0.2624958 -60.53 0.0003907788    1.058    0.054
        52  -9.9313    135.8770    128.6572   8.5132817708e+01   2.9133933828e+01    0.4662296   0.09876078 -46.25  0.001153114    4.595    0.782
        53 -10.5181    114.7368    128.8387   9.0678190701e+01   3.3310556324e+01    0.3361603    0.3006864 -19.50 0.0007137462    1.250    0.200
        54  -9.4034    160.8840    128.1320   7.8954257866e+01   2.3892370929e+01    0.2503489    0.2201067 -79.14  0.001025752    1.315    0.239
        55 -10.4740    102.3719    124.5527   9.3052033898e+01   3.6613039689e+01     0.289309    0.2388274 -26.77 0.0004173491    1.378    0.274
        56 -10.0727    119.9515    123.3296   8.7965007006e+01   3.3586193370e+01    0.3705591    0.2637064 -17.77  0.001577048    1.970    0.492
        57  -9.2731    110.0095    118.0907   8.9378292648e+01   3.6733221611e+01    0.2217742    0.2125427 -58.30 0.0002921509    1.014    0.014
        58 -10.1002    231.2658    113.7646   6.1578776094e+01   1.1314621587e+01    0.2842649    0.2602667 -33.74 0.0007428593    1.035    0.033
        59  -9.1978    167.5030    112.4731   7.3426356435e+01   2.5681818754e+01    0.3447312    0.2388134 -79.71  0.001350538    2.328    0.571
        60 -10.1654    134.6201    106.0301   7.9587122377e+01   3.4437545235e+01     0.525473    0.1500312 -44.06  0.001502167    3.394    0.705
        61 -11.2185    118.5990    110.5188   8.5066983831e+01   3.6800792631e+01    0.6639286    0.4509076  71.08  0.002718679    2.172    0.540
        62  -9.6823    205.4909    110.1646   6.5126075959e+01   1.7483870766e+01     0.312418    0.2187739  40.53  0.000880978    1.561    0.359
        63  -9.7613     43.9234    210.0413   1.1987343481e+02   2.5186974718e+01    0.1770487    0.1166581  70.26 0.0002957112    1.287    0.223
        64  99.0000     42.6963    206.2055   1.1979802962e+02   2.6131108899e+01    0.2790592     0.182534 -45.45  0.001598194    2.261    0.558
        65  -8.8164    184.3355     77.3055   6.0276208528e+01   2.8369133431e+01    0.1550631    0.1193927  18.94 0.0007039867    1.669    0.401
        66  -9.1260     68.2659     71.8150   8.9500477343e+01   5.4308181236e+01    0.1991162    0.1809368 -52.62  0.000936228    1.179    0.152
        67 -10.2239     71.8914    245.1357   1.1750393046e+02   1.4868645676e+01    0.2037953    0.1460773 -70.22  0.001394601    1.540    0.351
        68 -19.5307     20.2136    145.4392   1.1904306797e+02   4.2205570353e+01     19.55933     4.795341 -74.88   0.06683324    3.833    0.739
        69  -8.7121    167.8381    230.7683   9.7511819803e+01   2.7650534612e+00    0.1576511    0.1378179  57.19 0.0005243103    1.299    0.230
        70  99.0000     44.5634    230.5855   1.2133096175e+02   2.1009529421e+01    0.1167985   0.08416991  68.17 0.0001750261    1.069    0.065
        71  -9.5301     58.6015    229.0180   1.1861902339e+02   1.9588007416e+01    0.1500257    0.1117366  88.38 0.0003877135    1.220    0.180
        72 -11.1156     50.4216    224.7335   1.1980826322e+02   2.1440706747e+01    0.2107541    0.1298734  75.14 0.0006550594    1.448    0.309
