#   1 NUMBER                 Running object number                                     
#   2 MAG_AUTO               Kron-like elliptical aperture magnitude                    [mag]
#   3 X_IMAGE                Object position along x                                    [pixel]
#   4 Y_IMAGE                Object position along y                                    [pixel]
#   5 X_WORLD                Barycenter position along world x axis                     [deg]
#   6 Y_WORLD                Barycenter position along world y axis                     [deg]
#   7 A_WORLD                Profile RMS along major axis (world units)                 [deg]
#   8 B_WORLD                Profile RMS along minor axis (world units)                 [deg]
#   9 THETA_WORLD            Position angle (CCW/world-x)                               [deg]
#  10 FWHM_WORLD             FWHM assuming a gaussian core                              [deg]
#  11 ELONGATION             A_IMAGE/B_IMAGE                                           
#  12 ELLIPTICITY            1 - B_IMAGE/A_IMAGE                                       
         1 -14.0045    212.3227      9.2929   4.0166140333e+01   3.0755889720e+01     2.209332     1.404818  43.48   0.01132878    1.957    0.489
         2 -13.2362    173.4766     54.4317   5.8251012994e+01   3.4793204285e+01     2.271458     1.375572  26.37  0.006683958    2.488    0.598
         3 -13.2143    188.8111     40.0355   5.1406840367e+01   3.2951574008e+01      0.97618    0.8540149 -46.68  0.003176735    1.133    0.117
         4 -12.7890    193.6548     33.9819   4.8974422543e+01   3.2519523496e+01    0.6372526    0.5748219  67.67  0.001399244    1.100    0.091
         5 -10.6976     50.4269      7.2778   7.3511709931e+01   6.7996429618e+01    0.2363117    0.1046884 -24.70   0.00114994    2.165    0.538
         6  99.0000     63.6213    222.0760   1.1916102092e+02   2.0729282032e+01    0.4754629    0.2024161  73.95  0.001982016    3.448    0.710
         7 -13.2567    246.4534    239.4627   8.7102164103e+01  -1.0227441369e+01     1.742438    0.6830168 -27.35  0.008834217    2.741    0.635
         8  -8.8500     87.7510    202.4360   1.1235497453e+02   2.1281320694e+01    0.1650848    0.1189483  31.36 0.0007999529    1.618    0.382
         9 -10.8760    193.2909    195.6098   8.9199988363e+01   4.2796236673e+00    0.7906168    0.4257735 -62.16  0.002728523    4.677    0.786
        10 -10.7189    150.3224    196.1443   9.8132174875e+01   1.2046119157e+01    0.3150818    0.1743103 -57.64  0.001433481    2.201    0.546
        11 -11.4855     61.2971    195.7146   1.1715442650e+02   2.6397284750e+01      0.34724    0.2327205 -44.97  0.001391728    2.115    0.527
        12  -9.3027     82.3668    195.1437   1.1262782220e+02   2.3603657011e+01    0.1966787    0.1708457  49.51 0.0008933105    1.205    0.170
        13 -10.0512     75.1918    249.2246   1.1929820606e+02   1.4253629613e+01    0.2998403   0.07982393 -58.07  0.001297267    4.367    0.771
        14 -10.1206      9.0846    192.9003   1.2739362114e+02   3.2733260376e+01    0.1265754   0.08632506  36.14 0.0005071851    1.723    0.420
        15 -11.1791     99.4424    180.8988   1.0694420571e+02   2.4055761736e+01    0.3375399    0.2815618 -33.51 0.0006034546    1.568    0.362
        16 -10.7590     95.8398    189.8285   1.0901736155e+02   2.2693069671e+01    0.5057494    0.3542608  22.34   0.00128698    1.953    0.488
        17  -9.4683    156.5114    189.9179   9.5748931144e+01   1.2089859876e+01    0.1938035    0.1395675 -46.40 0.0005041664    1.515    0.340
        18 -11.5009    150.1115    187.8700   9.6765593649e+01   1.3674707381e+01    0.4031928     0.289752 -62.75  0.001620729    1.646    0.392
        19 -10.6994    141.1075    187.8110   9.8714386797e+01   1.5347896704e+01    0.2232265    0.1864994  65.96  0.001243491    1.245    0.197
        20 -10.9544    133.4557    185.3463   9.9983239210e+01   1.7241101201e+01    0.3134257     0.184193 -49.01  0.001476425    1.836    0.455
        21 -11.1910    150.8870    179.6774   9.5127883657e+01   1.5149122613e+01     0.448937    0.3015674 -71.81  0.002048486    2.094    0.522
        22 -11.2265    145.3537    180.6509   9.6527813425e+01   1.5999888005e+01    0.3844308    0.2902298  24.60  0.001265871    1.492    0.330
        23 -11.7653    141.5201    174.7583   9.6313515698e+01   1.7933907749e+01     0.689944    0.4641279 -86.10  0.002373211    2.342    0.573
        24 -10.6677    189.0846    176.9525   8.6459315181e+01   8.2921654125e+00    0.6507587    0.3772075 -57.15  0.002537467    2.509    0.601
        25 -11.3261    236.7153    175.6025   7.7078680401e+01  -2.8140279970e-01    0.2692276    0.2219092  73.36   0.00148964    2.005    0.501
        26  -9.4677     56.3445    224.2478   1.2070350420e+02   2.1247398320e+01    0.1106462   0.07833097  60.59 0.0007290455    1.122    0.109
        27  -9.4100    184.5039    212.4979   9.3899743359e+01   3.0957557558e+00    0.2094296      0.12677 -54.93  0.001031464    2.305    0.566
        28 -10.3543    240.0347    169.0156   7.5135040328e+01   1.5142263416e-01     0.165493    0.1417337  -3.61 0.0005161429    1.007    0.007
        29  -9.7957     43.9646    211.8758   1.2205584917e+02   2.5193984684e+01    0.2501824    0.1323868 -81.62  0.001094341    1.742    0.426
        30 -11.0275     91.4001    157.8764   1.0523663817e+02   3.0586051147e+01    0.3290745    0.2725333  29.86 0.0007400349    1.400    0.285
        31 -11.0583    133.9995    146.0557   9.2366542788e+01   2.5630520291e+01      1.32602     0.345264 -55.35  0.003087976    6.022    0.834
        32 -11.7621     97.3691    151.3376   1.0259878354e+02   3.1149397796e+01    0.5966257    0.4957647 -22.43  0.003149787    1.582    0.368
        33  -9.8072    187.7934    152.1756   8.1476450415e+01   1.3171811396e+01    0.3036902    0.2384446 -85.96  0.001421742    1.890    0.471
        34  -9.4634    113.2967    151.3571   9.8589166813e+01   2.8370334498e+01    0.3386302    0.2125241  88.76  0.001325019    2.573    0.611
        35  -9.7180    174.6772    149.1313   8.3597890205e+01   1.6527525180e+01    0.2613357    0.2082473  55.83   0.00057829    1.349    0.259
        36  -9.6782    144.0017    146.4897   9.0038772316e+01   2.3510492233e+01    0.3167153    0.1957026 -84.58  0.001040566    3.561    0.719
        37 -10.9558    105.8583    131.1589   9.6350422233e+01   3.4456946970e+01    0.5019611    0.3354925 -52.55  0.001710832    1.435    0.303
        38 -10.3302    107.2394    145.9152   9.9054730035e+01   3.0726000553e+01    0.3446535     0.252778 -83.06 0.0006329316    1.588    0.370
        39 -11.2662    108.3861    138.0620   9.7158596568e+01   3.2368038020e+01    0.6030393     0.362533 -41.28  0.002607496    1.843    0.457
        40  -8.3540    112.6515    142.2929   9.6933485785e+01   3.0596141503e+01    0.1551332    0.1138875  76.03 0.0004762931    1.671    0.401
        41 -11.8190     96.7234    137.2072   1.0006524007e+02   3.4614468221e+01    0.3032663    0.2785708 -75.09 0.0002912529    1.018    0.018
        42 -10.1087    135.8979    128.7841   8.7964118924e+01   2.9129554004e+01    0.5839877   0.09342792 -48.57  0.001217151    6.640    0.849
        43 -10.2407    115.3580    128.9249   9.3314231197e+01   3.3215931175e+01    0.3333984    0.2746506 -36.92 0.0005794941    1.292    0.226
        44 -11.2382     39.2656    212.7609   1.2301114388e+02   2.5563271840e+01    0.1713219    0.1360373  73.18 0.0003044065    1.080    0.074
        45  -9.6614    161.2027    127.7589   8.1586967194e+01   2.3876976016e+01    0.3335903    0.2823689 -83.28  0.001611844    1.424    0.298
        46 -10.5833    103.0832    124.5735   9.5637514445e+01   3.6517923069e+01    0.3004039    0.2636814  -2.55 0.0006410662    1.386    0.278
        47 -10.3012    120.7262    122.5046   9.0375037699e+01   3.3659422105e+01    0.5228974    0.3135435 -19.65  0.001756142    3.343    0.701
        48  -9.7178    134.9986    120.9421   8.6267379833e+01   3.1079201493e+01    0.4799896    0.1399079 -46.34  0.001392454    3.371    0.703
        49 -11.3111     67.2883    206.2517   1.1698237233e+02   2.3396939349e+01    0.2094504    0.1852894  74.27  0.000293558    1.157    0.136
        50  -9.5002    110.5959    118.1520   9.2058171353e+01   3.6641122331e+01    0.2355963    0.2034433  58.32 0.0003746086    1.223    0.182
        51  -9.9076    231.2865    113.7116   6.4171307021e+01   1.0958428215e+01    0.2607464    0.2353991  -2.25 0.0007406804    1.141    0.124
        52  -9.6138    167.4904    112.2999   7.6186586979e+01   2.5667538337e+01    0.3524057    0.2503393 -73.72  0.001366465    2.019    0.505
        53  -9.2892    134.6228    112.3446   8.4152804085e+01   3.3074481976e+01    0.3146627    0.1469391 -49.05  0.001132981    2.159    0.537
        54 -11.4654    118.9949    110.4209   8.7801376877e+01   3.6775812885e+01    0.5864619    0.4319725  75.24  0.002346061    1.828    0.453
        55  -9.6185    205.4859    110.1799   6.7818327574e+01   1.7259368206e+01    0.3190958    0.2188263  41.31 0.0009322798    1.560    0.359
        56  -9.7482    134.5460    106.0337   8.2480732099e+01   3.4478119692e+01    0.4096491    0.1522797 -44.32  0.001331728    2.628    0.620
        57  -8.4261     72.4235    203.2005   1.1562371605e+02   2.3326585364e+01    0.3026826    0.1928852  59.31  0.001719263    1.388    0.279
        58  -8.8457    182.1693     83.1483   6.5031484362e+01   2.7772636001e+01    0.2217394    0.1842593 -66.77   0.00107303    1.325    0.245
        59 -10.5175     71.9113    245.2359   1.1955772758e+02   1.5378908977e+01    0.2119093    0.1452613 -67.91  0.001334854    1.660    0.398
        60 -10.8906     59.0947    230.3120   1.2067734490e+02   1.9749090858e+01    0.1798099    0.1328459  85.17 0.0003230307    1.202    0.168
        61 -10.7732     58.6410    202.6137   1.1837838554e+02   2.5285537139e+01    0.2961606    0.2013793 -44.18  0.001391806    2.191    0.544
        62 -19.5002     25.2674    147.0674   1.2019316711e+02   4.1447697885e+01     19.27581     4.846698 -74.74   0.06735244    3.758    0.734
