#   1 NUMBER                 Running object number                                     
#   2 MAG_AUTO               Kron-like elliptical aperture magnitude                    [mag]
#   3 X_IMAGE                Object position along x                                    [pixel]
#   4 Y_IMAGE                Object position along y                                    [pixel]
#   5 X_WORLD                Barycenter position along world x axis                     [deg]
#   6 Y_WORLD                Barycenter position along world y axis                     [deg]
#   7 A_WORLD                Profile RMS along major axis (world units)                 [deg]
#   8 B_WORLD                Profile RMS along minor axis (world units)                 [deg]
#   9 THETA_WORLD            Position angle (CCW/world-x)                               [deg]
#  10 FWHM_WORLD             FWHM assuming a gaussian core                              [deg]
#  11 ELONGATION             A_IMAGE/B_IMAGE                                           
#  12 ELLIPTICITY            1 - B_IMAGE/A_IMAGE                                       
         1 -15.2714      8.6068    206.7787   2.9290140701e+02   5.3333225698e+00    0.6315274    0.3673863 -65.55   0.03636126    1.753    0.430
         2 -12.5398      2.2585     41.3405   2.9198843721e+02   7.2925054727e+00   0.08838591   0.01410519 -63.87  0.004228009    7.181    0.861
         3 -13.2989      3.7719     11.5995   2.9179265647e+02   7.6289127423e+00    0.1219578   0.03766624 -56.67  0.009091115    2.881    0.653
         4 -13.3238    191.7142     28.6143   2.8970166072e+02   6.3435811057e+00   0.06190892   0.05966493 -55.22  0.006421011    1.029    0.028
         5 -13.6766    205.0299     10.6758   2.8943867133e+02   6.4740034096e+00   0.08268114    0.0565997 -25.60  0.008431694    1.746    0.427
         6 -10.4029     97.1196    245.5955   2.9210215451e+02   4.3717118530e+00   0.01200153  0.009387036  89.40 0.0004597273    1.472    0.320
         7 -10.9625    139.7189    250.0214   2.9163311275e+02   4.0740824400e+00   0.01735846   0.01060751  37.92  0.001567965    1.629    0.386
         8 -10.5927    125.4182    249.8930   2.9179863189e+02   4.1582582151e+00   0.01852725   0.00731935  27.31  0.001489302    2.509    0.601
         9 -10.6415    109.9517    250.3452   2.9198119437e+02   4.2423819900e+00   0.02069039  0.007765839  34.13  0.001658371    2.498    0.600
        10 -10.7776     97.9665    250.0321   2.9211872962e+02   4.3152490219e+00   0.01818767   0.01293184  29.87  0.001961035    1.400    0.285
        11 -11.6432     34.8401    244.9488   2.9282293705e+02   4.7384340429e+00   0.03763196   0.02341667 -32.52  0.003641698    1.895    0.472
        12 -12.3393     11.3320    240.0720   2.9306754763e+02   4.9304688773e+00   0.06466896   0.03271009 -72.01  0.005601226    2.310    0.567
        13 -11.0173      2.3537    248.6128   2.9322274596e+02   4.8827892903e+00    0.0301418   0.02572621  47.93  0.003206083    1.212    0.175
        14 -11.0473      1.9976    240.2385   2.9317717889e+02   4.9822238294e+00   0.03894324   0.01098244 -62.62  0.002662532    3.469    0.712
        15 -10.3860     81.5026    249.1463   2.9230497165e+02   4.4205934803e+00   0.01275141  0.009755556  27.42  0.001417913    1.310    0.237
        16 -10.2725     81.8993    242.4412   2.9226043668e+02   4.4962532197e+00   0.01470307    0.0102321  72.93  0.001476357    1.840    0.456
        17 -10.8914    234.8574    239.2108   2.9046307522e+02   3.6486871150e+00   0.02924489   0.01427151  88.23  0.001740834    5.494    0.818
        18 -10.0200    230.6082    231.8393   2.9046832821e+02   3.7589129638e+00    0.0169327   0.01077618  79.98  0.001347137    2.249    0.555
        19  -9.9125    228.5044    228.0101   2.9046985440e+02   3.8155743468e+00    0.0171627   0.01110708  79.58  0.001606278    2.166    0.538
        20 -10.3525    236.7438    249.5762   2.9050315540e+02   3.5174105755e+00   0.01308673  0.006688398  20.30  0.001150573    2.153    0.535
        21  -8.6765    152.5981    212.8047   2.9126119726e+02   4.4320410221e+00  0.008635791  0.006410762 -79.29  0.000280498    1.499    0.333
        22 -12.4683     40.3438    232.6437   2.9268571940e+02   4.8498128631e+00     0.020099   0.01365129 -44.04 0.0007604117    1.498    0.332
        23  -9.7534     34.4998    202.4977   2.9257436382e+02   5.2340272229e+00   0.01107301    0.0107705 -13.22   0.00062339    1.032    0.031
        24 -14.4163     46.2738    225.2131   2.9257248380e+02   4.9020422857e+00     0.123631   0.08756859 -20.04   0.00598435    1.698    0.411
        25  -9.7804    193.1040    195.2637   2.9068528970e+02   4.4011553402e+00   0.03187508   0.01492351  88.58  0.001553428    8.183    0.878
        26  -8.9598     51.3660    197.0968   2.9234576205e+02   5.1996110434e+00  0.008969706  0.008192788 -68.55 0.0004641173    1.105    0.095
        27 -11.5504     71.1198    190.3926   2.9207573563e+02   5.1635927826e+00   0.01476479   0.01197143 -38.53 0.0005114838    1.263    0.208
        28 -11.3255     65.5642    198.1452   2.9218666102e+02   5.1055209530e+00   0.02028936   0.01220707 -40.48 0.0009400581    1.787    0.440
        29  -9.0536    102.5257    178.6853   2.9164012450e+02   5.1182657758e+00   0.01068222  0.007115628  48.97 0.0005413208    1.627    0.385
        30 -10.7804     80.5218    177.7246   2.9189064665e+02   5.2565782855e+00   0.01248947   0.01096122 -37.77 0.0004823419    1.151    0.131
        31 -13.0136     67.6319    175.6793   2.9202858842e+02   5.3547786117e+00   0.02666925   0.01367296 -40.12  0.001465815    2.212    0.548
        32 -11.7032     87.6791    168.2636   2.9175079075e+02   5.3252106016e+00   0.03044382   0.02813413  34.86  0.003747425    1.090    0.083
        33  -9.8462     99.7993    152.1742   2.9151346453e+02   5.4421585060e+00   0.01352734   0.01320462  45.56 0.0008336424    1.042    0.041
        34 -11.7620     88.4298    151.5376   2.9164211878e+02   5.5152814515e+00   0.01417381   0.01156885 -33.80 0.0004560851    1.279    0.218
        35 -12.4070     67.1190    143.9324   2.9184501984e+02   5.7267767215e+00   0.04105745   0.02765416  63.00  0.004084469    1.841    0.457
        36 -11.6039     57.6449    131.2622   2.9187976319e+02   5.9287273915e+00   0.03805236   0.01676568 -76.56  0.002736864    3.479    0.713
        37  -9.5314    109.7560    225.9575   2.9183809700e+02   4.5269859739e+00  0.009138635  0.005523438 -61.28 0.0008916349    1.627    0.385
        38 -10.5099    173.8639    222.5559   2.9107216691e+02   4.1956005269e+00   0.01742097   0.01182352  35.48  0.001533694    1.463    0.316
        39  -8.4151    192.2319    143.9426   2.9038809336e+02   5.0022777232e+00  0.008242142  0.005515136 -64.62 0.0003746822    1.506    0.336
        40  -9.5927    110.6952    137.1105   2.9129643742e+02   5.5541847820e+00   0.01806565  0.008781141 -38.02  0.001070418    2.515    0.602
        41 -10.0757     86.4143    136.2813   2.9157440841e+02   5.7042352012e+00   0.01160133   0.01015819  57.46 0.0003745472    1.211    0.174
        42 -10.2642     98.1428    134.5247   2.9142722441e+02   5.6568429368e+00   0.01274692   0.00945837 -39.05 0.0005820014    1.401    0.286
        43  -9.0687     94.6635    216.7912   2.9195906363e+02   4.7207407457e+00   0.01253499  0.007521338  52.37 0.0008381875    1.940    0.485
        44 -10.3767    154.9826    228.0233   2.9132435986e+02   4.2413969107e+00   0.01546497  0.009126767  -8.30  0.001324555    2.563    0.610
        45  -9.5587    107.4920    123.9982   2.9125529287e+02   5.7250700664e+00   0.00912546  0.008692748  17.54  0.001125022    1.057    0.054
        46  -8.9799    102.6412    147.9308   2.9145498750e+02   5.4750400396e+00   0.01066858  0.007430026 -43.13 0.0005329033    1.466    0.318
        47 -10.4972    168.1424    113.1817   2.9048403000e+02   5.4992726986e+00   0.01570956   0.01249299  64.04 0.0009199445    1.420    0.296
        48  -9.1414    203.4799    111.5042   2.9006270079e+02   5.3135801230e+00   0.00664718  0.006352738 -30.46 -2.419538e-05    1.047    0.044
        49  -8.9589     75.7716     87.7596   2.9140816435e+02   6.3294814658e+00  0.008998008  0.007365484  58.59 0.0004176381    1.332    0.249
        50  -9.0784     31.1969     61.5181   2.9177123873e+02   6.8915485767e+00   0.01235648  0.006032516  32.83  0.001037303    1.980    0.495
        51  -9.9672     47.4664    249.4994   2.9270306609e+02   4.6127777708e+00   0.01002882  0.007773174  62.12 4.782867e-05    1.461    0.316
        52  -9.1371     88.6815    248.7145   2.9221888772e+02   4.3841754381e+00  0.006842242  0.004952952 -25.62 0.0002234903    1.590    0.371
        53  -9.5633    198.9857    246.9719   2.9092608773e+02   3.7664601675e+00    0.0121848  0.007267953  83.41  0.001034124    2.607    0.616
