#   1 NUMBER                 Running object number                                     
#   2 MAG_AUTO               Kron-like elliptical aperture magnitude                    [mag]
#   3 X_IMAGE                Object position along x                                    [pixel]
#   4 Y_IMAGE                Object position along y                                    [pixel]
#   5 X_WORLD                Barycenter position along world x axis                     [deg]
#   6 Y_WORLD                Barycenter position along world y axis                     [deg]
#   7 A_WORLD                Profile RMS along major axis (world units)                 [deg]
#   8 B_WORLD                Profile RMS along minor axis (world units)                 [deg]
#   9 THETA_WORLD            Position angle (CCW/world-x)                               [deg]
#  10 FWHM_WORLD             FWHM assuming a gaussian core                              [deg]
#  11 ELONGATION             A_IMAGE/B_IMAGE                                           
#  12 ELLIPTICITY            1 - B_IMAGE/A_IMAGE                                       
         1 -13.1087      2.7515    129.1969   1.0673601077e+02   4.7322060459e+01     8.586708    0.7012388 -76.23   0.01469592   15.894    0.937
         2 -12.1640    230.1152     34.7492   2.5844852223e+01   2.3573226132e+01     1.924189    0.8115777  43.15  0.002258399    4.260    0.765
         3 -11.2802    247.9530     20.0862   2.1032127447e+01   2.1507143456e+01    0.6689332     0.392033 -45.15  0.003011263    1.449    0.310
         4 -10.5530      2.1477     15.3692   8.4570498183e+01   7.2366455752e+01    0.7309313    0.1197419 -56.04  0.002353005    5.879    0.830
         5  -9.7871     10.9853    239.1631   1.1188426755e+02   2.2913657184e+01    0.2817738    0.1775936  82.97 0.0003586707    1.319    0.242
         6  -8.3320     81.2617    249.8668   9.9605264825e+01   1.2756884211e+01    0.2201508    0.1198008  47.29  0.001291834    1.429    0.300
         7 -10.7211     51.8768    232.8615   1.0394149910e+02   1.9642986820e+01    0.4245093     0.341564  17.56  0.002754442    1.738    0.425
         8 -11.2505     10.3286    230.3792   1.1160844016e+02   2.4620413880e+01    0.6079137    0.2985761  46.62 0.0002583328    1.616    0.381
         9 -12.1454     53.8150    238.3081   1.0396445937e+02   1.8378952672e+01     1.365174    0.4712195  26.92  0.004990066    4.909    0.796
        10 -11.3407     97.8370    227.5914   9.4109107169e+01   1.4458067749e+01    0.8199444    0.1501033  40.38   0.00271922    3.898    0.743
        11 -11.2120     82.1979    223.0920   9.6921985341e+01   1.7574544235e+01    0.5573214    0.2557102  48.42  0.002735163    1.869    0.465
        12  -9.8163    110.1055    224.7287   9.1183610479e+01   1.3150054623e+01    0.2143005    0.1742686  86.46  0.001326094    1.392    0.281
        13  -8.7331    114.3774    236.8213   9.1715861332e+01   1.0305267326e+01    0.1575575    0.1154443 -44.61 0.0006435487    1.728    0.421
        14 -11.0445      9.6129    195.6949   1.0995889890e+02   3.1680290757e+01    0.4695568    0.2495151 -62.85  0.002755077    1.933    0.483
        15  -9.1755     49.3141    222.1598   1.0364251640e+02   2.2041382820e+01    0.2058827    0.1343628  84.19  0.001269374    1.453    0.312
        16 -10.0389     55.2673    169.1759   9.7136652967e+01   3.2920622332e+01     0.302728    0.2582085 -23.57 0.0007681146    1.549    0.354
        17 -10.3944     48.4744    174.8488   9.9481182295e+01   3.2402539673e+01    0.4804564    0.3179458 -40.13  0.001826815    2.020    0.505
        18 -13.1479     26.7615    191.5985   1.0604514987e+02   3.0956531181e+01     1.766735     1.367445  44.89   0.01073651    1.301    0.231
        19  -9.9174     72.9639    217.2982   9.8297597523e+01   2.0001122665e+01    0.3362301    0.2077427 -73.08  0.001503329    1.714    0.417
        20  -7.0403    110.6720    167.3371   8.2627782393e+01   2.5078544078e+01    0.1544836    0.1105605  71.60 0.0007051859    1.728    0.421
        21  -9.5983     82.4186    162.4889   8.9163585940e+01   3.0808537338e+01    0.4982334    0.2201836  60.43  0.001589733    3.943    0.746
        22  -9.4651     67.0512    160.2312   9.2893247864e+01   3.3539947740e+01    0.2564926    0.2500482 -50.34 0.0004234052    1.170    0.145
        23 -11.6940     52.8003    156.1288   9.6122684535e+01   3.6340716332e+01    0.5224342    0.3289223 -38.65  0.001645614    2.046    0.511
        24 -11.0953     75.1204    154.0303   8.9776541980e+01   3.3915307487e+01    0.6355357    0.5115763 -31.39  0.001588782    1.513    0.339
        25 -11.6713     68.4152    144.3503   9.0063296292e+01   3.7220293776e+01    0.8832404    0.5654134  71.02  0.003466246    1.953    0.488
        26 -12.6197      8.6859    207.5010   1.1079629559e+02   2.9295900950e+01    0.9987609    0.8188161 -67.17  0.004877369    1.455    0.313
        27  -8.8901     92.1239    141.4889   8.2808819588e+01   3.4339904365e+01    0.3494412    0.2650237 -81.25  0.001705018    1.499    0.333
        28  -8.4135     95.4476    138.0387   8.1176586082e+01   3.4619183681e+01    0.3948536    0.2488226   1.97  0.001452292    3.031    0.670
        29 -10.5273     79.3692    139.1358   8.6008516921e+01   3.6926528413e+01    0.3341467    0.2875003 -48.26 0.0005909851    1.180    0.152
        30  -9.3208     81.3957    212.8761   9.6019198154e+01   1.9732158471e+01    0.2588387    0.2042554  78.35 0.0006931168    1.238    0.192
        31  -9.0384    105.8925    130.5104   7.6584671980e+01   3.4582943620e+01    0.3582988    0.2941658  20.58  0.001040034    1.353    0.261
        32  -9.7572     57.4396    129.7118   9.0795468223e+01   4.2266802391e+01     0.316348    0.2306575 -76.88  0.001617634    1.360    0.265
        33  -9.2392     91.7086    126.4379   7.9818659688e+01   3.8058292139e+01     0.297045    0.2555124  -3.31 0.0005541808    1.361    0.265
        34  -7.9942    103.8833    118.8510   7.4459810145e+01   3.7716811855e+01    0.2208088    0.2024139 -13.60 0.0002693459    1.166    0.142
        35  -9.2795     51.9205    113.9976   8.9662691545e+01   4.6809938743e+01    0.2136021    0.1968821 -69.18 0.0007515406    1.038    0.036
        36  -8.0104    205.5423    110.5249   4.7805351886e+01   1.7368509942e+01    0.1470039    0.1386935 -33.52 0.0001490639    1.019    0.019
        37 -12.7726     11.1699    157.3081   1.0697414896e+02   4.0127542581e+01     2.868516    0.9819182  79.76  0.009683963    4.632    0.784
        38  -8.4103     52.9974     91.0163   8.4353133117e+01   5.2226490369e+01    0.1728723    0.1523387 -46.62  0.001005668    1.017    0.017
        39  -7.7642     41.3273     91.6910   8.8732266168e+01   5.3362993408e+01     0.132372    0.1017128  71.62 0.0007039193    1.658    0.397
        40 -10.4016     58.5005    211.4635   1.0083287320e+02   2.3091073315e+01    0.5770359    0.1601895  51.31  0.002111851    3.611    0.723
        41  -9.0724     13.0957     60.2916   9.2762756976e+01   6.2810410507e+01    0.2361089    0.1585423 -66.16 0.0007429773    1.406    0.289
        42 -11.1014     15.9145    200.3684   1.0894161703e+02   3.0117589612e+01    0.3305407    0.3095691  33.40 0.0008553383    1.422    0.297
        43 -10.1057    204.7092     50.5346   3.2708891293e+01   2.7340412499e+01    0.3495175    0.2090731 -77.51  0.001517731    2.213    0.548
        44 -12.0661    223.1034     41.0128   2.8058821814e+01   2.4342462023e+01     1.170654    0.6542601  62.77   0.00585745    1.798    0.444
        45 -12.8762     10.5545    246.9607   1.1228891414e+02   2.1541437386e+01     2.091906    0.9174226  30.14   0.01211992    2.581    0.613
        46  -9.8016     14.4621     45.0365   8.8112156597e+01   6.5955063299e+01    0.2538282    0.2369892  69.92 0.0009449148    1.475    0.322
        47  -9.8969     78.7864    228.8689   9.8202756061e+01   1.6928678564e+01    0.2198115     0.153394  87.71  0.001078393    1.531    0.347
