#   1 NUMBER                 Running object number                                     
#   2 MAG_AUTO               Kron-like elliptical aperture magnitude                    [mag]
#   3 X_IMAGE                Object position along x                                    [pixel]
#   4 Y_IMAGE                Object position along y                                    [pixel]
#   5 X_WORLD                Barycenter position along world x axis                     [deg]
#   6 Y_WORLD                Barycenter position along world y axis                     [deg]
#   7 A_WORLD                Profile RMS along major axis (world units)                 [deg]
#   8 B_WORLD                Profile RMS along minor axis (world units)                 [deg]
#   9 THETA_WORLD            Position angle (CCW/world-x)                               [deg]
#  10 FWHM_WORLD             FWHM assuming a gaussian core                              [deg]
#  11 ELONGATION             A_IMAGE/B_IMAGE                                           
#  12 ELLIPTICITY            1 - B_IMAGE/A_IMAGE                                       
         1 -10.6043     80.4125     27.4029   3.3510400046e+01   5.9807040164e+01    0.3083258    0.2102964 -16.35  0.001713571    1.527    0.345
         2 -11.5455     38.4536     23.0960   4.8174074189e+01   6.7242591314e+01    0.6983475    0.3336239 -42.40  0.002921605    2.334    0.572
         3 -11.5180     32.2780     19.4147   4.9446208029e+01   6.8540315559e+01    0.4379668    0.2355178 -27.66   0.00181658    1.690    0.408
         4 -10.5236     13.8768     15.0163   5.6963703531e+01   7.1130743716e+01    0.2780244    0.2178088  62.43  0.001594306    3.401    0.706
         5 -10.0442    153.8709     13.7540   1.2063920261e+01   4.4614516016e+01    0.2741894    0.1410795 -55.05 0.0008984659    2.402    0.584
         6  -9.4396    148.0639     12.0475   1.2440058937e+01   4.6180044875e+01    0.1543005    0.1312151  67.48 0.0009520827    1.012    0.011
         7 -11.6884     91.1329     10.0742   2.3336737747e+01   5.9469320682e+01      0.23175    0.1940754  47.90  0.001487906    1.118    0.105
         8 -10.4520     96.0323      9.4912   2.1839496559e+01   5.8473528884e+01    0.2415467    0.1910372  55.17 0.0003738984    1.179    0.152
         9  -9.6127     77.4731     11.5311   2.7870912585e+01   6.2125478331e+01    0.1660695     0.111529  -0.76 4.735049e-05    1.581    0.367
        10 -10.5197     81.2776      8.7285   2.5539921794e+01   6.1629086048e+01    0.3983561    0.1639825  26.63  0.001518112    3.527    0.716
        11 -10.8629     44.1259     11.0967   4.0055747099e+01   6.7990453926e+01    0.3208588    0.1857302  20.27  0.001283973    1.614    0.380
        12 -10.5832    126.0482     10.8312   1.5794946916e+01   5.1549039151e+01    0.2288514    0.1661747  43.87  0.000251507    1.270    0.213
        13  -9.5911    100.9313     10.8660   2.1158361549e+01   5.7283269885e+01    0.1563988    0.1440836  75.64  0.001018903    1.261    0.207
        14 -10.2673     55.0779      9.0347   3.4554228038e+01   6.6472824320e+01    0.1703577    0.1511034  19.30 0.0004988699    1.247    0.198
        15  -9.8842    192.7404     10.0071   6.2717400137e+00   3.5695826595e+01    0.1703566    0.1450042 -79.51  0.001113422    1.058    0.055
        16  -9.5314    168.4637      9.4742   8.8856439204e+00   4.1503280734e+01    0.1294524    0.1096922  81.82 -3.537726e-06    1.012    0.012
        17 -10.1507    116.3815      9.1616   1.7112698957e+01   5.3947572261e+01    0.2125583    0.1518885  48.68 0.0007943251    1.190    0.159
        18 -10.5331     45.4686      4.9108   3.6463255925e+01   6.8458833146e+01    0.3031881    0.1950735  45.32   0.00150621    1.696    0.410
        19 -11.2651     39.3797      4.2320   3.8780339507e+01   6.9454492025e+01     0.235293     0.198498   8.64 0.0004839067    1.224    0.183
        20  -9.6194     41.6534      1.2702   3.6272017881e+01   6.9415932482e+01    0.1243938   0.09042675  14.50 0.0005539286    1.071    0.066
        21  -9.6907     16.0944      7.8132   5.2324264422e+01   7.1934969237e+01    0.1591038    0.1290319  -8.77 0.0006608838    1.229    0.187
        22 -10.4477     62.4596      6.2340   3.0509798997e+01   6.5461984035e+01    0.3928548    0.1629297  32.27  0.001802327    2.390    0.582
        23 -12.2942     29.6255      4.7634   4.3663324451e+01   7.0748162684e+01    0.2722009    0.2065391 -22.45 0.0004362578    1.381    0.276
        24 -11.0195    193.9698      4.7886   4.9111929416e+00   3.5927570435e+01    0.1924142    0.1711387  84.06 0.0002846227    1.136    0.120
        25  -9.4758    111.5378      5.4778   1.6805685760e+01   5.5364865318e+01    0.1282818     0.108318  52.12 0.0004606108    1.022    0.021
        26  -9.9997     70.5122      5.0731   2.7266524513e+01   6.4071455460e+01    0.1643304    0.1135164 -11.50 0.0004349156    1.504    0.335
        27  -9.5511     18.3296      4.3329   4.9336576889e+01   7.2151213354e+01    0.1820509    0.1099138  -1.48 0.0006012532    1.478    0.323
        28 -10.4472     19.5399      1.4640   4.7179408485e+01   7.2366679492e+01    0.1623976    0.1205878  14.71 0.0006209452    1.223    0.182
        29 -12.0742    204.9842      2.6324   3.4155816439e+00   3.3620810882e+01     0.214298    0.1728003 -84.09 0.0002084624    1.000    0.000
        30  -9.6115    120.1978      3.1604   1.4309370722e+01   5.3557042979e+01    0.1608169    0.1396073 -80.98 0.0003971488    1.314    0.239
        31 -10.0003    148.8509      2.2013   9.4315864640e+00   4.6854160446e+01    0.1902791    0.1497079  81.58  0.000579439    1.147    0.128
        32  -9.6370     57.5170      2.5523   3.0567142359e+01   6.6681178854e+01    0.1217495   0.09445625  22.97 8.927207e-05    1.005    0.005
        33  -9.7722    245.2916      1.3535   1.7517942704e-01   2.5130980129e+01    0.1405978   0.08652004 -86.11 0.0002944691    1.381    0.276
        34  -9.8212    100.9416      1.4427   1.7595155118e+01   5.8056358235e+01    0.1865537    0.1070788  61.21  0.000720358    1.520    0.342
        35  -9.2765     80.2669      1.6861   2.2862766877e+01   6.2429840504e+01    0.1054673   0.09552488 -67.64 0.0004382127    1.547    0.354
        36  -9.2466     72.3136      1.2969   2.5026428295e+01   6.4042980273e+01     0.129345   0.07370813  29.15 0.0003396106    1.603    0.376
        37  -9.4312      1.4340      1.4803   5.7749900064e+01   7.4109605010e+01    0.1117347   0.07571763 -14.49 0.0003089003    1.060    0.057
        38 -11.4312     16.4482    117.1272   8.3110656498e+01   4.9814396318e+01    0.3864378    0.1614527 -38.84  0.001648703    2.711    0.631
        39 -10.6404     30.8970    249.2885   9.2176848932e+01   1.8090688089e+01    0.2440317    0.1559942 -63.38 0.0008962305    1.816    0.449
        40 -11.2153     23.8576    249.6919   9.3473332330e+01   1.8789609163e+01      0.26649    0.1869344  40.80  0.001863289    1.441    0.306
        41 -12.2267      6.5660    243.2749   9.6202739805e+01   2.1806738595e+01    0.3124264    0.1384965 -83.01  0.001816498    1.994    0.498
        42 -11.4182      3.4829    242.5618   9.6707918804e+01   2.2242458531e+01    0.1649586     0.119369 -85.72 0.0005160769    1.287    0.223
        43 -10.6964     69.1713    115.9286   6.5798595634e+01   4.4560128744e+01    0.3458343    0.2253057 -70.47 0.0009402995    1.759    0.431
        44  -9.4687     65.7236    114.3238   6.6556854700e+01   4.5434805960e+01    0.1898747    0.1438611  51.05 0.0002800185    1.523    0.343
        45 -12.3828      2.8752    111.8186   8.6633589464e+01   5.1929131357e+01    0.2619886    0.2358107  50.79 0.0003950756    1.335    0.251
        46 -12.8128      1.9464    104.6656   8.5964957747e+01   5.3673532583e+01    0.3229373    0.2060827 -46.23 0.0009783965    1.399    0.285
        47  -9.4282     91.6522    112.6789   5.7839009234e+01   4.1777120208e+01    0.1604246    0.1173498 -14.96  0.000704914    1.738    0.425
        48 -10.1945     25.9800    111.7941   7.9193857045e+01   5.0390650419e+01    0.2169469    0.1338456  56.96  0.001079306    2.102    0.524
        49 -10.4578     16.3697    107.1712   8.1598436817e+01   5.2225446333e+01     0.184623    0.1075955 -79.04 0.0004151211    1.722    0.419
        50 -10.0053     38.9448    104.9687   7.3535633327e+01   5.0876999421e+01    0.2053199    0.1577287  74.64 0.0004808734    1.657    0.397
        51  -9.5784    108.5117    103.4603   5.0221592001e+01   4.0753211089e+01    0.1557736    0.1470595 -10.94 0.0001176393    1.053    0.050
        52  -9.6290    247.3320    102.7142   2.0798944735e+01   1.0662247313e+01    0.1337263   0.09447107 -66.74 0.0002680252    1.619    0.382
        53 -11.2641     21.2235     98.1422   7.8364081576e+01   5.4032924423e+01    0.3034577     0.218467 -59.17  0.001788477    1.152    0.132
        54 -11.6760     17.5890     96.1534   7.9276376265e+01   5.4759217779e+01    0.7050267    0.2289612 -41.55  0.002530109    3.002    0.667
        55  -9.4221    217.9993     98.2508   2.4111505429e+01   1.7329952899e+01    0.1699558    0.1227882  57.64 0.0004207515    1.499    0.333
        56 -10.3750     37.2128     97.6915   7.2601981473e+01   5.2781129989e+01    0.2382404    0.1746042 -68.88  0.001309566    1.373    0.272
        57  -9.8998    107.4759     96.3526   4.8529836932e+01   4.2520757517e+01    0.3546358    0.1471709 -42.77  0.001248603    2.392    0.582
        58 -10.1841      4.4659     97.4789   8.4068333903e+01   5.5233411669e+01    0.1251058    0.1002549 -62.00 2.064428e-05    1.028    0.027
        59 -11.6542     66.6730     92.1807   6.0734888408e+01   5.0521766689e+01      0.39791    0.2273067 -53.99 0.0005319721    1.700    0.412
        60 -11.1720     93.5151     92.9937   5.1906002649e+01   4.5930620641e+01    0.4338558    0.2946518   8.17  0.001442945    2.018    0.505
        61 -11.9402     57.2524     91.8561   6.4000381343e+01   5.1881452025e+01    0.3075534    0.2378281  13.74 0.0002191661    1.402    0.287
        62 -11.1604    145.7464     91.0257   3.6549105630e+01   3.5253887776e+01    0.2575188    0.2193983  50.52 0.0007400773    1.168    0.144
        63  -9.6926      7.5574     91.2264   8.1963652053e+01   5.6523218249e+01     0.172954   0.08743506 -54.30 0.0004202278    1.512    0.339
        64 -10.0080    160.5491     87.5147   3.2133302607e+01   3.2443321630e+01    0.1499216    0.1495102  47.80 7.255966e-05    1.026    0.026
        65 -10.3446     31.0888     87.2235   7.2501958443e+01   5.5780490344e+01    0.1832553     0.158599 -43.94 0.0004202347    1.035    0.034
        66 -10.0533    173.0724     85.5377   2.8956951314e+01   2.9829205856e+01    0.2224453    0.1999756 -44.73  0.000312505    1.104    0.094
        67 -11.7138     91.9684     85.1584   5.0089958153e+01   4.7888697816e+01    0.2615079    0.2145273 -43.54 0.0003126473    1.213    0.176
        68 -13.1124     65.4699     81.9522   5.8279066604e+01   5.2953723273e+01     0.387721    0.2931612 -34.52    0.0011888    1.223    0.182
        69  -9.3063     34.3960     84.2789   7.0555986505e+01   5.6149108254e+01    0.1422471   0.08594448 -27.21 0.0006993692    1.753    0.430
        70 -11.4154     18.6743     81.1946   7.5874430131e+01   5.8128020583e+01     0.212031    0.1759055 -41.46 0.0002580698    1.046    0.044
        71 -11.0307    180.9429     78.7612   2.5623603548e+01   2.9151882886e+01    0.4016609    0.2907206 -77.28  0.001119405    1.706    0.414
        72  -9.7440    176.1451     76.8363   2.6010848082e+01   3.0628220173e+01    0.2707937    0.2108362  51.19  0.001364052    1.295    0.228
        73  -9.3708    138.7269     78.9982   3.4773965277e+01   3.9173416035e+01    0.2648672    0.1665489  88.17  0.000881037    3.385    0.705
        74 -10.5281     48.2267     78.6105   6.3770323564e+01   5.5945671565e+01    0.2764592     0.185565 -29.44   0.00017201    1.447    0.309
        75  -9.5016     54.5171     78.4824   6.1333858817e+01   5.5199240190e+01    0.1380869    0.1225865 -28.67 0.0001850058    1.028    0.027
        76 -11.9910     11.1319     74.5040   7.7369905269e+01   6.0102559115e+01    0.4022505    0.1984416 -68.39  0.001379333    1.983    0.496
        77 -10.0339     15.0307     75.0000   7.5927945185e+01   5.9752389265e+01     0.216086    0.1645106  16.71  0.001053224    1.518    0.341
        78  -9.7323     81.5975     85.0519   5.3515585947e+01   4.9748253264e+01    0.2272706     0.135788 -45.73  0.001019303    1.611    0.379
        79 -10.0267    179.9449     73.2719   2.4347853378e+01   3.0320801830e+01    0.1982023    0.1846895  80.29            0    1.044    0.042
        80  -9.2141     25.4666     73.5152   7.1387308120e+01   5.9317121732e+01    0.1322435    0.1039754 -37.78 7.812565e-05    1.054    0.051
        81 -10.9341      5.1359     73.1996   7.9477914966e+01   6.0716494358e+01    0.1668954    0.1574405 -84.52 0.0003610587    1.300    0.231
        82 -10.8614      1.9395     70.2441   8.0149667789e+01   6.1515717608e+01     0.301313    0.1432912 -47.75   0.00164009    1.579    0.367
        83 -10.7986     37.2497     69.3344   6.5476105129e+01   5.9133619939e+01    0.2805823    0.2055308 -73.44  0.001524381    1.856    0.461
        84 -11.4017     11.2529     59.3100   7.3706025740e+01   6.3344669920e+01    0.4140224    0.1722071  26.07  0.002052421    2.700    0.630
        85 -10.5322     12.2926     69.3005   7.5728011873e+01   6.1167986029e+01    0.1536757    0.1393724 -77.32 0.0002690499    1.329    0.248
        86 -11.0852     13.5733     66.1694   7.4446423573e+01   6.1759589127e+01     0.267971    0.1858131 -47.17 0.0008611451    1.141    0.124
        87 -11.7754     16.9705     63.3926   7.2304974605e+01   6.2120103449e+01    0.3839957    0.2351714 -27.20  0.001384506    1.524    0.344
        88 -10.8732      9.9553     66.0336   7.5928913194e+01   6.2008441772e+01    0.2212041    0.1798025 -31.78 0.0003165292    1.107    0.097
        89 -11.9446      7.8611     62.8380   7.6050829253e+01   6.2804926675e+01    0.3451295    0.1754532 -51.72 0.0006484485    1.494    0.330
        90 -10.4213     81.0921     66.8918   4.7941871644e+01   5.3489324854e+01    0.2345896    0.1920336 -17.95  0.001280148    1.181    0.153
        91  -9.3104     68.9716     65.9624   5.1985686935e+01   5.5691339591e+01     0.161393    0.1421772   4.79 0.0009352581    1.070    0.066
        92  -9.7309    166.9832     64.2794   2.4308553139e+01   3.4920403322e+01    0.2046947    0.1855466  64.36 0.0005089404    1.064    0.060
        93  -9.7388     97.7736     60.7855   4.0348580829e+01   5.1427724279e+01    0.1799997    0.1708635  81.68 0.0003891423    1.297    0.229
        94  -9.6055     63.3958     61.2163   5.2485862239e+01   5.7454743460e+01    0.1767415    0.1253868 -47.88 0.0009284884    1.505    0.336
        95 -10.8642     42.0137     59.3271   6.0443594123e+01   6.0652802727e+01    0.2925192    0.2069705 -23.40  0.001673269    1.295    0.228
        96 -11.1222     37.8764     59.2732   6.2169189976e+01   6.1121112543e+01    0.2456963    0.1818117 -24.06 0.0004169208    1.191    0.160
        97 -10.7448     57.6177     58.6196   5.3843985067e+01   5.8787901079e+01    0.2775959    0.2382117  84.13 0.0009838807    1.888    0.470
        98  -9.3723    216.9932     58.2907   1.4889190045e+01   2.4041450918e+01     0.156462    0.1156218  71.76 0.0005997241    1.354    0.261
        99 -10.8575    120.9981     57.9257   3.2710045401e+01   4.6896506616e+01    0.2102733    0.1946801  39.03 -0.001320134    1.025    0.024
       100  -9.3228    130.6793     57.2625   3.0046893293e+01   4.4766327706e+01    0.1410303    0.1143629 -87.60 0.0003858368    1.552    0.356
       101 -10.0593      1.4737     57.4492   7.7519112728e+01   6.4255350338e+01    0.1189972   0.09281143 -44.03 1.898155e-05    1.033    0.032
       102 -11.3426     84.6957     53.9771   4.2220280103e+01   5.5130239362e+01     0.456998    0.3806534 -69.30  0.002256046    1.758    0.431
       103 -10.4246    126.4581     54.1225   3.0072795296e+01   4.6236632435e+01    0.3365393    0.2367205  13.99  0.001330731    1.860    0.462
       104 -10.0898     15.0209     54.6889   7.0779701125e+01   6.4042851731e+01    0.1691853    0.1355537 -22.46 0.0006679322    1.114    0.102
       105 -12.3148     62.0470     50.1022   4.9062113626e+01   5.9663100506e+01    0.3739286     0.217672 -38.32 0.0004412211    1.656    0.396
       106  -9.4095     34.6429     54.7605   6.2099942517e+01   6.2343073170e+01    0.1296133   0.08320162 -15.31  0.000203279    1.586    0.370
       107  -9.3027    214.3659     52.7574   1.3931835649e+01   2.5436483921e+01    0.1379689   0.09204791 -76.26 0.0003734124    1.609    0.378
       108 -10.0639      3.0428     51.9085   7.5438159653e+01   6.5313133628e+01      0.20804   0.09951924 -35.33  0.000903509    1.730    0.422
       109  -9.7921    143.1704     51.1748   2.5278707383e+01   4.2711142575e+01    0.1925613     0.166737 -78.41 0.0004124821    1.290    0.225
       110 -10.9587    138.1661     50.2003   2.6067251391e+01   4.4056030294e+01    0.2398175    0.2197999  45.68 0.0002700118    1.037    0.036
       111 -11.0173     93.0090     50.0303   3.8074527578e+01   5.4155287998e+01     0.206934    0.1839615  17.65  0.001201657    1.015    0.015
       112  -9.8308     78.4163     50.0021   4.2943613252e+01   5.6940228266e+01    0.2090234    0.1660481  30.25 0.0004798752    1.192    0.161
       113  -9.5176    102.3478     47.8234   3.4436880157e+01   5.2564838483e+01    0.1789692    0.1290085 -18.20 0.0001258534    1.504    0.335
       114 -10.2087     50.8603     48.1773   5.2865897591e+01   6.1619074892e+01    0.2521489    0.1520696  32.65 0.0008584442    1.694    0.410
       115 -11.0842     16.9363     46.2435   6.7348856086e+01   6.5560091616e+01    0.2316177    0.1601039 -30.92 0.0003740053    1.157    0.136
       116 -11.3034     67.2886     35.9574   4.1587269118e+01   6.1055668079e+01    0.2809706    0.2350549 -25.60 0.0003398031    1.252    0.201
       117  -9.7545     71.1441     45.4317   4.3853670856e+01   5.8955224201e+01    0.2384933    0.1813426 -32.19   0.00135581    1.322    0.244
       118 -11.0642     70.5578     41.2503   4.2462900305e+01   5.9707556461e+01    0.3046351    0.2459746  36.83   0.00150189    1.276    0.216
       119 -12.4951     85.6177     42.7315   3.7775757499e+01   5.6722354422e+01    0.2656038    0.2316479   9.68 0.0003287819    1.035    0.034
       120 -11.8177     90.9569     40.4151   3.5188385345e+01   5.6001027626e+01    0.4607399    0.3288372 -58.90 0.0008013605    2.145    0.534
       121 -11.1265    110.1172     41.7932   3.0122146923e+01   5.1742000510e+01    0.4625509    0.3395765  65.35  0.002323626    1.550    0.355
       122  -9.7233     28.1521     42.4923   6.0816201929e+01   6.5284290641e+01     0.167779    0.1111922  13.32 0.0008356124    1.501    0.334
       123 -10.4284    184.1594     41.2950   1.5182878756e+01   3.4092951542e+01    0.2944051    0.1649439  74.41 0.0009011779    1.826    0.452
       124 -10.4489    117.0255     40.9983   2.8047094081e+01   5.0295606476e+01    0.2051932    0.1893329  50.20 0.0003711637    1.076    0.071
       125 -10.5594     62.0425     41.0365   4.5616078988e+01   6.1154246045e+01    0.1924376     0.162628   2.33            0    1.008    0.008
       126  -9.6380     80.9896     38.7397   3.7798862426e+01   5.8188250265e+01     0.185344    0.1542324  29.04 0.0002862766    1.099    0.090
       127  -9.5928     43.7661     39.6096   5.2649638069e+01   6.4015997849e+01    0.1626595    0.1113693  36.32 0.0006011792    1.658    0.397
       128  -9.2011    130.3029     38.6572   2.4115365331e+01   4.7513068983e+01    0.1402159    0.1071957 -72.08 0.0007039523    1.680    0.405
       129 -10.5635    121.7409     36.9690   2.5518229470e+01   4.9738779267e+01    0.2580398     0.238312  -3.40  0.001205004    1.153    0.133
       130 -10.5394     75.6819     37.9410   3.9321607905e+01   5.9288601189e+01    0.2196407    0.1773295  37.40 0.0003125378    1.229    0.186
       131 -10.3754     22.8349     34.5815   6.0434315295e+01   6.7181446751e+01    0.1952839    0.1351073 -34.15 0.0001573996    1.214    0.176
       132 -10.0750      6.1548     34.8006   6.8864861169e+01   6.8429989627e+01    0.1626301    0.1365059 -25.51 0.0005464015    1.162    0.140
       133 -11.5767     38.8264     41.8708   5.5707376120e+01   6.4241826585e+01    0.2118311    0.1827009   9.36            0    1.213    0.176
       134  -9.5664      2.2973     34.3466   7.0681393525e+01   6.8737905664e+01    0.1266187   0.06115354 -32.30  0.000703467    1.676    0.403
       135  -9.5810     45.4586     32.5704   4.9077436037e+01   6.4914354577e+01    0.1261009    0.1025399  -2.87 0.0001282283    1.016    0.016
       136  -9.6749    101.7212     30.9809   2.8500531444e+01   5.4986398993e+01    0.1802366    0.1662244  15.68 0.0003581011    1.083    0.076
       137 -10.5416     97.9481     29.9898   2.9180563119e+01   5.5917989304e+01    0.2038196    0.1818286  34.48  0.000444136    1.053    0.051
       138 -11.6909     39.3198     29.7500   5.0649583158e+01   6.6152558672e+01    0.2320062    0.1654789   6.52 0.0001800188    1.254    0.202
       139 -11.0869     11.2435     29.8682   6.4501510768e+01   6.8959559474e+01     0.216568    0.1610446  28.88   0.00146389    1.704    0.413
       140  -9.5973    201.4992     28.4795   9.7385438563e+00   3.1602684939e+01    0.1316825    0.1118318 -81.92 0.0001550997    1.017    0.017
       141  -9.6248    117.4706     28.4492   2.3599546170e+01   5.1759516742e+01     0.136197    0.1207971  46.53 8.054498e-05    1.017    0.017
       142 -11.2696     18.7715    248.0004   9.4287793842e+01   1.9657041375e+01    0.2196044    0.1574683  11.83  0.001394695    2.433    0.589
       143 -11.8946    216.9906     25.6882   7.4431709008e+00   2.8408680812e+01    0.2229315    0.1831223 -79.87 0.0002343816    1.026    0.025
       144 -11.5207    213.0237     23.9249   7.4443950580e+00   2.9507972745e+01    0.2323192    0.1806895 -74.35 0.0002920717    1.117    0.105
       145 -10.8125    183.0112     25.6005   1.1269651077e+01   3.6311687814e+01     0.218161    0.1882094 -45.81 0.0002737026    1.236    0.191
       146 -10.3096     44.1826     18.2204   4.3376343279e+01   6.7113875003e+01    0.3506044    0.1654551  15.15  0.001193077    3.156    0.683
       147  -9.7786    130.6900    247.3174   7.2158500729e+01   4.7505326696e+00    0.1289075   0.08962828  60.68 0.0004127045    1.638    0.390
       148 -11.1374     33.5085     24.3603   5.1057963084e+01   6.7679833529e+01    0.3189777    0.2637132 -67.61  0.001759644    2.419    0.587
       149 -10.6361     44.8234    246.0375   8.9364543913e+01   1.7101780229e+01    0.1801222   0.09454336  55.32 0.0005362268    1.572    0.364
       150 -10.2659    126.5330     24.5492   2.0266922887e+01   5.0081114640e+01    0.2671284    0.1823837 -74.78 0.0007360353    2.080    0.519
       151  -9.3411    130.2381     22.7177   1.8905464306e+01   4.9400039099e+01    0.4460907    0.3009262  57.65  0.001416768    1.289    0.224
       152  -9.9407     53.0609     23.7851   4.2079790746e+01   6.5059248198e+01    0.1767037    0.1566494  15.91 0.0006224912    1.241    0.194
       153 -11.4073     15.7875     21.9413   5.8962508637e+01   6.9900878604e+01    0.2808342    0.1669001 -44.58  0.001724116    1.671    0.402
       154  -9.9279    112.6926     21.2532   2.2182215430e+01   5.3642971385e+01    0.2262117    0.1523709 -39.79  0.001211604    1.727    0.421
       155 -10.3821     63.5421     21.6589   3.7020813057e+01   6.3606486517e+01    0.2230262    0.1640897  22.41 0.0005435625    1.168    0.143
       156  -9.5406      2.8617     21.7485   6.5901613182e+01   7.0913447289e+01    0.2134136   0.07930232 -24.67 0.0009667997    2.954    0.661
       157  -9.5547    100.9809     20.3165   2.4714518750e+01   5.6355370611e+01    0.2079627     0.143398 -21.59 0.0007509819    1.594    0.373
       158  -9.6682    163.5097     20.0053   1.2430056744e+01   4.1643896419e+01    0.1715391    0.1102485  19.14 0.0008084183    2.404    0.584
       159 -11.8211     91.2469     26.6099   2.9822896970e+01   5.7730008042e+01    0.2397819    0.2160528  -9.34 0.0002509837    1.179    0.152
       160  -9.1736    229.9758     17.7848   4.5545833195e+00   2.6499849806e+01    0.1473212   0.08675259  76.88 0.0002224181    1.566    0.362
       161 -11.2992    212.2493     16.7037   5.8992692028e+00   3.0510852854e+01    0.3102223    0.1785994  74.96 0.0003978556    1.567    0.362
       162 -10.1239     24.9729     17.0168   5.1989095546e+01   6.9726825850e+01    0.1679759    0.1277412  -8.31 0.0003341772    1.019    0.019
       163  -9.9585    147.1839    243.5595   6.8214170086e+01   2.8225549516e+00     0.195047    0.1597014 -34.03  0.001202591    1.418    0.295
       164  -9.4828    233.4849     15.4202   3.7799366733e+00   2.6025021910e+01    0.1223337   0.09430326 -73.75 8.948389e-05    1.042    0.040
       165 -10.5467     14.6112    244.1951   9.4826032553e+01   2.0824665070e+01    0.1455481   0.08670896 -72.04 0.0009423565    1.684    0.406
       166  -9.4840     25.2663     13.6499   5.0264790515e+01   7.0161590832e+01   0.09726154   0.08929083 -27.14 0.0003289922    1.618    0.382
       167 -10.0022     36.9226    240.7616   9.0497774278e+01   1.9074251836e+01    0.2532199    0.1143967  70.02  0.001255973    2.314    0.568
       168  -9.4198    117.7415    238.9687   7.3818079730e+01   8.2898896125e+00    0.1474882    0.1140543 -59.23  0.000411198    1.490    0.329
       169 -10.6230     17.9899    235.4443   9.3726245682e+01   2.2210030965e+01    0.1601584   0.09731673  40.72 0.0006561463    1.568    0.362
       170  -9.7465     28.5117    232.4944   9.1549913182e+01   2.1691798658e+01    0.1193788   0.09091898  70.32 1.153923e-05    1.019    0.018
       171 -10.5008     56.4559    230.6610   8.5832768344e+01   1.8760752585e+01    0.2753982    0.1896134 -26.58  0.001418065    2.783    0.641
       172  -8.7802     65.2967     12.6809   3.2424881666e+01   6.4310210074e+01    0.1059897    0.1002412 -68.65 0.0002754713    1.614    0.380
       173  -9.3338    161.6346    229.7016   6.3098288344e+01   2.9282980966e+00    0.1392101   0.09760111   5.47 0.0007032796    1.725    0.420
       174 -11.0329      1.7004    219.8365   9.5912368789e+01   2.6985006095e+01     0.431898    0.1456939  79.46  0.001831569    3.330    0.700
       175 -10.6206      7.2855    228.6725   9.5335580318e+01   2.4644945977e+01    0.2425519    0.1117938  79.96  0.001331552    1.953    0.488
       176  -9.7882    249.6101    216.7734   4.3515245960e+01  -8.3826110937e+00    0.1641135    0.1034237 -38.56 0.0009475593    1.668    0.400
       177  -9.5000    203.6508     10.6978   5.3569252593e+00   3.3107699730e+01    0.1216508   0.08702036  48.33 0.0007039406    1.694    0.410
       178  -9.8177    237.4973    186.9565   4.0024185992e+01  -2.0409328713e+00    0.2025079    0.1153007 -33.74 0.0008427743    1.570    0.363
       179  -9.4933     86.2021     10.3610   2.4801380912e+01   6.0474369906e+01    0.1666824     0.110255  61.45 0.0004052689    1.601    0.375
       180  -9.3606      1.2857    164.3241   9.2422848078e+01   3.9446180204e+01    0.1206312   0.07657902 -54.76 0.0002416719    1.602    0.376
       181  -9.7035    240.3220    163.3106   3.4754918376e+01   1.4946353212e+00    0.1381086   0.09659702  -5.60 0.0005510008    1.650    0.394
       182 -10.2359      7.2427    154.1752   9.0084227423e+01   4.1441793877e+01    0.2287533    0.1397282  82.73 0.0007821615    1.541    0.351
       183  -9.6921     11.6897    152.7109   8.8801471622e+01   4.1467317302e+01    0.1241754   0.08243356 -48.79 0.0006995296    1.580    0.367
       184 -10.1185     23.1381    148.2747   8.5273304022e+01   4.1629742005e+01     0.244056    0.1463665 -61.70 0.0006956733    1.425    0.298
       185 -11.6592      3.3763    146.5559   9.0362207226e+01   4.3542300015e+01    0.4366382    0.2150077  89.84  0.001637948    1.948    0.487
       186  -9.9253     15.3077    139.3409   8.6374499538e+01   4.4459561238e+01    0.2121205    0.1227158 -46.11 0.0007958786    1.767    0.434
       187  -9.3384      3.2994    139.3199   8.9674212880e+01   4.5290958186e+01    0.1275598   0.07588241 -50.60 0.0002528032    1.621    0.383
       188 -12.3829     69.2644    135.8799   6.9968571160e+01   3.9586241448e+01    0.2889832    0.2471551 -55.15  0.000434471    1.090    0.082
       189  -9.9516     59.0283    131.3125   7.2205545200e+01   4.2103165827e+01    0.1849928    0.1785231 -57.64 0.0003042784    1.067    0.063
       190  -9.9867     54.5242    128.9566   7.3152482239e+01   4.3253056156e+01    0.2207664    0.1257407 -58.94  0.000519599    1.553    0.356
       191 -11.3031    246.6378    127.4986   2.6200405313e+01   6.5922838489e+00    0.2539596    0.2168252 -32.29  0.000640776    1.048    0.046
       192 -10.0355     39.9494    128.4448   7.7570631780e+01   4.5003142022e+01    0.1930587    0.1363626  27.14  0.001032213    1.610    0.379
       193 -11.2684     75.1053    126.3970   6.6237426775e+01   4.1115180191e+01    0.2990388    0.2165238 -42.86  0.001459794    1.355    0.262
       194  -9.3341      7.7365    126.6813   8.7029459692e+01   4.8071414613e+01    0.1291375   0.07570058 -50.57 0.0002095455    1.550    0.355
       195 -10.5101     44.1400    124.6529   7.5608186652e+01   4.5512573566e+01     0.364007    0.1832817  70.00  0.001196304    4.310    0.768
       196  -9.4094     55.0085    124.0415   7.2060649473e+01   4.4423389273e+01    0.1689307    0.1519004 -57.60            0    1.001    0.001
       197 -11.2969     82.5533    120.0730   6.2492131259e+01   4.1521153275e+01    0.4165476    0.3355795 -60.30  0.001057475    1.227    0.185
       198  -9.3555     61.0248    121.0969   6.9550029733e+01   4.4397940854e+01    0.1700997    0.1477732 -54.88 0.0003498616    1.046    0.044
       199 -10.7885     24.1513    120.1928   8.1153436991e+01   4.8485559302e+01    0.1984584    0.1667641  79.76 0.0006557567    1.279    0.218
       200 -11.2595     27.1133    117.0110   7.9703671849e+01   4.9023574047e+01    0.2478925     0.194241 -55.46 0.0002815163    1.097    0.088
