#   1 NUMBER                 Running object number                                     
#   2 MAG_AUTO               Kron-like elliptical aperture magnitude                    [mag]
#   3 X_IMAGE                Object position along x                                    [pixel]
#   4 Y_IMAGE                Object position along y                                    [pixel]
#   5 X_WORLD                Barycenter position along world x axis                     [deg]
#   6 Y_WORLD                Barycenter position along world y axis                     [deg]
#   7 A_WORLD                Profile RMS along major axis (world units)                 [deg]
#   8 B_WORLD                Profile RMS along minor axis (world units)                 [deg]
#   9 THETA_WORLD            Position angle (CCW/world-x)                               [deg]
#  10 FWHM_WORLD             FWHM assuming a gaussian core                              [deg]
#  11 ELONGATION             A_IMAGE/B_IMAGE                                           
#  12 ELLIPTICITY            1 - B_IMAGE/A_IMAGE                                       
         1  -9.6465    167.3143      9.3120   4.8627102976e+01   4.1410874315e+01    0.1506996    0.1012517  34.80 0.0003766322    1.636    0.389
         2  -9.5794    160.6570      9.3051   4.9437330068e+01   4.3167082298e+01    0.1542732    0.1013874 -58.27  0.000704139    1.686    0.407
         3 -10.3219    148.3864      8.1916   5.0657072804e+01   4.6522690114e+01    0.2139238    0.1233799 -32.35 0.0009534055    1.696    0.410
         4 -10.3862    179.2313      6.9687   4.6521939280e+01   3.8508494847e+01    0.1906827    0.1132801 -20.67 0.0007018469    1.656    0.396
         5  -9.8452    171.2900      5.6563   4.6913916599e+01   4.0688969015e+01    0.1523414   0.09631581 -52.38 0.0004905802    1.653    0.395
         6 -11.0211    200.0090      4.3242   4.3793316095e+01   3.3470448095e+01    0.2899562    0.1493228  -0.94  0.001217138    2.456    0.593
         7 -11.0916    137.9592      6.7658   5.1629448787e+01   4.9419353736e+01    0.2773924    0.1709592 -37.46   0.00127973    1.646    0.393
         8 -10.0867    159.2316      2.4036   4.7111497116e+01   4.4139617335e+01    0.1994525    0.1329625 -89.43 0.0008902179    1.620    0.383
         9 -10.3175    201.7912    241.8401   9.7326050267e+01   3.4972816797e+00    0.2035144    0.1725361 -23.71  0.001360249    1.596    0.373
        10 -11.3537    241.4361    244.6432   9.1640098213e+01  -1.6327473971e+00    0.6139965    0.3226571 -38.38  0.004014756    3.189    0.686
        11 -12.6140    224.9790    176.7062   8.3576892951e+01   7.1466863685e+00     2.958641    0.7223921 -27.30   0.01006515    5.273    0.810
        12 -12.3745    217.5410    210.3232   9.0386121485e+01   4.5571419741e+00     2.142576    0.3406877 -35.98  0.007334556    7.111    0.859
        13 -11.9235    230.4008    235.6000   9.2049625493e+01   4.5730937915e-01    0.9068818    0.4482302 -43.32  0.005009486    4.188    0.761
        14 -12.1625    228.0057    222.2211   9.0513660744e+01   1.9758379465e+00     1.641294    0.3678187 -38.07  0.006224093    6.872    0.854
        15 -13.6346    227.9838    193.1869   8.5961805378e+01   4.8849762524e+00     6.018196     1.217457 -27.92   0.01903521    6.996    0.857
        16 -14.8858    246.5328     19.4613   4.4422285630e+01   2.1433413894e+01     6.366784     2.502167 -21.75    0.0281856    2.243    0.554
        17 -11.7925    236.2284    228.9988   9.0240233899e+01   3.1061090317e-01    0.3721178    0.3278822 -24.00  0.002186014    1.827    0.453
        18 -12.6646    236.2989    216.4803   8.8382450313e+01   1.4330281508e+00    0.7568932    0.6115086 -40.79  0.005642948    2.173    0.540
        19 -12.3393    248.6497    180.3160   8.0548675903e+01   3.2740868095e+00    0.9748778    0.2530639 -32.53  0.004155011    3.791    0.736
        20 -13.0535    247.4110    159.0273   7.6782438663e+01   5.6921351149e+00     1.828209    0.5978677 -20.89  0.007254881    3.604    0.723
        21 -12.7014    236.8242    194.5358   8.4801478072e+01   3.4941400033e+00     1.707032    0.3099275 -30.10  0.006068465    5.740    0.826
        22 -14.6857    246.8991     92.3838   6.2462753036e+01   1.3468804134e+01     5.397609     2.258073 -12.18   0.02015718    3.299    0.697
        23 -11.1970    225.2560    242.3551   9.3744323588e+01   5.0369019610e-01    0.3424872    0.2224083 -22.17  0.002640267    1.733    0.423
        24 -11.0908    209.8549    248.9632   9.6956937187e+01   1.8190979950e+00    0.2814827    0.2149636  13.52  0.001942604    1.166    0.143
        25 -10.8044    191.6495    247.9045   9.9692564298e+01   4.2023072928e+00    0.2808018    0.2758242  30.92  0.002455236    1.668    0.401
        26  -9.7094    169.0671    241.7190   1.0266135540e+02   7.7662334524e+00    0.1766676    0.1438203  -0.22  0.001182154    1.348    0.258
        27 -10.2439    219.8201    239.7517   9.4229841097e+01   1.4077887741e+00    0.1851371    0.1369012 -27.40 0.0009398182    1.753    0.429
        28 -11.3107    216.2306    233.0375   9.3882554260e+01   2.4820938055e+00    0.3387272     0.284959   8.61  0.001662472    1.319    0.242
        29 -10.4315    211.6862    226.8226   9.3743411511e+01   3.6762809336e+00    0.2572147    0.1734557 -18.04  0.001173491    1.584    0.369
        30 -10.1043    214.1557    240.4717   9.5202665272e+01   2.0541532870e+00    0.1822671    0.1449578  -5.31 0.0008180683    1.356    0.263
        31 -10.3112    183.4609    239.0482   9.9948324745e+01   6.1605779845e+00     0.219207    0.1895974  -8.20  0.001467797    1.373    0.271
        32 -10.1768    159.2047    238.0370   1.0390900160e+02   9.4871050660e+00    0.2541008     0.178923 -54.69  0.001849411    2.131    0.531
        33  -9.4367    148.2706    239.6225   1.0596467755e+02   1.0746692726e+01    0.1527793    0.1342527 -78.29  0.001246995    1.693    0.409
        34  -9.2373    134.5292    240.0668   1.0839589644e+02   1.2491053363e+01    0.1257191    0.1071818 -53.08  0.001029641    1.588    0.370
        35 -11.0215    191.0645    234.6543   9.8143361857e+01   5.6166460499e+00    0.3703846    0.2855602 -47.21  0.002807809    2.045    0.511
        36 -11.1813    205.0594    234.8319   9.5895161018e+01   3.7570410376e+00    0.3029189    0.2936853  34.30  0.001945136    1.717    0.418
        37 -10.4027    199.0885    226.5659   9.5751537268e+01   5.3881849403e+00     0.298195    0.2148061 -42.74  0.002147112    2.051    0.512
        38 -10.4535    176.7571    234.9554   1.0056218881e+02   7.4927705684e+00    0.2975186    0.1587779 -32.04  0.001706803    2.368    0.578
        39  -9.3783    139.2686    236.0281   1.0714799031e+02   1.2377349802e+01    0.1435554    0.1225482  34.94 0.0009001542    1.144    0.126
        40  -9.6067    170.4863    234.4093   1.0155664666e+02   8.3956211495e+00    0.1705544     0.105586 -37.54 0.0008869911    2.056    0.514
        41  -9.4309    144.8621    232.1201   1.0573731575e+02   1.2123896397e+01    0.1655871    0.1231536  45.38 0.0008848964    1.250    0.200
        42  -9.2539    133.3706    231.8327   1.0774949076e+02   1.3698978005e+01    0.1295714   0.09820626 -30.09 0.0009487657    1.758    0.431
        43  -9.5941    122.5931    232.2259   1.0972401557e+02   1.5069152113e+01    0.1251629    0.1008094 -33.63 0.0009541147    1.661    0.398
        44  -9.7716    113.4738    230.4868   1.1120457410e+02   1.6493884888e+01    0.1616346    0.1032427 -80.10  0.001039755    2.401    0.584
        45  -9.5954    174.0023    228.4511   1.0021761491e+02   8.6001892879e+00    0.1863567    0.1356242  -4.12 0.0009529283    1.551    0.355
        46  -9.6645    184.5170    227.4096   9.8293359501e+01   7.2785151931e+00    0.1778366    0.1054669 -35.34  0.001107061    2.071    0.517
        47 -10.3937    223.2243    226.2686   9.1842379730e+01   2.2163313723e+00    0.2276714    0.1678402  11.46 0.0008818518    1.087    0.080
        48 -10.5770    211.0504    181.2115   8.6686752944e+01   8.7660396276e+00    0.3894233    0.2125264 -24.05  0.001563829    1.905    0.475
        49  -9.7663    210.5207    174.5313   8.5585641760e+01   9.6614668995e+00    0.2154197     0.154661 -18.28  0.001069397    1.361    0.265
        50 -10.6049    205.9930    224.6885   9.4363058817e+01   4.6516124500e+00    0.2665305    0.1704593 -29.02  0.001274103    1.818    0.450
        51  -9.4929    204.5748    212.2639   9.2803728616e+01   6.1613426004e+00     0.140213   0.09376029  -9.48 0.0006282953    1.554    0.356
        52 -10.7052    206.0400    205.8268   9.1584595526e+01   6.6628802710e+00     0.477371    0.1997332 -31.68  0.002546502    2.666    0.625
        53 -10.7128    210.3642    200.3957   9.0011685736e+01   6.6447195689e+00    0.3075023    0.2313939 -34.37  0.001297397    1.681    0.405
        54 -10.8859    202.3836    218.2574   9.4043558740e+01   5.8186670656e+00    0.3640239    0.2138394 -33.43  0.002394455    2.014    0.503
        55  -9.8911    200.1392    210.2541   9.3247000504e+01   7.0120925188e+00    0.2330899    0.1470178 -30.35  0.001159452    1.800    0.444
        56 -10.1867    209.1684    193.6598   8.9120776403e+01   7.5860740681e+00    0.2696446    0.1829752 -10.69 0.0008319575    1.472    0.321
        57 -10.1243    210.1478    188.3417   8.8068024140e+01   8.0581080062e+00    0.2557459    0.1586819 -29.70 0.0009421791    1.719    0.418
        58 -10.1818    190.5041    225.5264   9.7035579322e+01   6.6668458141e+00    0.2266076    0.1573726 -24.23   0.00135718    1.657    0.397
        59  -9.5863    163.0588    226.8134   1.0190980231e+02   1.0298993499e+01    0.1855632    0.1487126  10.37  0.001408011    1.251    0.201
        60  -9.1622    143.6280    226.8178   1.0535853517e+02   1.2969849462e+01    0.1252932    0.1059961 -71.84 0.0009478413    1.692    0.409
        61  -9.3762    155.2522    224.7171   1.0303149718e+02   1.1637980695e+01    0.1583848    0.1379038 -40.69  0.001210774    1.495    0.331
        62  -8.9624    135.3553    223.8057   1.0651549196e+02   1.4500542573e+01    0.1323644    0.1008677 -31.79 0.0009465236    1.698    0.411
        63  -9.9364    180.4664    222.1711   9.8289079010e+01   8.4315634986e+00    0.2292235    0.1075227 -37.91  0.001328395    2.608    0.617
        64  -9.6346    174.5483    222.1710   9.9312258346e+01   9.2585245237e+00     0.164874    0.1490561  15.21 0.0009326884    1.247    0.198
        65  -9.9818    148.0718    222.1823   1.0401394935e+02   1.2961231891e+01    0.2279612    0.1678521 -35.95  0.001476872    1.703    0.413
        66 -10.0738    185.9357    220.8387   9.7171893332e+01   7.8209756682e+00    0.2501464    0.1564918 -33.83   0.00168054    1.919    0.479
        67  -9.2209    165.5118    221.0133   1.0074632294e+02   1.0666685409e+01    0.1389192    0.1100161 -33.99 0.0007332249    1.563    0.360
        68  -9.2269    140.5625    221.2435   1.0526927337e+02   1.4129545661e+01    0.1337138    0.1032883 -24.45 0.0009480655    1.656    0.396
        69 -10.8803    193.4068    218.0954   9.5521981850e+01   7.0855812515e+00    0.3047067    0.2332717 -25.90  0.001764107    1.528    0.346
        70 -10.5036    210.8129    217.6307   9.2569759103e+01   4.7251624938e+00     0.283214    0.1908835 -26.46  0.001639702    1.672    0.402
        71 -10.0519    209.8190    211.8249   9.1871302620e+01   5.4733154110e+00     0.236895    0.1542279   8.02 0.0008671186    1.447    0.309
        72  -9.3380    158.7073    218.6575   1.0165807114e+02   1.1923539642e+01    0.1797287    0.1311085 -22.09  0.001242137    1.682    0.405
        73  -9.3662    129.3121    224.3487   1.0768203088e+02   1.5248669525e+01    0.1064765    0.0779305   8.69 0.0007046009    1.717    0.418
        74  -9.2145    119.7542    218.0169   1.0877391214e+02   1.7441056454e+01    0.1229401   0.09693593 -58.81 0.0008882232    1.604    0.377
        75  -9.8776    179.3679    216.4459   9.7701940337e+01   9.2588984658e+00    0.1919755    0.1559098   7.51 0.0007942769    1.186    0.157
        76 -10.0920    170.8729    215.6088   9.9082455116e+01   1.0574057775e+01    0.2745573    0.1612267 -32.20  0.001542638    2.066    0.516
        77  -9.4050    165.3462    215.4686   1.0004973727e+02   1.1383631934e+01    0.1824456    0.1387889 -38.62 0.0009237448    1.636    0.389
        78 -10.0715    143.0263    215.4963   1.0412685860e+02   1.4566263720e+01    0.1944995    0.1525648 -11.48  0.001065538    1.591    0.371
        79  -9.3027     82.3353    216.3305   1.1575205418e+02   2.2547177399e+01   0.09950313   0.08234645   0.77 0.0007052132    1.730    0.422
        80  -9.4177    185.5834    214.7536   9.6386678643e+01   8.5731944382e+00    0.1881829    0.1097194 -35.94 0.0009372262    2.050    0.512
        81  -9.5112    186.1957    210.1236   9.5617357680e+01   9.0324676989e+00    0.1862971    0.1391481  -2.74 0.0008575468    1.375    0.273
        82 -10.2120    131.7493    214.6186   1.0612985017e+02   1.6278147723e+01    0.1797174    0.1372949 -30.08 0.0009315918    1.688    0.408
        83  -9.8638    154.2012    213.2859   1.0178512327e+02   1.3269250411e+01    0.1777358    0.1458256  -9.81 0.0008510576    1.404    0.288
        84  -8.5142    189.6377    213.2957   9.5480304239e+01   8.1643885703e+00    0.1046218   0.08120289  51.54 0.0007031821    1.710    0.415
        85 -10.2586    192.9138    209.3609   9.4343833211e+01   8.1508199931e+00    0.2398012    0.1617717 -32.60  0.001010703    1.734    0.423
        86 -10.2518    176.9011    210.0064   9.7235146682e+01   1.0397682188e+01    0.2426694    0.1892064 -30.36  0.001416901    1.516    0.340
        87 -10.2887    160.8777    209.9869   1.0012293817e+02   1.2739542259e+01     0.234829    0.1805976 -17.04  0.001324957    1.523    0.343
        88  -8.8742    149.3087    211.3234   1.0243485959e+02   1.4240185116e+01    0.1130742   0.07972582  10.59  0.000682364    1.649    0.393
        89  -9.4028    145.6199    208.2360   1.0272563725e+02   1.5203738859e+01    0.1438908    0.1058196 -28.08  0.000949158    1.689    0.408
        90  -9.4315    183.0788    206.3670   9.5614655202e+01   9.9422676239e+00    0.1880322    0.1407783  -6.21 0.0009936522    1.408    0.290
        91  -9.9855    171.3715    206.8389   9.7775199437e+01   1.1609130633e+01    0.1914327    0.1133993 -30.31  0.001147856    2.023    0.506
        92  -9.5803    172.7255    203.0251   9.6978793245e+01   1.1901381982e+01    0.1836998    0.1381575  13.58 0.0008171123    1.265    0.210
        93  -9.8360    156.4067    206.2931   1.0044545082e+02   1.3892270630e+01    0.1888938    0.1108369 -37.56  0.001125513    2.065    0.516
        94 -10.1470    149.7330    206.2366   1.0168742014e+02   1.4883117114e+01    0.1721729     0.147894 -44.04  0.001087378    1.448    0.310
        95  -9.7605    120.0000    207.0227   1.0749522321e+02   1.9050590304e+01    0.1597794   0.06685556 -54.72 0.0008023026    2.942    0.660
        96  -9.3846    114.4932    207.4964   1.0862595409e+02   1.9744117900e+01    0.1150636   0.09376957  40.01 -1.25119e-05    1.028    0.027
        97  -8.8301    126.2788    206.3687   1.0619494631e+02   1.8263175762e+01    0.1097371   0.08459287   1.07 0.0003768461    1.686    0.407
        98 -10.4953    197.7956    203.1794   9.2572310342e+01   8.1613786044e+00    0.3078327    0.2049097 -14.32   0.00123215    1.611    0.379
        99 -10.7266    139.7480    204.3648   1.0334006866e+02   1.6615970577e+01    0.2118933    0.1570142 -31.11  0.001400572    1.673    0.402
       100 -10.1157    186.8051    202.7597   9.4418664571e+01   9.8344869058e+00    0.2285304     0.199058 -23.34  0.001082013    1.374    0.272
       101  -9.6020    178.8151    203.5175   9.5952203428e+01   1.0929001372e+01    0.1911909    0.1570149 -18.89  0.001015695    1.349    0.259
       102  -9.3407    193.0006    201.5648   9.3151246087e+01   9.0598896036e+00     0.166913     0.137718  -3.61 0.0007933956    1.210    0.174
       103 -10.4418    164.8611    201.1576   9.8150931011e+01   1.3330039478e+01    0.2464333     0.159953 -19.95  0.001469856    1.957    0.489
       104 -10.2462    131.0476    201.9426   1.0471606441e+02   1.8247238786e+01    0.1809292    0.1340503   8.06  0.001025033    1.684    0.406
       105 -10.3416    202.1502    196.4612   9.0767942444e+01   8.3058988600e+00    0.2775385    0.2120022 -10.03  0.001174932    1.293    0.227
       106  -9.7456    176.2311    196.7199   9.5395764850e+01   1.2197052151e+01    0.2269424    0.1522036 -32.87  0.001180128    1.701    0.412
       107 -10.2861    149.1269    197.3507   1.0058310088e+02   1.6244192717e+01    0.1896772    0.1589118 -10.93  0.001041675    1.360    0.264
       108  -9.7197    194.2330    193.5771   9.1675223327e+01   9.8481155688e+00    0.2118918     0.157941 -12.41 0.0009649089    1.370    0.270
       109 -10.3169    184.3827    195.6201   9.3749123682e+01   1.1094339161e+01    0.3092963    0.1967864 -16.24  0.001105643    1.848    0.459
       110  -9.5958    185.4507    189.9401   9.2650619021e+01   1.1662808205e+01    0.1960199    0.1401492 -17.39 0.0009179928    1.502    0.334
       111  -9.5181    170.2001    196.8118   9.6518891209e+01   1.3107006543e+01    0.1655777    0.1233125  10.47 0.0005893626    1.357    0.263
       112  -9.8790    156.6295    197.1581   9.9118101924e+01   1.5132212939e+01     0.153049    0.1072331 -25.45 0.0009440727    1.721    0.419
       113 -12.0924    241.4013    179.0855   8.1421715378e+01   4.4384754741e+00    0.5960967    0.2373937 -30.67  0.002875617    2.472    0.596
       114 -10.1302    140.5725    196.2264   1.0209098010e+02   1.7703055951e+01    0.1493351    0.1112669 -28.49 0.0008441364    1.648    0.393
       115 -10.0071    132.8186    194.4167   1.0337944621e+02   1.9145060629e+01    0.1709537   0.09967034  29.90  0.000688774    1.628    0.386
       116  -9.3531    191.0432    197.0281   9.2786451426e+01   9.9056862886e+00    0.1858973    0.1338536  11.25 0.0008715116    1.295    0.228
       117  -9.7039    162.0372    191.3405   9.7222599154e+01   1.5127346361e+01    0.1986614    0.1591607 -13.99  0.001199101    1.386    0.278
       118  -9.4494    205.1514    190.3181   8.9248605296e+01   8.5823135490e+00    0.1960701     0.136563 -11.51 0.0007398891    1.438    0.305
       119  -9.9982    198.8987    190.1702   9.0302649415e+01   9.5542771922e+00    0.2297367    0.1573399 -19.62  0.001122515    1.520    0.342
       120  -9.7620    172.2481    189.8216   9.5058430499e+01   1.3743316551e+01    0.2326909    0.1582608 -34.18  0.001040612    1.666    0.400
       121  -9.8590    178.9229    189.1533   9.3713885019e+01   1.2787278324e+01    0.2345943    0.1654563 -25.64 0.0009502483    1.560    0.359
       122  -9.8166    139.6024    190.1994   1.0143810673e+02   1.8774373163e+01    0.1545578    0.1122885 -30.81 0.0009462693    1.675    0.403
       123  -9.5942    193.1602    187.3205   9.0838351514e+01   1.0798006363e+01    0.1985307    0.1470986  -3.48 0.0007757107    1.346    0.257
       124  -9.5076    156.9426    187.0189   9.7540824042e+01   1.6554935647e+01    0.1980756    0.1373899   8.07   0.00113334    1.746    0.427
       125  -9.6748    128.4909    186.4841   1.0316644616e+02   2.1066598648e+01    0.1223594    0.1045147  34.62 0.0001227953    1.039    0.037
       126  -9.5742    121.3239    186.3461   1.0463040502e+02   2.2172191143e+01     0.119818    0.0917608   1.01 0.0007050009    1.741    0.426
       127 -10.5452    203.3541    182.5680   8.8241643528e+01   9.8005269510e+00    0.3133705    0.2027291 -28.89  0.001046692    1.633    0.387
       128  -9.3675    189.5481    184.3932   9.0993972084e+01   1.1743302004e+01    0.1960281     0.107438 -21.56   0.00101876    2.200    0.545
       129  -9.8103    166.3526    185.1194   9.5424721728e+01   1.5337978664e+01    0.1853029     0.142297  -8.49 0.0009656642    1.445    0.308
       130  -8.9723    173.4665    184.4608   9.3967904609e+01   1.4295133652e+01    0.1240806    0.1016349  21.94 0.0002401887    1.032    0.031
       131  -9.9842    139.7662    183.9947   1.0050002283e+02   1.9726049933e+01    0.1473254    0.1044868 -46.57 0.0008278619    1.642    0.391
       132 -10.1532    183.8458    181.8995   9.1610496229e+01   1.2984208109e+01    0.2767227    0.1733885 -27.85  0.001344881    1.745    0.427
       133  -9.4844    197.3323    181.5660   8.9122162930e+01   1.0875093814e+01    0.2110693    0.1395289 -22.57 0.0007315911    1.579    0.367
       134  -8.9383    154.5390    182.4892   9.7304928689e+01   1.7617246776e+01    0.1247429    0.1051872  25.90 0.0001933767    1.038    0.036
       135  -9.7661    176.8699    180.3443   9.2643888602e+01   1.4324096871e+01    0.2306252    0.1709238 -19.86  0.001279109    1.455    0.313
       136  -9.4042    160.0000    180.0091   9.5830410689e+01   1.7111863881e+01    0.1793091   0.07124212 -43.10 0.0007926025    2.875    0.652
       137  -9.7262    121.0000    179.9992   1.0381890201e+02   2.3296676539e+01    0.1821989   0.07149311 -53.07 0.0008016475    2.937    0.660
       138 -10.0292    191.0455    178.1520   8.9652938121e+01   1.2326384374e+01    0.3064995    0.1753823 -26.21  0.001311219    1.911    0.477
       139  -9.6566    192.7703    172.3012   8.8301366741e+01   1.2827193838e+01      0.24304    0.1565301 -18.33  0.001122118    1.677    0.404
       140  -9.9899    145.4893    179.0401   9.8577442463e+01   1.9607451581e+01    0.1716108    0.1242603 -42.30  0.001027776    1.579    0.367
       141 -10.1803    205.1524    175.7854   8.6734540280e+01   1.0361864072e+01    0.3421564    0.1701938 -24.72  0.001747488    2.193    0.544
       142  -9.9108    197.7250    175.7371   8.8029321627e+01   1.1563161267e+01    0.2661893    0.1748975 -18.25 0.0009836828    1.593    0.372
       143  -9.5167    212.1179    168.3623   8.4178601321e+01   1.0169488413e+01    0.2105518    0.1578317 -14.80 0.0008456942    1.268    0.211
       144 -10.6814    213.0653    161.7930   8.2770878658e+01   1.0839902877e+01    0.4555115    0.2561059 -14.34  0.002353249    1.977    0.494
       145 -10.1555    216.1975    155.4174   8.0994863698e+01   1.1125512568e+01    0.3033532    0.1916418 -17.90 0.0009398072    1.541    0.351
       146 -10.1725    215.4761    173.7840   8.4612325082e+01   8.9670109981e+00    0.4487076    0.1636502 -23.64  0.001814853    3.555    0.719
       147 -10.5728    223.5318    145.3624   7.7746462302e+01   1.1150918510e+01    0.4432571    0.2471276  -9.46  0.002187371    2.043    0.511
       148 -10.6756    218.7869    167.0054   8.2803671314e+01   9.2601828254e+00    0.3720987    0.2358893  -7.31   0.00130791    1.602    0.376
       149 -10.0957    221.2594    160.8654   8.1222274676e+01   9.6078996045e+00    0.2816977    0.1737302 -11.70 0.0009755715    1.628    0.386
       150  -9.5355    222.0000    155.8792   8.0124462527e+01   1.0098573251e+01     0.253242    0.1207687 -25.97 0.0008681004    2.055    0.513
       151 -10.0528    221.2921    151.3799   7.9341260762e+01   1.0776409807e+01     0.359118    0.2087039 -16.23   0.00177299    1.732    0.423
       152  -9.7613    182.6470    175.0635   9.0653634230e+01   1.4118221290e+01    0.2545532      0.17813 -19.86  0.001016729    1.536    0.349
       153 -10.4099    101.0036    175.9913   1.0760417021e+02   2.6989130401e+01    0.1758534    0.1520286  51.25  0.001169625    1.021    0.020
       154  -9.4088    139.6675    175.6629   9.9243223921e+01   2.1092344001e+01     0.127939   0.09378743   4.83 0.0007052039    1.740    0.425
       155 -10.5435    150.8234    176.2601   9.7049947820e+01   1.9184249255e+01    0.2331103    0.1571288 -11.97  0.001233969    2.074    0.518
       156  -9.1591    187.5066    171.5544   8.9128469303e+01   1.3800740049e+01    0.2057683    0.1124184 -21.95  0.001017341    2.200    0.546
       157  -9.5197    169.2944    176.9716   9.3515585517e+01   1.6044641856e+01    0.1723715    0.1484041  -1.61 0.0008817752    1.164    0.141
       158  -9.5623    143.3242    170.3175   9.7617280934e+01   2.1379048589e+01    0.1286813   0.09498827   6.40 0.0004177838    1.671    0.401
       159 -10.1566    205.3163    168.0267   8.5286494539e+01   1.1322835558e+01    0.2675579    0.1918663 -16.81  0.001131656    1.364    0.267
       160  -9.0746    197.1699    168.8692   8.6881972567e+01   1.2558940597e+01    0.1755064    0.1278294   5.74 0.0007570444    1.341    0.254
       161 -10.0165    178.9417    167.7558   9.0044592104e+01   1.5777980002e+01    0.2655881      0.16575 -25.51  0.001170897    1.771    0.435
       162  -9.2124    158.4759    169.4870   9.4365058411e+01   1.8982415390e+01    0.1292382    0.1108679  22.55 6.939375e-05    1.045    0.043
       163  -9.9083    134.5169    168.9776   9.9260242519e+01   2.3053770544e+01    0.1721557    0.1070324 -21.93 0.0008099047    2.505    0.601
       164  -9.5733    150.5031    167.5014   9.5649205283e+01   2.0644112909e+01    0.1295794    0.1129607  25.41 0.0008104293    1.035    0.034
       165 -10.1783    191.8902    164.1573   8.6958798935e+01   1.4087439176e+01    0.3248194     0.176456 -22.69  0.001609806    2.111    0.526
       166  -9.1014    165.3088    166.3462   9.2442621235e+01   1.8312615994e+01    0.1328128   0.09330305   6.05 0.0007044362    1.703    0.413
       167  -9.4333    127.5357    166.5059   1.0037078433e+02   2.4622665503e+01    0.1278947    0.1146257  35.73 0.0008094815    1.021    0.021
       168  -9.8348    199.5493    163.7088   8.5489934726e+01   1.2851025421e+01    0.2695089     0.141695 -26.81  0.001272031    2.004    0.501
       169  -9.5784    184.8439    164.4494   8.8319313334e+01   1.5248728413e+01    0.2443062    0.1556285 -13.42    0.0011404    1.861    0.463
       170  -9.0603    172.4024    162.7965   9.0394844753e+01   1.7635706354e+01    0.1721507    0.1175037 -21.70 0.0007177454    1.632    0.387
       171  -8.8312    159.6772    163.6803   9.3094744316e+01   1.9697443159e+01    0.1330892   0.09487948   7.98 0.0007044897    1.672    0.402
       172  -9.5702    138.6578    162.6607   9.7315775360e+01   2.3455710495e+01    0.1339593   0.09838705   3.64  0.000704935    1.772    0.436
       173 -10.1998    205.5925    160.3109   8.3771183528e+01   1.2282123959e+01    0.3543257    0.2133143  -8.43  0.001652624    1.935    0.483
       174  -9.1867    153.0132    160.5158   9.3893155754e+01   2.1362944427e+01    0.1873568    0.1051994  20.82 0.0006679575    2.461    0.594
       175  -9.9015    176.8597    158.2046   8.8659481390e+01   1.7552440207e+01    0.2939975    0.1770471 -20.69   0.00146534    1.991    0.498
       176  -9.1781    158.5358    158.9500   9.2462670657e+01   2.0657513795e+01    0.1788006    0.1096111 -14.52 0.0008083443    2.456    0.593
       177  -8.7487    168.2952    158.3172   9.0366504072e+01   1.9043652361e+01    0.1325374   0.09506731   7.12 0.0003284857    1.606    0.377
       178 -10.0136    197.1819    155.9789   8.4417833169e+01   1.4310777090e+01    0.3014178    0.1830688 -14.53  0.001307136    1.873    0.466
       179  -9.7798    187.7526    154.7330   8.5906049088e+01   1.6143193129e+01    0.3020439    0.1594713 -20.51  0.001368755    2.386    0.581
       180  -9.2261    211.5291    154.5082   8.1604304425e+01   1.2033543056e+01     0.129528     0.105601   8.82 0.0003527422    1.032    0.031
       181  -9.5337    211.6206    151.1702   8.0917968361e+01   1.2453941099e+01    0.2614018    0.1429309 -18.71 0.0008460254    1.957    0.489
       182 -10.2352    215.1463    147.6698   7.9606342253e+01   1.2301097950e+01    0.3031519    0.2239941  -3.89  0.001051106    1.257    0.204
       183  -9.5679    218.5251    143.5441   7.8187796419e+01   1.2248010180e+01     0.276925    0.1634273  -3.68 0.0008874099    1.992    0.498
       184  -9.5784    205.9075    153.3613   8.2346450506e+01   1.3151574410e+01    0.2486066    0.1511757  -8.75 0.0008861404    1.891    0.471
       185  -9.0480    192.5269    153.0185   8.4678579562e+01   1.5544657716e+01    0.1866518    0.1223087 -28.41  0.001015551    1.548    0.354
       186  -9.5199    157.4153    151.7868   9.1337002040e+01   2.2035829439e+01    0.1826448    0.1238679 -26.20 0.0009478994    1.676    0.403
       187 -10.1017    145.2142    152.1970   9.4013449868e+01   2.4143053665e+01    0.2250704    0.1421832   2.14 0.0009511561    2.800    0.643
       188  -9.4745    202.4848    150.4391   8.2359084751e+01   1.4145702886e+01    0.2192366    0.1152738 -19.32 0.0008084554    2.201    0.546
       189  -9.5541    196.8572    148.9058   8.3055273712e+01   1.5358021599e+01    0.2122085    0.1551294   5.77  0.001027547    1.383    0.277
       190  -9.1778    182.1512    148.7997   8.5779048074e+01   1.8026929464e+01    0.1873597    0.1432475   5.48 0.0007470377    1.343    0.255
       191  -8.9993    162.3101    148.3472   8.9643336875e+01   2.1719478584e+01    0.1395761   0.09983731   4.99 0.0007045068    1.708    0.415
       192  -9.1307    191.3699    146.8774   8.3644764666e+01   1.6637362405e+01    0.1854753    0.1157936 -18.99 0.0008424959    1.740    0.425
       193 -10.0126    208.2494    143.6375   7.9945038516e+01   1.4050434521e+01    0.3043981     0.197806  -0.67  0.001078304    1.711    0.416
       194  -9.2482    176.4958    144.9785   8.6095138876e+01   1.9651439440e+01    0.1961803    0.1288626 -30.85 0.0007389918    1.574    0.365
       195  -9.4528    200.4847    143.9481   8.1375259453e+01   1.5403916300e+01    0.1947719    0.1219832 -26.42  0.001022898    1.578    0.366
       196  -8.7054    171.5035    143.4640   8.6774111343e+01   2.0817826635e+01    0.1380041    0.1192931  13.89 0.0008084466    1.075    0.070
       197  -9.7884    214.1291    141.2934   7.8448102503e+01   1.3316720219e+01    0.2267099    0.1572766 -11.87 0.0008550207    1.385    0.278
       198  -8.9789    194.4864    142.5070   8.2157694503e+01   1.6703175488e+01    0.1362411    0.1142928   9.79 2.292626e-05    1.066    0.062
       199  -9.2872    155.7740    141.8093   8.9690509808e+01   2.4025703222e+01    0.2307065    0.1434697   4.29 0.0009465043    2.764    0.638
       200  -9.7901    139.1928    141.9511   9.3361735795e+01   2.7055327762e+01    0.2264616     0.156399 -13.95  0.001083864    2.029    0.507
       201  -9.4697    181.8273    140.4023   8.4094485212e+01   1.9368825226e+01    0.2199504    0.1570987 -23.67  0.001188394    1.426    0.299
       202 -10.1229    224.4241    139.0348   7.6277280920e+01   1.1795262831e+01    0.3000406    0.1789979  -2.38 0.0008387751    1.907    0.476
       203  -8.7727    203.4857    140.4541   8.0103886374e+01   1.5347777845e+01    0.1356779    0.1117058   8.83 0.0002271088    1.080    0.074
       204  -8.9857    166.6111    139.2069   8.6874895744e+01   2.2429044338e+01    0.1862163    0.1256751 -24.24 0.0009375922    1.626    0.385
       205 -10.0669    218.6292    137.0386   7.6792507347e+01   1.3074894566e+01    0.3210431    0.1980718  -2.25  0.001213167    1.829    0.453
       206  -9.7224    208.8958    136.5468   7.8322684997e+01   1.4899661016e+01    0.2556248    0.1671697  -9.32   0.00134003    1.608    0.378
       207  -9.5262    198.9924    135.6849   7.9875185369e+01   1.6852423576e+01    0.2506924    0.1699998   0.14   0.00123152    1.653    0.395
       208  -9.1790    192.7657    135.4373   8.0954943583e+01   1.8058673233e+01     0.231767    0.1520338  -7.29  0.001039767    1.772    0.436
       209  -9.2428    172.8044    136.1950   8.4969199588e+01   2.1742925035e+01    0.1972373    0.1541112   4.88  0.001074237    1.360    0.265
       210  -9.1015    187.8234    134.1668   8.1598532463e+01   1.9187429188e+01    0.1914847    0.1472812   2.16 0.0008265381    1.332    0.249
       211  -9.1777    163.4896    134.0362   8.6409967754e+01   2.3888810203e+01    0.1922691    0.1176171 -12.22 0.0008085777    2.435    0.589
       212  -9.5465    179.7001    130.6680   8.2381800343e+01   2.1295694661e+01    0.2543815    0.1647423 -20.15  0.001245929    1.693    0.409
       213  -9.3325    205.9025    129.8096   7.7357860832e+01   1.6389125867e+01    0.2130581    0.1624977   8.43 0.0007852518    1.274    0.215
       214  -8.6590    160.6841    130.6375   8.6252883245e+01   2.5011431330e+01    0.1474936    0.1054688   4.48 0.0007041524    1.763    0.433
       215  -9.2690    143.5014    129.4972   8.9780077810e+01   2.8541132167e+01    0.1408056    0.1305948  16.08 0.0001619433    1.049    0.047
       216  -9.5802    212.0693    127.5688   7.5803741703e+01   1.5540443475e+01    0.2079332    0.1649606 -14.40 0.0007852212    1.149    0.129
       217  -9.4427    192.6721    127.8763   7.9287379012e+01   1.9201264680e+01    0.2205366    0.1592486  -7.31 0.0009912534    1.459    0.315
       218  -9.0064    172.4096    127.7613   8.3175332384e+01   2.3193221888e+01    0.1966672    0.1283066 -21.81 0.0009439883    1.693    0.409
       219  -8.9224    186.6539    127.6797   8.0367391094e+01   2.0404101293e+01    0.1470526   0.09991302  11.74 0.0007049392    1.731    0.422
       220  -8.9887    199.8307    125.4186   7.7431305082e+01   1.8175179274e+01    0.1896556     0.116142  32.56 0.0005093014    1.645    0.392
       221  -9.0883    217.5880    124.2648   7.4146804325e+01   1.4954146771e+01    0.1826238    0.1148158 -14.13 0.0005958505    1.590    0.371
       222  -8.7004    152.6553    124.6886   8.6649078947e+01   2.7631424986e+01     0.147775    0.1080291   8.70  0.000704594    1.705    0.414
       223  -9.5180    179.9121    122.4194   8.0450145161e+01   2.2563552631e+01    0.2889646    0.1817214 -12.73  0.001315793    1.974    0.493
       224  -9.4687    212.8809    121.1030   7.4198316439e+01   1.6271352094e+01    0.2171317    0.1461891   9.09  0.001042835    1.637    0.389
       225  -8.8317    203.3888    119.8743   7.5523973304e+01   1.8281166140e+01    0.1958695    0.1200742 -16.00 0.0009351537    1.733    0.423
       226  -8.7168    220.2796    119.3633   7.2596144858e+01   1.5101048027e+01     0.140156   0.09235992   6.25 0.0007012856    1.675    0.403
       227  -8.9082    194.4639    119.4899   7.7018666674e+01   2.0102352982e+01    0.1428954    0.1209006   6.51 0.0001122932    1.107    0.097
       228  -9.1595    188.3802    121.7669   7.8676544926e+01   2.0971178729e+01    0.1986464    0.1249832 -19.98  0.000945647    1.693    0.409
       229  -8.9362    147.3464    116.3149   8.5874594093e+01   3.0213519785e+01    0.1504356    0.1109966   8.06  0.000658916    1.719    0.418
       230  -9.5276    219.8828    113.8458   7.1378549261e+01   1.5909245239e+01    0.3346328    0.1714357  39.50  0.001567918    1.990    0.498
       231  -9.3174    223.2943    111.3216   7.0254005694e+01   1.5587907898e+01    0.2276573    0.1449532  -2.97 0.0004940093    1.724    0.420
       232  -8.7516    203.4874    114.4630   7.4228065287e+01   1.9037649913e+01    0.1410814    0.1204598   4.54 7.891006e-05    1.073    0.068
       233  -8.8673    186.3115    113.3426   7.7050189642e+01   2.2691493531e+01    0.1492095    0.1039357   9.38 0.0005742586    1.700    0.412
       234  -8.8874    208.3346    112.3041   7.2888670189e+01   1.8378353194e+01    0.1440785   0.09741914  13.65  0.000503268    1.664    0.399
       235  -9.0296    194.9848    112.0250   7.5134506277e+01   2.1112270306e+01    0.1738622    0.1518453 -11.45 0.0006998724    1.060    0.057
       236  -8.9148    213.2765    110.3440   7.1604900120e+01   1.7670343222e+01    0.1413689   0.09651005   7.03 0.0004591824    1.625    0.385
       237 -12.8329    241.5412    152.0392   7.6288132187e+01   7.3813520011e+00     1.676259    0.6989981  -9.19  0.005895757    4.580    0.782
       238  -8.8391    190.2762    107.3948   7.4844474947e+01   2.2784365232e+01    0.1503516    0.1034731   5.26  0.000699216    1.743    0.426
       239  -9.8352    222.5752    103.1928   6.8424312211e+01   1.6795087431e+01    0.2689612    0.1528223 -13.59  0.001218076    1.870    0.465
       240  -9.0123    205.5546    103.9357   7.1311255811e+01   2.0122425934e+01    0.1963615    0.1136165  -2.71 0.0008060898    2.399    0.583
       241 -13.4926    248.3509    124.8609   6.9637440540e+01   9.3957462092e+00     2.283078    0.6496176 -24.06  0.008309525    3.565    0.719
       242  -8.7036    209.3395     99.3048   6.9533674387e+01   1.9993058381e+01    0.1460993   0.09946325  15.24 0.0007040476    1.677    0.404
       243  -9.0174    203.2781     96.3702   6.9780661706e+01   2.1673681328e+01    0.1479523    0.1019423   7.69 0.0006663871    1.688    0.407
       244  -8.7500    195.6652     95.6786   7.0891905500e+01   2.3398325659e+01    0.1511059    0.1042226  14.60 0.0007050061    1.705    0.414
       245  -8.7230    220.3231     93.3048   6.6328084166e+01   1.8548570761e+01    0.1418831   0.09725595  14.35 0.0005993548    1.639    0.390
       246  -8.5599    207.3116     93.3450   6.8345991152e+01   2.1247258004e+01    0.1484742     0.101405  12.05 0.0007046042    1.707    0.414
       247 -12.7035    247.9651    229.0695   8.8508780379e+01  -1.1404994202e+00    0.7031702     0.361187 -32.04   0.00472734    2.411    0.585
       248  -9.9935    225.9387     86.8600   6.3900973070e+01   1.8238177888e+01    0.2133185    0.1675412   4.07 0.0006983088    1.262    0.207
       249  -9.4325    225.4183     80.7885   6.2433248551e+01   1.9116373406e+01    0.1942886    0.1199586 -12.81 0.0008239959    1.639    0.390
       250 -13.1875    247.6819    214.2648   8.6332889077e+01   1.7120117674e-01    0.8625528    0.4140174 -31.15  0.005421493    2.349    0.574
       251 -12.8231    246.6877    193.6692   8.3155018529e+01   2.2207948673e+00    0.9519865    0.4934806 -42.00  0.005031269    3.368    0.703
       252  -8.5957    116.7333     67.2995   7.9649617356e+01   4.6051145961e+01    0.1452793    0.1182442 -70.86            0    1.520    0.342
       253 -12.2466    242.7642    200.1847   8.4828396266e+01   2.1207317399e+00    0.6994173      0.26954 -17.59  0.003365218    3.180    0.686
       254 -12.2330    247.1282    241.2997   9.0357726692e+01  -2.0347684679e+00    0.6610205    0.4413092 -46.00  0.004167797    4.011    0.751
       255 -10.6739    224.5616    249.5233   9.4783626788e+01  -2.4493583336e-02    0.1834684     0.160405   6.13  0.001222872    1.542    0.352
       256  -9.3733    139.5795    249.2086   1.0843710882e+02   1.0730015394e+01    0.1227614   0.09419515 -23.35 0.0009647764    1.771    0.435
       257 -10.3082    176.2354    246.2902   1.0200067477e+02   6.3411070081e+00    0.2228246    0.1766918  -7.63  0.001598554    1.434    0.303
       258  -9.3550    156.6319    247.5054   1.0538902614e+02   8.7413783818e+00     0.136522    0.1001253 -40.04 0.0009826963    1.832    0.454
       259  -9.4156    163.4607    246.7109   1.0416162096e+02   7.9476505151e+00     0.146189    0.1047159 -49.62  0.001114524    2.047    0.511
       260  -8.9706    132.4835    246.5169   1.0938507137e+02   1.1955628785e+01    0.1051243   0.07693675  35.86 0.0005527591    1.020    0.020
       261  -9.1262    113.0000    246.0158   1.1269913909e+02   1.4466373299e+01    0.1315048   0.06003883 -58.15 0.0008056036    2.964    0.663
       262  -9.3862    103.5870    243.8094   1.1415155048e+02   1.5914319066e+01    0.1236056   0.09247175  83.11 0.0009559054    1.698    0.411
