#   1 NUMBER                 Running object number                                     
#   2 MAG_AUTO               Kron-like elliptical aperture magnitude                    [mag]
#   3 X_IMAGE                Object position along x                                    [pixel]
#   4 Y_IMAGE                Object position along y                                    [pixel]
#   5 X_WORLD                Barycenter position along world x axis                     [deg]
#   6 Y_WORLD                Barycenter position along world y axis                     [deg]
#   7 A_WORLD                Profile RMS along major axis (world units)                 [deg]
#   8 B_WORLD                Profile RMS along minor axis (world units)                 [deg]
#   9 THETA_WORLD            Position angle (CCW/world-x)                               [deg]
#  10 FWHM_WORLD             FWHM assuming a gaussian core                              [deg]
#  11 ELONGATION             A_IMAGE/B_IMAGE                                           
#  12 ELLIPTICITY            1 - B_IMAGE/A_IMAGE                                       
         1 -15.5767      6.1691     67.2827   1.0903106706e+02   6.2045107359e+01     2.058098    0.9894433 -63.51  0.008600169    1.701    0.412
         2 -13.3053     66.0901     48.8193   7.8502816965e+01   5.9431973143e+01     2.160715     1.072163 -18.20  0.007574207    3.551    0.718
         3 -15.2467    121.8303     36.9220   5.6763615290e+01   4.9879125173e+01     2.320115     1.233537  38.42   0.00840386    1.996    0.499
         4 -14.8981    146.8192     30.0009   4.9197876051e+01   4.4662006783e+01     2.125186     0.948447  69.98  0.008304139    2.447    0.591
         5 -13.7198    140.2138     22.1953   4.7859470284e+01   4.7181703289e+01       1.1053    0.3452482  65.04  0.003314157    3.064    0.674
         6 -15.2425    218.3804     16.3422   3.6173231759e+01   2.8792829985e+01     1.834163     1.110774 -26.08  0.009872608    1.918    0.479
         7 -13.7326    188.6215     25.6773   4.1633758293e+01   3.4772015563e+01     1.783943    0.5547605 -54.49  0.005072172    5.396    0.815
         8 -13.8850    188.3973     13.4405   3.8434885911e+01   3.6179629126e+01     1.521566    0.6437324 -52.61  0.006475917    2.541    0.606
         9 -14.6056    166.6946     29.1677   4.5625470581e+01   3.9795560379e+01     1.134218    0.9207175  69.16  0.004289431    1.133    0.117
        10 -13.1183      8.2260      2.6557   8.5215196519e+01   7.3872401898e+01    0.5140502    0.3953539  44.81  0.002426073    2.418    0.586
        11 -13.5099      2.6832     10.7616   9.2605391911e+01   7.3116350608e+01    0.7285388    0.3686249 -50.78  0.004275309    2.056    0.514
        12 -16.0399     12.2468     21.7705   9.2048350154e+01   7.0599954308e+01     1.911732     1.022693 -24.47   0.01084339    1.676    0.403
        13 -14.1107     24.8478     13.9485   8.1714604080e+01   7.0593950756e+01    0.7171425    0.3021468  25.24  0.003441427    2.447    0.591
        14 -15.5378     97.5787     12.2896   5.3375394950e+01   5.8212159582e+01     1.808618    0.7507197  51.66  0.006041122    2.007    0.502
        15 -12.3349     71.3518     17.5996   6.3464376174e+01   6.3043527175e+01    0.3733904    0.2330691 -18.91  0.001290794    1.618    0.382
        16 -12.4530     60.2176     17.5787   6.7509245982e+01   6.5049948037e+01    0.3551139    0.2179798 -35.71  0.001510388    1.791    0.442
        17 -14.2219     41.3075      5.9452   6.9592822915e+01   6.9449449491e+01     1.011574    0.5424138  -9.65  0.004951235    2.032    0.508
        18 -11.7631     46.6216     13.2490   7.0973001767e+01   6.7785801077e+01    0.2629625    0.2041733  34.81  0.001710375    1.374    0.272
        19 -11.8051    232.8580      1.8649   3.1835051992e+01   2.7137256789e+01    0.3122182    0.1820328  64.46  0.001420915    1.766    0.434
        20 -11.5250    153.0491      8.9444   4.1574877998e+01   4.5321763225e+01    0.2079769    0.1830239  65.22 0.0009623928    1.047    0.045
        21 -11.4768     68.2631      9.5763   6.0831427789e+01   6.4489609155e+01    0.2325848    0.1159472  54.42  0.001131237    2.136    0.532
        22 -13.6126    241.9543     34.9416   3.8213277394e+01   2.1338070767e+01    0.8614793    0.5325465 -86.55  0.003425248    1.672    0.402
        23 -12.2057    118.8535      2.8944   4.5111384318e+01   5.4143651647e+01    0.4092565    0.2621683 -81.85  0.002046731    2.118    0.528
        24 -11.7470     78.0779      2.7703   5.4582894381e+01   6.3193858770e+01    0.3380744    0.2265458  38.99  0.001636886    1.246    0.198
        25 -11.1333     83.0211      1.0000   5.2401850341e+01   6.2318914300e+01    0.2611366    0.1306681  55.22  0.001326797    1.743    0.426
        26 -12.3208     61.5173      1.9382   5.9481944307e+01   6.6471477430e+01    0.3501447    0.1776244  51.88  0.001286408    1.925    0.480
        27 -12.3250    198.5478    181.5465   7.8598313960e+01   5.5172676577e+00     0.274436    0.2648295  87.63  0.001226376    1.328    0.247
        28 -11.9660     52.5011    250.5019   1.1884966200e+02   1.5909082917e+01    0.1899799    0.1052086  62.41 0.0007183998    1.531    0.347
        29 -12.7727     56.6966    246.7036   1.1779890502e+02   1.6086172452e+01     0.582188    0.1570888  36.94  0.002463695    3.168    0.684
        30 -12.0062      2.8455    249.7790   1.2742685943e+02   2.1531008424e+01    0.3111271    0.1853317  47.79  0.001764067    1.420    0.296
        31 -13.9141      8.9202    245.5138   1.2623271578e+02   2.1719008075e+01    0.7548887    0.3553084  57.42  0.003580749    1.590    0.371
        32 -12.5711     85.2533    180.4759   1.0452667024e+02   2.6166241530e+01    0.3633206      0.23162  78.97  0.001669057    1.950    0.487
        33 -11.7125     95.5933    171.1940   1.0048548895e+02   2.6724004315e+01    0.2125213     0.128223 -49.05 0.0009573175    1.737    0.424
        34 -13.4210    124.2480    166.6870   9.2444051018e+01   2.2749725626e+01    0.6848661    0.4443233 -67.54  0.003003002    1.842    0.457
        35 -12.6905    164.0575    194.6717   8.8433886250e+01   9.3681374418e+00    0.4842988    0.2453643 -55.73  0.001969602    2.557    0.609
        36 -12.5502     40.3280    195.0445   1.1680175758e+02   2.8779181405e+01    0.3361907    0.1393581 -82.42  0.001450731    2.575    0.612
        37 -11.7954     77.4879    157.0001   1.0282518278e+02   3.3004971734e+01    0.3605196    0.2194046  30.33  0.001455227    1.842    0.457
        38 -13.1142     73.7676    153.0892   1.0317130933e+02   3.4518791226e+01    0.6083398    0.4768725  26.93  0.002889704    1.463    0.317
        39 -12.4511    211.3521    155.1062   7.0470252883e+01   7.9564233254e+00    0.2602837    0.1987377  25.49   0.00134824    1.386    0.278
        40 -11.7109     85.9327    152.8815   9.9827919478e+01   3.2724283815e+01    0.3852788    0.1848856 -49.19   0.00154519    2.095    0.523
        41 -11.7518    103.2590    150.2085   9.4628613988e+01   3.0476607072e+01    0.4065349    0.2625489 -34.42  0.001743777    1.932    0.482
        42 -12.4731    244.5250    147.5688   6.2972007310e+01   3.1924856906e+00     0.379345    0.1497755 -37.80  0.001563118    2.200    0.545
        43 -12.5879     60.9876    148.1612   1.0586598540e+02   3.7508477489e+01    0.3991759    0.2739057 -21.46  0.001315749    2.202    0.546
        44 -10.7688     62.8444    138.7924   1.0376102193e+02   3.9606681483e+01     0.195087    0.1569213  84.81 0.0004868808    1.296    0.228
        45 -12.9348    246.0789    134.7353   5.9952170339e+01   5.0602875344e+00    0.3953525    0.2610421 -59.47  0.001936244    2.036    0.509
        46 -12.1740     45.0784    135.0807   1.0828383736e+02   4.2701195401e+01    0.3354398    0.2215773  60.32  0.001707508    1.718    0.418
        47 -13.8628    234.6841    127.6489   6.0189674522e+01   8.3794499807e+00    0.8162064    0.3480541 -43.59   0.00331736    2.167    0.539
        48 -11.9379    133.1030    128.2842   8.1708803933e+01   2.9897249460e+01    0.7903922    0.2642537 -40.53  0.002305231    3.397    0.706
        49 -13.5715    120.2941    102.4455   7.8363968264e+01   3.8434284321e+01    0.7267638    0.3606449  39.27  0.002733395    2.134    0.531
        50 -12.6341     92.9727    103.8616   8.6838859484e+01   4.3478231037e+01    0.5013262    0.3724504  45.35  0.002171578    1.438    0.305
        51 -14.4480    105.5086    121.7088   8.7665062029e+01   3.6962071642e+01     1.590295     1.181927  28.29  0.007452718    1.497    0.332
        52 -11.4913     59.9016    125.4561   1.0216651723e+02   4.3328753977e+01     0.327522    0.2061505   0.23  0.001299738    2.589    0.614
        53 -13.1279     28.7415    122.3771   1.1115144647e+02   4.7487825706e+01    0.3572734    0.2691243 -72.89   0.00209988    1.139    0.122
        54 -11.5905     65.6121    126.5317   1.0064097832e+02   4.2299257601e+01    0.2600769    0.2471363 -81.51  0.001519513    1.062    0.058
        55 -11.9908     78.5073    110.9721   9.3201238557e+01   4.4229642583e+01     0.416377    0.2303536  43.15  0.001785303    1.963    0.491
        56 -12.3010     87.8792    109.5120   8.9898135361e+01   4.3042040521e+01      0.46392    0.2896904 -61.69  0.002019093    1.726    0.421
        57 -12.6020     76.9954    117.1058   9.5121658107e+01   4.2974794739e+01    0.5522895     0.406678  87.91  0.002601779    1.773    0.436
        58 -13.1666     84.9079    115.2893   9.2246094881e+01   4.2154964717e+01    0.7828382    0.3687046  32.86   0.00253387    2.362    0.577
        59 -11.8299      3.5938    119.8434   1.1831284727e+02   4.9958122727e+01    0.4741802    0.1662299  14.17   0.00202687    3.937    0.746
        60 -13.6888      2.1973     97.2459   1.1582582236e+02   5.5409230182e+01    0.8316567    0.2240559 -72.62  0.003140932    3.183    0.686
        61 -14.9323     26.3365     94.0607   1.0698478684e+02   5.4563090323e+01     1.324975     1.134083  11.54  0.008481515    1.374    0.272
        62 -12.3552     62.0911    108.9954   9.8017070898e+01   4.7101369423e+01    0.6290528    0.3605657 -67.79  0.002767738    1.889    0.470
        63 -11.7440    176.8009    110.4455   6.6721460832e+01   2.3971705364e+01    0.3883952    0.2800049  -6.46  0.001651675    1.952    0.488
        64 -14.3815     11.0565    101.9549   1.1359903889e+02   5.3788804388e+01    0.8105918    0.7147364 -66.28  0.004791136    1.098    0.089
        65 -11.1727     45.7582    110.0137   1.0358477989e+02   4.8846655459e+01    0.2053659    0.1677209 -60.69  0.001175117    1.071    0.066
        66 -13.6420     28.3205    246.1536   1.2291334461e+02   1.9558207726e+01    0.4415344    0.2735587  62.91  0.003018883    1.229    0.186
        67 -12.0880    136.2565    103.0827   7.4240001942e+01   3.4812677936e+01    0.5927247    0.2328952  45.76  0.001982332    2.579    0.612
        68 -13.4577    249.2324     98.5824   5.1514527600e+01   1.0452222668e+01    0.5069441    0.1794007 -37.14  0.001995321    2.403    0.584
        69 -12.4994     42.9284     91.1071   1.0042210834e+02   5.3690611788e+01     1.154328     0.496721 -75.09   0.00338034    5.275    0.810
        70 -12.7615     49.4478     94.6007   9.8939834513e+01   5.2138981669e+01    0.4642386    0.3723029  65.81  0.001738602    1.577    0.366
        71 -12.4525     61.1281     98.1202   9.5753346622e+01   4.9840018520e+01     0.377412    0.3092492 -82.82  0.001671929    1.437    0.304
        72 -10.8196     67.4984     97.4901   9.3428921411e+01   4.9100729723e+01    0.1447735    0.1318673 -44.40 0.0008105904    1.010    0.010
        73 -12.3655    136.4976     95.3038   7.1965089868e+01   3.6391703619e+01    0.4592907    0.2900196  53.00  0.001164903    1.663    0.399
        74 -12.4341    128.8260     96.2812   7.4264563499e+01   3.7912652306e+01    0.2992702    0.1998156  57.99  0.001274036    1.707    0.414
        75 -12.0726     90.4560     88.2055   8.3211334485e+01   4.7462854690e+01    0.4322022    0.3415727  54.26  0.002168003    1.465    0.317
        76 -11.5118     34.3407     86.8791   1.0255139974e+02   5.5541947098e+01    0.2364031    0.1867409  -8.66  0.001115956    1.419    0.295
        77 -12.8103    249.7583     83.8475   4.8175151856e+01   1.2692421792e+01    0.5594372     0.148158 -35.81  0.001913677    3.310    0.698
        78 -12.4696    188.1707     84.4582   5.7583801938e+01   2.6185352529e+01     0.678518    0.3020366  42.27  0.002199883    2.784    0.641
        79 -13.4377    133.7953     82.2158   6.8772335797e+01   3.9632552723e+01      1.10802    0.8014972  25.69  0.004977766    1.653    0.395
        80 -13.5187    238.3840     81.2730   4.9031145583e+01   1.5405916286e+01    0.7809138    0.4393365 -88.17  0.003149091    3.125    0.680
        81 -13.8500    164.1574     71.5060   5.8583573558e+01   3.4280628246e+01     1.550484    0.8338435  53.22  0.006414528    1.826    0.452
        82 -13.4879    161.1780     80.7927   6.1906275765e+01   3.3370243978e+01    0.8992223    0.6094759  12.85  0.003580088    2.377    0.579
        83 -14.3676    169.6684     77.0410   5.9069089959e+01   3.1969595351e+01     1.084935    0.6405431  48.67  0.003519862    1.718    0.418
        84 -10.7235    151.3598     84.2963   6.5115368098e+01   3.5090545434e+01    0.1612976    0.1218709  17.71 0.0007033022    1.706    0.414
        85 -13.5819    171.0030    242.9650   9.4903161260e+01  -1.9531946874e-01    0.5833671    0.4121382  17.51  0.003473594    1.408    0.290
        86 -13.2512     91.6302     58.2283   7.3002070333e+01   5.3197920716e+01    0.5533737     0.509377 -48.60  0.002363244    1.239    0.193
        87 -13.7294     87.6244     65.3333   7.6813569569e+01   5.2664324140e+01     1.075962     0.640296  11.84  0.004004241    2.779    0.640
        88 -13.0710     70.7728     75.5837   8.6040502899e+01   5.3508317311e+01    0.5991672    0.4654547 -13.25  0.002353176    1.380    0.275
        89 -12.2106     77.1150     73.8523   8.3249421237e+01   5.2841933644e+01    0.5313267    0.2897072 -34.50  0.001972775    1.891    0.471
        90 -13.2836     55.3614     81.9965   9.3543540437e+01   5.4313320255e+01     0.571539    0.4338462 -25.45  0.002683343    1.331    0.249
        91 -14.4509     60.9545     75.7707   8.9668289186e+01   5.4926644775e+01      1.35851     1.037058 -86.29  0.001392984    2.028    0.507
        92 -12.7520    212.6262     78.2375   5.1910697722e+01   2.1521830208e+01    0.9778938    0.5430039  84.72  0.003713922    2.996    0.666
        93 -12.0772    114.0788     80.1409   7.3492901732e+01   4.4448541444e+01      0.40264    0.3408074 -57.02  0.001139314    1.301    0.231
        94 -13.3074      6.1533     43.8356   1.0306391003e+02   6.6962039456e+01    0.8028753    0.3293328  15.73  0.004100884    2.753    0.637
        95 -12.3645     52.6564     98.0188   9.8637213234e+01   5.0947322688e+01     0.754913    0.3906297 -15.40  0.002482559    4.434    0.774
        96 -11.7719     42.0088     76.5191   9.7049309075e+01   5.7119879565e+01    0.2969031    0.2037038 -56.10  0.001597801    1.345    0.256
        97 -14.9896    106.9050    105.4884   8.3058846159e+01   4.0484966048e+01     1.729874     1.316664 -18.71  0.007360019    1.589    0.370
        98 -12.3976    218.2729     74.5650   5.0174867431e+01   2.0837158365e+01    0.3567555    0.2565081  78.10   0.00183072    1.553    0.356
        99 -12.1975    214.6473     71.8889   5.0033645371e+01   2.2086605353e+01    0.3221059     0.284372  64.09  0.001514537    1.204    0.169
       100 -14.1863     18.0000    110.8767   1.1272443951e+02   5.1170950229e+01    0.8715308    0.5753936 -47.27  0.003787839    1.412    0.292
       101 -13.4949    133.2216     66.1056   6.3866510691e+01   4.2723034972e+01    0.9602727    0.7426106  -2.56  0.004036897    1.591    0.371
       102 -12.4624    241.4054     71.3174   4.6380610809e+01   1.6324568443e+01    0.3624761    0.2319823 -88.25  0.001809338    1.983    0.496
       103 -13.4803    199.3213     69.5785   5.1749771027e+01   2.6032370936e+01    0.6860675    0.4145332  53.85  0.002324244    1.709    0.415
       104 -11.6834    199.5094     62.4475   4.9857508894e+01   2.7110843263e+01    0.3405337    0.2107399 -24.52  0.001540344    1.896    0.473
       105 -12.0513     43.3053     64.8885   9.3150725716e+01   5.9482063309e+01    0.2775869    0.1640844 -39.53 0.0005875555    1.481    0.325
       106 -12.5069     38.7735     68.1900   9.5970848929e+01   5.9281727451e+01    0.5439953    0.2527677  33.23  0.002535747    2.400    0.583
       107 -11.1615     33.9420     68.0000   9.7866986144e+01   5.9812141178e+01    0.2298535    0.1773875  44.93  0.001029743    1.664    0.399
       108 -11.7770    100.2929     64.5942   7.2492488555e+01   5.0315349312e+01    0.3814217    0.3233993  -0.42  0.002033384    1.222    0.182
       109 -13.8438    177.9895     57.2160   5.1887104435e+01   3.3164430664e+01    0.9294976    0.6090424 -47.69  0.003148993    1.532    0.347
       110 -12.7518     79.3754     60.7881   7.8046817001e+01   5.5021529040e+01    0.5014526    0.4697335 -26.42  0.002936949    1.122    0.109
       111 -13.1647     82.4666     54.6271   7.4754523884e+01   5.5577410641e+01    0.5434974    0.4117305  -1.54  0.001816036    1.433    0.302
       112 -11.6553     77.9363     54.0000   7.6101570648e+01   5.6509479270e+01    0.3245053    0.1851164  38.92  0.001042634    1.764    0.433
       113 -12.3121     24.6847     60.0071   9.9436199458e+01   6.2349687799e+01    0.3802561    0.1871216 -50.02  0.001947469    1.629    0.386
       114 -14.5801    119.6997     54.4848   6.3449322086e+01   4.7815166061e+01    0.9627122    0.7453028  31.79  0.002198617    1.318    0.241
       115 -11.7415     40.1738    243.5515   1.2062473028e+02   1.8696218237e+01    0.2625147      0.14474  87.42   0.00158298    1.740    0.425
       116 -14.1424     96.3709    239.0590   1.0940414194e+02   1.2072476909e+01    0.6177664    0.3935619  55.96    0.0026715    1.406    0.289
       117 -11.2681    147.4922    239.4775   9.9100537584e+01   4.0787257125e+00    0.1285541    0.1073752  38.83 0.0008099562    1.035    0.034
       118 -10.6988     38.4968     60.0115   9.3594991612e+01   6.1024611845e+01    0.1733258    0.1147564 -76.50 0.0008104329    2.576    0.612
       119 -10.9890     47.3207     56.6802   8.8835051070e+01   6.0665866516e+01    0.1940328    0.1652812  82.62  0.001115321    1.839    0.456
       120 -12.8801    247.6539     54.2202   4.1873070174e+01   1.7538167826e+01    0.5256337    0.3058886 -46.77  0.002816453    1.448    0.309
       121 -13.0054    248.7247     49.0011   4.0629203153e+01   1.8045157256e+01    0.4105394    0.3173919  41.78  0.002449878    1.774    0.436
       122 -11.6326    109.9292     53.8533   6.5890534531e+01   5.0117261693e+01    0.3621493    0.2202777 -29.20  0.001645419    1.723    0.420
       123 -12.5765    135.4441     50.5605   5.8260549076e+01   4.4702162011e+01    0.5660107    0.3294637  33.85  0.002372559    2.069    0.517
       124 -13.5349    103.0024     50.5100   6.6689869178e+01   5.2159704673e+01    0.8946605    0.5613506 -57.86 0.0007652331    2.398    0.583
       125 -12.3309     97.7096     50.5591   6.8299009116e+01   5.3267625992e+01    0.6942766    0.3316783 -49.15  0.002659897    2.804    0.643
       126 -11.1683     22.9811     50.3448   9.7252066373e+01   6.4470269742e+01    0.2289831    0.1384752  -5.99 0.0009498908    1.867    0.464
       127 -13.1269    158.1073     44.1812   5.1574631735e+01   4.0021099975e+01    0.6782414    0.4989848  33.24  0.003282296    1.571    0.363
       128 -11.6439     24.7459    217.6856   1.2182188329e+02   2.5575684997e+01    0.5242674    0.4277012 -85.94  0.003782581    1.220    0.180
       129 -14.7733    212.8099     41.1901   4.2678333146e+01   2.7022530005e+01     2.408836    0.7277102  72.36  0.007668119    4.282    0.766
       130 -12.1042     14.4234    223.8112   1.2416061450e+02   2.5380215879e+01    0.3771099    0.2060226  67.24  0.001526475    1.488    0.328
       131 -13.7081     25.8710    227.3960   1.2223482555e+02   2.3468872262e+01    0.6131874    0.3258379 -60.19  0.003574637    2.164    0.538
       132 -12.6345     75.8536     37.3035   7.0354219653e+01   5.9606732096e+01    0.3301132    0.2547267  38.25 0.0008273096    1.282    0.220
       133 -12.1349     69.5552     36.5406   7.2316675407e+01   6.0849302673e+01    0.4484888     0.207413  34.67  0.001252389    2.195    0.544
       134 -13.3717     20.7512    225.2573   1.2306453576e+02   2.4442525898e+01    0.3926896    0.3513478  64.84  0.002748187    1.310    0.236
       135 -12.4851     46.2392     33.6531   8.0508151689e+01   6.4937379902e+01    0.4677928    0.2960387 -20.39  0.002596036    1.519    0.342
       136 -13.4036     66.0283    223.2664   1.1398230375e+02   1.9460358638e+01    0.6925482    0.5763854  33.75  0.004531917    1.389    0.280
       137 -14.0174     63.2960    214.6758   1.1371939910e+02   2.1617791691e+01     0.732405    0.4204339  58.91  0.003936463    1.610    0.379
       138 -12.8713     94.6561    218.3777   1.0741738727e+02   1.6370826665e+01    0.3464395    0.2152444  45.98  0.001457447    1.406    0.289
       139 -13.0429      9.8034    211.2598   1.2431780099e+02   2.8413704628e+01    0.6222158    0.1876184  40.97  0.003058613    2.666    0.625
       140 -12.9748     56.2576     27.4762   7.3593344992e+01   6.4395853377e+01    0.6262047    0.2776357  43.38  0.002173944    2.379    0.580
       141 -12.8936     68.1192     24.6897   6.7779510783e+01   6.2769845033e+01    0.6282669    0.3213266  42.74   0.00310876    1.849    0.459
       142 -11.1883     97.9173     27.1340   5.9256137360e+01   5.6536225796e+01    0.2002732     0.187927  73.26  0.001227312    1.274    0.215
       143 -11.4577     36.4042     24.7432   8.1080904154e+01   6.7623711060e+01    0.2425869    0.2084935 -78.15  0.001479374    2.297    0.565
       144 -12.2122     46.4348     21.1153   7.4840586339e+01   6.6787267177e+01    0.3336232     0.228189  -9.12 0.0008281461    1.359    0.264
       145 -11.2766     53.3628     20.1533   7.1444320875e+01   6.5858734232e+01     0.428787    0.1451594  34.70  0.001720894    3.075    0.675
       146 -11.1349    136.4584    211.2625   9.7310151483e+01   1.1016481213e+01    0.1753886    0.1346895 -71.54 0.0008683723    1.590    0.371
       147 -11.8263     72.2474    207.0450   1.1098292754e+02   2.2041017911e+01    0.3210127    0.2343764  46.28   0.00187668    1.264    0.209
       148 -12.4128     57.3272    203.0600   1.1383976739e+02   2.4917697554e+01    0.4831867    0.2440488 -86.67  0.002249947    2.249    0.555
       149 -10.7982     55.3306     41.0787   7.9721594060e+01   6.2422380147e+01    0.1779795      0.14519 -21.28 0.0004270124    1.092    0.085
       150 -12.0208     41.1478    205.9270   1.1759727781e+02   2.6266081893e+01    0.2026959    0.1380073  70.45   0.00122388    1.275    0.216
       151 -12.2290    248.7242    196.6819   7.2240360487e+01  -5.2065493387e+00    0.4849701    0.2146151 -38.67  0.002321025    2.178    0.541
       152 -12.4789     17.0447    194.8974   1.2180556283e+02   3.1255474620e+01    0.8286455    0.2380556 -76.76  0.003424716    3.061    0.673
       153 -13.4994     30.0066    169.1537   1.1666765720e+02   3.5918605322e+01      0.77494    0.4324528 -44.67  0.002682674    2.294    0.564
       154 -13.1313     22.2261    181.2965   1.1961718397e+02   3.3834856333e+01    0.6238348    0.3985381 -55.96  0.002755803    1.697    0.411
       155 -14.7246      8.3964    183.4593   1.2283403401e+02   3.4600936060e+01     1.057349    0.8817648  73.24  0.007579792    1.136    0.119
       156 -14.4507     16.1123    175.6782   1.2053211976e+02   3.5704317215e+01      1.85545    0.5334303  48.29  0.007659924    3.268    0.694
       157 -11.9357    201.0401    192.0399   8.0177674295e+01   3.2119009959e+00    0.2803296    0.1954769 -27.02  0.001184599    1.434    0.302
       158 -11.6897     49.1317    181.4983   1.1340705259e+02   3.0871644759e+01    0.3363169    0.1996452 -60.27  0.001761695    1.636    0.389
