#   1 NUMBER                 Running object number                                     
#   2 MAG_AUTO               Kron-like elliptical aperture magnitude                    [mag]
#   3 X_IMAGE                Object position along x                                    [pixel]
#   4 Y_IMAGE                Object position along y                                    [pixel]
#   5 X_WORLD                Barycenter position along world x axis                     [deg]
#   6 Y_WORLD                Barycenter position along world y axis                     [deg]
#   7 A_WORLD                Profile RMS along major axis (world units)                 [deg]
#   8 B_WORLD                Profile RMS along minor axis (world units)                 [deg]
#   9 THETA_WORLD            Position angle (CCW/world-x)                               [deg]
#  10 FWHM_WORLD             FWHM assuming a gaussian core                              [deg]
#  11 ELONGATION             A_IMAGE/B_IMAGE                                           
#  12 ELLIPTICITY            1 - B_IMAGE/A_IMAGE                                       
         1 -12.4119    160.1188     51.7570   5.3503238469e+01   3.8435735549e+01    0.9534414    0.4745166 -52.79   0.00367054    2.492    0.599
         2 -12.4293    219.6075     36.5089   4.0781746277e+01   2.6069162040e+01      3.00994    0.6038981 -48.27  0.008447769    5.389    0.814
         3 -12.8005    212.1062     60.8003   4.7629229579e+01   2.4391819210e+01     1.829729    0.7152957 -45.13  0.007153615    2.378    0.579
         4 -12.0517    227.4716     33.4882   3.9263143189e+01   2.4680198993e+01     1.922266    0.3236703 -35.22  0.006149427    4.376    0.771
         5 -12.1234    227.8542     11.9490   3.4380319895e+01   2.7155057866e+01      1.24238    0.4063477 -36.06  0.005481763    2.651    0.623
         6 -13.3052    243.1906     56.6540   4.2879078418e+01   1.8120370532e+01     1.955188     1.078555 -54.96  0.007113557    1.700    0.412
         7 -12.4452    238.8725     38.1573   3.9206302450e+01   2.1578541051e+01     1.710398    0.6616756 -64.53  0.005911664    4.139    0.758
         8 -12.7250    239.1801     26.0130   3.6517906820e+01   2.3050600687e+01     1.814553    0.5909052 -51.99  0.007372083    2.884    0.653
         9 -13.0266    247.0528      7.6513   3.2072411168e+01   2.3517790148e+01     1.148319    0.6146499 -52.93  0.003824286    1.534    0.348
        10 -11.8239    249.2093     33.7913   3.7326357552e+01   1.9965331489e+01    0.7643153    0.2825777 -33.78  0.003226543    2.533    0.605
        11 -12.8782    246.2833     22.2388   3.5133656716e+01   2.2004228700e+01     2.357524     0.519051 -53.84  0.007044424    5.664    0.823
        12 -13.8138    164.7819     80.6726   6.1107526197e+01   3.2515557089e+01     1.855796     1.105474  80.80  0.006665397    2.855    0.650
        13 -12.2951    134.8617     60.1328   6.1536161967e+01   4.3339117206e+01    0.5380621    0.4530703  82.03  0.002765337    1.370    0.270
        14 -12.6372    226.0842     61.1047   4.5882312106e+01   2.1167485453e+01     2.900575    0.8272299 -52.23  0.007939424    5.381    0.814
        15 -10.4070    218.0002     21.0373   3.7298196616e+01   2.8342535957e+01    0.3816461    0.3186575 -15.51  0.002365782    1.553    0.356
        16 -10.3208    206.7343     17.7217   3.7599206319e+01   3.1333845358e+01    0.8381996    0.3823433 -79.53  0.003363573    2.948    0.661
        17 -11.1884    216.9468      9.7389   3.4779039241e+01   2.9842056193e+01    0.7329857    0.2646317 -52.43  0.002928126    2.664    0.625
        18  -9.8256    219.8677      3.0654   3.3035842535e+01   2.9875621688e+01    0.3183787    0.2570555  -6.88   0.00202712    1.767    0.434
        19  -9.2068    192.0574     14.0326   3.8191319160e+01   3.5232107598e+01    0.3869346    0.1744752 -47.72  0.001762587    2.178    0.541
        20  -9.6075    206.1879      8.4210   3.5409189318e+01   3.2461095934e+01    0.3026628    0.2429255 -70.76  0.001481794    1.088    0.081
        21  -9.8821    187.8778      5.2009   3.6354385010e+01   3.7127749793e+01    0.6034982    0.1302423 -38.64  0.002190218    3.725    0.732
        22  -8.7073    158.2800      5.2452   3.9751457810e+01   4.4361637868e+01    0.2677519    0.1188884 -47.68   0.00116455    2.525    0.604
        23  -8.5443    176.1786      5.1678   3.7581005921e+01   3.9969859827e+01    0.1879968    0.1366493 -71.99 0.0007954215    1.349    0.259
        24  -9.2824    204.5673      2.1162   3.4049634100e+01   3.3469698987e+01    0.3198659    0.1847333 -74.57  0.001704985    1.677    0.404
        25  -9.5765    245.6489    125.4386   5.7980978961e+01   6.6951307318e+00     0.405661    0.2376499 -59.42  0.001787486    2.436    0.589
        26 -13.1437    125.2226    248.5935   1.0472274579e+02   6.0286189294e+00     1.783214    0.4661893  35.74  0.006375072    3.576    0.720
        27 -13.7287    166.9032    248.6790   9.6523122732e+01  -4.2829827888e-01     2.948653    0.7154698  40.49   0.01078665    3.398    0.706
        28  -9.0775    224.7751    123.3372   6.0839128997e+01   1.1082027991e+01    0.3449063    0.1947962 -58.68  0.001387227    2.508    0.601
        29  -9.5429    239.3429    122.7327   5.8346281198e+01   8.3338769786e+00    0.3107118     0.181518 -55.43  0.001156943    2.083    0.520
        30  -8.4842    213.4910    123.4535   6.2823255920e+01   1.3372932715e+01    0.2508631    0.1454623  63.49  0.001030841    2.371    0.578
        31  -8.9746    231.5111    119.3818   5.8821498344e+01   1.0432984994e+01    0.2762268    0.1713023 -58.92  0.001132488    2.051    0.512
        32  -8.8226    191.3582    116.6218   6.5322128311e+01   1.9452893270e+01    0.3399497    0.2204493 -77.42  0.001261894    2.807    0.644
        33  -9.6542    247.4200    115.0597   5.5424543925e+01   8.0967660488e+00    0.3769044    0.2521965 -85.28  0.001734463    2.617    0.618
        34  -8.8370    222.3035    116.3531   5.9623870892e+01   1.2828412390e+01    0.3317428    0.1877031  62.28  0.001421772    2.296    0.564
        35  -9.0830    235.5415    113.8553   5.6923679122e+01   1.0588687818e+01    0.2896972    0.2000084 -69.88  0.001384761    2.016    0.504
        36  -9.1130    229.0319    110.6079   5.7187300859e+01   1.2456289302e+01    0.2908093     0.175666 -48.70  0.001136365    1.611    0.379
        37  -8.9509    211.6708    110.6361   6.0069074606e+01   1.6103382415e+01    0.2493807    0.2004455  71.36   0.00118232    1.463    0.317
        38 -10.1206    242.8495    107.4547   5.4384042732e+01   1.0234774115e+01    0.3768029     0.301685 -66.38  0.002044339    1.406    0.289
        39 -10.2736    237.5478    107.4976   5.5167752918e+01   1.1271318215e+01    0.5514142    0.2273224  64.45  0.001897403    4.094    0.756
        40  -9.2951    221.6287    110.5340   5.8360994412e+01   1.4001138252e+01    0.3179018    0.1476145  56.33  0.001270708    2.500    0.600
        41 -10.0983    249.4784    105.8298   5.3089132864e+01   9.2275835487e+00    0.7872363    0.2499334 -48.56  0.002610444    3.653    0.726
        42 -10.6649    239.1156     99.2218   5.3048315720e+01   1.2342115616e+01    0.6048333    0.3380159  64.87  0.002793227    2.256    0.557
        43 -10.0879    249.3977     97.1890   5.1183100077e+01   1.0645054174e+01     0.382098    0.2137472 -43.64  0.000989312    1.529    0.346
        44 -10.2668    245.4548     96.0594   5.1456181434e+01   1.1597816257e+01    0.3175897    0.2473869 -46.62 0.0003575724    1.121    0.108
        45  -8.7489    218.8788    105.5021   5.7610641073e+01   1.5472245833e+01    0.2045404    0.1461157  57.44   0.00101651    1.552    0.356
        46  -8.2655    213.3817    104.2188   5.8213318345e+01   1.6887031328e+01    0.2148792    0.1242113 -46.37  0.000940223    1.647    0.393
        47 -10.2674    228.2884    101.1611   5.5089966065e+01   1.4236378484e+01    0.5223601     0.293097 -66.28  0.002009094    2.957    0.662
        48  -8.4719    224.1037    103.6687   5.6332060457e+01   1.4683234930e+01    0.2628924     0.137589  64.16  0.001079336    2.484    0.597
        49  -9.4206    198.9742    101.2067   5.9983112364e+01   2.0644505597e+01    0.2725799      0.21288 -43.92  0.001022299    1.207    0.172
        50 -12.0128    152.2751     70.6926   6.0852598777e+01   3.7336613537e+01    0.5905118    0.4326441 -52.66  0.002787658    1.464    0.317
        51 -13.4437    155.7680     95.2486   6.7247275619e+01   3.1919035910e+01     1.483991    0.8310412  61.16  0.005704807    2.141    0.533
        52 -12.9441    145.6404    248.4861   1.0067308250e+02   2.8950457903e+00     1.958199    0.9869555  20.39  0.008200589    3.173    0.685
        53 -12.4731    169.1169     69.1030   5.6902015111e+01   3.3464455636e+01    0.9215567    0.5224262 -44.09  0.003929411    1.764    0.433
        54 -13.9105    148.1221     81.2122   6.4956290755e+01   3.6446051051e+01     1.373783     1.063535 -84.87  0.006309982    1.681    0.405
        55 -10.6800    185.4910     83.1595   5.7726375961e+01   2.7055290661e+01    0.4042292    0.3036938  89.88  0.001474731    1.627    0.386
        56 -12.0924    178.3651     75.4099   5.6926846853e+01   3.0126836771e+01     1.013498    0.5788313 -72.68  0.003487984    3.231    0.691
        57  -8.9434    205.2700     99.4236   5.8415027241e+01   1.9543307843e+01    0.2818453    0.1406435  49.38  0.001141626    2.131    0.531
        58 -13.1912    133.3261     95.0066   7.2702287946e+01   3.7172248952e+01    0.9935482       0.7182  53.15  0.004532598    1.445    0.308
        59 -10.3814    194.9328     95.1446   5.9163552530e+01   2.2679519914e+01    0.5477486    0.3530985 -83.04  0.002147834    2.563    0.610
        60 -10.1299    210.3311     91.7253   5.5637106773e+01   1.9763617030e+01    0.5156466    0.2175384 -50.37  0.001850039    2.650    0.623
        61  -9.4059    204.6883     93.1985   5.6947714507e+01   2.0783977519e+01    0.3418873    0.1909079 -42.75  0.001246126    1.666    0.400
        62 -10.3184    225.4640     86.0271   5.1917668063e+01   1.7382158288e+01    0.4633622    0.3970643 -68.25  0.002649764    1.172    0.147
        63 -10.8011    234.8414     91.2673   5.1817999732e+01   1.4529083896e+01    0.5887312     0.412555 -78.39  0.002954421    1.839    0.456
        64  -8.8755    228.9456     90.9896   5.2593042251e+01   1.5813066864e+01    0.2996226    0.1857431 -67.20  0.001028764    2.134    0.531
        65  -9.1177    215.8564     93.1473   5.5099012317e+01   1.8285341998e+01    0.3237884    0.2078806  79.71  0.001425634    2.165    0.538
        66  -9.7588    247.8844    137.2247   6.0211778382e+01   4.3242434219e+00    0.5148121     0.340312  89.63  0.002091515    3.737    0.732
        67  -8.6094    240.6408    112.8463   5.5923395765e+01   9.7609653690e+00    0.3432078    0.1563786 -48.90  0.001398424    2.270    0.559
        68 -10.6160    223.0974     66.3877   4.7527774291e+01   2.1035294834e+01    0.6325516    0.3376903 -62.99 0.0008676414    2.345    0.574
        69 -11.8475    244.4359     85.0111   4.9102165167e+01   1.3573104576e+01     1.348352    0.7289765 -59.71  0.006042671    2.216    0.549
        70 -12.4597    230.3775     76.0385   4.8864919777e+01   1.7931812253e+01      1.37258    0.8352933  69.03  0.006393587    1.864    0.464
        71  -9.7428    249.1191    120.8935   5.6464272058e+01   6.8142430616e+00    0.2943221    0.2615378 -70.17  0.001801296    1.320    0.242
        72 -12.0349    244.2175     74.8493   4.6839835091e+01   1.5203043475e+01     1.658676    0.7941983 -65.73  0.006141036    3.517    0.716
        73  -9.9760    244.1033    118.5672   5.6690612395e+01   8.1357773497e+00    0.4114687    0.3102356 -82.87  0.002118222    1.908    0.476
        74  -9.6172    242.4179    133.3233   6.0216931720e+01   5.9604445611e+00    0.3386682      0.24017  46.09  0.001536366    1.612    0.380
        75  -9.0059    240.1168    139.1559   6.1865120438e+01   5.3907528980e+00    0.2291298    0.1983858  50.89   0.00135546    1.373    0.271
        76  -8.8068    234.1741    131.9485   6.1238574169e+01   7.7316593867e+00     0.255831    0.1795178  84.62  0.001066157    2.530    0.605
        77  -8.9954    239.7527    129.1882   5.9723814576e+01   7.1555394918e+00    0.2975198    0.1563696  37.54  0.001320882    2.331    0.571
        78  -8.2060     56.0505    217.0215   1.1546152097e+02   2.2064148687e+01    0.1437431    0.1172178  74.23            0    1.030    0.029
        79 -11.7383    244.2394    188.3424   7.1398489375e+01  -3.2955848421e+00    0.3906425    0.2488389 -36.67  0.002178207    1.509    0.337
        80 -11.9669    176.3461     95.0307   6.2717774584e+01   2.7071724987e+01    0.8022332    0.4767126  78.60  0.002844546    2.930    0.659
        81 -11.2507    118.9795     89.4548   7.4959550939e+01   4.1498044405e+01    0.3959392     0.304959 -74.18  0.001798085    1.729    0.422
        82 -10.9790    194.6192     87.8408   5.7318969148e+01   2.4061361333e+01    0.4550652    0.3351924 -72.61  0.001515304    1.638    0.390
        83  -9.9324    216.4335     87.4970   5.3622247753e+01   1.9120951458e+01    0.3688993    0.2409428 -67.41  0.001330097    1.911    0.477
        84  -9.7749    199.6096     67.0328   5.1039937675e+01   2.6369909493e+01    0.3270604    0.2290653 -43.35  0.001629693    1.351    0.260
        85 -11.3982    202.9351     72.1201   5.1843871242e+01   2.4766879487e+01      0.82324    0.2512917  59.95  0.002693256    3.443    0.710
        86  -9.5120    195.7207     64.0430   5.0858648936e+01   2.7772134315e+01    0.3477734    0.2001655 -55.61  0.001365406    1.894    0.472
        87  -9.2004    194.4210     59.7350   4.9916689874e+01   2.8751373770e+01    0.2920421    0.2154569 -43.78 0.0009553361    1.301    0.232
        88 -10.6651    212.5733     80.8308   5.2565421696e+01   2.1105889172e+01    0.6364221    0.2500814 -36.31  0.002400131    2.374    0.579
        89 -10.5121    204.5342     87.3703   5.5495230725e+01   2.1837562647e+01    0.3791401    0.2377963  60.73  0.001741815    1.712    0.416
        90 -11.3581    109.3591     85.5111   7.6540492517e+01   4.4353404694e+01    0.3965605    0.3214988  -9.08  0.001939543    1.411    0.291
        91  -9.8492    221.4073     94.0970   5.4461741839e+01   1.6907452764e+01    0.5331508    0.1981295 -42.15  0.001985508    2.396    0.583
        92 -12.4289    124.2404     75.8802   6.9314309756e+01   4.3033111860e+01    0.8109383    0.4820211 -64.54  0.002936064    2.870    0.652
        93 -11.0540    208.8920     75.8538   5.1878768439e+01   2.2769533349e+01    0.6108055    0.3228571 -30.90  0.002597055    1.979    0.495
        94  -9.3976    218.6922     83.0257   5.2184765100e+01   1.9365588799e+01    0.3093038    0.2033007  83.27  0.001430335    1.980    0.495
        95 -12.1966    116.9268     80.7274   7.2863751630e+01   4.3716685715e+01    0.5675199    0.4422356 -71.08  0.002554585    1.681    0.405
        96  -9.6531    205.0104     82.0388   5.4058983148e+01   2.2639268116e+01    0.2427358    0.1672065 -66.44  0.001126569    1.693    0.409
        97 -10.5871    193.7222     79.6202   5.5313116062e+01   2.5701604572e+01    0.3545067    0.2519524  80.65  0.001657894    1.677    0.404
        98 -10.3341    187.8548     78.4292   5.6021857364e+01   2.7309295385e+01    0.3023215    0.2256125 -67.15  0.001276857    1.507    0.337
        99 -10.1652    201.2365     77.5586   5.3518791758e+01   2.4272208517e+01    0.3654557    0.2556592 -85.28  0.001415863    1.804    0.446
       100 -10.6742    249.6527    190.1101   7.0817611985e+01  -4.3762677082e+00    0.4357311    0.1067092 -35.97   0.00153234    3.705    0.730
       101 -11.7379    135.5295     68.5078   6.4065527345e+01   4.1757658167e+01    0.4490445    0.2591932 -39.61   0.00172044    1.748    0.428
       102 -12.4838    129.5417     71.3606   6.6479609399e+01   4.2654957976e+01    0.7650451     0.446534 -59.47  0.002915714    2.505    0.601
       103 -11.3156    193.4890     71.9660   5.3321742847e+01   2.7038816207e+01    0.5662778    0.3035558 -45.93  0.002196553    1.813    0.449
       104 -11.1204    183.6187     67.9532   5.3912349860e+01   3.0087427609e+01    0.4674476    0.3382354 -35.74  0.002085881    1.383    0.277
       105 -12.0845    147.4225     63.2643   5.9643383500e+01   3.9780635126e+01    0.5585129       0.4374 -15.59  0.002743332    1.471    0.320
       106 -10.1532    205.1583     65.2570   4.9742566663e+01   2.5333886831e+01    0.2667786    0.2161431 -62.28 0.0008865871    1.193    0.162
       107 -11.5527    173.9035     62.4894   5.4104487100e+01   3.3357624559e+01     0.779659    0.3261063 -53.25  0.002551152    3.307    0.698
       108 -10.9124    247.4882    185.0039   7.0186552164e+01  -3.2833965761e+00    0.3244768    0.1665075 -38.56  0.001621332    1.840    0.456
       109  -9.5338    179.9978     57.1783   5.1536389240e+01   3.2672966682e+01    0.2514618    0.1630685 -79.63  0.001029659    2.031    0.508
       110 -11.9755    154.4460     55.8224   5.5853464107e+01   3.9235258523e+01    0.4911382    0.4798547 -68.79   0.00279965    1.041    0.039
       111 -10.4097    188.0714     54.8075   4.9573618506e+01   3.1039849852e+01    0.3799057     0.223011 -21.73  0.001186189    2.143    0.533
       112 -11.3354    204.8963     49.3267   4.5704821649e+01   2.7766449486e+01    0.4182844    0.3593204 -25.66  0.002405266    1.314    0.239
       113 -10.9335    200.8831     59.2699   4.8825426860e+01   2.7267837687e+01    0.4600839     0.311467 -55.37  0.002279146    1.469    0.319
       114 -10.4469    177.9770     44.4781   4.8288858589e+01   3.5012974267e+01    0.4931049    0.2267435 -45.96  0.002006678    2.231    0.552
       115 -11.5200    168.9659     49.4033   5.1196315669e+01   3.6568167025e+01     0.490589    0.3557615  72.96  0.002450166    1.395    0.283
       116 -10.7348    250.1287    179.0916   6.8570009566e+01  -2.7839992629e+00     0.400941    0.2111053 -33.51  0.001679846    1.666    0.400
       117  -8.9960    193.4948     50.0863   4.7485551926e+01   3.0402385335e+01    0.2153021    0.1350008 -36.09  0.001029704    1.582    0.368
       118 -10.6977    198.5236     48.1046   4.6251534459e+01   2.9465071742e+01    0.2854269    0.2139503 -49.38  0.001528946    1.270    0.212
       119 -11.4968    142.0705     54.5589   5.8074257861e+01   4.2481483205e+01    0.4974871    0.2944781 -59.68   0.00200174    2.367    0.577
       120 -10.6977    190.2202     42.1635   4.5833127994e+01   3.2303250538e+01    0.5320393    0.1632314 -36.54  0.001904411    2.968    0.663
       121 -10.2220    159.4277     43.6480   5.1171548574e+01   3.9764095749e+01    0.3323312    0.2084803 -61.86   0.00147459    1.977    0.494
       122 -10.8075    151.9046     41.3990   5.1869251452e+01   4.1949835261e+01    0.6216453    0.2727689 -51.11  0.002239067    3.012    0.668
       123  -9.9782    196.3226     41.7091   4.4877135717e+01   3.0877232931e+01     0.315444    0.2511362 -49.67  0.001365576    1.206    0.171
       124  -8.9466    185.0029     42.2684   4.6609009980e+01   3.3572356458e+01    0.1993274    0.1769228 -89.19 0.0007373101    1.053    0.051
       125 -12.5698    184.2133     89.8606   5.9769988445e+01   2.6160284463e+01     1.455166    0.8209676 -64.67  0.005235064    2.796    0.642
       126  -8.9048    204.4515     39.9453   4.3376989985e+01   2.9159162275e+01    0.2656892    0.1746492 -81.91  0.001328028    1.646    0.392
       127 -10.1526    130.5532     39.1971   5.5544280496e+01   4.7496178115e+01    0.3299848    0.1478802 -18.15  0.001157996    3.299    0.697
       128  -9.1212    179.7788     38.8928   4.6443472008e+01   3.5315287950e+01    0.2905954    0.1725477 -80.59  0.001246105    2.202    0.546
       129  -9.5516    139.4819     36.9819   5.2890163508e+01   4.5611378638e+01    0.3332634    0.1181849 -36.98  0.001216806    2.841    0.648
       130  -9.0314    171.5865     36.7672   4.7085220596e+01   3.7632892262e+01    0.1943327    0.1243253 -44.71 0.0007823121    1.589    0.371
       131 -10.1270    181.5630     51.6826   4.9742123296e+01   3.3102744367e+01    0.4046943    0.2651818 -79.91  0.001828636    1.909    0.476
       132  -9.6311    123.5997     36.2068   5.6093680123e+01   4.9554098540e+01    0.1974046    0.1363013 -10.90 0.0009579989    1.713    0.416
       133  -9.3845    197.5323     33.3656   4.2548640570e+01   3.1670581009e+01     0.401823    0.1598592 -40.72   0.00167042    2.325    0.570
       134  -9.5614    188.0671     33.8223   4.3884530456e+01   3.3918789455e+01    0.2884584    0.2092912 -25.06  0.001529701    1.566    0.362
       135 -10.5515    209.9066     36.8315   4.1944070716e+01   2.8277286920e+01    0.6902056    0.3355364 -69.51  0.002736405    2.838    0.648
       136 -12.8694    161.0172     66.0982   5.7628146454e+01   3.5965030775e+01     1.073665    0.5308389 -34.91  0.004273761    2.055    0.513
       137  -9.9638    201.0061     26.7254   4.0439457954e+01   3.1650781140e+01    0.6092932    0.2844961 -73.51  0.002308495    3.164    0.684
       138  -9.1738    175.5507     24.2588   4.2939167886e+01   3.8158597466e+01    0.3071478    0.1393309 -25.15  0.001290784    2.542    0.607
       139  -8.7988    184.1613     23.6891   4.1656927100e+01   3.6095791749e+01    0.2470949   0.09172438 -31.12  0.000981497    2.722    0.633
       140 -10.0422    100.9996    176.0037   9.9929788603e+01   2.4695596858e+01    0.1990869    0.1866217  75.57  0.001134683    1.003    0.003
       141  -9.6979    210.6806     19.3561   3.7604408891e+01   3.0226143191e+01    0.4648368    0.1521811 -50.39   0.00178635    3.057    0.673
       142 -11.9050    248.9779    168.7337   6.6671350577e+01  -9.8998671674e-01    0.7315887    0.4270928 -23.38  0.003740282    1.641    0.391
       143  -8.7311    183.1447     15.4542   3.9562653774e+01   3.7248954289e+01    0.2738635    0.1402233 -47.70  0.001296103    1.966    0.491
       144  -9.8923    249.3684    157.5485   6.4297400645e+01   7.3517792232e-01     0.355372    0.2139567 -50.83  0.001737201    2.052    0.513
       145 -11.0095    247.4115    150.3994   6.3109098635e+01   2.2280414344e+00    0.7349876    0.4617347 -64.56  0.003129526    3.151    0.683
       146 -10.5795    241.7575    155.3605   6.5088304792e+01   2.3749368838e+00    0.4143311    0.1425079 -39.36  0.001593622    2.577    0.612
       147  -9.4213    238.0511    149.3629   6.4425626705e+01   4.0287929160e+00     0.317752    0.1706732 -43.81  0.001472212    1.801    0.445
       148  -9.9189    247.6330    144.9831   6.1920002195e+01   3.0825827681e+00     0.307406     0.259468 -62.98  0.001697998    1.523    0.343
       149  -8.6490    245.9470    140.4764   6.1218284176e+01   4.1250571515e+00    0.2181201    0.1439037 -68.15 0.0008225691    2.741    0.635
       150  -9.9024    249.6408    132.1093   5.8834564183e+01   4.8614183893e+00    0.4445727    0.2731677 -48.95  0.002241889    1.675    0.403
