#   1 NUMBER                 Running object number                                     
#   2 MAG_AUTO               Kron-like elliptical aperture magnitude                    [mag]
#   3 X_IMAGE                Object position along x                                    [pixel]
#   4 Y_IMAGE                Object position along y                                    [pixel]
#   5 X_WORLD                Barycenter position along world x axis                     [deg]
#   6 Y_WORLD                Barycenter position along world y axis                     [deg]
#   7 A_WORLD                Profile RMS along major axis (world units)                 [deg]
#   8 B_WORLD                Profile RMS along minor axis (world units)                 [deg]
#   9 THETA_WORLD            Position angle (CCW/world-x)                               [deg]
#  10 FWHM_WORLD             FWHM assuming a gaussian core                              [deg]
#  11 ELONGATION             A_IMAGE/B_IMAGE                                           
#  12 ELLIPTICITY            1 - B_IMAGE/A_IMAGE                                       
         1 -14.8273    158.7658     50.0339   7.9606468124e+01   3.9397290778e+01     1.114048     1.099517 -87.99  0.003479303    1.067    0.063
         2 -15.0044    169.7768     19.2252   6.8898803604e+01   4.0583858918e+01     1.460448     0.956494 -87.30  0.005312094    1.703    0.413
         3 -14.3851    190.5224     15.2401   6.5025193020e+01   3.5951562883e+01    0.8736627    0.4779316 -88.79  0.003563814    2.053    0.513
         4 -14.4038    177.4958      5.4902   6.4153596247e+01   4.0099451991e+01     1.480932    0.5916122  86.91  0.005094313    3.932    0.746
         5 -13.6038    197.0978      6.2391   6.2047614348e+01   3.5308560834e+01    0.8119762    0.3432666 -54.40    0.0035415    2.649    0.622
         6 -10.2145     31.3060    247.4463   1.4681038458e+02   2.0039885914e+01    0.1088543    0.0759076  80.24 0.0001831661    1.079    0.073
         7 -20.4186     76.8937    180.5994   1.3128728731e+02   2.8139787408e+01      16.1147     6.964987 -65.13   0.06858928    2.203    0.546
         8 -12.2571    224.8496    174.1514   9.7655530476e+01   1.2338953982e+00    0.2977387    0.1819963 -41.81  0.001334835    1.611    0.379
         9 -13.3059    236.1358    173.3017   9.5399139039e+01  -7.4072092632e-01    0.4248088    0.2529238  43.84  0.002062708    1.756    0.430
        10 -11.2603    207.4183    171.1284   1.0038581117e+02   5.2267882033e+00    0.3589317    0.2277944 -59.11  0.001563045    2.073    0.518
        11 -12.5366    230.1966    166.7627   9.5107348376e+01   1.5323514598e+00    0.4047219    0.1980599 -47.52  0.001679263    2.191    0.544
        12 -12.3151    163.0445    168.0274   1.0911007789e+02   1.5102844046e+01    0.3772788    0.2183245  53.05  0.001032929    1.804    0.446
        13 -12.5602    129.3408    242.1598   1.2863794129e+02   6.6353166731e+00    0.2186147    0.2015821  89.92 0.0005684643    1.195    0.163
        14 -12.5640    166.9792    155.3606   1.0550657279e+02   1.6994983790e+01    0.4268643    0.3041482  76.06  0.001265804    1.896    0.472
        15 -10.4230    158.6331    240.9065   1.2279701962e+02   1.7831663641e+00     0.162327    0.1559671  69.46 0.0004569792    1.158    0.136
        16 -11.8369     22.7687    155.6610   1.4050925023e+02   4.0506325642e+01    0.2753659    0.1806812 -70.60 0.0009355383    1.223    0.182
        17  -9.9097    157.9259    244.9348   1.2350745126e+02   1.2343890036e+00    0.1494327     0.126304  44.86 0.0003788272    1.017    0.017
        18 -11.9254    174.0993    148.6577   1.0241718377e+02   1.6876419864e+01    0.4836227    0.3434026 -58.47  0.001481506    1.541    0.351
        19 -11.7512     27.7203    230.7683   1.4627856828e+02   2.3680188449e+01    0.2009727    0.1328783 -86.43  0.000853499    1.239    0.193
        20 -12.5091     10.9294    144.2031   1.4197384994e+02   4.4127828340e+01    0.2949316    0.2207062 -39.82 0.0006710437    1.644    0.392
        21 -13.5085    207.7065    223.8878   1.1052973664e+02  -4.0726458002e+00    0.5161037     0.233441 -43.57  0.001877637    2.478    0.596
        22 -12.7414    160.4614    127.9463   1.0059451906e+02   2.4408492349e+01    0.5074769    0.3575518 -55.21  0.001572488    1.476    0.323
        23 -10.6558     24.8416    214.2517   1.4557607491e+02   2.7359201391e+01    0.1530971     0.110935  79.33 0.0003784212    1.032    0.031
        24 -10.8840     20.8819    210.2152   1.4599016629e+02   2.8627921198e+01    0.1427117   0.09967382 -75.69 0.0002887168    1.305    0.234
        25 -10.4971     12.7176    121.8234   1.3872792112e+02   4.9060123883e+01    0.1876281    0.1487403 -33.48  0.001274616    1.487    0.328
        26 -13.9811     11.6038    205.6707   1.4734516870e+02   3.0525936175e+01    0.5357194     0.323749 -61.63  0.003440147    1.772    0.436
        27 -11.2238    231.2514    113.7080   8.3097329342e+01   1.1063767732e+01    0.2548867    0.2472149 -18.06 0.0007768268    1.126    0.112
        28 -11.2803    167.4966    112.5218   9.5106905120e+01   2.6051173219e+01    0.3406863    0.2712247 -83.37  0.001109519    1.507    0.336
        29 -11.0469    205.2082    110.5214   8.6898605003e+01   1.7543364999e+01    0.3656356    0.2843885  20.94  0.001150806    1.708    0.414
        30 -15.6796     44.4420    150.6376   1.3468377066e+02   3.9461300494e+01     1.455422    0.6929286 -78.08  0.006485657    2.216    0.549
        31 -11.7379     32.2959    104.2086   1.3029027315e+02   5.1439324788e+01    0.2825155    0.1944592  -3.16  0.001056037    1.960    0.490
        32 -11.2788     23.7005    191.1886   1.4389512604e+02   3.2411375582e+01    0.2162062    0.1523354 -56.65  0.001218062    1.639    0.390
        33 -12.7586     51.5827     91.8753   1.2163517367e+02   5.2173561561e+01    0.3458816    0.2979075 -17.55   0.00101981    1.224    0.183
        34 -11.1551     15.3460    187.6639   1.4524356908e+02   3.4015073065e+01    0.1476504    0.1190928 -63.14 0.0004824501    1.429    0.300
        35 -10.9190    139.8519    248.7725   1.2747797478e+02   3.6947651275e+00    0.4144186    0.1957444 -61.05  0.001955057    2.768    0.639
        36 -11.8712    203.4409    174.2805   1.0184328629e+02   5.4302870107e+00    0.6298069     0.250366 -55.47  0.001790304    4.787    0.791
        37 -11.3065    103.4058     81.9657   1.0291546345e+02   4.6286444308e+01    0.2531254    0.2066276  39.85 0.0003484392    1.255    0.203
        38 -14.5170    148.2579     64.3985   8.6054604331e+01   3.9714104626e+01     1.235097     1.036489  32.97  0.001211981    1.260    0.206
        39  -9.8670    155.5988    248.1589   1.2440115355e+02   1.1053051069e+00    0.1375585    0.1223574 -28.05 0.0004154237    1.409    0.291
        40 -13.5934    163.0632     40.9183   7.6145497682e+01   3.9614278224e+01    0.5202305    0.4591317  69.13 0.0008141735    1.044    0.043
        41 -12.9453    189.2657    154.9015   1.0056336551e+02   1.2246094357e+01    0.5793673    0.5273112  12.96  0.001992577    1.188    0.159
        42 -11.3470     13.5313     59.8194   1.2671969520e+02   6.2138662352e+01    0.1819917    0.1675503 -41.76 0.0004165833    1.232    0.188
        43 -12.1449    194.8994    172.5303   1.0321231964e+02   7.5118612297e+00    0.5112559    0.3494436 -64.15  0.002120477    1.951    0.487
        44 -11.7803    116.6348    246.2826   1.3156460835e+02   8.0218416839e+00    0.2079642    0.1597444 -52.73 0.0009661463    1.617    0.382
        45 -11.1651     37.5562    248.1091   1.4582908222e+02   1.9161383833e+01         0.15   0.09511194 -89.69 0.0006588236    1.316    0.240
        46 -12.2044    192.2320    164.7853   1.0211388473e+02   9.6060016870e+00    0.7052708    0.3612971 -58.12  0.002547757    2.777    0.640
