#   1 NUMBER                 Running object number                                     
#   2 MAG_AUTO               Kron-like elliptical aperture magnitude                    [mag]
#   3 X_IMAGE                Object position along x                                    [pixel]
#   4 Y_IMAGE                Object position along y                                    [pixel]
#   5 X_WORLD                Barycenter position along world x axis                     [deg]
#   6 Y_WORLD                Barycenter position along world y axis                     [deg]
#   7 A_WORLD                Profile RMS along major axis (world units)                 [deg]
#   8 B_WORLD                Profile RMS along minor axis (world units)                 [deg]
#   9 THETA_WORLD            Position angle (CCW/world-x)                               [deg]
#  10 FWHM_WORLD             FWHM assuming a gaussian core                              [deg]
#  11 ELONGATION             A_IMAGE/B_IMAGE                                           
#  12 ELLIPTICITY            1 - B_IMAGE/A_IMAGE                                       
         1 -14.2948      2.8944     95.5455   1.4071012111e+02   5.5821601597e+01     3.277849    0.7558011 -78.59  0.009898432    5.685    0.824
         2 -14.8183      3.1052    136.0190   1.4489545117e+02   4.6653870973e+01     4.060214     0.801379 -77.63   0.01395648    4.396    0.773
         3 -13.5769    198.6882     26.8772   6.7091685809e+01   3.2179053469e+01     1.584631     1.378078  19.89  0.006519631    1.419    0.295
         4 -13.5382    214.1480      8.1900   6.0460970919e+01   3.0365756214e+01    0.9720381    0.8338777  67.40  0.003982961    1.210    0.174
         5 -11.2382      2.2577      5.2853   1.1828969743e+02   7.4100493042e+01    0.5291834   0.09531385 -49.83  0.002116999    4.002    0.750
         6 -10.1335    181.4901    245.4840   1.1962242060e+02  -1.5737155265e-01    0.1210684   0.09417208  35.35 2.131793e-05    1.012    0.012
         7 -11.4820    162.0392    248.8794   1.2359413764e+02   2.4953056187e+00    0.3114024    0.2238276  68.40  0.001938177    1.828    0.453
         8 -11.9871    141.9650    249.9612   1.2737335628e+02   5.5342629902e+00      0.68205    0.1567034  39.77  0.002495729    3.618    0.724
         9 -11.7616    124.2793    249.5382   1.3054013315e+02   8.3645398597e+00    0.4517356    0.1971681  37.88  0.002297946    2.003    0.501
        10 -11.3435     98.9565    248.8141   1.3503891746e+02   1.2296906766e+01    0.3773705    0.2697673  11.20  0.002126568    2.823    0.646
        11 -12.1414     47.5585    249.0963   1.4399602216e+02   1.9155083249e+01    0.8747686    0.1719782  43.58  0.003938877    3.189    0.686
        12 -11.2574     29.2342    248.4988   1.4698183728e+02   2.1386622779e+01    0.4561448     0.188251 -66.94  0.002750091    2.643    0.622
        13 -12.2938     35.1587    245.1046   1.4583301478e+02   2.1302457299e+01    0.5570372    0.3955058 -72.83  0.004245885    1.632    0.387
        14 -12.7001     11.4193    232.2930   1.4913002104e+02   2.6116802636e+01    0.4996986    0.2659951  85.38  0.003455551    1.512    0.339
        15 -12.6539      7.8218    247.9830   1.5035436166e+02   2.3730243386e+01     1.192966    0.3790786  41.54  0.007037329    2.433    0.589
        16 -12.6668     10.2080    240.2337   1.4966904831e+02   2.4827940616e+01    0.9676793    0.3051296  58.73  0.005414729    2.313    0.568
        17 -10.7978    199.1090    247.4481   1.1674462834e+02  -3.1896332974e+00    0.1967244    0.1621668 -62.99  0.001338103    1.952    0.488
        18 -11.5372     49.9761    235.2833   1.4269709591e+02   2.1280544507e+01    0.2678834    0.2037061 -50.16  0.001857541    2.079    0.519
        19 -13.0992     31.3888    233.9795   1.4585192351e+02   2.3699682104e+01    0.2787499    0.2275086  78.96 0.0007449625    1.249    0.199
        20 -14.2380     36.2390    227.8283   1.4464330169e+02   2.4277413763e+01    0.7853888    0.5254834  62.53  0.002391325    1.114    0.103
        21 -13.1473    114.2864    231.5972   1.3045544482e+02   1.2847810169e+01     2.233706          nan  42.54  0.004646367   10.587    0.906
        22 -11.8122     89.2746    226.8281   1.3474703497e+02   1.7510617588e+01    0.9694594    0.1084447  47.66  0.002608815    6.720    0.851
        23 -13.0819     46.5256    216.1909   1.4197045594e+02   2.5275769124e+01    0.8538117    0.6105955 -82.84  0.004321824    1.318    0.241
        24 -11.8877     19.6624    241.6855   1.4820679806e+02   2.3602402505e+01    0.4562647    0.2359888 -58.47  0.002854197    2.782    0.641
        25 -10.1758    174.5116    222.9992   1.1769620108e+02   4.1938557723e+00    0.2935796    0.2227297  82.72  0.001651373    2.080    0.519
        26 -11.5756     58.4373    212.9717   1.3943071461e+02   2.4416527801e+01    0.6946284    0.1826876  54.52  0.002565838    3.943    0.746
        27  -8.3127    221.7094    213.6989   1.0739317717e+02  -2.4763699681e+00     0.125712    0.0839464  10.82 0.0002672583    1.565    0.361
        28  -8.9814    152.6570    213.0382   1.2048736166e+02   9.6104182784e+00    0.1654421    0.1554008  52.19 0.0003618586    1.116    0.104
        29 -12.4291      9.7800    207.0813   1.4820065025e+02   3.1013933839e+01    0.6225217    0.4044242  31.79   0.00298376    1.931    0.482
        30 -10.5411     59.1216    207.8552   1.3885066503e+02   2.5342615543e+01    0.3186296    0.1508034  65.12  0.001595478    2.127    0.530
        31 -11.9008     58.7817    199.8907   1.3819120656e+02   2.7003408852e+01    0.2664359    0.2162905  87.07 0.0005328806    1.122    0.109
        32 -11.1797     39.9514    198.8532   1.4191383795e+02   2.9517129052e+01    0.6720657    0.2021617  64.20  0.002104636    5.883    0.830
        33 -10.4912     10.4026    194.7106   1.4740910151e+02   3.3419915536e+01    0.2700537    0.1499546  52.67   0.00106057    1.528    0.346
        34 -12.1330     65.3440    191.3010   1.3595996651e+02   2.7930055470e+01    0.2545774    0.2250345 -86.90 0.0004849889    1.194    0.163
        35  -8.8505    191.5218    192.0495   1.0921689405e+02   6.0385914009e+00    0.1828978    0.1205346 -66.79 0.0008092017    2.727    0.633
        36 -12.3958    239.8812    247.6702   1.0977062562e+02  -9.2762820390e+00    0.5051968    0.3011087  36.35  0.003296632    1.434    0.302
        37 -13.5998      9.7728    156.2931   1.4497112804e+02   4.1638025669e+01     2.955466    0.9638556  79.47   0.01013811    4.947    0.798
        38 -11.5906    172.1072    248.0600   1.2166406871e+02   9.9842553601e-01    0.3080481    0.2351584  45.16  0.001922296    1.151    0.131
        39 -12.1350     83.9203    168.7712   1.2897262064e+02   3.0188715847e+01    0.6737776    0.6529348   0.11  0.004268095    1.346    0.257
        40 -10.6599     96.4381    153.0916   1.2342685084e+02   3.1750955696e+01    0.3224517    0.3004707 -61.43  0.000869624    1.159    0.137
        41  -9.5633     99.7723    148.8364   1.2182536524e+02   3.2163543853e+01    0.2365411    0.2049255  20.11 0.0004545512    1.419    0.295
        42 -12.1071     85.1323    152.0920   1.2610627572e+02   3.3808598254e+01    0.2948957    0.2467976 -52.37 0.0006591021    1.295    0.228
        43 -12.1746     67.3748    143.4585   1.2928499553e+02   3.8429589429e+01     0.673687    0.4060098  63.91  0.002767054    1.874    0.466
        44 -10.1997    108.9163    137.7753   1.1731963256e+02   3.3084349160e+01    0.5141282    0.3526642  -9.13  0.001791692    2.855    0.650
        45 -10.6716     95.8044    135.2141   1.2025953410e+02   3.6003640693e+01    0.2393259    0.2215017 -50.78  0.000311137    1.153    0.133
        46  -9.4795     54.4849    131.5070   1.3085382691e+02   4.2921071861e+01    0.1341188    0.1151536 -83.72 -4.885477e-05    1.025    0.024
        47 -13.2238     62.4297    176.5023   1.3496371009e+02   3.1522400297e+01    0.4911447     0.271676 -48.11  0.001868338    2.347    0.574
        48  -9.0094     77.7215    130.3749   1.2423876478e+02   4.0042927023e+01    0.2251298    0.1509214  72.24  0.001070244    1.803    0.446
        49 -11.5084     26.6357    129.0265   1.3809904971e+02   4.6422050088e+01     0.453977    0.1858445  51.68  0.002055582    2.781    0.640
        50 -11.3508     19.9653    125.4640   1.3946902996e+02   4.7814772323e+01     0.364107    0.1670255  56.88  0.001316001    2.540    0.606
        51  -9.0207    106.2039    124.1620   1.1510389515e+02   3.6723055377e+01    0.1975377    0.1930705 -49.11 0.0003322064    1.090    0.083
        52  -9.3500     41.4273     96.6804   1.2857197306e+02   5.2592560156e+01    0.2865337    0.1671919  57.67  0.001400452    2.258    0.557
        53 -10.8471    241.8779     93.5716   7.8474453363e+01   1.2151256475e+01    0.3108046    0.1610348 -47.57  0.001346214    1.940    0.485
        54 -10.8000    157.9579     76.6160   8.8898961291e+01   3.5277540401e+01    0.3054915    0.2318641 -45.58 0.0007495781    1.339    0.253
        55 -10.9299     76.0407    178.1601   1.3207292795e+02   2.9273455273e+01    0.2325415    0.2034704  81.01 0.0003253972    1.058    0.055
        56 -12.3433      5.2239     51.9317   1.3227229852e+02   6.5226544514e+01    0.4539409    0.3376521  62.32  0.001955989    1.863    0.463
        57 -10.8311    139.7474    246.1549   1.2733890966e+02   6.4523994060e+00    0.3115526    0.1637757  67.35  0.001388041    3.309    0.698
        58 -10.6223     81.0125    248.7520   1.3822115666e+02   1.4864064450e+01    0.2189601     0.144077  76.81  0.001470348    1.445    0.308
