#   1 NUMBER                 Running object number                                     
#   2 MAG_AUTO               Kron-like elliptical aperture magnitude                    [mag]
#   3 X_IMAGE                Object position along x                                    [pixel]
#   4 Y_IMAGE                Object position along y                                    [pixel]
#   5 X_WORLD                Barycenter position along world x axis                     [deg]
#   6 Y_WORLD                Barycenter position along world y axis                     [deg]
#   7 A_WORLD                Profile RMS along major axis (world units)                 [deg]
#   8 B_WORLD                Profile RMS along minor axis (world units)                 [deg]
#   9 THETA_WORLD            Position angle (CCW/world-x)                               [deg]
#  10 FWHM_WORLD             FWHM assuming a gaussian core                              [deg]
#  11 ELONGATION             A_IMAGE/B_IMAGE                                           
#  12 ELLIPTICITY            1 - B_IMAGE/A_IMAGE                                       
         1 -15.7478     61.4850     13.4470   4.3544458631e+01   6.4867000914e+01      3.55326     1.613577  39.29   0.01765255    2.063    0.515
         2 -13.0017    225.7273     19.6047   1.2568966584e+01   2.5989761000e+01    0.7481892    0.4244732  65.08  0.003823804    1.686    0.407
         3 -15.0799    182.4940      7.2463   1.4129660352e+01   3.8010440023e+01      2.28304     0.981806  72.42  0.009709674    2.117    0.528
         4 -12.2836    226.2747     25.6797   1.3957390745e+01   2.5128369446e+01    0.7352938    0.3846245  65.79  0.003560639    1.823    0.451
         5 -12.7662    249.7884    235.8282   5.6340790383e+01  -1.1045406625e+01     1.177466    0.2570921 -35.01  0.004468791    4.825    0.793
         6 -12.9453    246.7273    222.0769   5.4504167577e+01  -8.9614100215e+00    0.8518659    0.4971713  -6.72    0.0046964    1.899    0.473
         7 -13.1341    228.5897    229.6274   5.9012570302e+01  -7.1580555019e+00    0.8626037    0.5291386  24.89  0.005063547    1.412    0.292
         8 -11.7527    216.6178    249.1496   6.4294755483e+01  -7.7431962194e+00    0.4002725    0.3175574  32.17  0.002494537    1.198    0.165
         9 -12.4512    218.7823    242.9349   6.2944514829e+01  -7.3163388898e+00    0.4756117    0.2840894  37.69  0.002330239    1.422    0.297
        10 -13.2189    219.9823    236.2939   6.1667536514e+01  -6.6705941689e+00    0.6858377    0.4995718 -14.56  0.004443269    1.429    0.300
        11 -11.0934    188.2280    249.2263   6.9455561840e+01  -3.3271125920e+00    0.2931443    0.2330845 -10.96  0.001982316    1.455    0.313
        12 -11.7158    190.7763    241.4573   6.7849225512e+01  -2.6891414934e+00    0.3682265    0.2967004  -5.19   0.00244479    1.370    0.270
        13 -19.1500     12.6163    166.8564   9.5635820595e+01   3.8260516495e+01     16.09729      3.96283 -78.11   0.05998106    3.814    0.738
        14 -11.8191    148.0148    226.5149   7.3918753686e+01   6.8195269881e+00    0.1866435     0.179917 -67.82  0.000952861    1.232    0.188
        15 -11.7361     98.0069    222.8416   8.3423827300e+01   1.5749649674e+01    0.4245262     0.208303 -69.04  0.001109418    2.379    0.580
        16 -11.3838     60.8367    225.5377   9.0874391858e+01   2.0579657170e+01    0.2565859    0.1407928 -71.68 0.0009064784    1.822    0.451
        17 -10.2317     90.0913    225.5188   8.5272992223e+01   1.6451083926e+01      0.18104    0.1035534  44.72 0.0003596328    1.492    0.330
        18 -11.3745    196.5592    222.1612   6.3715421162e+01  -9.0078922914e-01    0.3292429     0.260668  37.54  0.002039619    1.149    0.130
        19  -9.9464     80.8293    220.2197   8.6535164738e+01   1.8836975141e+01    0.1429145    0.1325894  63.74 0.0002939894    1.262    0.208
        20 -13.1954    223.4416    204.8012   5.5569097598e+01  -2.9335450485e+00    0.6918427    0.5429513   5.54  0.004217699    1.173    0.148
        21 -12.6528    231.4874    202.6286   5.3684890521e+01  -3.9697983207e+00    0.5660699    0.3644195 -13.74  0.003073189    1.655    0.396
        22 -13.9434    225.0185    188.9819   5.2261921577e+01  -8.3069321835e-01    0.8821114    0.5854734 -10.36  0.004563567    1.691    0.409
        23 -10.6835     96.8002    250.2212   8.6479037291e+01   1.1045154491e+01    0.1490678    0.1283606  41.21  0.001068261    1.337    0.252
        24 -10.2290     62.6978    204.9409   8.8613782528e+01   2.4449957320e+01    0.1699272     0.126989 -86.48 0.0004711563    1.216    0.178
        25 -10.5882    101.4820    199.5108   7.9831571131e+01   1.9824053418e+01    0.2254503    0.1248156 -75.88  0.001031541    2.245    0.555
        26 -11.6429     83.0828    196.9415   8.3464082946e+01   2.3240358803e+01    0.3231539    0.1941545 -65.30  0.001372204    1.679    0.404
        27  99.0000     54.1662    233.1826   9.2716926821e+01   1.9996340419e+01    0.8174426    0.4590643 -67.80  0.005059084    1.861    0.463
        28  99.0000     58.2371    243.2836   9.2756667831e+01   1.7625911272e+01    0.8219388    0.2543113 -71.21  0.003819828    3.441    0.709
        29 -11.5833     54.6914    241.3146   9.3231637975e+01   1.8435780492e+01    0.3321275     0.207285 -87.29  0.002206095    1.515    0.340
        30  -9.8375     79.3004    238.7045   8.8603482517e+01   1.5590803413e+01    0.1323219   0.09883539 -72.73 0.0005291377    1.468    0.319
        31  -9.3546     68.3348    191.6333   8.6012402480e+01   2.6505007231e+01    0.1425484    0.0825237  70.55 0.0007032247    1.830    0.454
        32  -9.6719     54.2513    189.9950   8.8852739257e+01   2.8725038129e+01    0.1623991    0.1271499  87.27 0.0002012514    1.085    0.079
        33  -9.7788     72.7472    186.8236   8.4479920647e+01   2.6934956902e+01    0.1716773    0.1248455  70.62 0.0002025667    1.271    0.213
        34 -11.7174     50.3643    184.1701   8.9081173091e+01   3.0483137131e+01    0.3184845    0.2481686 -39.49  0.001343508    1.841    0.457
        35 -10.9040     98.7050    181.0426   7.7830897434e+01   2.4225080048e+01    0.2586832    0.2364069 -31.96 0.0008818326    1.389    0.280
        36 -12.4455    127.6870    178.3336   7.0716456022e+01   1.9720833357e+01    0.3263225    0.2309332  75.17  0.001556699    1.754    0.430
        37 -10.1009    172.5178    177.9733   6.0633706358e+01   1.1066261119e+01    0.2080085     0.144908 -44.16 0.0007682275    1.540    0.351
        38 -11.4961     46.3416    176.6679   8.9170117126e+01   3.2633791285e+01    0.3996707    0.2041554  64.86 0.0005735068    2.086    0.521
        39 -10.3074     93.7243    236.3530   8.5693827652e+01   1.3909949800e+01    0.1972532    0.1336621 -86.34 0.0008506986    1.606    0.377
        40 -12.2738     62.6617    173.1281   8.5060457160e+01   3.1386649061e+01    0.5578513    0.4896304 -73.94   0.00282416    1.169    0.144
        41 -10.4628    182.3276    173.6637   5.7680605037e+01   9.9171662568e+00       0.1448    0.1173078  84.04 0.0006689978    1.725    0.420
        42 -12.4708    200.5079    174.5082   5.4101996390e+01   6.1443402358e+00    0.3174922    0.2783307  22.73  0.001609876    1.060    0.056
        43 -10.2139    110.7572    167.2712   7.2764205828e+01   2.5229686100e+01    0.2434129    0.1857599 -76.30 0.0009560822    1.396    0.284
        44 -11.7730     74.2044    162.0985   8.0806861439e+01   3.2327738919e+01    0.3397445    0.2594521 -20.25  0.001761503    2.041    0.510
        45 -11.4046     78.0455    158.0450   7.9240788884e+01   3.2712301539e+01    0.3519888     0.278904 -42.81  0.001946187    1.485    0.327
        46 -10.2256     59.4418    230.8832   9.1577572178e+01   1.9745877114e+01    0.1568123    0.1010408 -78.98 0.0007219917    1.516    0.341
        47 -10.5454     85.8330    151.3100   7.6164805204e+01   3.3106216256e+01    0.2148508    0.1785311 -81.10 0.0003359272    1.151    0.131
        48 -14.1961     57.8062    130.6138   8.0049019304e+01   4.2000776847e+01     2.664498     1.299762  85.80  0.008155186    5.078    0.803
        49 -10.1615     90.8792    147.0860   7.4112189219e+01   3.3294878946e+01    0.2125671    0.1727762 -25.16   0.00057659    1.603    0.376
        50 -10.7203    105.9067    131.3670   6.6969389818e+01   3.4399431365e+01    0.4052219    0.2259857 -53.89  0.001527042    1.751    0.429
        51 -11.3449     92.7160    132.6665   7.0819382563e+01   3.6405434414e+01    0.2534313    0.2359815 -50.75 0.0003805152    1.104    0.094
        52 -12.8572     74.2182    145.5883   7.8187694264e+01   3.6213819825e+01     0.542145    0.3917402 -16.75  0.001144339    2.223    0.550
        53 -12.4029     49.9087    125.5540   8.1390840110e+01   4.4152393406e+01    0.2814889    0.2100972  58.29  0.001053515    1.463    0.317
        54 -13.2557     70.5256    144.5230   7.8974758234e+01   3.6993171809e+01    0.4811174    0.4135453  65.32   0.00192396    1.158    0.137
        55 -10.0493    100.2687    121.7842   6.6365378608e+01   3.7661427039e+01    0.1978286    0.1700932 -20.64 0.0005473641    1.357    0.263
        56 -13.3984     43.4305    114.0148   8.1261462793e+01   4.7600346257e+01    0.6066221    0.3132137  54.79  0.002755517    2.548    0.608
        57 -12.3613     45.7997    109.7202   7.9767177415e+01   4.8359243342e+01    0.3633861    0.2587409  26.68  0.001449761    1.655    0.396
        58 -10.0930    158.8901    115.1378   4.9466330469e+01   2.6873633649e+01    0.2419176    0.2121092 -80.94 0.0005227391    1.299    0.230
        59  -9.9322    205.5055    110.4706   3.8411448231e+01   1.6858211647e+01    0.1506493    0.1458706 -39.91  0.000411271    1.017    0.016
        60 -10.6588     43.0017    229.2760   9.4430718496e+01   2.2115920463e+01    0.1767714    0.1292567 -69.14 0.0004874264    1.544    0.352
        61 -13.5706     33.7406     74.1987   7.6131790690e+01   5.7619114786e+01     1.258097    0.6133729 -50.00  0.006393492    1.648    0.393
        62 -12.3093     25.9142     77.2122   7.9631966607e+01   5.7630515927e+01    0.5346076    0.3511516 -74.24  0.003057595    1.618    0.382
        63 -13.0321     56.4605     73.7554   6.7871652900e+01   5.5249065578e+01    0.6090599    0.5117057  53.99  0.003627788    1.495    0.331
        64 -12.6211    181.3703     62.3516   3.0001655047e+01   3.1189994447e+01     0.392207    0.3695025 -79.38  0.000900023    1.051    0.049
        65 -14.2608    197.6368     50.0948   2.3851314035e+01   2.8920572339e+01     1.269245    0.9247947  37.57  0.004645246    1.629    0.386
        66 -12.8748    203.7482     44.7326   2.1512130730e+01   2.8145189221e+01    0.5621862    0.4714674  62.76  0.001576168    1.182    0.154
        67 -10.2236     51.0181    247.7549   9.4317813200e+01   1.7751913693e+01    0.2266638    0.1249755 -80.02 0.0009575761    1.792    0.442
        68 -10.5213     76.1731    244.3802   8.9667445937e+01   1.5018582380e+01     0.159938    0.1296514  89.01 0.0001669836    1.252    0.201
        69 -10.8768    229.0022    240.3846   6.0713897069e+01  -8.5535990870e+00    0.2765638    0.1653049  11.67   0.00157819    1.757    0.431
