#   1 NUMBER                 Running object number                                     
#   2 MAG_AUTO               Kron-like elliptical aperture magnitude                    [mag]
#   3 X_IMAGE                Object position along x                                    [pixel]
#   4 Y_IMAGE                Object position along y                                    [pixel]
#   5 X_WORLD                Barycenter position along world x axis                     [deg]
#   6 Y_WORLD                Barycenter position along world y axis                     [deg]
#   7 A_WORLD                Profile RMS along major axis (world units)                 [deg]
#   8 B_WORLD                Profile RMS along minor axis (world units)                 [deg]
#   9 THETA_WORLD            Position angle (CCW/world-x)                               [deg]
#  10 FWHM_WORLD             FWHM assuming a gaussian core                              [deg]
#  11 ELONGATION             A_IMAGE/B_IMAGE                                           
#  12 ELLIPTICITY            1 - B_IMAGE/A_IMAGE                                       
         1 -14.7175     36.1327     80.5277   1.0622094958e+02   5.6101114012e+01     1.513188    0.7595632 -46.33  0.007511112    1.706    0.414
         2 -15.5354    248.2244     50.2664   4.6365815264e+01   1.7633973953e+01     5.348655    0.2516098 -38.12   0.01387059    5.726    0.825
         3 -15.0164    241.6817      9.5869   3.7577884647e+01   2.4227051134e+01     1.586725    0.9220933 -74.33  0.008493887    1.690    0.408
         4 -14.2771      3.4445     59.0385   1.1367116663e+02   6.3157487644e+01     1.199741    0.3174744 -69.16  0.004549932    3.585    0.721
         5 -13.4270    249.8401      9.2980   3.6897138957e+01   2.2466664179e+01      1.71209     0.155329 -30.42  0.004493486    7.390    0.865
         6 -12.1367    179.6063     15.3011   4.5373657061e+01   3.8563000820e+01    0.2923794    0.2498637 -36.61  0.001487975    1.232    0.188
         7 -13.0071    178.6386      8.1674   4.3402400688e+01   3.9542523525e+01    0.5272459    0.2314982 -47.76  0.001501154    2.445    0.591
         8 -12.0492    161.9661     11.7577   4.6752306138e+01   4.3405665757e+01    0.3039325    0.2305862 -88.49 0.0007748892    1.374    0.272
         9 -11.3694    146.4594     12.1857   4.9353573557e+01   4.7267167263e+01    0.2426889    0.1777339  65.56 0.0003138068    1.264    0.209
        10 -11.4244     64.7712     10.8644   6.9768714866e+01   6.5260672912e+01    0.2768054    0.1926744 -16.26 0.0009036675    1.323    0.244
        11 -11.8768    190.5611     11.0111   4.2790737431e+01   3.6255963476e+01    0.2636079    0.1741518 -84.46 0.0007713406    1.559    0.359
        12 -10.7531     98.7367      8.7668   5.8144668893e+01   5.8849259983e+01     0.197202    0.1584132  26.47 0.0007817025    1.117    0.105
        13 -11.7196     85.9084      7.7611   6.1272130298e+01   6.1636437154e+01    0.3675206    0.2540704  57.09  0.001384826    1.561    0.359
        14  -9.9085    115.3357      8.7160   5.4125180801e+01   5.5129815196e+01    0.1286623    0.1032466 -72.02 0.0004456645    1.623    0.384
        15 -10.6263      3.3094      8.5637   9.8131191585e+01   7.2959959766e+01    0.1730093   0.09625202  20.83  0.001115249    2.024    0.506
        16 -10.3145    124.3405      6.6874   5.1448118683e+01   5.3199556731e+01    0.1342641    0.1012697 -67.92 0.0007046484    1.698    0.411
        17 -12.8918    213.3661      3.8285   3.8570938084e+01   3.1400271041e+01    0.4148604    0.2586524  66.61  0.002250754    1.524    0.344
        18 -10.9105    139.9561      2.9822   4.7265865915e+01   4.9732438834e+01    0.2153428    0.1534197 -67.88  0.000781587    1.701    0.412
        19 -11.9774    154.7221      2.4461   4.4816870213e+01   4.6103530769e+01    0.4119931    0.2053053 -89.38  0.001654875    2.709    0.631
        20 -10.7654    112.9176      1.7703   5.1884119829e+01   5.6307623118e+01    0.2110215    0.1527318  40.15 0.0009115273    1.231    0.188
        21 -11.5436    165.1645      1.6809   4.3155869144e+01   4.3546231784e+01    0.2781413    0.1179868  79.69  0.001087516    2.589    0.614
        22 -11.0662    131.5053    222.2331   1.0557450513e+02   1.0471063033e+01    0.1371493   0.07982179  59.24 0.0006744651    1.891    0.471
        23 -17.4958    183.3152    227.4920   9.6208898096e+01   1.0573717897e+00     5.557756     4.623964  88.40   0.03435488    1.860    0.462
        24 -14.9756    128.3323    197.0325   1.0267441121e+02   1.5749012498e+01    0.8347866    0.6807376 -23.76  0.004712109    1.624    0.384
        25 -19.0744     76.5845    188.7134   1.1281908920e+02   2.5682535239e+01     7.497798      6.30811 -70.52   0.03968952    1.226    0.184
        26 -10.7660      1.4692    158.3979   1.2643987945e+02   4.0598377649e+01    0.1149345   0.08671555  89.07 0.0002329598    1.023    0.023
        27 -10.8179    190.3177    157.1008   8.1791367288e+01   1.1856989422e+01     0.283004    0.2135332  52.26   0.00113856    1.440    0.306
        28  99.0000    124.3008    218.0909   1.0647532509e+02   1.2389190748e+01     1.646985     1.029042 -37.27  0.008519728    2.295    0.564
        29 -11.2903      9.1564    211.3818   1.2812263182e+02   2.8749473010e+01    0.1566088   0.06815968  51.09  0.000930693    1.853    0.460
        30  -9.1476    136.4931    250.5740   1.0808398861e+02   5.0158877409e+00    0.1213936   0.09068022  52.47 0.0008011903    1.162    0.139
        31 -13.9875    242.7549    119.9336   6.3587193667e+01   7.8678304923e+00    0.7425889    0.4643431  17.75  0.003242701    2.424    0.587
        32 -14.9812    248.0688    109.5435   6.0358401060e+01   8.5255420543e+00     2.174632    0.4862211 -36.10  0.006603628    3.789    0.736
        33 -14.6821    247.2184    144.6338   6.8443059265e+01   2.9830593817e+00     1.521116    0.7762111 -41.10  0.006995006    1.874    0.466
        34 -14.2707    247.5273    128.2365   6.4735090935e+01   5.5787159592e+00    0.8271622    0.7413974 -54.74  0.004949567    1.286    0.223
        35 -11.0685    180.7096    144.0218   8.0890665904e+01   1.6395865234e+01    0.2364404    0.2107047  41.82 0.0004089912    1.132    0.116
        36  99.0000    135.4447    206.1173   1.0252703915e+02   1.2767640658e+01    0.3805174    0.1769166  55.13  0.001564515    2.543    0.607
        37  99.0000      2.6368    202.2200   1.2881804222e+02   3.1166299112e+01    0.2465631    0.1288805 -65.79  0.001552067    1.937    0.484
        38 -11.4075    167.0269    138.9396   8.2725727268e+01   2.0351545720e+01    0.2914943    0.2191806 -48.14 0.0003930009    1.349    0.259
        39 -10.9071     27.7240    135.1255   1.1798688810e+02   4.3872808030e+01    0.2262276    0.1632689  78.60  0.001144475    1.325    0.245
        40 -12.4710     29.8950    129.5299   1.1670832350e+02   4.5016284194e+01    0.3174753    0.2749589 -47.63  0.001006435    1.311    0.237
        41 -12.4258    234.8471    132.5387   6.7793500457e+01   7.3109321954e+00    0.2294468    0.1872969 -47.14 0.0005975112    1.297    0.229
        42 -12.0731    207.7684    193.5068   8.5690482327e+01   2.1740711688e+00    0.2665528    0.2339963  10.69 0.0009242862    1.011    0.011
        43 -11.1862      1.5941    194.1618   1.2859285358e+02   3.2897027188e+01    0.1460781    0.0988351  86.38  0.001039836    1.101    0.092
        44 -11.6026    228.8451    121.8671   6.6325412284e+01   1.0347328591e+01    0.1999813    0.1672375 -56.04 0.0004916664    1.333    0.250
        45 -10.7045    146.9675    220.1904   1.0221455955e+02   8.2760999459e+00    0.1552324    0.1438839  39.41 0.0002548788    1.087    0.080
        46 -10.2549    189.7610    118.5416   7.2823504381e+01   1.9457459195e+01    0.2110039    0.1517338  64.39 0.0009397063    1.672    0.402
        47 -12.1374     21.9832    151.1821   1.2116655464e+02   4.0596733040e+01    0.2284705    0.1715468  31.43  0.001478993    1.635    0.388
        48 -11.2038     11.9679    187.5501   1.2622595572e+02   3.3374641489e+01    0.2313702    0.1416581 -53.90   0.00142854    2.055    0.513
        49 -10.2261      6.3166    113.0411   1.2114386139e+02   5.0710996006e+01    0.1623183    0.1183042 -75.30 0.0003756371    1.050    0.048
        50 -13.0285    153.1094    108.6007   7.8363029470e+01   2.9848530531e+01     0.573827    0.4584692  51.28  0.002740228    1.291    0.225
        51 -11.8429     39.6470    110.3461   1.1102880036e+02   4.8725497032e+01    0.2449617    0.1958198 -53.38 0.0005804337    1.161    0.139
        52 -13.1127    139.2695    107.4103   8.1466741557e+01   3.3192221664e+01    0.4140732    0.3198164 -64.61  0.001196217    1.477    0.323
        53 -12.5263    136.0598    104.5439   8.1511748840e+01   3.4517335791e+01    0.5295661    0.2264031 -40.91  0.001840979    2.344    0.573
        54 -11.8403      1.8728    105.1270   1.2148385948e+02   5.2811393005e+01    0.2674265    0.1461102 -64.35  0.001567979    1.382    0.277
        55 -11.1034      7.4474    187.3510   1.2709607720e+02   3.3816280347e+01    0.2410296    0.1085638  36.08  0.001386049    2.293    0.564
        56 -11.3809     28.1359     98.5021   1.1252423981e+02   5.2596715097e+01    0.3666845    0.1541135 -50.74  0.001586395    2.006    0.501
        57 -11.1155     14.5098     98.0558   1.1673951879e+02   5.3707740875e+01    0.1741777     0.148647 -62.45 0.0004495153    1.110    0.099
        58 -11.5123    142.5898     95.9905   7.7454498717e+01   3.4889447445e+01    0.3031785    0.2423902  51.62  0.000805349    1.294    0.227
        59 -10.2200    141.8622    217.9232   1.0291572129e+02   9.5251999063e+00    0.2601478     0.157694 -74.72  0.001229804    2.629    0.620
        60 -12.3217    199.2008    181.5811   8.5063945303e+01   5.6974860944e+00    0.4375546    0.2980867  62.98  0.002054918    2.191    0.544
        61 -10.3224     19.2938     95.3960   1.1481173316e+02   5.4005364397e+01    0.1487965    0.1135538  43.30 0.0009369404    1.580    0.367
        62 -10.2809     13.2429    181.2667   1.2555581010e+02   3.4606960932e+01    0.1002762   0.07498077 -66.40 0.0003477628    1.429    0.300
        63 -12.5237     53.3328     84.9976   1.0130201816e+02   5.3271324558e+01    0.4567628    0.3119609 -74.00            0    1.679    0.404
        64 -14.9052     23.4413     67.1448   1.0774213033e+02   6.0171216744e+01     1.317523    0.8559738  -5.29    0.0076489    1.911    0.477
        65 -14.4893     37.7925     71.0547   1.0330955932e+02   5.8082323825e+01     1.351824    0.8194275 -26.53  0.007044158    1.878    0.468
        66 -14.5862     43.0476     82.1302   1.0416456919e+02   5.5060690493e+01      1.36475    0.6269089 -64.50  0.005349346    2.126    0.530
        67 -10.4673    151.3197    247.7446   1.0502611833e+02   3.1556530472e+00    0.1389078    0.1238357  39.89 0.0003491606    1.117    0.105
        68 -12.9276    249.4871     83.0116   5.3934216007e+01   1.2486189222e+01    0.8945953    0.1955367 -34.86  0.002707549    3.885    0.743
        69 -10.7972    103.1427     93.2026   8.7482036036e+01   4.3749743605e+01    0.2212661    0.2001832 -15.12 0.0004482606    1.165    0.141
        70 -11.1392    132.4024     91.7801   7.8858550954e+01   3.8051973824e+01    0.2877173     0.200758 -34.29  0.001279724    1.462    0.316
        71  -9.2189      4.7371    178.1605   1.2706627123e+02   3.6006344548e+01    0.2130014   0.08812261 -60.23  0.001115396    2.422    0.587
        72 -11.2662    110.1930     89.8983   8.4461076357e+01   4.3118033500e+01    0.3829451    0.2301111  45.53  0.001506852    1.758    0.431
        73 -11.8130     89.5866     86.0360   8.9584171347e+01   4.7785159066e+01    0.3651046    0.2316787 -43.59 0.0007225833    1.463    0.316
        74 -12.0953     15.0198     88.5546   1.1505769173e+02   5.5890238205e+01    0.2593853    0.1562223 -68.26  0.001193564    1.324    0.245
        75 -13.4732     10.5937     83.3326   1.1565158454e+02   5.7365368281e+01    0.4040205    0.2100604 -50.92  0.002136044    1.558    0.358
        76 -10.0628    212.9874     80.9681   5.8760778573e+01   2.0928483691e+01    0.1760988    0.1630847 -45.37  0.000337387    1.008    0.008
        77 -11.3134      3.0726    174.0000   1.2714119461e+02   3.7040369427e+01    0.1511693    0.0621754  28.94 0.0007924453    2.874    0.652
        78 -11.4450    147.6282    246.6772   1.0557693606e+02   3.8895448426e+00    0.1494699    0.1095977  54.42 0.0009591748    1.299    0.230
        79 -12.3692    143.5438    247.2236   1.0639801277e+02   4.4410959967e+00    0.1750962    0.1441533  47.74 0.0005758985    1.061    0.058
        80 -10.4409     56.3486     74.0193   9.7331843287e+01   5.5384054380e+01    0.1988008     0.149395 -46.75 0.0005561512    1.144    0.126
        81 -10.5630      1.7057    183.2832   1.2797236715e+02   3.5160007011e+01    0.1147993   0.06193982  68.48 0.0006957116    1.539    0.350
        82 -13.4079      7.5133     49.4861   1.0980795495e+02   6.4984525363e+01    0.5220652    0.2728516  15.92  0.003032916    2.319    0.569
        83 -13.1383      7.4833     69.1456   1.1417320235e+02   6.0741147424e+01    0.2809018    0.1766881 -62.38 0.0009077192    1.218    0.179
        84 -10.2260    132.0832    246.3494   1.0841414362e+02   6.3449072634e+00    0.1973206    0.1382428 -86.13   0.00120041    1.954    0.488
        85 -11.9475    144.6413    239.3728   1.0523030882e+02   5.4859728572e+00    0.2561248    0.1764408  49.30  0.001358365    1.258    0.205
        86 -10.2724    204.5215     65.9108   5.6103179335e+01   2.5429892850e+01    0.2194523    0.1409943 -34.75 0.0005311779    1.499    0.333
        87 -11.2128    152.0862     64.7537   6.5721789319e+01   3.8644955128e+01     0.297727    0.2169297 -27.77 0.0005610295    1.429    0.300
        88 -10.9307     99.0780     61.5743   7.8804998383e+01   5.1097189129e+01      0.29046    0.2014859 -55.59  0.001363123    1.729    0.422
        89 -12.6942    236.3048     61.1108   5.0358899796e+01   1.8701081808e+01    0.3716429    0.2184767  64.35  0.001787678    1.836    0.455
        90 -14.2119    243.8460     84.6056   5.5070238894e+01   1.3419840290e+01     1.179127    0.4625322 -48.59  0.003715619    2.717    0.632
        91 -12.3826      9.9927     59.9915   1.1129754497e+02   6.2613861699e+01    0.1902257    0.1439186 -51.70 0.0004313441    1.015    0.015
        92 -11.0022     79.7092     61.0986   8.4998213991e+01   5.4698071490e+01    0.3322276    0.2063838  46.75  0.001584213    1.876    0.467
        93 -10.3040    222.5350     51.4848   4.9697623508e+01   2.3294308804e+01    0.1399336    0.1295497 -58.04 0.0002224913    1.037    0.036
        94 -11.3825     55.9505     45.7623   8.8299618417e+01   6.1222574245e+01    0.2985877    0.2086763  12.32 0.0008402381    1.574    0.365
        95 -12.1970    227.5241     44.2789   4.7253624189e+01   2.3142069211e+01    0.3144537    0.2023473 -63.12  0.001553572    1.616    0.381
        96 -10.4869    244.6169    170.1985   7.4325915805e+01  -5.6384674020e-01    0.1928035    0.1119852 -23.61  0.000738847    1.665    0.400
        97 -12.6401    125.9356     40.1738   6.3573441337e+01   4.8869621420e+01    0.5596202    0.2969093  44.82  0.001949355    1.833    0.454
        98 -10.3349     64.5101     41.9138   8.3499300873e+01   6.0694969032e+01    0.1955486    0.1189764 -39.31 0.0005788924    1.506    0.336
        99 -11.6032    217.6860     37.3339   4.6658271527e+01   2.6419365708e+01    0.3015708    0.2214382 -57.06 0.0009792552    1.290    0.225
       100 -11.2349    163.9624    168.2549   8.9775563284e+01   1.4953441932e+01    0.2011149    0.1849882  31.44            0    1.048    0.046
       101 -11.0292     40.2462     36.3886   9.1270719630e+01   6.4889994777e+01    0.2441804    0.1900891 -19.84 0.0009503431    1.104    0.094
       102 -11.2108     20.0923    167.2119   1.2304911696e+02   3.7094108035e+01    0.2214755    0.1198691  62.01 0.0009137716    1.746    0.427
       103 -10.2673    174.5237     33.4771   5.1572741414e+01   3.7708860232e+01     0.142844    0.1361254  76.04 4.364776e-05    1.018    0.018
       104 -10.6577    186.0838    163.0174   8.3943062610e+01   1.1584489013e+01    0.2146111    0.2017228  -0.98  0.000321819    1.024    0.024
       105  -9.8600     59.3125     29.3171   8.0363406100e+01   6.3581649976e+01    0.1341684   0.08905465  -4.15 0.0007035209    1.643    0.391
       106 -10.1937    160.4586     26.4790   5.1707543133e+01   4.2166379875e+01    0.1413381    0.1337425  67.81  9.72351e-05    1.003    0.003
       107 -10.5048    133.2680     24.0357   5.6037801026e+01   4.9239800004e+01     0.188689    0.1806856  30.29 0.0003988602    1.037    0.035
       108 -12.2768    216.8539     19.6404   4.2217140871e+01   2.8833421768e+01      0.28557    0.2144494 -82.58 0.0008300086    1.266    0.210
       109 -10.1208    137.7944    243.6145   1.0703493249e+02   5.8923684306e+00    0.1630083    0.1026869  35.46  0.000390043    1.415    0.293
       110 -10.9242    140.5420    242.1276   1.0634231229e+02   5.6973372655e+00    0.2052156    0.1410344 -53.57  0.001220576    1.784    0.440
       111 -11.5889    171.3554     16.2700   4.6795462511e+01   4.0553773079e+01    0.2567356    0.1599317 -86.94  0.001187568    1.866    0.464
       112 -10.8979    144.3091     16.4538   5.1195752350e+01   4.7366113838e+01    0.3282768    0.1332996  66.53  0.001042165    2.434    0.589
       113 -10.7807     10.5366     15.3257   9.7067642747e+01   7.1332463948e+01    0.1866004    0.1458234 -50.57  0.001004083    1.456    0.313
       114 -10.7255     34.0224     14.0342   8.4458170170e+01   6.9306780082e+01    0.1832431     0.144773 -15.91 0.0004916248    1.057    0.054
       115  99.0000    127.0255    242.6144   1.0892904668e+02   7.7188392643e+00    0.2281492    0.1833645  56.20   0.00155721    1.099    0.090
       116  99.0000    125.4827    237.8667   1.0867450770e+02   8.7379542485e+00    0.1893091    0.1207896 -66.20 0.0005212923    1.926    0.481
       117 -10.4883     18.7816    162.6768   1.2295580624e+02   3.8237359959e+01    0.1130864   0.07378744 -62.07 0.0002403948    1.497    0.332
       118 -11.9571    134.3690    239.9252   1.0723739515e+02   7.0151710166e+00    0.3047849    0.1449763  36.02  0.001080111    1.909    0.476
       119 -12.2653    242.9595    157.6079   7.1967016145e+01   1.6785887485e+00    0.2898341    0.2358103 -38.16 0.0006029741    1.287    0.223
       120  99.0000    130.3540    234.8374   1.0738814359e+02   8.4825350615e+00    0.4237323    0.2563056 -64.45  0.002393868    2.069    0.517
       121 -11.7168    135.0275    230.9109   1.0600198177e+02   8.4002332333e+00    0.4416289     0.180626  49.74  0.001978154    2.305    0.566
       122 -11.2677    118.2090    235.5127   1.0978584411e+02   1.0259391557e+01    0.3581639    0.2681717 -14.54   0.00204806    2.367    0.578
       123 -15.7894    110.9108    198.1340   1.0658162131e+02   1.8443524254e+01     1.591961    0.4364335 -52.49  0.005601477    3.850    0.740
       124  -9.9210    140.8545    228.6480   1.0457700208e+02   7.8419765167e+00    0.2617028    0.1871255 -55.08  0.001582518    1.659    0.397
       125 -11.9943    139.0246    222.8125   1.0415783910e+02   9.1389388770e+00    0.3175365    0.2769714 -69.92  0.001305935    1.328    0.247
       126 -10.9423    149.7105    225.7265   1.0244980241e+02   6.8817459611e+00    0.3408657    0.2022308  71.07  0.001494538    3.111    0.679
       127 -10.8111    147.0194    224.0829   1.0275068900e+02   7.6023659074e+00    0.1643714    0.1426577  50.74 0.0002928469    1.077    0.071
