#   1 NUMBER                 Running object number                                     
#   2 MAG_AUTO               Kron-like elliptical aperture magnitude                    [mag]
#   3 X_IMAGE                Object position along x                                    [pixel]
#   4 Y_IMAGE                Object position along y                                    [pixel]
#   5 X_WORLD                Barycenter position along world x axis                     [deg]
#   6 Y_WORLD                Barycenter position along world y axis                     [deg]
#   7 A_WORLD                Profile RMS along major axis (world units)                 [deg]
#   8 B_WORLD                Profile RMS along minor axis (world units)                 [deg]
#   9 THETA_WORLD            Position angle (CCW/world-x)                               [deg]
#  10 FWHM_WORLD             FWHM assuming a gaussian core                              [deg]
#  11 ELONGATION             A_IMAGE/B_IMAGE                                           
#  12 ELLIPTICITY            1 - B_IMAGE/A_IMAGE                                       
         1 -15.0705      8.2301    154.8469   1.4493049204e+02   4.1772500824e+01     9.430283     4.264452  72.63   0.04581638    2.698    0.629
         2 -13.0695    193.6035     29.9888   6.9944813996e+01   3.3423597011e+01     1.281322       1.1485 -86.40  0.007229905    1.036    0.035
         3 -13.4394    207.9645     11.1492   6.3454822663e+01   3.2094873935e+01     1.413961    0.9807508  42.07  0.007794841    1.801    0.445
         4 -11.7334      1.9373     25.9458   1.2308993964e+02   6.8558739257e+01    0.9859172   0.07035854 -52.92  0.002627304    9.435    0.894
         5 -11.8814      2.3497      6.3110   1.1554531033e+02   7.1481544732e+01    0.8746206    0.1801634 -45.08  0.003834058    3.901    0.744
         6 -10.6639     22.9879    245.2794   1.4915875971e+02   2.1672531294e+01     0.287378    0.1047802  55.90  0.001177454    2.144    0.534
         7 -11.0826    123.5909    249.9498   1.3235539654e+02   6.6443227362e+00    0.4156802    0.1408144  44.78   0.00181051    2.388    0.581
         8  -9.0400    112.3137    250.3498   1.3444419401e+02   8.4102863487e+00    0.1081901   0.09601555  10.61 0.0007046493    1.724    0.420
         9 -10.6014    106.4946    247.5099   1.3518443292e+02   9.8373806790e+00    0.3288012    0.1521656  31.93  0.001379561    3.348    0.701
        10 -11.0762     97.8293    248.1505   1.3680728830e+02   1.1083784254e+01    0.4198327     0.238858  67.57  0.002338265    1.737    0.424
        11 -11.1339    100.8573    245.8380   1.3602319180e+02   1.1025838777e+01      0.38557    0.2249866 -82.54  0.001121469    2.021    0.505
        12 -10.1466     30.0710    250.2161   1.4835556608e+02   1.9959599596e+01    0.2421256    0.1448642  57.74 0.0007862967    1.316    0.240
        13 -11.5154     34.9129    245.4057   1.4727910788e+02   2.0266982409e+01    0.5883596    0.3642256 -76.66   0.00409832    1.506    0.336
        14 -10.4124     17.6159    249.5247   1.5023153943e+02   2.1495927916e+01    0.2004921    0.1550468 -80.31  0.001614023    1.464    0.317
        15 -10.5306     12.5801    249.7313   1.5100182308e+02   2.2003773115e+01    0.2129975    0.1168442 -78.24  0.001500616    1.595    0.373
        16 -11.5306     11.4840    239.3926   1.5060543678e+02   2.4008711177e+01    0.4161853    0.1648193  58.45  0.001500341    1.989    0.497
        17 -11.4656      2.8420    244.8086   1.5220123232e+02   2.3901676328e+01    0.8707718    0.2265586 -80.54  0.004180292    3.375    0.704
        18 -10.8880     21.7530    238.5077   1.4893977706e+02   2.3068135329e+01    0.4335925    0.2190303 -50.58  0.002249638    3.841    0.740
        19 -10.7065    120.0738    238.2912   1.3161617933e+02   9.2725507543e+00    0.2803133    0.1643473 -82.71  0.001391199    2.359    0.576
        20  -9.6079    233.6790    237.4815   1.1014051257e+02  -1.0050573940e+01    0.1903338    0.1077679 -33.98 0.0007607076    1.909    0.476
        21  -9.3457    185.7769    238.6256   1.1916885283e+02  -2.2053644168e+00    0.1856879    0.1036844  48.10 0.0004899756    1.644    0.392
        22 -13.4194      8.8062    207.7670   1.4911003932e+02   3.0429244594e+01     1.422391    0.6724828 -68.94  0.007341476    1.828    0.453
        23 -12.5462     55.9903    225.1864   1.4211251442e+02   2.1505540876e+01     2.141386    0.9641404 -55.24   0.01074978    2.732    0.634
        24 -10.5576    248.3543    248.9711   1.0949180567e+02  -1.3701190537e+01    0.2738005    0.1595943  38.58  0.001656781    1.580    0.367
        25  -8.8354     92.2966    214.3109   1.3405973997e+02   1.8458409097e+01    0.2163832    0.1231675  72.31  0.001042725    2.002    0.500
        26  -8.6121    152.5621    212.9287   1.2162923421e+02   8.2206776777e+00    0.1801324    0.1360327 -53.83 0.0003355739    1.472    0.321
        27 -12.3620     37.4589    231.6301   1.4588740132e+02   2.2570605424e+01    0.2980954      0.23754 -87.05 0.0007583323    1.257    0.204
        28 -11.2894     63.5670    197.5950   1.3786441568e+02   2.6252650925e+01    0.3311552    0.2448565 -46.75 0.0007838087    1.817    0.450
        29  -9.0165     51.8360    197.6545   1.4023237630e+02   2.7783263036e+01    0.2348105     0.126227  78.97  0.001172638    1.978    0.495
        30  -9.6609    192.5090    194.0007   1.1010388212e+02   4.0577452511e+00    0.5105342    0.2419679 -62.34  0.001394393    6.176    0.838
        31 -10.4496    140.8799    230.8825   1.2665541989e+02   7.0311286605e+00    0.1996293    0.1734613  32.91   0.00124755    1.263    0.208
        32 -13.8374     43.4588    223.2029   1.4418563397e+02   2.3501910936e+01     1.162579    0.7968189 -57.46  0.006166966    1.843    0.458
        33 -11.4923     69.2862    189.7190   1.3573839325e+02   2.7193726232e+01    0.2761941    0.2307815 -66.45 0.0004543598    1.267    0.211
        34 -10.5637     78.9949    177.1467   1.3192942158e+02   2.8624661552e+01    0.2456756    0.2131782 -68.16 0.0003453745    1.179    0.152
        35 -12.8383     65.9783    175.1068   1.3455610757e+02   3.0954729409e+01    0.4963931     0.270167 -46.85    0.0016864    2.271    0.560
        36  -8.4247    100.1997    176.4874   1.2702576810e+02   2.5401994079e+01    0.1926841    0.1211191  57.21 0.0008008145    1.609    0.378
        37 -11.5590     86.4951    167.9124   1.2880196141e+02   2.9607599900e+01    0.6636244    0.5627309  65.38  0.003874487    1.140    0.123
        38  -9.1533    236.0000    159.9915   9.4677200484e+01   1.6021508246e+00    0.2340384   0.07612396 -38.64 0.0007986593    2.916    0.657
        39 -12.2359     67.4402    143.9924   1.2945764619e+02   3.8018165201e+01    0.7341437    0.5108892  80.16  0.003270276    1.644    0.392
        40 -11.7186     87.4232    151.1230   1.2571025580e+02   3.3396470990e+01    0.2892324    0.2484211 -47.87 0.0007766389    1.253    0.202
        41  -8.8430    101.6830    147.8517   1.2153619579e+02   3.1800078709e+01    0.2246776    0.1699799 -42.50 0.0004213209    1.439    0.305
        42  -9.6418    228.8179    228.2540   1.0942523656e+02  -8.0159637859e+00    0.2453965    0.1746593 -50.95  0.001298472    1.970    0.493
        43  -8.2498    192.0419    143.9997   9.9583449518e+01   1.3884304530e+01    0.1795103    0.1722165 -40.61 0.0003694782    1.035    0.034
        44  -9.5424    110.2212    137.0229   1.1712833563e+02   3.2805632630e+01    0.3921057    0.2487406 -27.09  0.001322196    2.430    0.588
        45  -9.6963     98.6204    151.7714   1.2305638874e+02   3.1405726833e+01    0.2750156    0.2529863 -88.03 0.0008155027    1.020    0.020
        46 -10.1637     97.3915    134.3218   1.1986552969e+02   3.5716271760e+01    0.2634081    0.2330202 -37.05 0.0004899185    1.233    0.189
        47  -8.8931    107.0468    123.7615   1.1496342316e+02   3.6459414270e+01    0.1884529    0.1860744  85.41 0.0002333165    1.062    0.059
        48 -11.0264     53.8408    119.4695   1.2861152753e+02   4.5472438973e+01    0.5265052    0.1855208 -69.14  0.001704761    4.016    0.751
        49  -9.7194      8.8419    230.1830   1.5049666118e+02   2.6014376046e+01    0.1342788    0.1026612 -84.70 0.0004971565    1.314    0.239
        50 -10.0026    168.0512    113.0475   9.7168119638e+01   2.5782549964e+01     0.360632    0.2893707 -82.25 0.0006728051    1.501    0.334
        51  -8.8802    203.4840    111.5354   8.9459283989e+01   1.7689181835e+01    0.1516631    0.1483062 -47.75 2.859187e-05    1.036    0.034
        52  -9.0468    157.4892     76.5084   8.9510189855e+01   3.5396965033e+01    0.1506067    0.1474856  68.86 0.0008105366    1.002    0.002
        53 -10.8533     23.4715     58.5861   1.2436547799e+02   6.1354615968e+01    0.5082778    0.2128386  40.82  0.002403504    3.579    0.721
        54 -10.5565     81.6638    249.0299   1.3973932081e+02   1.3364486414e+01    0.2259122    0.1534826  47.54  0.001219304    1.364    0.267
        55 -10.3993     46.6196    248.6765   1.4561368587e+02   1.8224298663e+01    0.2843258    0.1368654  71.26  0.001058704    1.896    0.473
        56 -11.4119    140.8182    249.1854   1.2910017510e+02   3.8932551581e+00     0.472406     0.171818  46.94  0.002082054    2.256    0.557
