#   1 NUMBER                 Running object number                                     
#   2 MAG_AUTO               Kron-like elliptical aperture magnitude                    [mag]
#   3 X_IMAGE                Object position along x                                    [pixel]
#   4 Y_IMAGE                Object position along y                                    [pixel]
#   5 X_WORLD                Barycenter position along world x axis                     [deg]
#   6 Y_WORLD                Barycenter position along world y axis                     [deg]
#   7 A_WORLD                Profile RMS along major axis (world units)                 [deg]
#   8 B_WORLD                Profile RMS along minor axis (world units)                 [deg]
#   9 THETA_WORLD            Position angle (CCW/world-x)                               [deg]
#  10 FWHM_WORLD             FWHM assuming a gaussian core                              [deg]
#  11 ELONGATION             A_IMAGE/B_IMAGE                                           
#  12 ELLIPTICITY            1 - B_IMAGE/A_IMAGE                                       
         1 -12.3401     68.4424    144.3516   1.0474721128e+02   3.7214554732e+01     2.034235     1.037046  82.10   0.00634216    4.498    0.778
         2 -12.5395    201.3289     37.9459   4.5150711032e+01   3.0251018846e+01     1.067325    0.9373001  56.41  0.004300164    1.229    0.186
         3 -12.4945    213.3026     25.8061   4.0669544982e+01   2.8933439260e+01    0.9893829    0.7393063  41.17  0.005554042    1.696    0.410
         4  -9.2211     19.7964      6.4140   8.2022904472e+01   7.1932826088e+01     0.160677   0.09127804  13.66 0.0009608416    1.749    0.428
         5 -10.6988    238.0611      2.6405   3.3215530837e+01   2.5966000905e+01    0.7072649    0.2694786  77.99  0.003297622    2.534    0.605
         6  -9.4857     64.2470    198.3352   1.1321871992e+02   2.5035426131e+01    0.6274731    0.2650474 -50.61  0.002683392    2.920    0.657
         7 -13.3638     49.9783    219.9510   1.1823968682e+02   2.2264241741e+01     2.342602     1.838684  67.71   0.01608764    1.034    0.033
         8 -12.7301     86.2255    226.0706   1.1162463913e+02   1.6204243406e+01     2.091418     1.517317 -78.32  0.001964466    1.430    0.301
         9 -12.6032     51.4586    192.4522   1.1538156006e+02   2.7974845192e+01     1.352706    0.8610772 -78.27  0.006144812    1.431    0.301
        10 -14.6288      3.4762    183.1219   1.2481567098e+02   3.4974668347e+01     13.59378          nan -74.83   0.03032285   10.898    0.908
        11 -15.2148      8.6744    240.9633   1.2703953906e+02   2.2707650264e+01     10.76827     3.178368 -78.96   0.05414428    3.017    0.669
        12 -10.3508     66.2544    177.1248   1.1022258505e+02   2.9591832777e+01     0.409237    0.3008107 -48.26  0.002266432    1.561    0.360
        13 -10.5109     71.7892    171.4878   1.0812437250e+02   3.0160262423e+01    0.3972051    0.3044951 -36.14   0.00197767    1.688    0.408
        14  -9.5078     42.2738    179.5181   1.1608620968e+02   3.2007696924e+01    0.2111718    0.1889188  42.90 0.0008233399    1.317    0.241
        15  -8.3303     33.9269    171.6664   1.1718965545e+02   3.4747185524e+01    0.1738538    0.1608765 -29.96  0.001165582    1.465    0.317
        16  -9.6174     96.3842    168.3976   1.0159627197e+02   2.7167080016e+01    0.3496967    0.1213814  41.96  0.001250231    2.777    0.640
        17 -11.0766     80.6619    161.6537   1.0442358375e+02   3.1229361116e+01    0.7745243    0.4493023  65.75 0.0006301207    2.206    0.547
        18 -11.9021     68.5124    157.6210   1.0689220876e+02   3.3949380602e+01    0.6196926     0.413605 -35.58   0.00165509    1.998    0.499
        19 -10.5660    150.0035    227.2598   9.8842566363e+01   6.0278564249e+00    0.4082752    0.2979994   4.37  0.002246827    1.823    0.451
        20  -8.2204    157.7972    160.5702   8.5285399202e+01   1.7609627759e+01    0.2127101    0.1401803  54.42 0.0004725395    1.703    0.413
        21  -8.8809    134.4330    144.7628   8.7400535924e+01   2.5780594252e+01    0.3750213    0.1461916 -46.44   0.00120399    2.531    0.605
        22  -9.4620    101.6552    140.2148   9.4920538172e+01   3.3027020820e+01      0.53571     0.325812 -22.95  0.001963393    2.981    0.665
        23 -10.6116     88.9010    140.2680   9.8396802569e+01   3.5159418730e+01    0.3136302     0.257587 -48.56 0.0003912019    1.207    0.171
        24  -8.3466     80.8400    140.6480   1.0068295323e+02   3.6330389092e+01    0.2059017    0.1255432  48.73  0.000308225    1.759    0.432
        25  -8.0047     34.9858    139.5195   1.1310289290e+02   4.2373327390e+01    0.1759643    0.1271862  38.32  0.001010968    1.557    0.358
        26  -9.3280    195.2006    198.8663   8.4961618660e+01   3.2396410383e+00     0.259589    0.1643551 -61.29  0.001153247    2.696    0.629
        27  -8.8953    110.6998    130.8264   9.0399193834e+01   3.3643754939e+01    0.3041319    0.2385759  -3.10  0.001224073    1.718    0.418
        28  -8.7351    105.6112    130.4650   9.1706070961e+01   3.4668827806e+01    0.3025477    0.2294204 -58.49  0.001461412    1.286    0.222
        29  -9.1552     98.1965    126.6798   9.2904386698e+01   3.6903658652e+01    0.2849542    0.2271709 -34.56 0.0005249816    1.348    0.258
        30  -9.9738     20.8141    125.4655   1.1511687509e+02   4.7082955187e+01    0.3340314    0.1646542 -48.85   0.00164779    1.964    0.491
        31  -8.0444     91.7861    124.5715   9.4246739522e+01   3.8514754451e+01    0.2043854    0.1388347  51.71 0.0005775765    1.637    0.389
        32 -12.4606     58.6447    243.3992   1.1848268220e+02   1.6625899122e+01    0.6306338    0.3875591  75.42 0.0009349412    1.515    0.340
        33  -8.1982    107.7871    119.2096   8.8423877400e+01   3.6943482218e+01    0.2183583     0.202057 -88.13 0.0003680358    1.152    0.132
        34 -10.6418     87.2551    155.4576   1.0168280574e+02   3.1717744641e+01    0.5807191    0.3984842 -23.00  0.001448247    2.281    0.562
        35  -8.0637    205.5908    110.1893   6.3305181135e+01   1.7550721379e+01    0.2144172    0.1376963 -26.61 0.0008252168    1.658    0.397
        36  -9.8470     22.1461    108.4995   1.1220843731e+02   5.1087009882e+01    0.2514442    0.1786353  87.55  0.001302248    1.491    0.329
        37  -7.9902     99.4949    180.5342   1.0281273933e+02   2.3852648783e+01    0.1419011    0.1271907  74.63 0.0001476936    1.046    0.044
        38  -8.8402    246.3109     95.3196   5.3310482284e+01   1.1536272215e+01    0.1330138    0.1045757   0.19 0.0003594673    1.645    0.392
        39  -8.6516    128.7503     95.6088   7.6273503902e+01   3.7973715988e+01    0.2172761    0.1501333  56.67 0.0009458555    1.624    0.384
        40  -8.6593     41.1870     91.8671   1.0269277208e+02   5.3336316444e+01    0.1958526    0.1720401 -76.48 0.0005722184    1.209    0.173
        41 -11.6466     10.7974    188.7742   1.2369476171e+02   3.3099358983e+01     0.367791    0.3468368  67.94  0.002836321    1.358    0.264
        42 -13.5936      8.7557    207.5916   1.2528947744e+02   2.9262748484e+01     1.816592     1.093472 -44.75  0.004214866    2.728    0.633
        43 -10.3825    188.3055     52.1240   5.0827397166e+01   3.1455068203e+01    0.2658632    0.2347398 -58.76  0.001482671    1.090    0.083
        44  -9.2202    141.6271     47.0994   5.7838893643e+01   4.3731566051e+01    0.3716879     0.239309 -66.91  0.001330414    2.265    0.559
        45 -11.6248    192.3480     44.3412   4.8077658561e+01   3.1570859637e+01    0.4950317    0.4776775 -70.56   0.00150784    1.069    0.064
        46 -11.0299    161.1037    224.7702   9.6235805300e+01   4.6277114120e+00    0.5877138    0.3201331  23.48  0.002694573    2.259    0.557
        47 -12.1774     27.9100    215.2487   1.2214763912e+02   2.5761010548e+01     1.098935     0.454337  85.29  0.002417566    2.644    0.622
        48  -8.4440    144.7982     41.7785   5.5424329199e+01   4.3710606038e+01     0.194522    0.1660662 -71.07 0.0005045719    1.314    0.239
        49 -14.0179     39.3125    249.3450   1.2231655319e+02   1.7879726218e+01       6.8938     1.881801  29.57    0.0178016   11.619    0.914
        50 -13.1423     42.1633    202.6916   1.1833345542e+02   2.6825520683e+01     1.513818    0.8180199  82.59  0.002938394    1.860    0.462
