#   1 NUMBER                 Running object number                                     
#   2 MAG_AUTO               Kron-like elliptical aperture magnitude                    [mag]
#   3 X_IMAGE                Object position along x                                    [pixel]
#   4 Y_IMAGE                Object position along y                                    [pixel]
#   5 X_WORLD                Barycenter position along world x axis                     [deg]
#   6 Y_WORLD                Barycenter position along world y axis                     [deg]
#   7 A_WORLD                Profile RMS along major axis (world units)                 [deg]
#   8 B_WORLD                Profile RMS along minor axis (world units)                 [deg]
#   9 THETA_WORLD            Position angle (CCW/world-x)                               [deg]
#  10 FWHM_WORLD             FWHM assuming a gaussian core                              [deg]
#  11 ELONGATION             A_IMAGE/B_IMAGE                                           
#  12 ELLIPTICITY            1 - B_IMAGE/A_IMAGE                                       
         1 -14.1170    220.5509    116.0524   5.5865506823e+01   1.4694247449e+01     2.611027     2.171322  63.89   0.01344593    1.415    0.293
         2 -12.4145    239.2323     22.3711   3.3028313446e+01   2.4722722841e+01    0.6039518    0.2294191 -53.25  0.002304487    2.399    0.583
         3 -11.8525     29.9635     20.6036   7.8048024357e+01   6.8493861433e+01    0.4714034    0.3337879 -40.05  0.002992607    1.627    0.386
         4 -11.8785    111.7291     19.1192   4.9269124032e+01   5.3802940928e+01    0.4469422    0.3905556  53.01  0.001897762    1.071    0.066
         5  -9.9667    158.4098      6.9005   3.7456418941e+01   4.4106809529e+01     0.231736     0.157843 -88.27  0.000553017    1.484    0.326
         6 -11.2275    154.7524     16.3832   4.0634114584e+01   4.4084794787e+01    0.4992737    0.2741247 -15.09  0.002065261    2.389    0.581
         7 -10.4205    155.9491     10.4889   3.8785503411e+01   4.4361045181e+01    0.2721608    0.2022088 -87.37  0.001275383    1.352    0.261
         8 -11.7131    250.0117     10.2117   2.9879381881e+01   2.3972432155e+01    0.4308201    0.2259857 -17.94   0.00213364    3.445    0.710
         9 -11.4055     56.0500     14.8088   6.3946297947e+01   6.5414379805e+01    0.4144817    0.2841657 -21.35  0.001676763    1.448    0.309
        10  -9.9015     59.8648     11.8022   6.1142425491e+01   6.5081517668e+01    0.2106449    0.1905025   8.25 0.0007943729    1.223    0.182
        11 -10.7584    187.6943      9.6749   3.4841242361e+01   3.7101546203e+01    0.2919147    0.2174076  14.64  0.001457187    1.975    0.494
        12 -10.5782    185.4989     13.5046   3.6012570979e+01   3.7222890782e+01    0.2608894    0.2099615  34.40  0.001047832    1.565    0.361
        13 -11.0119    181.4240     13.0439   3.6344555745e+01   3.8200076726e+01    0.4009295    0.2578175  50.57  0.001521423    1.646    0.392
        14 -10.6770    227.7453     13.1695   3.2050430317e+01   2.8065528184e+01    0.2806431    0.1454568 -19.09  0.001380834    2.965    0.663
        15 -10.2007     25.2468     13.7361   7.7181833354e+01   7.0018637610e+01     0.291537    0.1659094   0.38  0.001532713    1.868    0.465
        16 -12.2613    122.6513     11.1728   4.4289650922e+01   5.2065745095e+01    0.5310434    0.3148482  45.17 0.0009658652    1.535    0.349
        17 -10.6340    127.7068      4.9583   4.1346215606e+01   5.1423436891e+01    0.2776476    0.2260137  32.07 0.0007565335    1.276    0.216
        18 -10.5830     19.3141     10.9940   7.8945800194e+01   7.1070185955e+01    0.1819877    0.1541397 -10.01 0.0008092769    1.299    0.230
        19 -10.7946     15.9839      8.4424   7.9488510877e+01   7.1775715311e+01     0.384365    0.1562831  32.46  0.001339943    2.483    0.597
        20 -11.0133     13.6788      3.3174   7.8140422449e+01   7.2693341966e+01    0.5105252    0.2524388  -1.71  0.002615653    2.535    0.606
        21 -10.8006    210.0092      9.0029   3.2605372132e+01   3.2233960434e+01    0.3194067    0.1986768 -56.27  0.001074513    1.470    0.320
        22 -10.7557    212.6062      6.2494   3.1787388174e+01   3.1951964893e+01    0.2696712    0.2004948 -25.13  0.001661333    1.632    0.387
        23  -9.2787     93.2049     10.1713   5.0306507294e+01   5.8697831102e+01    0.1575959    0.1435358  75.35 0.0003900435    1.309    0.236
        24 -10.3706     48.1251      8.2691   6.3994998213e+01   6.7442310793e+01    0.2340291    0.1607594  -5.42 0.0005602101    1.352    0.260
        25 -10.0254    237.9255      7.3013   3.0122924775e+01   2.6628648666e+01    0.2101189    0.1589448 -35.87  0.001466184    1.445    0.308
        26  -9.9507    216.6477      8.0496   3.1849990236e+01   3.0913033744e+01    0.1948636    0.1208732 -54.05  0.001185338    1.441    0.306
        27 -10.8811     23.9290      7.6774   7.4853688323e+01   7.0967778403e+01    0.2864383    0.1644339  15.20  0.000714956    1.615    0.381
        28 -10.9200      4.5948      7.0336   8.5344037958e+01   7.3059299293e+01    0.2568816    0.1659014   8.97 0.0001283667    1.377    0.274
        29 -10.8086      4.7900      2.3259   8.2843036369e+01   7.3698937226e+01    0.4127616    0.1682669  12.48  0.002028851    2.918    0.657
        30  -9.5666     78.5830      6.2711   5.2631208349e+01   6.2063615954e+01      0.22477    0.1108676 -26.85  0.001152103    2.195    0.544
        31  -9.5745     69.8873      6.8782   5.5511217411e+01   6.3715787054e+01    0.1530685    0.1438336  48.46 0.0004723085    1.326    0.246
        32 -10.5941    107.0207      3.9554   4.4822566848e+01   5.6201481359e+01    0.3147233    0.1918251 -40.32  0.001724176    1.981    0.495
        33 -10.7004     84.4560      1.3810   4.8994178638e+01   6.1261755328e+01    0.2759322    0.1351449  63.92 0.0001444092    2.128    0.530
        34  -9.2260     64.9990      5.4889   5.6470811275e+01   6.4764939618e+01    0.1802098    0.1035146  46.79 0.0006515499    1.522    0.343
        35  -9.3488     39.5169      4.9949   6.6014834822e+01   6.9139841030e+01    0.2689382     0.118471  50.90 0.0004250145    3.304    0.697
        36  -9.2605     69.4392      2.4455   5.3676313042e+01   6.4186585326e+01    0.1233938   0.09751997  29.18 0.0001400373    1.019    0.018
        37  -9.0266     34.3923      1.8254   6.6691267684e+01   7.0235646034e+01    0.1515929   0.09144402  -8.49 0.0003762745    1.571    0.363
        38 -10.9742    101.6571     15.7637   5.0373322550e+01   5.6360211165e+01     0.342696    0.2365407  21.99   0.00100354    1.527    0.345
        39 -10.7946     19.7222      3.6646   7.4988673058e+01   7.1969671647e+01    0.3092436    0.1645902  27.87  0.001113685    1.715    0.417
        40 -11.0590     90.5667      2.9396   4.8101744192e+01   5.9860072940e+01    0.2976679    0.2670026  10.63  0.001114172    1.173    0.147
        41 -11.1309      9.8562    103.0208   1.1052460611e+02   5.3456857435e+01    0.3672424    0.2428939 -14.63  0.001273162    1.786    0.440
        42 -10.0754     15.6605    140.9556   1.1393356153e+02   4.3827855014e+01    0.1909966    0.1396449 -72.67 0.0006547901    1.140    0.123
        43  -9.6553     45.2848    101.8425   9.7963191066e+01   5.0778186781e+01    0.2144317    0.1708477 -77.87 0.0005570151    1.429    0.300
        44  -9.8538     96.8539     98.1919   7.9724671803e+01   4.4037236189e+01    0.2096259    0.2027517 -65.35 0.0003366747    1.153    0.132
        45  -9.7302     53.4599     97.9613   9.4173521395e+01   5.0749988055e+01    0.2200482    0.1267884 -54.78  0.001024904    1.577    0.366
        46  -8.9244    148.0106     96.2742   6.5172887557e+01   3.3877310416e+01     0.183906    0.1340756  47.05 0.0002479715    1.391    0.281
        47  -9.8534     69.5843     96.1980   8.8099817105e+01   4.8990428240e+01    0.2934455    0.2045421  37.00  0.001458295    1.547    0.354
        48 -10.6005     16.3255     95.3560   1.0693867662e+02   5.4864905279e+01    0.2351596    0.2119767  51.67 0.0005936626    1.356    0.263
        49  -8.9244     46.2865     94.3288   9.5851036390e+01   5.2433780612e+01    0.1460525   0.09213165 -31.80 0.0007011079    1.613    0.380
        50  -9.1173      1.2185     94.0698   1.1209704570e+02   5.6034212774e+01    0.1648301   0.08131954 -65.51 0.0002682632    1.589    0.371
        51  -9.3954    116.3525     93.4668   7.2583783477e+01   4.1249995048e+01    0.1917405    0.1480221  53.42 0.0009150241    1.427    0.299
        52  -9.0907      8.0277     92.2149   1.0936027547e+02   5.6114506230e+01    0.1444796    0.1024153   7.15  0.000481423    1.666    0.400
        53 -10.5928     33.9547     89.4876   9.9232294368e+01   5.4820743302e+01    0.3070914    0.1978971  33.46   0.00163112    1.781    0.439
        54  -9.6264     86.5092     89.0333   8.0392864509e+01   4.7859266110e+01    0.2179004    0.1405329 -47.98 0.0005781645    1.530    0.346
        55 -10.5183    120.6624     87.7808   6.9717326175e+01   4.1497420782e+01    0.2797564    0.2585995  26.17 0.0003858561    1.071    0.067
        56  -9.8007    131.7070     86.2127   6.6324111538e+01   3.9423034580e+01    0.2134328    0.2014337 -55.84 0.0009648005    1.129    0.114
        57 -10.4599    102.2049     85.3953   7.4342028339e+01   4.5724095128e+01    0.2609056    0.2228515 -51.74 0.0002854285    1.268    0.211
        58  -9.6408     28.9592     85.4650   1.0017978871e+02   5.6193723634e+01    0.1840991    0.1288576  16.39   0.00103252    1.597    0.374
        59 -11.0836     75.9314     83.1523   8.2208444413e+01   5.0876369915e+01    0.2831405    0.2716857  -9.66 0.0003280294    1.102    0.092
        60 -11.1732     80.0703     81.0281   8.0144439768e+01   5.0638674248e+01    0.3187616    0.2592733 -64.42            0    1.538    0.350
        61  -9.4879     66.0396     84.3278   8.6036756496e+01   5.2142657222e+01    0.1916271    0.1749083  -7.42 0.0004274545    1.065    0.061
        62  -9.4465     45.6345     83.8463   9.3427462446e+01   5.4893497290e+01    0.1853095    0.1222071 -62.03 0.0004965496    1.618    0.382
        63 -10.3746    134.9684     83.0234   6.4563090669e+01   3.9303321656e+01    0.2147332    0.2098966  -5.10            0    1.012    0.012
        64  -9.6639    112.8013     81.7738   7.0112539109e+01   4.4312405178e+01    0.2224933    0.1958229  -1.88 0.0006140483    1.163    0.141
        65 -10.9644     54.1242     80.5914   8.9328284786e+01   5.4583829330e+01     0.335332    0.2618793   9.16  0.001714167    1.339    0.253
        66  -9.6794     21.9989     80.5649   1.0173262706e+02   5.7872859163e+01    0.3000313    0.1306139 -49.03   0.00140995    1.805    0.446
        67  -8.9567     65.4862     80.5359   8.5121554014e+01   5.3035676477e+01    0.1424054    0.1268201 -21.91 7.571214e-05    1.003    0.003
        68  -9.0082     31.0099     80.2402   9.8124710361e+01   5.7191806260e+01    0.1504385    0.1094072  13.78 0.0002091913    1.508    0.337
        69 -10.1322      7.0127     80.3491   1.0753259240e+02   5.8900967907e+01    0.1651383    0.1421265 -35.95 0.0004512865    1.129    0.114
        70 -10.2418    104.1827     78.7224   7.1692889647e+01   4.6652417550e+01    0.2774322    0.2559649 -41.53 0.0006439815    1.144    0.126
        71 -10.5411    108.8467     74.0435   6.8843406161e+01   4.6588756939e+01    0.5932144    0.3397827  -4.70  0.001862387    4.172    0.760
        72  -9.4607     85.7212     79.5629   7.7791779455e+01   4.9964576349e+01    0.1864193    0.1388269  45.69 0.0003941411    1.484    0.326
        73 -11.2980     78.5411     74.6460   7.8675190128e+01   5.2189407057e+01    0.2700818     0.239864   7.88 0.0003611733    1.083    0.077
        74 -10.1630     74.5265     75.4468   8.0328941488e+01   5.2693545240e+01    0.2519387    0.2254881  42.34 0.0007017197    1.286    0.223
        75 -10.2809      4.5226     75.5282   1.0754459339e+02   6.0116284197e+01    0.2305151    0.1495818 -57.90  0.000565114    1.234    0.190
        76  -9.7083      1.8400     73.1664   1.0813914618e+02   6.0773639677e+01    0.1880017    0.1472025 -43.92 0.0004120115    1.056    0.053
        77  -9.5360    250.3344     71.8707   4.2152314646e+01   1.6086169954e+01    0.3232783    0.1144017 -28.39  0.001091959    4.360    0.771
        78  -9.2397    152.4078     73.2342   5.7659340293e+01   3.7070934863e+01    0.2101775    0.1336266 -46.82 0.0009486623    1.641    0.391
        79  -9.6745    103.8529     72.8142   6.9921312765e+01   4.7834219762e+01     0.211459    0.1850487   3.28 0.0003325775    1.140    0.123
        80 -10.3126     45.9894     73.0413   9.0262053516e+01   5.7199531194e+01    0.2123066    0.1772341 -27.74 0.0004458837    1.031    0.030
        81 -12.1726     97.3838     69.5794   7.0842032769e+01   4.9714958081e+01     0.314726     0.304526 -17.70 0.0002792096    1.114    0.103
        82 -10.3794    101.3813     68.1618   6.9153384316e+01   4.9178768795e+01     0.284184    0.1710878 -47.53 0.0006639006    1.846    0.458
        83 -11.5154    137.0756     69.5741   6.0030689732e+01   4.1211677434e+01    0.2762545    0.2704618  18.44  0.001581187    1.011    0.010
        84 -10.2238     64.1941     70.5619   8.2512125508e+01   5.5282740145e+01    0.3190331    0.2433105  32.51  0.001748217    1.380    0.276
        85  -9.7101     33.8669     69.9495   9.4235985631e+01   5.9165066193e+01    0.2159321    0.1462727 -30.64 0.0009715385    1.329    0.248
        86 -10.2726    155.2739     68.2523   5.5622484362e+01   3.7228522115e+01    0.3603225    0.2329955 -78.00  0.001263818    2.536    0.606
        87  -9.4748     26.7720     69.5937   9.7059241407e+01   5.9898050703e+01    0.1512917    0.1186718  28.05 0.0001406921    1.488    0.328
        88  -9.3574    120.9595     68.5354   6.3737592088e+01   4.4993524617e+01    0.2148371    0.1171672  28.74 0.0008090521    2.500    0.600
        89 -10.8951     89.7928     67.6022   7.2598780195e+01   5.1532071909e+01    0.2488152    0.2375308 -31.57 0.0001321924    1.159    0.137
        90  -9.6944     59.4386     66.5539   8.3007229276e+01   5.6771784509e+01    0.2422937    0.2024181  -5.89 3.194262e-05    1.116    0.104
        91 -10.0917     62.7211     64.9157   8.1217994437e+01   5.6611719113e+01    0.3518461    0.2668117  70.58  0.001720723    2.363    0.577
        92  -9.1405     70.5407     66.4365   7.8829876040e+01   5.5108091048e+01    0.1397347    0.1245552  -9.56 5.361126e-05    1.013    0.013
        93  -9.7063      8.4871     65.5317   1.0370834613e+02   6.2092713804e+01    0.3037008    0.1190916   4.38  0.001318827    3.302    0.697
        94 -11.3736      3.6506     61.1441   1.0473993472e+02   6.3294339202e+01    0.6020582     0.196528 -61.10    0.0020735    2.471    0.595
        95  -9.6696      7.8442     57.1005   1.0187141053e+02   6.3911096820e+01    0.1971243    0.1261483 -38.64 0.0004101921    1.237    0.191
        96 -10.0819    110.0453     64.0923   6.5284241517e+01   4.8101980365e+01    0.3513862    0.2967753 -79.66  0.001836567    1.601    0.375
        97 -11.2762     43.0293     62.9213   8.8348279790e+01   5.9628553701e+01    0.3468942    0.3211752 -89.32  0.001022219    1.530    0.346
        98 -10.7450     29.3476    138.0950   1.0963106494e+02   4.3421157718e+01    0.2242342    0.2093902 -85.49 0.0003517537    1.101    0.092
        99  -9.0986     66.9709     63.2704   7.9072979483e+01   5.6275542566e+01     0.185799     0.164976  -1.32 0.0002484436    1.045    0.043
       100  -9.4948     32.4891     63.1161   9.2810278040e+01   6.0726902152e+01    0.1987726    0.1119982 -49.61  0.001023241    1.562    0.360
       101 -11.2128     95.1422     57.0786   6.7315481024e+01   5.2335101622e+01      0.46733    0.2815448 -13.75  0.002012333    2.244    0.554
       102 -10.3119     59.2377     58.1715   8.0253028086e+01   5.8402013462e+01    0.3646576    0.2457533 -10.42  0.001871493    1.639    0.390
       103  -9.0217     50.5730     59.5362   8.4156840170e+01   5.9353052818e+01    0.1343485    0.1143427 -18.53 0.0001177773    1.015    0.014
       104  -9.9019    150.9169     57.5151   5.3381821870e+01   3.9919730890e+01    0.2311904     0.191367 -63.34 0.0008515429    1.338    0.253
       105  -9.3081     34.5163     57.4957   9.0189242055e+01   6.1650901310e+01    0.1297985    0.1089488 -25.19 8.048888e-05    1.039    0.038
       106  -9.2123    223.1512     56.1414   4.1826117888e+01   2.3728354755e+01    0.1817863    0.1346918 -68.18 0.0004499274    1.316    0.240
       107  -9.9903    112.0332     55.7185   6.1949059234e+01   4.9043737999e+01    0.2256984    0.1996701 -23.75 0.0003716271    1.153    0.132
       108  -9.4332    200.5174     55.5013   4.4547995393e+01   2.8720352318e+01     0.132045    0.1229581 -71.22 -1.809306e-05    1.033    0.032
       109 -10.0035     79.7764     55.0103   7.1597044967e+01   5.5594097700e+01     0.430294    0.1690131  31.30  0.001505898    3.264    0.694
       110 -10.5780    162.6842     52.5598   4.9707468416e+01   3.7872091613e+01    0.3167049    0.2416311 -21.62  0.001332082    1.481    0.325
       111  -9.8015    206.3464     53.0952   4.3188677204e+01   2.7764837956e+01    0.1887522    0.1592715 -55.88 0.0006700571    1.091    0.083
       112  -8.8266    145.2648     53.2884   5.3272662394e+01   4.1867339712e+01    0.1366483    0.1066253  22.51            0    1.497    0.332
       113  -9.6717     29.1074     52.6168   9.0968397711e+01   6.3151836869e+01    0.2048293     0.138124 -27.78 0.0003573861    1.281    0.219
       114 -10.1258    106.6735     50.4314   6.1618257424e+01   5.1005143857e+01    0.2634204    0.2298424 -65.54 0.0007377028    1.454    0.312
       115  -9.4185     81.6021     50.7873   6.9447389495e+01   5.5958937813e+01    0.1959984     0.124906 -45.79 0.0009539006    1.813    0.449
       116 -10.3269    233.1599     48.5571   3.9050319444e+01   2.2700150027e+01    0.2972917    0.1434627 -45.48  0.001340814    1.786    0.440
       117 -10.1098    112.9102     49.9655   5.9769157738e+01   4.9727616759e+01     0.470214    0.1830588  49.57  0.001810865    2.388    0.581
       118  -9.6874     55.2838     50.0582   7.8905259733e+01   6.0438944071e+01    0.2258781    0.1613469  -0.78 0.0004691844    1.423    0.297
       119  -9.7561     58.7649     47.6479   7.6623227653e+01   6.0335458309e+01      0.24386    0.1849445  31.76  0.001085047    1.345    0.256
       120 -10.7481     26.4093     48.6108   9.0848465228e+01   6.4179391583e+01    0.2978927    0.2226404   5.39   0.00187308    1.312    0.238
       121  -9.6150     16.9889     50.5730   9.5826691846e+01   6.4610672150e+01    0.1722141    0.1124702  10.21  0.001024099    1.599    0.375
       122 -10.3288    200.9984     49.1671   4.2935381547e+01   2.9490712991e+01      0.23536    0.1411304 -75.64  0.001100501    2.105    0.525
       123  -9.6347     89.0926     47.9441   6.5956610612e+01   5.4981462014e+01    0.1866274     0.184818  28.29 0.0003375832    1.227    0.185
       124  -9.8883     85.4762     45.4646   6.6202928260e+01   5.6059201841e+01    0.2472646     0.208376 -21.25 0.0007130324    1.181    0.153
       125  -8.9751     73.6823     49.6785   7.1787178124e+01   5.7560312283e+01    0.1425792   0.09782942   2.41  0.000704277    1.665    0.399
       126  -9.4250     49.9457     49.0237   8.0699422827e+01   6.1372637567e+01    0.2139899    0.1394949  -7.15 0.0008203406    1.683    0.406
       127  -9.8970    170.1965     47.7821   4.7086006506e+01   3.6766232868e+01    0.1893493    0.1614295  31.64  0.001074375    1.340    0.254
       128 -10.0550     84.6802     48.3284   6.7521307849e+01   5.5772423726e+01    0.2220835    0.1707451 -40.75 0.0008098425    1.437    0.304
       129  -9.9983    211.4843     49.1491   4.1611645567e+01   2.7180872033e+01    0.2100197    0.1675533  80.05 -5.593269e-05    1.236    0.191
       130 -10.3505    136.5938     46.6378   5.3042140034e+01   4.4832081265e+01    0.2518201    0.1985884  53.71 0.0008868991    1.191    0.161
       131 -10.5414     41.7813     44.8407   8.2610581422e+01   6.3175783876e+01    0.3294033    0.2581097 -71.21   0.00181978    2.259    0.557
       132 -10.0899    141.5146     46.4479   5.1954072726e+01   4.3708498570e+01    0.2196166    0.2117718  58.51 0.0006190433    1.025    0.024
       133 -10.9361    142.7015     42.8161   5.0596012254e+01   4.3915874310e+01    0.4151985    0.2096889  48.50  0.001839292    1.874    0.466
       134 -10.6524     33.4058     45.3298   8.6510745059e+01   6.4071698021e+01    0.2275781    0.1553167 -49.60   0.00131122    1.578    0.366
       135 -10.4112    166.9789     43.4925   4.6424823463e+01   3.8095035571e+01    0.2848772    0.2329413  62.10 0.0007972736    1.162    0.139
       136 -10.6948    108.9106     43.4224   5.8570398889e+01   5.1534927023e+01    0.2500845    0.2317802  42.21 0.0003921849    1.086    0.079
       137  -8.8563     60.6350     44.7124   7.4774584662e+01   6.0533052819e+01    0.1396584   0.09235746   2.65 0.0007022907    1.697    0.411
       138 -10.3236    235.7127     42.9708   3.7600882108e+01   2.2917216010e+01    0.1810027    0.1442327 -54.92  0.001179597    1.078    0.072
       139 -10.2741     56.4150     41.7195   7.5279571068e+01   6.1669281035e+01    0.2712223    0.1837596  16.47  0.001058748    1.456    0.313
       140  -9.8822    209.0331     41.7721   4.0175779557e+01   2.8689854221e+01    0.1718967    0.1008949  69.77  0.000888226    1.692    0.409
       141 -11.2306     63.3435     37.7724   7.1007221394e+01   6.1180079508e+01    0.4483583    0.2032449 -43.21  0.001371612    2.535    0.606
       142 -10.2251    229.4918     38.5471   3.7263901253e+01   2.4749412254e+01    0.2529387    0.1083612 -35.91   0.00120733    2.157    0.536
       143  -9.4963    112.5271     39.3217   5.6204090030e+01   5.1294070162e+01    0.1720478    0.1311827  -7.13 0.0006871477    1.458    0.314
       144 -10.0258     48.9867     37.9465   7.6835546220e+01   6.3365019359e+01    0.3089925    0.1731339 -51.09  0.001469742    2.517    0.603
       145  -9.0652    181.9847     38.0865   4.2706352575e+01   3.5272718707e+01    0.1544207    0.1422997 -69.83 0.0004107389    1.053    0.051
       146  -9.9691     36.0410     38.5134   8.2743459531e+01   6.4963513159e+01    0.1750665    0.1129524  20.49 0.0004298636    1.515    0.340
       147  -9.7801    127.3347     36.8368   5.1888601231e+01   4.8261483365e+01    0.2368733    0.1812685  67.47 0.0008981209    1.347    0.258
       148  -9.9155     83.1410     36.2300   6.3452303768e+01   5.7834110545e+01    0.2333008    0.1686186 -54.48 0.0007584147    2.012    0.503
       149  -8.7830    141.6654     36.6536   4.8896809475e+01   4.4943100432e+01    0.1456323   0.09790278  29.60 0.0007048979    1.771    0.435
       150 -10.4841     67.9682     35.6765   6.8441345219e+01   6.0702007049e+01     0.369105    0.1992073  55.61  0.001592419    2.821    0.646
       151 -10.0203    106.9626     34.9842   5.6093858588e+01   5.3072848670e+01    0.2000778     0.178479  35.25   0.00120604    1.017    0.017
       152 -11.1904     78.8466     31.3765   6.2939469526e+01   5.9304196354e+01    0.2636585    0.2109338  19.49 0.0003415878    1.116    0.104
       153 -10.2644     33.8153     34.8249   8.2303980678e+01   6.5841423438e+01      0.19003    0.1395518 -12.21 0.0005128017    1.159    0.137
       154 -12.6305    239.3065     32.5888   3.5103397711e+01   2.3500176593e+01    0.6641455    0.3648317 -86.72  0.003583994    2.026    0.507
       155 -11.0863    237.5287     26.5375   3.4013447130e+01   2.4579078842e+01    0.2503693    0.2147967  64.91  0.001766858    1.371    0.271
       156  -9.8631    215.8034    222.2124   7.8461059584e+01  -2.8870990212e+00    0.1812219    0.1466946  78.42 0.0009525953    2.816    0.645
       157  -9.1058     98.8646     33.8128   5.7834595654e+01   5.4959695635e+01    0.1670979    0.1578933  82.36 0.0002708994    1.302    0.232
       158  -9.6199    193.7874     33.6753   4.0048093405e+01   3.3105215884e+01    0.2656345    0.0924101  58.40   0.00108414    2.644    0.622
       159 -10.5483    115.0437     32.1471   5.3092569692e+01   5.1630986914e+01    0.2477067    0.2182945  18.85 0.0003691182    1.130    0.115
       160  -8.9281    221.2614     30.9844   3.6422140544e+01   2.7398521054e+01     0.147062   0.09712514 -40.07 0.0003347783    1.438    0.305
       161 -10.1378    109.5430     29.5704   5.3507943985e+01   5.3160640128e+01    0.3625491    0.1847904  44.44  0.001689529    1.780    0.438
       162  -8.9673     20.8089     30.6107   8.6901412270e+01   6.7931473959e+01    0.1427973    0.1034191  24.13 0.0003241968    1.512    0.339
       163  -9.6855    215.8877     28.3794   3.6371491003e+01   2.8852351474e+01    0.2175931    0.1744951 -32.14 0.0006734502    1.384    0.277
       164 -10.5842     47.7100     28.3736   7.3393946203e+01   6.4997196138e+01    0.2437118    0.2058631  20.66 0.0007164656    1.224    0.183
       165 -10.8617     15.7179     28.3334   8.8587632220e+01   6.8782742706e+01    0.3542851    0.1812938 -17.00  0.001851743    2.082    0.520
       166 -10.7083    183.1513     26.8139   3.9639931069e+01   3.6343521781e+01    0.4402068    0.2040606  53.67  0.001740252    2.128    0.530
       167 -10.3948     80.7169     26.0692   6.0204926529e+01   5.9604806462e+01    0.2378825    0.2131649  42.26 0.0009431934    1.215    0.177
       168  -9.3990      2.0174     27.3772   9.5503447184e+01   6.9979324696e+01      0.15927    0.1197482 -18.31 0.0005397812    1.098    0.089
       169 -10.1845    206.9934     25.5748   3.6630985559e+01   3.1108415691e+01    0.2023022    0.1788359  -3.75 0.0008388547    1.501    0.334
       170  -9.9096    121.3473     25.8286   4.9502978604e+01   5.0922556340e+01    0.2304695    0.1719871  70.31 0.0007109136    1.398    0.284
       171 -10.8796    249.4084     24.0414   3.2575563375e+01   2.2543056492e+01    0.2572288    0.1311924 -60.94  0.001446191    1.788    0.441
       172 -11.7717     75.9323    219.7604   1.0802320526e+02   1.8649041914e+01    0.6098452    0.4890041   7.42  0.001927337    1.629    0.386
       173 -11.2735    227.6375     23.0401   3.4124706254e+01   2.6996649643e+01    0.3413745    0.1843067  81.51  0.001367799    1.849    0.459
       174  -9.4477     98.7432     23.7344   5.4100157098e+01   5.6171598880e+01    0.1679881    0.1520767  85.18 0.0008891888    1.377    0.274
       175 -10.6864    164.8435     21.8045   4.0727374972e+01   4.1159784186e+01    0.3964979    0.2002763  48.77  0.001616796    2.012    0.503
       176  -9.3246    179.6497     22.7114   3.9021695299e+01   3.7607221434e+01    0.1294017   0.09024291  42.45 0.0004063547    1.665    0.400
       177 -10.2739    141.6110     21.6146   4.4260384200e+01   4.6654532871e+01    0.2527329    0.2002421  42.01 0.0004678348    1.256    0.204
       178 -12.2948     67.8871    217.4870   1.0955402413e+02   2.0189876647e+01    0.7241733    0.5602453  58.41  0.003706784    1.179    0.152
       179  -9.3670    108.0140     15.2072   4.8693959881e+01   5.5012699585e+01    0.1803277    0.1664939  29.95 0.0003424825    1.085    0.078
       180  -8.9437      7.6651     22.6962   9.0602429069e+01   7.0386884076e+01     0.124087   0.06702714 -20.93 0.0005240656    1.664    0.399
       181  -9.9301      1.4355     21.7293   9.3677365313e+01   7.0991417952e+01    0.2049349   0.09944136 -53.60  0.001131215    2.111    0.526
       182 -10.0528    222.6929     20.0074   3.3907482181e+01   2.8367962939e+01    0.1675942    0.1359153 -58.37 0.0006296083    1.104    0.094
       183 -10.2344     51.1692     18.9918   6.7790523621e+01   6.5721621660e+01    0.2752878    0.1567685 -28.25 0.0009766304    1.731    0.422
       184 -11.0222    149.9483     18.2299   4.1888248492e+01   4.5033751215e+01    0.3193741     0.273482  67.21 0.0007613451    1.040    0.038
       185 -10.5707    247.9985    211.9016   7.0799734585e+01  -5.7058458271e+00    0.2896912     0.150341  21.41  0.001520709    2.055    0.513
       186 -10.9510     59.1209    209.3918   1.1065323607e+02   2.3064541688e+01    0.4806759    0.2410762  53.32  0.002303641    1.992    0.498
       187 -11.6012    236.0632    207.1535   7.2016031549e+01  -3.4062703545e+00    0.3662678    0.2412879  14.80  0.002127629    1.488    0.328
       188  -9.9907     60.8730     18.1441   6.3632949217e+01   6.4205519220e+01     0.174214    0.1535538  24.53 0.0003416129    1.199    0.166
       189  -9.9038    216.4579    192.4539   7.2842195437e+01   1.8407714588e+00    0.1355388     0.113723  -8.79 0.0001673875    1.010    0.010
       190  -9.3151      1.1964    184.7721   1.2150605906e+02   3.4454653147e+01     0.193676   0.06263559 -67.50 0.0008693092    2.466    0.595
       191 -10.7537    249.4141    183.5494   6.5253022820e+01  -1.6105915100e+00    0.2931723    0.1049928 -38.47  0.001254565    2.408    0.585
       192  -8.9351     77.5190     16.5052   5.7269842372e+01   6.1300684888e+01    0.1273717     0.108054  25.92   2.8831e-05    1.032    0.031
       193  -9.8470     72.8303     15.5179   5.8336634398e+01   6.2310177074e+01    0.1948458    0.1399778 -22.81 0.0008686247    1.466    0.318
       194 -10.9496     39.5631     16.0137   7.1392962439e+01   6.7846446871e+01    0.2093411    0.1503631  24.27 0.0002968074    1.248    0.199
       195 -10.4264     10.9466     15.5763   8.5708643168e+01   7.1245304598e+01    0.2459326    0.1644021  -6.53 0.0009245469    1.248    0.199
       196 -10.7394    238.4625    179.3060   6.6275156262e+01   6.6433403602e-01    0.3161919    0.1098026  34.06   0.00122237    3.419    0.708
       197  -9.4523      6.5298    168.4704   1.1905051137e+02   3.7845948940e+01    0.1239437    0.1003727 -87.61 0.0001089847    1.009    0.009
       198  -9.8572      6.9535    163.4965   1.1852415482e+02   3.8996658992e+01     0.157838    0.1230444  27.76   0.00048874    1.530    0.346
       199 -11.9536    216.6409    157.5516   6.5704246549e+01   7.9616528882e+00    0.5973243     0.309035 -49.41  0.002568526    2.176    0.540
       200 -10.0510     85.1519     14.1697   5.4047206380e+01   6.0007310767e+01    0.1586646    0.1499356  68.97  0.000688431    1.316    0.240
       201 -10.1726     25.9109    153.1151   1.1254711691e+02   4.0000103994e+01    0.3826296    0.1770949  71.00   0.00138393    3.285    0.696
       202 -11.3336      3.0522    152.9441   1.1857063413e+02   4.1793637958e+01    0.3437035    0.2294446 -31.25  0.001966946    1.911    0.477
       203 -11.1737     22.0120    141.9310   1.1225774491e+02   4.3092869039e+01    0.2218652    0.2120791  79.17 0.0003209771    1.154    0.134
       204 -14.0260    215.1663    132.1665   6.0415886656e+01   1.2847609504e+01     2.834228     1.420335  57.94   0.01143632    2.830    0.647
       205  -9.8020    100.2451    247.4835   1.0590523046e+02   9.8172894966e+00    0.2398414    0.1050923 -75.88 0.0008957511    4.494    0.777
       206  -9.6024      1.4376    134.0479   1.1716527956e+02   4.6453924907e+01    0.1888977   0.09925047 -71.66 0.0005123659    1.509    0.337
       207 -10.9193     30.3149    124.5609   1.0730012494e+02   4.6698646637e+01    0.5205071    0.2046724 -40.97  0.001493726    2.872    0.652
       208  -9.7534     23.9148    125.3605   1.0941685401e+02   4.7039500856e+01     0.221162    0.1606782 -77.75  0.000484051    1.282    0.220
       209 -10.4741     12.9253    125.2682   1.1277045266e+02   4.7873842208e+01    0.2232321    0.1507196 -80.72 0.0005787673    1.358    0.264
       210 -10.0121     75.3623    122.4919   9.2642008950e+01   4.1922122901e+01    0.3732502    0.1796265  44.47  0.001258166    2.374    0.579
       211 -10.0902      2.4095    142.2039   1.1772634938e+02   4.4423037087e+01    0.1864301    0.1000883 -87.25 0.0009563021    1.722    0.419
       212  -8.9602     57.9392    117.9758   9.7215177464e+01   4.5398637517e+01     0.170778      0.15086 -49.99 0.0004297523    1.020    0.019
       213  -8.5701     98.4842    117.5093   8.4352891878e+01   3.9361860403e+01    0.1547776      0.14245 -23.83 0.0008095399    1.066    0.062
       214 -10.5388     26.3966    115.9745   1.0714040959e+02   4.9148425425e+01    0.3603949    0.2091261 -22.86  0.001727859    2.202    0.546
       215  -9.1969      1.9780    116.0301   1.1493506597e+02   5.0777651219e+01    0.1513685     0.119884 -67.01 0.0003481677    1.010    0.010
       216 -10.1894     11.4314    114.9509   1.1181176743e+02   5.0487489886e+01    0.2100677    0.1903694 -18.33 0.0005970341    1.270    0.213
       217 -10.1847     32.0029    113.3291   1.0483511008e+02   4.9315198226e+01    0.1764453    0.1619471 -34.68 0.0003107605    1.126    0.112
       218  -9.2282     50.1674    111.7825   9.8463728704e+01   4.7841328924e+01    0.1936364    0.1448026 -38.60 0.0003819609    1.272    0.214
       219 -11.2017     20.6047    110.0781   1.0805896598e+02   5.1039345539e+01    0.4121504    0.1955056  40.98  0.001563439    2.536    0.606
       220  -9.7979    100.1834    109.1080   8.1680471189e+01   4.0994525005e+01     0.233933    0.1983065 -21.48  0.000638744    1.213    0.175
       221  -8.7518      1.2760    111.6718   1.1459725338e+02   5.1860986833e+01    0.1213848   0.08537144  76.52  0.000296913    1.591    0.372
       222 -11.0228      6.1608    108.0804   1.1252751270e+02   5.2460074505e+01    0.2851978    0.1813198 -69.33 0.0006536537    1.299    0.230
       223  -9.9748     88.0581    105.8596   8.4574715319e+01   4.3864448461e+01    0.2176012    0.2036582 -24.39 0.0003179307    1.012    0.012
       224 -10.0989     79.3875    103.7684   8.6817575058e+01   4.5762566539e+01    0.3089395    0.2336627 -10.88 0.0008178469    1.543    0.352
       225  -9.6421     16.4807    104.4431   1.0849989124e+02   5.2692794504e+01    0.1317378    0.1067518 -53.92 0.0001172349    1.033    0.032
