#   1 NUMBER                 Running object number                                     
#   2 MAG_AUTO               Kron-like elliptical aperture magnitude                    [mag]
#   3 X_IMAGE                Object position along x                                    [pixel]
#   4 Y_IMAGE                Object position along y                                    [pixel]
#   5 X_WORLD                Barycenter position along world x axis                     [deg]
#   6 Y_WORLD                Barycenter position along world y axis                     [deg]
#   7 A_WORLD                Profile RMS along major axis (world units)                 [deg]
#   8 B_WORLD                Profile RMS along minor axis (world units)                 [deg]
#   9 THETA_WORLD            Position angle (CCW/world-x)                               [deg]
#  10 FWHM_WORLD             FWHM assuming a gaussian core                              [deg]
#  11 ELONGATION             A_IMAGE/B_IMAGE                                           
#  12 ELLIPTICITY            1 - B_IMAGE/A_IMAGE                                       
         1 -15.5491    232.7027     78.9378   3.6802566688e+01   1.8801697482e+01     5.097374     2.792592 -31.61   0.02535022    2.118    0.528
         2 -10.0387    170.8299    121.5353   5.6695816588e+01   2.3739274999e+01     0.311541    0.1943679 -27.67  0.001228455    1.928    0.481
         3  -8.3457    195.4769    233.4786   7.4198301320e+01  -2.9074595275e+00    0.1331579     0.109211  -0.97   0.00017888    1.007    0.007
         4  -8.6415    236.2294    232.4238   6.6088472335e+01  -7.9803978225e+00    0.1542148      0.10702  31.83 0.0009476898    1.657    0.396
         5  -8.4511    226.4944    232.5294   6.7910883693e+01  -6.8202664273e+00    0.1270676   0.09853464  -8.18 0.0002648026    1.009    0.009
         6  -8.5857    230.6048    229.1733   6.6563049842e+01  -6.8002122784e+00     0.171976   0.09636091 -27.42 0.0006447361    1.575    0.365
         7  -8.4939    211.5141    228.4947   7.0103028011e+01  -4.2474613876e+00     0.130238    0.1065892  -5.86 0.0008103427    1.028    0.027
         8  -8.9668    219.1241    226.3937   6.8251477605e+01  -4.9032461107e+00    0.1650514    0.1115241  36.10 0.0009360976    1.698    0.411
         9  -9.1625    224.9531    222.1658   6.6395106758e+01  -4.9673370756e+00    0.1769526    0.1448391  50.56 0.0008877699    1.941    0.485
        10  -9.5687    211.1687    218.6466   6.8434504481e+01  -2.5360916146e+00    0.2448815    0.2116249 -64.74   0.00145806    1.815    0.449
        11  -8.1664    250.3031    213.6742   6.0326291195e+01  -6.7473646866e+00    0.1060126   0.09356532 -47.39 0.0007032136    1.642    0.391
        12 -11.3080    218.2493    209.6139   6.5414854113e+01  -1.9560857729e+00    0.5086641    0.2281684 -41.31   0.00233512    2.059    0.514
        13  -9.9881    225.8268    209.5316   6.3960649968e+01  -2.9780630376e+00    0.3036637    0.1566756 -42.64  0.001506487    1.854    0.461
        14  -8.8387    248.5042    208.3501   5.9685425216e+01  -5.6913651445e+00     0.192489    0.1095339  28.27  0.001079384    1.905    0.475
        15  -9.3661    139.5072    208.4830   8.2422955590e+01   1.0492320096e+01    0.1453524    0.1350058  13.75 0.0001942399    1.012    0.012
        16  -9.0987    150.5032    207.0063   7.9540053638e+01   9.0053909578e+00    0.1893235    0.1336588 -81.10 0.0008095369    2.454    0.593
        17  -9.8580    124.0340    206.2111   8.5821352261e+01   1.3513703382e+01    0.2014343    0.1760802  31.53            0    1.087    0.080
        18  -9.3555    236.8341    204.7285   6.1069316825e+01  -3.6299404012e+00     0.368194    0.2361922  59.42   0.00160782    3.963    0.748
        19  -9.1297    245.1969    203.3013   5.9342308533e+01  -4.4674760073e+00    0.2155831     0.157231 -56.13  0.001230507    2.038    0.509
        20  -9.9694    129.3093    204.0250   8.4148111387e+01   1.3143848377e+01    0.2086251    0.1954415 -32.19  0.001167426    1.095    0.087
        21  -9.0495    223.4249    203.2120   6.3248410839e+01  -1.5639009682e+00    0.1762511     0.114978 -45.00 0.0005415349    1.598    0.374
        22  -8.4102    236.6588    210.3421   6.2120805374e+01  -4.5349121370e+00    0.1116464    0.1018739 -66.42 0.0007048643    1.777    0.437
        23 -10.0682    230.4654    200.4901   6.1438361710e+01  -2.0641011900e+00    0.2899132    0.1232492  31.47  0.001297825    2.582    0.613
        24 -10.9388    225.0935    198.4729   6.2052264009e+01  -9.7049935213e-01    0.3426262    0.2368983  57.52  0.001648043    2.599    0.615
        25  -8.8366    210.4278    200.2547   6.5200827451e+01   8.2936985585e-01    0.1798943    0.1218385 -47.16 0.0006419066    1.596    0.374
        26  -9.5177    124.5161    200.0021   8.4653000589e+01   1.4841707846e+01    0.2239013    0.1465581 -52.99 0.0009678965    1.590    0.371
        27 -10.5963    144.3820    198.2038   7.9423835127e+01   1.1923382927e+01    0.2656707    0.1983973 -58.62  0.001301112    1.527    0.345
        28  -8.6078    243.5023    198.5336   5.8763902155e+01  -3.4668965512e+00    0.1278694    0.1015779 -20.62  0.000103646    1.014    0.014
        29  -9.0178    157.3216    198.3169   7.6351538422e+01   9.7149818356e+00    0.1535281    0.1096484  -9.08 0.0005687583    1.663    0.399
        30  -9.4374    138.4986    198.5343   8.0920505282e+01   1.2842168238e+01    0.1480789    0.1391625   9.81 3.862796e-05    1.007    0.007
        31  -8.8951    185.4164    194.1908   6.9214490116e+01   5.8861611311e+00    0.1988485    0.1334462 -53.32  0.000947949    1.735    0.424
        32 -10.8813    155.3306    190.5859   7.5360884222e+01   1.1719095952e+01    0.3630335    0.2442529 -81.65  0.001399671    2.961    0.662
        33  -8.8916    232.5080    191.5050   5.9387688282e+01  -7.9377209245e-01    0.1317133     0.108756 -22.04  0.000810392    1.033    0.032
        34  -9.8564    138.5053    191.4883   7.9630302324e+01   1.4423079570e+01    0.1497008    0.1422964   6.63 4.238166e-05    1.012    0.012
        35  -9.7689    130.5061    190.0333   8.1368486267e+01   1.6127484065e+01    0.2287827     0.149034 -52.07  0.001028755    1.580    0.367
        36 -10.2116    120.8043    188.7134   8.3611864593e+01   1.8083590590e+01    0.3382817    0.2018899 -54.63  0.001263151    1.732    0.423
        37  -9.0349    243.1864    187.2364   5.6723501687e+01  -1.5274329620e+00    0.1658256    0.1425751 -43.43  0.001067609    1.344    0.256
        38  -8.7444    229.5122    186.4835   5.8972369129e+01   5.1331118912e-01    0.1329831    0.1113967 -23.63 0.0001210132    1.041    0.039
        39 -10.1348    177.4420    184.7395   6.9111041239e+01   9.1425692873e+00     0.280834    0.1397877 -50.32  0.001129257    2.147    0.534
        40 -10.8920    162.6898    185.0045   7.2533367570e+01   1.1648392365e+01    0.2689253    0.1943758 -54.07   0.00099726    1.524    0.344
        41 -12.0152    163.1498    178.4944   7.1121500378e+01   1.2978243854e+01    0.4655981    0.3178063 -23.00  0.002110439    1.672    0.402
        42 -11.5285    158.0596    177.2813   7.2079711679e+01   1.4158273757e+01     0.424099    0.2515359 -34.75  0.001801531    1.779    0.438
        43 -10.8277    134.2444    184.4723   7.9378607188e+01   1.6768038632e+01    0.2957631    0.2097608 -47.58  0.001039449    1.418    0.295
        44  -9.5236     96.1110    183.7943   8.9284373036e+01   2.3306698545e+01     0.399608    0.1635095 -44.02  0.001380347    2.771    0.639
        45 -11.7898    151.8223    179.1741   7.3965739765e+01   1.4858814738e+01    0.5431204    0.2341835 -38.34   0.00191247    2.580    0.612
        46 -11.4669    145.8083    181.2546   7.5855459346e+01   1.5464977001e+01     0.501999    0.2848744 -68.31  0.001781493    3.020    0.669
        47 -11.0960    121.9763    181.5556   8.1988697395e+01   1.9583198195e+01    0.3836868     0.313309   0.80  0.001891714    1.377    0.274
        48 -11.7560    170.3289    177.7784   6.9313477986e+01   1.1851737092e+01    0.4345396    0.2780916 -15.03  0.001816337    2.121    0.528
        49 -10.0730    134.7954    177.4136   7.7867729123e+01   1.8313382372e+01    0.2165761    0.1460464  22.11  0.000944311    1.632    0.387
        50  -9.8943    108.7940    182.3489   8.5623606501e+01   2.1618282150e+01    0.2133735    0.2007051 -73.32  0.001144825    1.118    0.105
        51  -9.6432    100.9870    175.9747   8.6587717646e+01   2.4468510157e+01    0.2135832    0.2098995  57.54            0    1.034    0.033
        52 -11.8572    146.7904    162.7279   7.1799299136e+01   1.9520179394e+01    0.5511048    0.3314357 -23.55  0.002102449    2.324    0.570
        53 -11.8294    158.2855    170.8803   7.0708447362e+01   1.5535841465e+01     0.494915    0.2513168 -38.45  0.001935327    2.033    0.508
        54 -11.2650    159.4019    160.7677   6.8294327707e+01   1.7577316391e+01    0.4203453    0.2310904 -28.02  0.001559585    2.405    0.584
        55 -10.7177    142.8534    171.4498   7.4617745900e+01   1.8242465880e+01    0.3236814    0.1948386 -32.48  0.001320791    1.893    0.472
        56 -11.9157    138.5888    163.8594   7.4120820569e+01   2.0795116458e+01    0.4840903    0.3222075 -26.95  0.002055749    1.785    0.440
        57  -9.9147    118.5492    170.7466   8.0816534083e+01   2.2783429620e+01    0.3012577    0.1437749 -48.00  0.001130863    2.067    0.516
        58 -11.9199    147.9797    169.9852   7.3033393117e+01   1.7636600438e+01    0.6861116    0.2298438 -53.67  0.002038481    3.561    0.719
        59 -11.1032    180.0741    168.2589   6.5158811616e+01   1.2120460634e+01    0.2644262    0.1946858 -57.38  0.001046862    1.570    0.363
        60 -11.3103    165.0049    168.0150   6.8519756553e+01   1.4928994689e+01    0.3194197    0.2114536 -44.85  0.001311419    1.469    0.319
        61 -11.2995    128.8961    167.9527   7.7497513533e+01   2.1610138426e+01    0.4030573    0.2245046 -46.60  0.001637342    1.774    0.436
        62 -11.3070    167.8849    164.3487   6.7074042361e+01   1.5194180288e+01    0.4048909    0.2777165 -83.37  0.001548569    2.887    0.654
        63 -12.8699    170.5543    152.6537   6.3922890208e+01   1.7222328781e+01     0.727178    0.4274345 -39.65  0.003130577    1.648    0.393
        64  -9.3301    119.5134    163.9957   7.9197914363e+01   2.4255362094e+01    0.2449933    0.1516237 -50.14  0.001033391    1.598    0.374
        65 -10.6492    182.4483    162.7597   6.3479977394e+01   1.2840117751e+01      0.28941    0.1389876 -48.21  0.001136891    2.075    0.518
        66 -11.2641    153.2010    162.0796   7.0074809581e+01   1.8457641016e+01    0.4411421    0.2257618 -45.45  0.001737234    1.904    0.475
        67 -10.6090    152.7221    156.6430   6.9010533321e+01   1.9778364783e+01    0.3164394    0.1898806 -43.25 0.0009644115    1.625    0.384
        68 -12.2269    177.6449    146.0177   6.0873033216e+01   1.7264017345e+01    0.5149602    0.3178395 -40.71  0.002302794    1.538    0.350
        69  -8.7018    124.4739    161.4823   7.7335006786e+01   2.3967861302e+01     0.156552    0.1500895 -13.30 0.0001455867    1.021    0.021
        70  -9.6744    130.5139    158.4744   7.5082216465e+01   2.3573817072e+01    0.2913658    0.1371546 -39.89  0.001031272    2.303    0.566
        71 -11.1068    164.0738    157.6413   6.6511148777e+01   1.7379532577e+01    0.2708592    0.2123851 -54.69 0.0007948579    1.359    0.264
        72 -11.8955    158.0874    155.1643   6.7384631629e+01   1.9077155431e+01    0.6678586     0.328525 -30.30  0.002274225    2.824    0.646
        73 -11.6407    163.0927    151.3113   6.5343670329e+01   1.8959864252e+01    0.3967405    0.2985246 -38.61  0.001906089    1.284    0.221
        74  -8.6386    114.2994    158.3354   7.9460289874e+01   2.6572167208e+01    0.1629741    0.1204141 -18.85 0.0005472481    1.655    0.396
        75 -11.6600    171.1879    144.7061   6.2004301696e+01   1.8806113073e+01    0.4261226    0.2792287 -47.09  0.001693998    1.485    0.326
        76 -10.0446    137.8354    152.7032   7.1898496294e+01   2.3549819317e+01    0.2309495    0.1949819 -34.20   0.00102759    1.175    0.149
        77  -9.8633    151.5493    151.7705   6.8219242801e+01   2.1107822862e+01    0.3013442    0.1453382 -42.13  0.001124397    2.053    0.513
        78  -8.5384    117.3263    152.3236   7.7339021288e+01   2.7497914147e+01    0.1648161    0.1221822 -14.43 0.0005685957    1.690    0.408
        79 -10.9552    147.7686    149.8305   6.8722282038e+01   2.2286728168e+01    0.5065765    0.2322242 -28.76  0.001425928    4.119    0.757
        80  -8.6636    106.6525    151.6693   8.0215522838e+01   2.9573948633e+01    0.1670631    0.1208807 -16.26 0.0007049368    1.763    0.433
        81  -9.7639    122.8757    149.5041   7.5186120310e+01   2.7153411956e+01    0.3390303    0.1977402 -34.30  0.001320745    1.977    0.494
        82  -9.4160    142.8330    148.1818   6.9597132936e+01   2.3630440451e+01    0.2216512    0.1830816 -16.81 0.0007454012    1.324    0.245
        83 -10.3933    155.1809    145.0804   6.5819925726e+01   2.1895980899e+01    0.2481866    0.2085052 -14.56 0.0008236914    1.290    0.225
        84  -9.1563    117.5013    144.4716   7.5553175616e+01   2.9373774883e+01    0.2917343    0.1376105 -40.37 0.0007199404    2.286    0.563
        85 -10.6489    148.4152    142.7609   6.6948091572e+01   2.3763921375e+01    0.3727519    0.2630115 -22.38  0.001446713    1.708    0.414
        86  -9.9629    138.7492    143.0437   6.9473657729e+01   2.5618882215e+01    0.3013217    0.2154013 -29.37   0.00109593    1.537    0.349
        87 -11.9277    180.3737    139.8029   5.8890386855e+01   1.8029160874e+01    0.6248248    0.2927083 -59.00  0.002000418    3.531    0.717
        88 -11.3234    182.6015    135.0294   5.7340463007e+01   1.8572481695e+01    0.5406577    0.1401035 -42.57  0.001574014    3.662    0.727
        89 -11.6747    166.2154    140.7318   6.2225374642e+01   2.0646908374e+01    0.6098174    0.3557185 -16.12  0.002049796    3.295    0.697
        90 -11.2602    159.1397    140.4521   6.3807722136e+01   2.2127832019e+01    0.4501333     0.257921 -59.85  0.001724314    2.271    0.560
        91  -9.1095    124.3125    142.0172   7.3098934237e+01   2.8673708734e+01    0.2669523    0.1117361 -32.85 0.0007043392    4.225    0.763
        92 -12.0005    187.6098    138.4931   5.7089118485e+01   1.6880785517e+01    0.4931879     0.227341 -34.06  0.001830786    2.433    0.589
        93 -11.9454    172.8262    164.8115   6.6044785915e+01   1.4176882502e+01    0.4968755    0.3466727  80.07  0.001965468    2.803    0.643
        94 -11.0382    164.3483    134.4185   6.1189326799e+01   2.2380827139e+01    0.5325091    0.3169793 -13.63  0.001774345    3.396    0.706
        95  -9.9570    149.6157    135.1328   6.4864642243e+01   2.5231560288e+01    0.3131775    0.1889852 -31.77  0.001260442    1.891    0.471
        96  -9.2751    155.3936    134.7986   6.3379066422e+01   2.4126536169e+01    0.2286495    0.1411674 -34.59 0.0008856247    1.716    0.417
        97  -9.1058    121.6701    133.6983   7.1881570526e+01   3.1153665183e+01    0.1624777    0.1236709  -7.88 0.0007033219    1.648    0.393
        98  -9.9707    146.6120    131.0416   6.4633255599e+01   2.6754399628e+01     0.447328    0.2689357 -17.99  0.001567323    2.854    0.650
        99  -9.0710    103.5176    131.5072   7.6616907852e+01   3.5089994092e+01    0.1569225     0.149925 -19.90 0.0008103404    1.015    0.015
       100  -8.4692     92.3255    130.3306   7.9754168686e+01   3.7340995938e+01    0.1642654    0.1180005 -18.52 0.0007050716    1.705    0.414
       101  -9.6910    153.4837    128.9678   6.2447669413e+01   2.5791471300e+01    0.2426523    0.1495102 -43.52  0.001029386    1.584    0.368
       102 -11.3906    181.8015    125.4496   5.5307230887e+01   2.0678608628e+01    0.5018253    0.1804353 -40.00  0.001706644    2.741    0.635
       103  -9.0357    122.0052    126.7654   7.0106630127e+01   3.2705811523e+01    0.2390625     0.170915 -25.46 0.0007687789    1.625    0.384
       104  -9.4564    221.0270    234.2372   6.9242347870e+01  -6.4080605195e+00    0.2658663    0.1491439  33.99   0.00144023    1.877    0.467
       105  -8.4901    140.3515    121.3068   6.3827951306e+01   3.0196760542e+01    0.1616044     0.123345   0.54 0.0007042569    1.711    0.415
       106  -8.4074    146.3056    111.3487   5.9818103612e+01   3.1061497743e+01    0.1580897    0.1219324  -2.68 0.0003600868    1.701    0.412
       107  -9.1168    112.6845     94.6475   6.4298172671e+01   4.1626836139e+01    0.1591699    0.1182337  -2.08 0.0007046417    1.736    0.424
       108  -9.1862    157.4993    119.4936   5.9190947287e+01   2.6970884452e+01    0.3224979    0.1478924 -43.99  0.001200655    2.130    0.530
       109  -9.1635    137.2367    125.7095   6.5726475239e+01   2.9869255286e+01    0.2506416    0.1216473 -36.14 0.0008816314    2.345    0.574
       110  -8.8652    132.3741    124.8765   6.6803308614e+01   3.1052272025e+01    0.2345158    0.1410585 -34.81 0.0009397269    1.814    0.449
       111  -9.4596    176.2894    124.3453   5.6195240883e+01   2.2032376201e+01    0.1513535    0.1172259  -7.76 0.0007024906    1.656    0.396
       112  -8.3685    140.3185    116.3557   6.2588746257e+01   3.1277248257e+01    0.1624311    0.1228301  -4.36 0.0007045738    1.752    0.429
