#   1 NUMBER                 Running object number                                     
#   2 MAG_AUTO               Kron-like elliptical aperture magnitude                    [mag]
#   3 X_IMAGE                Object position along x                                    [pixel]
#   4 Y_IMAGE                Object position along y                                    [pixel]
#   5 X_WORLD                Barycenter position along world x axis                     [deg]
#   6 Y_WORLD                Barycenter position along world y axis                     [deg]
#   7 A_WORLD                Profile RMS along major axis (world units)                 [deg]
#   8 B_WORLD                Profile RMS along minor axis (world units)                 [deg]
#   9 THETA_WORLD            Position angle (CCW/world-x)                               [deg]
#  10 FWHM_WORLD             FWHM assuming a gaussian core                              [deg]
#  11 ELONGATION             A_IMAGE/B_IMAGE                                           
#  12 ELLIPTICITY            1 - B_IMAGE/A_IMAGE                                       
         1 -10.4842     81.4029     39.1745   9.8824543086e+01   5.8628837335e+01     0.566461    0.4057886 -20.33  0.003046655    1.371    0.271
         2  -9.5274     39.4908      5.8277   1.0074063162e+02   7.0064786917e+01    0.6211022    0.2394602 -32.24  0.003002366    2.361    0.576
         3 -10.5720     39.0751     29.5613   1.1199023368e+02   6.6502341447e+01    0.8320469    0.4521821 -58.51  0.003894307    2.895    0.655
         4  -9.2921     35.9107     19.8947   1.0932939887e+02   6.8461812064e+01    0.3337158    0.2154327  -5.76  0.001862311    1.578    0.366
         5 -11.6465     44.8410     21.5362   1.0590890773e+02   6.7115520388e+01     1.132356    0.8918239 -69.34  0.006455454    2.473    0.596
         6 -12.0193     82.4234      6.7497   8.4282006263e+01   6.2694832414e+01     1.958133     1.010886  11.61  0.008520135    2.608    0.617
         7 -10.5546    128.1690     17.8075   7.6948775520e+01   5.1166965509e+01    0.5960943    0.3881811  44.29  0.002230465    1.390    0.280
         8 -14.1224    162.4847     11.2197   6.8407466887e+01   4.2948178496e+01     4.125933     1.991167  64.62   0.01784806    1.793    0.442
         9 -11.5493    109.0718      4.2987   7.5909610485e+01   5.7082601430e+01     1.694324    0.4255982  61.20  0.005573845    3.603    0.722
        10 -10.5097    116.7074     18.0245   7.9665331901e+01   5.3938797131e+01    0.8419803    0.3547373 -37.85  0.003373333    2.665    0.625
        11 -10.0521    111.2445     15.8915   8.0157894726e+01   5.5457438621e+01    0.5401065    0.2450375  39.38  0.002246775    2.154    0.536
        12  -9.7824    117.0397     13.9667   7.7975101003e+01   5.4284844243e+01    0.4014168    0.2717953  30.36  0.001400377    1.460    0.315
        13  -9.5821     94.0089     17.7741   8.5690118733e+01   5.9099605720e+01    0.4561465      0.37599 -37.01  0.002063357    1.415    0.293
        14  -9.1671     64.5054     16.6645   9.5323089130e+01   6.4877241847e+01    0.3029384     0.210803 -37.11  0.001167256    1.595    0.373
        15 -10.3379    248.7971     15.1807   5.9978214082e+01   2.0687666202e+01    0.4332859     0.294594 -21.16  0.002425269    1.728    0.421
        16 -10.5689    249.2492      5.4943   5.7778675590e+01   2.1628310277e+01    0.6825229    0.3169398 -34.31   0.00340674    1.983    0.496
        17 -10.1662     70.9525      5.2925   8.7411421865e+01   6.5074118812e+01    0.5936515    0.3043132  38.37  0.002284193    1.739    0.425
        18 -10.1517    103.5148     11.9483   8.0512159765e+01   5.7644836675e+01    0.4912939     0.443914  23.63  0.002604873    1.062    0.058
        19  -8.1977     70.0348     13.9525   9.1938861562e+01   6.4259599086e+01    0.2432495    0.2187581 -78.80   0.00150644    1.791    0.442
        20  -8.3263     20.6082     13.7972   1.1428969466e+02   7.0998029304e+01      0.37618    0.1370737 -38.53  0.001862882    2.226    0.551
        21 -10.8341    131.5878      3.2972   7.0816198438e+01   5.1674143064e+01    0.9016441    0.3693164  58.78  0.003328043    1.983    0.496
        22  -8.4459     59.6295      9.7877   9.3921135705e+01   6.6559805119e+01    0.2120533    0.1682504  24.56  0.001362625    1.166    0.142
        23  -7.8241     56.3600      8.3202   9.4515778871e+01   6.7270908081e+01    0.2068269    0.1300951  21.17  0.001174997    1.511    0.338
        24  -7.8767     53.6876      7.2940   9.5108960599e+01   6.7820086656e+01    0.1755825    0.1641985  -7.48 0.0006898495    1.381    0.276
        25 -11.0100    120.8278      3.8059   7.3117529235e+01   5.4307007474e+01    0.7967005    0.5195869  73.31  0.003180301    1.630    0.386
        26  -9.2186    229.6116      5.9396   5.9397670114e+01   2.6173107300e+01    0.2696573    0.1816366  50.53  0.001470222    1.704    0.413
        27 -10.2806    215.1676      3.8943   6.0144811323e+01   2.9925824770e+01    0.5040781    0.3280554  30.93  0.002521626    2.172    0.540
        28  -8.2035     48.9632      6.4898   9.6732226642e+01   6.8642733127e+01    0.1743401    0.1063387  32.58 0.0006377583    1.553    0.356
        29  -9.6930     61.3467      1.9200   8.9240773947e+01   6.7157777681e+01    0.5740741     0.215952  44.24  0.002636116    2.394    0.582
        30  -8.7261     52.1361      2.1388   9.3071638749e+01   6.8666890574e+01    0.2978317    0.1825671  23.56  0.001495503    1.499    0.333
        31  -8.4049     26.1294      2.9071   1.0595951132e+02   7.2081903164e+01     0.167906    0.1373081 -17.43  0.001226968    1.217    0.178
        32  -8.3955     16.9056      1.6894   1.1041553270e+02   7.3191860683e+01    0.1732098    0.1404511  23.57  0.001082704    1.557    0.358
        33  -7.7279    204.4514     76.5256   8.0975533060e+01   2.3252432113e+01    0.1486715    0.1460638 -66.53 0.0001868551    1.007    0.007
        34 -10.0891     74.0216     68.3636   1.1189279094e+02   5.4501727573e+01    0.4061216    0.3626322 -30.73  0.002066043    1.023    0.022
        35  -7.5503     37.6448     72.6898   1.2636228232e+02   5.8117047980e+01    0.1347606   0.08264957 -31.78 0.0005470752    1.729    0.422
        36  -8.1154     34.7476     68.3905   1.2638007159e+02   5.9316609660e+01    0.1571896    0.1155272  -2.85 0.0008280418    1.591    0.372
        37  -9.4412     48.2719     61.7805   1.1937568589e+02   5.9330360431e+01    0.4416701    0.2814407  13.96  0.002363881    1.870    0.465
        38  -7.8764    136.2961     77.3416   9.5719616034e+01   4.0273172462e+01     0.160548    0.1220846   9.05 0.0007032119    1.662    0.398
        39  -8.5132    199.0239     54.5197   7.5784693068e+01   2.7987656923e+01    0.3980145    0.2151405  40.88  0.001586156    2.198    0.545
        40  -8.0703      9.7732     55.5837   1.3312268143e+02   6.3844796929e+01    0.1439026    0.1044359  32.93 0.0009571012    1.737    0.424
        41  -7.7146     38.4955     53.5146   1.2075915780e+02   6.2067439768e+01    0.1273312    0.1044437 -35.27  0.000810421    1.019    0.019
        42  -8.2282     90.3098     52.3324   1.0079875676e+02   5.4755469203e+01    0.1477934    0.1059578   0.89 0.0007042372    1.672    0.402
        43  -8.5121     66.0153     51.6889   1.0923325266e+02   5.8993975456e+01    0.2649599    0.1769133 -69.95  0.001185477    2.729    0.634
        44  -7.8459     34.2175     52.3843   1.2217817328e+02   6.2710191228e+01    0.1579669    0.1111394  36.08 0.0006332372    1.721    0.419
        45  -9.7381     82.2143     47.1307   1.0163295418e+02   5.7155623359e+01    0.4645577    0.3282542 -31.27  0.002350121    1.351    0.260
        46 -10.3805    183.6595    246.2600   1.2068106394e+02  -1.6682159890e-01     0.407912    0.1270229  40.54  0.001771968    2.449    0.592
        47 -10.2936      3.4980     40.1174   1.3206521119e+02   6.7320896668e+01    0.4085454    0.3777986  87.17  0.002193132    1.410    0.291
        48  -9.4281    108.4416     39.1827   9.0170945065e+01   5.3144562482e+01    0.3510254    0.2421984  -6.85  0.001680345    1.684    0.406
        49 -10.6306    172.2072    242.2342   1.2223689300e+02   2.2358449273e+00    0.4039406    0.1367764  44.48  0.001776024    2.360    0.576
        50 -10.0558     50.2509     35.1551   1.0932401693e+02   6.4178003810e+01    0.6697914    0.4261255 -50.04  0.003670136    1.751    0.429
        51 -10.3946    159.7534    240.6496   1.2434584640e+02   4.5151218255e+00    0.4216249    0.1490361  48.35  0.001808623    2.562    0.610
        52  -9.9832    204.9512    226.0593   1.1376788850e+02  -1.0744911420e+00    0.3408976    0.1795185  55.32  0.001535111    2.882    0.653
        53  -9.6373     66.5588     30.0133   1.0052717436e+02   6.2630023375e+01    0.5085844    0.2491502 -35.48  0.002242888    1.935    0.483
        54  -9.0747    124.0131    206.0062   1.2678265737e+02   1.6243693813e+01    0.1881172    0.1558386  53.27  0.001156392    1.016    0.016
        55  -9.2877     12.0259     34.0072   1.2635013419e+02   6.8051177343e+01    0.4005456    0.2039058 -63.05  0.002203957    2.004    0.501
        56  -8.1887     27.0718     35.3283   1.1972464246e+02   6.6672878000e+01    0.1654347    0.1397003 -20.78  0.001157037    1.102    0.093
        57  -8.5996    239.2435    202.9817   1.0356673124e+02  -3.8228226134e+00    0.1537544    0.0990888 -25.95 0.0008020399    1.586    0.370
        58 -11.5461     10.8521    139.8928   1.4482243305e+02   4.5108212282e+01    0.5807045    0.3444496 -84.87  0.003580518    1.381    0.276
        59 -10.2176      3.6043    139.2353   1.4651317683e+02   4.5767719953e+01    0.3729254    0.1967722 -64.23  0.002252986    1.626    0.385
        60 -10.2821    225.1888     28.9932   6.5490213564e+01   2.4695699322e+01    0.4490838    0.3384943  52.22  0.001661319    1.436    0.304
        61  -9.4872     40.9939    141.9847   1.3750599128e+02   4.1947070253e+01    0.2727761    0.2015231  56.74  0.001681852    1.348    0.258
        62  -8.9098    106.4067     26.8222   8.5882181819e+01   5.5293010714e+01    0.4299419    0.2035221 -18.61  0.001721447    2.549    0.608
        63  -9.1500    103.0141     25.9622   8.6495204498e+01   5.6156758242e+01    0.4431786    0.2672095  27.98  0.002069379    1.783    0.439
        64  -8.7566     89.9976     28.4485   9.1505021930e+01   5.8578038323e+01    0.2744095    0.1834149  -7.20  0.001116791    1.649    0.394
        65  -9.6352     77.2581     27.5401   9.5462632011e+01   6.1151045598e+01    0.5985885    0.2914245  34.00  0.002697001    2.111    0.526
        66  -8.9753     10.5553     25.8848   1.2437113793e+02   6.9667544573e+01    0.3777433    0.1374142 -49.46  0.001952825    2.008    0.502
        67  -9.1061    125.3288     28.8507   8.1761550583e+01   5.0598157803e+01    0.3853214    0.3077725 -34.35  0.001748947    1.358    0.264
        68  -8.1688    250.2925     26.3504   6.2392474015e+01   1.9068272624e+01    0.1226528   0.09978607  27.25 0.0007029824    1.674    0.403
        69  -9.1521     68.8854     36.8239   1.0246991244e+02   6.1167967838e+01     0.384279    0.3335246  61.10  0.002295611    1.625    0.385
        70 -10.3291     11.6110    129.0011   1.4360620134e+02   4.7478673484e+01     0.449142    0.1523708 -67.20  0.002146269    2.230    0.552
        71 -11.1812     15.0748    121.8838   1.4193911508e+02   4.8831345077e+01     0.786111    0.3206233 -88.69  0.003433896    2.832    0.647
        72 -10.8861     10.3793    117.1515   1.4269060424e+02   5.0225348780e+01    0.4746658    0.3269124   9.75  0.003059758    1.986    0.496
        73 -12.5906    240.9514    133.4016   8.8917637704e+01   5.7858590058e+00     1.534465    0.9753773  50.63  0.005335281    1.703    0.413
        74  -8.4576     97.8306     27.2877   8.8568499614e+01   5.7109727342e+01    0.4227131    0.2590072  -1.36  0.001812804    2.069    0.517
        75 -10.1682     16.8072    104.1528   1.3924031684e+02   5.2729510240e+01    0.3266271    0.2941389   3.08   0.00236816    1.405    0.288
        76  -9.5635     47.4479     98.2391   1.2865985911e+02   5.1391518446e+01     0.304306    0.1594065 -53.17  0.001361189    1.645    0.392
        77  -9.3298     30.0234    102.2305   1.3491176785e+02   5.2149686971e+01    0.3645734    0.1712842 -41.67  0.001722836    2.372    0.578
        78  -7.7293     76.6657     96.3342   1.1883879094e+02   4.8046614205e+01    0.1435386    0.1092582  80.43 0.0003126468    1.737    0.424
        79  -7.7728      8.3107     17.8499   1.2257929556e+02   7.1253419888e+01     0.208575    0.0935875 -60.25  0.001055579    2.588    0.614
        80  -9.1568      2.2792     89.5660   1.4174432253e+02   5.6865431857e+01    0.4394628    0.1883129 -73.32   0.00231317    1.858    0.462
        81  -7.6012     82.4944     89.5193   1.1520917431e+02   4.8654666451e+01    0.1426438    0.1324337 -34.53 0.0008100822    1.036    0.035
        82  -9.2452     35.3998     79.7774   1.2882710708e+02   5.6765313794e+01    0.4653234    0.2045544 -63.88  0.002150892    2.068    0.516
        83  -7.3386     13.2715     15.3414   1.1889386805e+02   7.1344196469e+01    0.1198986   0.06386697 -28.49 0.0005995136    1.610    0.379
        84 -11.1734     41.4450     83.2868   1.2748524160e+02   5.5407704424e+01    0.6120542    0.4771422 -40.15  0.003199682    1.211    0.174
        85 -11.1631     45.8769     81.8686   1.2560932571e+02   5.5268011139e+01    0.8965979    0.4511291 -56.67  0.004385542    1.702    0.412
        86  -9.7272     18.9907     87.6043   1.3601272232e+02   5.6317270147e+01     0.348315    0.1133466 -62.46   0.00155808    2.272    0.560
        87  -8.0232    100.6738     83.3251   1.0770923132e+02   4.6771896453e+01     0.148285    0.1194356  89.37 0.0007049288    1.694    0.410
        88  -9.0989    227.6965     78.7130   7.7840474535e+01   1.7239889371e+01    0.3848142    0.2840379  10.11  0.001642929    1.806    0.446
        89  -8.3566    111.3088     46.1649   9.1975730062e+01   5.1445616411e+01      0.26677    0.1869673  37.29  0.001300771    1.383    0.277
        90  -9.2525     52.6404     80.2086   1.2282729858e+02   5.4880641596e+01    0.2153495    0.1962189 -15.75  0.001364908    1.154    0.134
        91 -10.0602     24.2896     65.2376   1.2961057923e+02   6.0860703186e+01    0.6676531    0.2348074 -52.86  0.003099926    2.116    0.527
        92  -9.3891     16.3319     63.5726   1.3230709359e+02   6.1768625043e+01    0.7116824    0.1725457 -65.96  0.002535932    3.933    0.746
        93 -10.7763      4.2009     76.4209   1.3919419018e+02   5.9662806111e+01    0.6205444     0.400081  51.81  0.003548011    1.961    0.490
        94  -9.6941     13.3000     77.2959   1.3616045038e+02   5.8975408756e+01    0.3451085    0.2552034   0.73  0.001644857    1.676    0.403
        95 -11.0464     13.2380     71.5735   1.3512103839e+02   6.0232062073e+01     0.735626     0.531666  39.16  0.004853681    1.713    0.416
