#   1 NUMBER                 Running object number                                     
#   2 MAG_AUTO               Kron-like elliptical aperture magnitude                    [mag]
#   3 X_IMAGE                Object position along x                                    [pixel]
#   4 Y_IMAGE                Object position along y                                    [pixel]
#   5 X_WORLD                Barycenter position along world x axis                     [deg]
#   6 Y_WORLD                Barycenter position along world y axis                     [deg]
#   7 A_WORLD                Profile RMS along major axis (world units)                 [deg]
#   8 B_WORLD                Profile RMS along minor axis (world units)                 [deg]
#   9 THETA_WORLD            Position angle (CCW/world-x)                               [deg]
#  10 FWHM_WORLD             FWHM assuming a gaussian core                              [deg]
#  11 ELONGATION             A_IMAGE/B_IMAGE                                           
#  12 ELLIPTICITY            1 - B_IMAGE/A_IMAGE                                       
         1 -11.7662    216.2593     46.1968   2.1857653022e+01   2.6961499339e+01    0.9407445    0.7943434 -13.69  0.006130173    1.458    0.314
         2 -11.4209    235.2150     32.2651   1.7223647975e+01   2.5081740611e+01    0.7032421    0.4790391 -43.22  0.003287407    1.092    0.084
         3  -8.9427    116.0010     11.9889   2.2484591878e+01   5.4839289884e+01    0.2826083    0.2121523  -1.71  0.001459426    1.705    0.414
         4  -9.9665    120.1470      9.2682   2.0768010676e+01   5.4030824036e+01    0.4195262    0.3766557 -85.11  0.001666325    1.030    0.029
         5  -8.8463      8.5074      9.4942   7.0399020862e+01   7.8897492474e+01    0.1274436    0.1117073 -20.32 -2.796016e-05    1.031    0.030
         6  -7.9116     98.6762      4.9546   2.2164277461e+01   6.0085409522e+01    0.1864564    0.1669623 -53.17 0.0003718048    1.128    0.113
         7  -8.9811     43.6175    237.6061   9.3258559807e+01   1.8775264014e+01    0.2075371    0.1718782  22.66 0.0002089327    1.250    0.200
         8  -8.6382    237.1881    249.8449   5.7433093036e+01  -3.2222403965e+00    0.1365382   0.07973158  -4.24  0.000484195    1.322    0.243
         9 -10.0562     93.1758    250.2322   8.3410527261e+01   1.1355365343e+01    0.2349939    0.1436584  19.67   0.00145808    1.456    0.313
        10  -7.6792     61.4701    250.4863   9.0110986670e+01   1.4676853266e+01    0.1165638   0.08715682  38.03 0.0001886929    1.019    0.019
        11  -7.4613     57.7846    250.6440   9.0902982776e+01   1.5026155210e+01    0.2264397   0.09446236  24.20 0.0003990572    2.060    0.515
        12  -8.6438     57.3079    247.6805   9.0830940000e+01   1.5584192392e+01    0.1922587    0.1012481  89.69 0.0009401475    2.522    0.604
        13 -10.0981     40.7175    246.4941   9.4333656522e+01   1.7444987170e+01    0.6621408     0.329058  63.94   0.00377287    2.063    0.515
        14 -13.0710      8.5426    208.4943   1.0021066806e+02   2.7877770901e+01     1.996171     1.182639  50.27   0.01182746    1.303    0.233
        15 -13.8331     32.8360    184.6497   9.2789341392e+01   3.1071081653e+01     8.361196     2.315549  57.38   0.02638422    4.253    0.765
        16  -7.8281    103.4669    235.0089   7.9856488681e+01   1.2696685285e+01    0.1512048     0.120141 -62.27 0.0005414985    1.577    0.366
        17 -11.3984      4.3748    249.3820   1.0210783907e+02   2.0180963140e+01    0.8548232    0.2720074  23.75  0.004164758    2.650    0.623
        18  -8.9316     49.2508    238.3592   9.2048750353e+01   1.8069477762e+01    0.2450029    0.1452814 -84.41  0.001476528    2.012    0.503
        19  -9.5689    124.3561    231.0160   7.5000601538e+01   1.0900631592e+01    0.2125688     0.199965 -38.08  0.001585179    1.295    0.228
        20 -11.5585     23.2029    194.2214   9.5938861168e+01   2.9766570002e+01    0.6558532    0.4784202   9.68  0.001741781    1.623    0.384
        21 -12.1145     52.6337    229.1549   9.0733065187e+01   1.9447166884e+01     1.277033    0.6613227  43.90  0.007131327    1.529    0.346
        22  -8.9538    117.8738    240.1378   7.7335570455e+01   1.0198696039e+01    0.1791912    0.1451236  23.88 0.0002795341    1.024    0.024
        23  -9.7847     40.0887    211.3794   9.2606202009e+01   2.4332405632e+01    0.3460281    0.2157042  53.15  0.001306694    1.370    0.270
        24  -8.4996    247.6781    239.6604   5.4579152931e+01  -3.0660302141e+00    0.1026199    0.0530077  -6.41 0.0007050543    1.719    0.418
        25 -10.3263     14.9765    246.9942   9.9841488314e+01   1.9717842864e+01    0.2579859    0.1781245  42.24 0.0003503416    1.050    0.048
        26  -7.2574     80.4920    202.5447   8.1856972492e+01   2.1579772354e+01    0.1308628    0.1138433  36.29 0.0001224603    1.026    0.026
        27  -8.5930     67.3005    191.6768   8.4096242107e+01   2.5563373912e+01    0.2213637    0.1736591  64.29 0.0005970363    1.257    0.205
        28  -9.5272    131.4900    189.0265   6.7922430566e+01   1.7377743715e+01    0.2253984    0.2054126   5.69 0.0003389519    1.040    0.038
        29 -10.2856     10.1088    181.3024   9.8874512952e+01   3.3937505029e+01    0.4852377     0.266008  36.54  0.002542492    1.535    0.348
        30  -8.8786     14.7758    188.5865   9.7908731325e+01   3.1822851955e+01    0.3570772   0.04727383  31.47  0.001213156    3.638    0.725
        31 -10.2827     14.7964    184.5105   9.7725894330e+01   3.2781560806e+01    0.4539414    0.2832533 -41.31  0.002325601    2.219    0.549
        32  -9.9676      3.6562    178.8344   1.0056420223e+02   3.5034459201e+01    0.4993655    0.2407744  42.31  0.002507856    1.658    0.397
        33 -10.9627      9.2223    173.6105   9.8811990033e+01   3.5877055797e+01    0.6489917    0.4822174  34.20  0.002218005    1.269    0.212
        34  -8.8221     74.9455    176.0261   8.0288657063e+01   2.8162443482e+01     0.201053    0.1832157  46.41            0    1.021    0.021
        35 -13.7220      7.8876    236.6009   1.0109789731e+02   2.2243877755e+01     2.436885     1.192459  18.69  0.004795536    2.079    0.519
        36  -9.9194     53.7286    170.4187   8.5652574523e+01   3.2221768383e+01    0.4474988    0.2941704 -25.85   0.00162897    2.243    0.554
        37  -9.9430     59.5892    165.5718   8.3400152608e+01   3.2698247817e+01    0.3695609    0.2838133  37.34  0.000683581    1.211    0.174
        38  -7.4862    110.6073    167.7805   6.9586976648e+01   2.4849235248e+01    0.1864021    0.1366005 -71.24 0.0009392638    1.610    0.379
        39  -7.8650    218.7482    165.7763   4.7279688446e+01   9.0340735401e+00    0.1425772     0.123555 -32.65 0.0004249726    1.294    0.227
        40  -7.4631    148.7091    235.6559   7.0625365898e+01   7.3451787179e+00    0.1154824   0.07565954  -6.50 0.0007026531    1.656    0.396
        41 -10.4327     28.7613    163.2317   9.2442527534e+01   3.6766383009e+01    0.7190272    0.2328625  59.88  0.002350516    3.611    0.723
        42  -8.9412     94.1494    162.1754   7.3044164970e+01   2.8659027672e+01    0.4259956     0.266089  83.51  0.001774696    2.439    0.590
        43  -7.6968    137.2224    186.8760   6.6306143003e+01   1.6962112371e+01    0.1801117    0.1422174  -2.23 0.0005109074    1.337    0.252
        44 -10.8498     51.7578    120.3506   7.9606914560e+01   4.5668102978e+01     0.713097    0.4248688  13.32            0    2.207    0.547
        45 -11.3302     57.6292    131.2778   7.9319320031e+01   4.1893992665e+01     1.295811    0.6028684 -88.40  0.004167437    3.393    0.705
        46 -10.2272     70.7336    157.2325   7.9017743659e+01   3.3297220590e+01     0.442692    0.3041112 -60.18 0.0003838941    1.497    0.332
        47 -11.9708     68.2290    144.9567   7.7977545556e+01   3.6781810039e+01     1.193811    0.7321092  71.75  0.003960765    2.007    0.502
        48  -8.4270    240.7507    159.0017   4.2897442783e+01   7.2075343995e+00    0.1497664   0.07615577 -33.25   0.00047097    1.550    0.355
        49  -7.5164     40.0358    159.4592   8.8656357591e+01   3.6569762412e+01    0.1964077    0.1348354  26.30 0.0005406496    1.469    0.319
        50  -9.1131     22.0514    156.0366   9.3993807305e+01   3.9258636304e+01    0.3994684    0.2056586  61.20  0.001694949    1.829    0.453
        51 -11.4806     57.1771    152.6368   8.2544291079e+01   3.6293201984e+01    0.5069453    0.3441194 -34.67  0.001243914    1.925    0.481
        52 -10.5224     78.7811    151.1389   7.5701004008e+01   3.3660976759e+01    0.6111025    0.4105241 -22.03   0.00190797    2.228    0.551
        53  -7.8552     84.8950    151.8846   7.4011728596e+01   3.2549902243e+01    0.2070594    0.1940832 -11.88            0    1.205    0.170
        54  -9.1966     49.4293    150.9855   8.4789631123e+01   3.7693803651e+01    0.3343995    0.1905885  64.12   0.00121243    1.891    0.471
        55  -8.9701    144.9624    144.4794   5.6909551091e+01   2.4094654462e+01    0.3804123    0.2110067 -38.56  0.001105862    1.846    0.458
        56  -8.7083     95.0857    138.7869   6.8687847945e+01   3.4133021052e+01     0.417376    0.2977097  -3.07  0.001806984    2.108    0.526
        57 -10.3136     82.1266    137.2291   7.2309652510e+01   3.6660663245e+01    0.3017269    0.2811572 -42.95 0.0005076937    1.165    0.142
        58  -7.7412     40.3201    137.6923   8.6213450311e+01   4.2319438527e+01    0.1601779   0.09778275  59.85 0.0003294124    1.639    0.390
        59 -10.3865     65.6116    131.3508   7.6608935370e+01   4.0739298456e+01    0.5127113    0.3740036 -43.88  0.002246195    1.539    0.350
        60  -8.8312     30.5023    133.8889   8.9220079005e+01   4.4407943846e+01     0.264689    0.2220689 -10.93 6.979802e-05    1.474    0.322
        61  -8.2592    245.8259    131.8456   3.7222311408e+01   1.0234356465e+01    0.1594394    0.1135457 -42.32  0.001037424    1.345    0.257
        62  -7.7728    106.9935    129.5354   6.3356882501e+01   3.4278709396e+01    0.2279493    0.1498942  34.62  0.000706192    1.581    0.368
        63  -7.3729     63.3172    122.2769   7.5772639525e+01   4.3510132006e+01    0.1496846    0.1191846 -26.41 0.0002124379    1.571    0.363
        64  -8.0284    104.9800    118.6420   6.1480680580e+01   3.7266042158e+01    0.2086383    0.1877357  41.76 0.0003356268    1.137    0.121
        65  -7.4540    228.9999    113.5180   3.5660015560e+01   1.5231197941e+01    0.1414192    0.1017388 -75.00 -3.247506e-05    2.211    0.548
        66  -9.1482      2.8789    110.9899   9.7707644002e+01   5.2949160800e+01    0.4634126    0.1440138  58.02  0.001535309    3.383    0.704
        67  -9.1107     51.7372    104.8264   7.6717663084e+01   4.9943805933e+01    0.3701192    0.1344247 -67.78  0.001197192    2.829    0.646
        68  -7.4292     30.3257    101.6651   8.5067887947e+01   5.3432563855e+01    0.1634344    0.1015679  62.23 0.0007051416    1.717    0.417
        69  -7.9866    197.2414     87.7824   3.4112234736e+01   2.4675244676e+01    0.1641636    0.1438334 -16.71 0.0002718157    1.256    0.204
        70  -7.4122    130.9696     88.0121   4.6384211185e+01   3.8719194687e+01     0.179802    0.1709551  84.95            0    1.062    0.058
        71  -7.4326    210.2646     84.9415   3.1722412861e+01   2.2659252418e+01    0.1575005   0.09414917 -38.68 0.0001875197    1.358    0.264
        72  -8.3140    124.0096     84.9638   4.7203121074e+01   4.0916829476e+01    0.2226059    0.2078964 -63.77            0    1.013    0.013
        73  -9.1297      3.2755     81.9640   9.5111127475e+01   6.1022796151e+01    0.2086019     0.170849 -83.23  0.001167028    1.088    0.081
        74  -8.5623     95.1593     71.5162   5.1134448999e+01   5.0320543732e+01    0.2735421    0.2189306 -41.89 0.0004285541    1.280    0.219
        75  -7.6071    163.8056     66.5794   3.3569026048e+01   3.5187790671e+01    0.1785658    0.1355979  85.46 0.0003107397    1.453    0.312
        76 -10.4060    225.8326     39.5573   1.9524305524e+01   2.5955073520e+01    0.4010379    0.3038728  25.06  0.001151078    2.107    0.525
        77 -11.0479    208.4534     51.8521   2.3951718043e+01   2.7761180516e+01    0.4843925    0.3479297 -47.07  0.002231757    1.116    0.104
        78  -8.8000    246.3940    249.0214   5.6008547470e+01  -3.8975256901e+00    0.1496215   0.07090478 -29.75  0.001083434    1.826    0.452
        79  -7.7754      2.3357     54.6987   9.2040724202e+01   6.8474292502e+01    0.1413894   0.09360227  55.70 0.0007035724    1.660    0.398
        80  -7.4258     98.3726     52.7509   4.3278266657e+01   5.3390361394e+01    0.1563374     0.115819 -88.13 0.0006951782    1.634    0.388
        81  -8.2716    144.8301     49.7990   3.1627826839e+01   4.2405634979e+01    0.1986905    0.1970194 -20.49 0.0003442758    1.190    0.159
        82  -8.2419    241.6447    247.2870   5.6454738602e+01  -3.3355846922e+00   0.07971093   0.06647035  10.89 0.0002729446    1.673    0.402
        83  -8.7290    182.0790     29.5366   2.0594065251e+01   3.6330100356e+01    0.2263106    0.1765058 -30.89 0.0003059752    1.306    0.234
        84  -7.8138     82.6584     17.8942   3.2198112125e+01   6.2819845383e+01    0.1989864    0.1787888 -54.31 0.0006836076    1.137    0.121
        85  -8.0483     13.6722     16.6877   6.9756540455e+01   7.6864864281e+01    0.1372302    0.0911017 -22.32   0.00070423    1.667    0.400
        86  -8.7692    117.9910    234.6489   7.6733425221e+01   1.1062395355e+01     0.202954    0.1236816 -70.93 0.0008109574    2.533    0.605
        87  -9.5147    224.5223    243.4384   5.8474046514e+01  -1.4521515743e+00    0.1787608    0.1227928  -1.26 0.0007173155    1.028    0.028
        88  -7.2163     82.7418     10.7028   2.8399893898e+01   6.3644090148e+01    0.1357316    0.1021667  33.59 0.0001684845    1.502    0.334
        89  -8.5664    250.2469    242.9764   5.4667964796e+01  -3.6120192746e+00    0.1192499   0.06171742 -27.43 0.0008900141    1.607    0.378
