#   1 NUMBER                 Running object number                                     
#   2 MAG_AUTO               Kron-like elliptical aperture magnitude                    [mag]
#   3 X_IMAGE                Object position along x                                    [pixel]
#   4 Y_IMAGE                Object position along y                                    [pixel]
#   5 X_WORLD                Barycenter position along world x axis                     [deg]
#   6 Y_WORLD                Barycenter position along world y axis                     [deg]
#   7 A_WORLD                Profile RMS along major axis (world units)                 [deg]
#   8 B_WORLD                Profile RMS along minor axis (world units)                 [deg]
#   9 THETA_WORLD            Position angle (CCW/world-x)                               [deg]
#  10 FWHM_WORLD             FWHM assuming a gaussian core                              [deg]
#  11 ELONGATION             A_IMAGE/B_IMAGE                                           
#  12 ELLIPTICITY            1 - B_IMAGE/A_IMAGE                                       
         1 -13.8896     60.3185     69.4154   5.2302190874e+01   5.7218603161e+01     2.075871     1.479955 -71.05   0.00991135    1.733    0.423
         2 -12.1821     13.3111     50.0878   6.9370105426e+01   6.7100559107e+01     1.095369     0.692427 -69.43  0.005958001    1.571    0.363
         3 -14.7571     32.6868     48.1799   5.8145172852e+01   6.5744478548e+01     2.338265     1.222865  23.89   0.01107063    2.035    0.509
         4 -13.5757      3.4529     45.6295   7.3841770645e+01   6.8700093352e+01      1.78889    0.2632505 -62.18  0.006131662    3.776    0.735
         5 -15.1008     11.7697     86.8069   7.7640317384e+01   5.8275347094e+01      1.89616     1.050097 -87.81  0.007033105    1.882    0.469
         6 -13.7713    119.9750     65.4201   3.0465167612e+01   4.5715695011e+01     1.413225    0.7699686 -37.05  0.005351618    1.913    0.477
         7 -14.2038    244.4032      7.2497   3.5725280059e+02   2.4207173600e+01     1.272666    0.9390981 -16.69  0.008263349    1.813    0.449
         8 -13.8371    239.0559     24.2860   1.2156462294e+00   2.3374350994e+01     1.061773    0.2601636 -37.41  0.004381811    2.837    0.648
         9 -13.4241    207.4914     35.4479   6.4683570538e+00   2.8795290082e+01     0.966283    0.4252847 -39.27  0.004424547    1.947    0.486
        10 -12.7024     42.0591     29.2620   4.5204831220e+01   6.8241133570e+01    0.7429535    0.5495067  -7.71   0.00331707    1.438    0.305
        11 -12.7898     53.7899     20.7901   3.5052348100e+01   6.7635280892e+01     1.071786    0.4590833  36.00  0.004468117    2.453    0.592
        12 -12.7096      3.0281     27.3937   6.8811790991e+01   7.2717634286e+01    0.4973394    0.3803554 -54.94  0.002166543    1.198    0.165
        13 -13.3033      3.1212     16.9467   6.4709375868e+01   7.4830311250e+01    0.6632065    0.4139487 -59.96   0.00271514    1.608    0.378
        14 -13.6158      8.4394      2.6887   5.2876637828e+01   7.6983463901e+01     1.026362    0.3635622  23.52  0.004688813    2.928    0.658
        15 -11.9105     16.0192     20.1914   5.6737178806e+01   7.3166231319e+01    0.5252016    0.2694837 -30.07  0.002407457    1.977    0.494
        16 -13.6628     15.0508     11.5252   5.2934461435e+01   7.4826608161e+01     1.256945    0.5701914 -31.95  0.006072847    2.260    0.558
        17 -13.8808    242.7765     39.9463   4.3502350083e+00   2.0724266413e+01     1.426069    0.5596385 -62.88  0.005795589    3.279    0.695
        18 -12.8403     59.0260     31.2596   3.7862371832e+01   6.5025871304e+01    0.7080857    0.5020905 -36.92  0.003605591    1.433    0.302
        19 -12.5113     89.4384      2.7507   1.3463515424e+01   6.1942225354e+01      1.09339    0.4293361  49.40  0.004618153    2.190    0.543
        20 -12.8032     90.9826     11.7667   1.7258138554e+01   6.0705356156e+01    0.9494749    0.6186319  44.38    0.0049137    1.429    0.300
        21 -11.8079    101.2952      9.6803   1.3822203518e+01   5.8391477111e+01    0.5458704    0.4019591  33.01  0.002606475    1.439    0.305
        22 -11.6995     51.5802      4.6830   2.7023397362e+01   7.0154482206e+01    0.4773403      0.40804  21.09  0.002850806    1.023    0.022
        23 -13.8420     53.1615     98.7857   6.3137026731e+01   5.1125275627e+01     1.578879    0.7909524 -67.60  0.005547045    2.086    0.521
        24 -12.7251    247.9179    248.7427   4.3870336235e+01  -8.5205769542e+00    0.5539421    0.2879773  14.44  0.003668212    1.658    0.397
        25 -13.8673    246.7000    236.4465   4.2237872537e+01  -7.0645256964e+00    0.9270747    0.4975697 -17.13  0.006029023    1.681    0.405
        26 -14.4033    225.7363    245.3151   4.6970628163e+01  -5.7308640256e+00     1.124128    0.6797288   3.75  0.007001285    1.475    0.322
        27 -13.8576    236.2650    233.5465   4.3472534020e+01  -5.5730217818e+00     0.571454    0.3549867 -15.84  0.003473184    1.406    0.289
        28 -15.0935    153.1977    243.7604   6.0116641050e+01   3.7256020551e+00     1.793656    0.8839824  40.18  0.009655321    1.759    0.431
        29 -15.4281    126.0653    244.6947   6.5716574652e+01   7.3299284931e+00     1.949093    0.9305424  39.12  0.009719565    1.660    0.398
        30 -14.2180     85.5546    242.2950   7.3921862311e+01   1.3231372733e+01     0.847008    0.4914434 -60.40  0.003516102    2.095    0.523
        31 -13.2173    107.2239    249.5506   7.0094507416e+01   9.1108809268e+00    0.6440669    0.2466225  39.67  0.002975683    1.969    0.492
        32 -14.8226     95.1595    245.1094   7.2164926650e+01   1.1469493235e+01    0.7907634    0.7116791 -82.10  0.003723683    1.349    0.259
        33 -14.5204     43.2781    242.8632   8.2759271548e+01   1.8320409106e+01     1.255006    0.5004433  70.37  0.005775203    3.060    0.673
        34 -14.2534     62.8268    238.6785   7.8423696238e+01   1.6787288248e+01     2.578615     1.694403  33.96   0.01271588    1.338    0.253
        35 -13.2918     35.0505    170.8477   7.9547444182e+01   3.4763938293e+01     1.408025    0.8938947 -37.56    0.0063107    2.243    0.554
        36 -14.2797     57.7171    211.4872   7.7410487968e+01   2.2820949810e+01     1.385596    0.6167624  79.03  0.005554229    3.360    0.702
        37 -14.3842     38.0568    202.9836   8.1357201919e+01   2.6983806942e+01      3.37049     1.284638  84.62   0.01291587    3.591    0.722
        38 -15.1601     73.0287    209.3900   7.3631211904e+01   2.1274444873e+01     1.949696     1.014925  68.16  0.008368452    2.411    0.585
        39 -15.4304     67.7323    189.5986   7.2852226790e+01   2.6324088199e+01     3.916816     1.275246  53.70    0.0126626    3.919    0.745
        40 -12.1696      6.2589    234.4459   8.9845216202e+01   2.3738672803e+01     1.107295    0.2829191  61.37  0.004779272    3.288    0.696
        41 -14.1547      7.6469    216.8250   8.8938091900e+01   2.7113209711e+01     2.143544    0.7261726  71.94  0.009610822    2.899    0.655
        42 -14.5782      2.3184    186.6702   8.8915338897e+01   3.4098040361e+01     1.675924    0.3132515 -82.92  0.005414395    5.059    0.802
        43 -15.4445     12.7708    195.4388   8.6855962829e+01   3.1226525497e+01     1.427466    0.7765284  77.55   0.00527067    1.635    0.388
        44 -15.7729      7.6064    166.3129   8.6571787136e+01   3.8429268665e+01     2.126339    0.7615533 -86.18  0.008963951    2.598    0.615
        45 -12.0195     22.1098    248.8030   8.7262746785e+01   1.9508972191e+01    0.4978544    0.2450012  58.74  0.003061847    1.579    0.367
        46 -11.9165     23.5904    242.7789   8.6721811946e+01   2.0464079944e+01    0.2502671    0.1519946  63.58   0.00103216    1.324    0.245
        47 -12.9834    105.5650    116.9591   4.9633149836e+01   3.7693551190e+01    0.8037626    0.5949025 -32.81    0.0025672    1.573    0.364
        48 -11.1757     37.0578    105.0000   7.0536920937e+01   5.1452643353e+01    0.5769773    0.2031319  20.57  0.001999054    3.502    0.714
        49 -11.1855     32.2562    103.8544   7.2165442483e+01   5.2240457928e+01    0.4523279    0.3257231  -7.02  0.002314811    1.758    0.431
        50 -12.5643    107.9267    223.4786   6.7167248505e+01   1.3565731082e+01    0.8558355    0.3058048  53.05  0.002852954    4.361    0.771
        51 -12.5394     37.7147     70.1188   6.2507371886e+01   6.0159103097e+01     1.177455    0.7767924  88.48  0.005411171    2.196    0.545
        52 -14.9970    183.7971    245.8618   5.4490425146e+01  -6.6655576041e-01     2.849639    0.7255212  31.70   0.01124762    3.447    0.710
        53 -11.7985    102.4455    199.4160   6.5456557097e+01   1.9126078390e+01     0.288144     0.253576  27.15   0.00152319    1.151    0.132
        54 -12.7809     35.4727    221.4887   8.3156952790e+01   2.3352837787e+01      2.35775    0.7200558  61.62  0.008778926    3.889    0.743
        55 -14.0561     26.7880     83.5200   7.0607979216e+01   5.7967593806e+01     2.111987     1.189851 -84.44  0.009462629    2.096    0.523
        56 -14.1672     45.5202    201.5774   7.9475032543e+01   2.6438788352e+01     0.943323    0.5293471  75.50  0.003991072    1.846    0.458
        57 -13.5770      4.5052     67.8907   7.7854297408e+01   6.3386955634e+01     0.981981     0.466117 -72.20  0.004631707    1.840    0.456
        58 -13.7732    132.0944     87.3597   3.4152609735e+01   3.8538871038e+01     1.186556    0.7489042  43.93  0.004090708    1.626    0.385
        59 -13.1456    110.2353     57.7790   3.0526244391e+01   4.9442968267e+01     1.418177    0.5965299  44.48  0.005072813    2.451    0.592
        60 -13.7024    125.6818     73.2091   3.1491227106e+01   4.2870375870e+01     1.541544    0.7381148 -29.28  0.005277707    2.845    0.648
        61 -12.7503     26.7230    181.2078   8.2574248044e+01   3.3149820224e+01    0.5479567    0.2690828  69.63  0.001922197    2.022    0.505
        62 -13.3391    231.3613     71.0477   1.2397321657e+01   1.8766635084e+01     0.632524    0.4635058 -51.12  0.002362593    1.187    0.158
        63 -13.6163    231.3794     63.3704   1.0645877051e+01   1.9864227806e+01    0.7735906    0.4789539 -52.25   0.00310674    1.439    0.305
        64 -13.9703    206.7947     59.0137   1.2442379641e+01   2.5718949972e+01     1.022452     0.910269 -14.59   0.00527301    1.344    0.256
        65 -11.5281     76.0344     56.1562   4.1295152141e+01   5.7243006052e+01    0.3973061    0.2861656  22.63  0.001904571    1.598    0.374
        66 -11.0541     45.8506    180.2570   7.7539838401e+01   3.1282786166e+01    0.2960146    0.1687135  69.43  0.001381454    1.804    0.446
        67 -12.5736    232.7693     27.6623   2.4170558180e+00   2.4260786047e+01    0.5521997    0.3077209 -72.70  0.002475733    1.816    0.449
        68 -11.7551     71.1927    175.5376   7.0282718855e+01   2.9119236811e+01    0.6908364    0.2938377  42.67  0.002853276    2.085    0.520
        69 -12.4902    196.2622     46.3286   1.0498010323e+01   2.9941226960e+01    0.5962307    0.4193455  75.92  0.003193485    1.439    0.305
        70 -12.3981     98.6162     46.0217   2.9592410899e+01   5.4217151236e+01    0.7072713    0.4535099  65.61  0.003149918    1.799    0.444
        71 -11.3493    217.5752     45.3023   7.8600052925e+00   2.5257955304e+01    0.2941173    0.2164994 -67.88  0.001706959    1.268    0.211
        72 -11.0453     87.2895     44.0601   3.2462011681e+01   5.7118008640e+01    0.2909441    0.2739113 -54.90   0.00165078    1.152    0.132
        73 -11.9710    235.8502    163.7637   3.1506213677e+01   3.7955734814e+00    0.3548241    0.2178983 -16.89  0.001330075    1.666    0.400
        74 -15.8942     32.1059    130.5221   7.6135879737e+01   4.5289710772e+01     3.411209     1.934443 -50.06   0.01605698    1.846    0.458
        75 -15.5085      4.0568    136.9503   8.5697436091e+01   4.5940311250e+01     1.738727    0.7079536  47.06  0.007892668    2.323    0.570
        76 -16.2190      4.5545    124.0351   8.4549969800e+01   4.9185961485e+01     1.816162     1.359731 -78.37  0.006910334    1.147    0.128
        77 -13.1875     56.6110    142.2973   6.9913506668e+01   3.9389736452e+01     1.355136    0.7330978 -69.32  0.005969108    1.803    0.445
        78 -11.7638     29.1443    241.0867   8.5534327309e+01   2.0200475852e+01    0.6020604      0.30349  69.66   0.00269487    1.833    0.454
        79 -11.4015     42.5217    147.2975   7.4928132791e+01   3.9833389978e+01    0.3565155    0.3020316  48.57  0.001087378    1.159    0.137
        80 -11.2960     69.3063    144.4027   6.6337341695e+01   3.7083520736e+01    0.6514661    0.3239678  65.51  0.002257377    3.117    0.679
        81 -13.8418    117.9145    138.0420   5.0939920949e+01   3.0269104453e+01    0.9552971    0.7264646 -74.35  0.004477433    1.551    0.355
        82 -14.2191    103.5462    131.0212   5.3471683124e+01   3.4688823766e+01     1.316176     1.115392  64.77  0.004499927    1.229    0.186
        83 -11.6072    199.3732     22.0314   3.8581632349e+00   3.2311683714e+01    0.4355167    0.2126318 -56.67   0.00203265    1.947    0.486
        84 -11.3763    107.6849     22.3021   1.7633035586e+01   5.5419997556e+01    0.4136245    0.2881759  80.44  0.002042518    1.586    0.370
        85 -15.0009    118.5286    117.6949   4.6063258772e+01   3.4891258061e+01     1.804126     1.414966 -24.31  0.008389755    1.546    0.353
        86 -13.8015     70.4505    121.5645   6.1822318729e+01   4.2770917708e+01     1.988047    0.7741397 -55.20  0.007186985    2.409    0.585
        87 -14.8209     66.4858    100.7108   5.8602787146e+01   4.8703987603e+01      2.38893     1.357806 -51.81   0.00895684    1.684    0.406
