#   1 NUMBER                 Running object number                                     
#   2 MAG_AUTO               Kron-like elliptical aperture magnitude                    [mag]
#   3 X_IMAGE                Object position along x                                    [pixel]
#   4 Y_IMAGE                Object position along y                                    [pixel]
#   5 X_WORLD                Barycenter position along world x axis                     [deg]
#   6 Y_WORLD                Barycenter position along world y axis                     [deg]
#   7 A_WORLD                Profile RMS along major axis (world units)                 [deg]
#   8 B_WORLD                Profile RMS along minor axis (world units)                 [deg]
#   9 THETA_WORLD            Position angle (CCW/world-x)                               [deg]
#  10 FWHM_WORLD             FWHM assuming a gaussian core                              [deg]
#  11 ELONGATION             A_IMAGE/B_IMAGE                                           
#  12 ELLIPTICITY            1 - B_IMAGE/A_IMAGE                                       
         1 -13.8907    207.7692     29.8103   1.4819689620e+01   3.0671491820e+01    0.9301564    0.6637055 -50.48  0.003838722    1.106    0.096
         2 -11.2958    227.3426      9.5564   9.1544883056e+00   2.9099207883e+01    0.2266897    0.1774833 -62.24 0.0007421866    1.107    0.097
         3 -11.3415     61.3524    246.3127   8.5882046997e+01   1.5534648859e+01    0.1821009    0.1462899 -18.06  0.001118808    1.553    0.356
         4 -13.9711    245.7446    239.5462   4.9382295355e+01  -2.2355602919e+00     1.455285    0.5296931 -30.71  0.009125825    2.257    0.557
         5 -10.9885    160.9187    200.8744   5.8248673068e+01   1.1684687516e+01    0.3497849     0.174529 -47.49  0.001335845    2.211    0.548
         6  -9.5028     77.5823    218.8596   7.9815574364e+01   1.8929380747e+01    0.1672312   0.09483027 -35.62 0.0007999463    2.395    0.582
         7  -9.9717    210.9909    198.8540   4.8754030075e+01   5.9480951829e+00    0.1681981    0.1295239  -7.47 0.0004960947    1.017    0.016
         8 -10.3521     70.1456    197.8318   7.9679138954e+01   2.4195535829e+01    0.2081209    0.1874466 -73.99 0.0004957249    1.270    0.212
         9 -10.1914     69.1824    194.3988   7.9585668510e+01   2.5071624367e+01      0.20259    0.1830716  28.79 0.0004363355    1.065    0.061
        10 -10.3971     71.2147    186.9709   7.8212823185e+01   2.6494257961e+01    0.2171381     0.172757  33.75 0.0003957999    1.099    0.090
        11 -15.9153     68.0389    144.2527   7.3451967688e+01   3.7370506094e+01      2.70695     1.806311  51.35   0.01244308    1.501    0.334
        12 -10.2650     83.2053    182.1938   7.4274613375e+01   2.6010057071e+01    0.4140731    0.1515162 -50.37  0.001098315    2.989    0.665
        13 -11.7504     59.5372    230.9270   8.5256826527e+01   1.8572143465e+01    0.2242871    0.1151301 -58.84  0.001175368    2.333    0.571
        14 -10.6390    175.0439    179.6929   5.1993436236e+01   1.3302035401e+01    0.2544575    0.1901808  19.11 0.0008594691    1.271    0.213
        15 -12.6689    172.8732    173.9020   5.1410696170e+01   1.4576561705e+01    0.7388228    0.4584683  -8.37  0.001481424    2.073    0.518
        16 -11.4725    180.9639    168.7653   4.8946201729e+01   1.4282287639e+01    0.5940607    0.3424472 -56.89  0.002823897    2.640    0.621
        17 -11.5853    154.9926    178.5370   5.5877882498e+01   1.6344103057e+01    0.2774731    0.2093907   6.10  0.001599535    1.332    0.249
        18 -10.4037      4.6112    175.6428   9.6996329934e+01   3.5964584623e+01    0.1229701    0.1170282  48.21  0.000296777    1.145    0.127
        19 -14.2980    116.7940    233.4937   7.2086027825e+01   1.1665887621e+01     4.981073     4.125251 -44.97   0.02387907    1.458    0.314
        20 -18.9780     31.5751    136.9516   8.5356019094e+01   4.3820726608e+01     18.66529     4.483279 -77.24   0.05051424    4.772    0.790
        21 -10.5991      9.1476    166.4712   9.5238342618e+01   3.7929014969e+01    0.1825853    0.1695434 -80.69 0.0004936381    1.181    0.154
        22 -11.6969     71.5035    228.8105   8.2188526068e+01   1.7686164256e+01    0.1755724    0.1548926  -9.57 0.0006758757    1.303    0.232
        23  -9.8866     67.8517    212.5765   8.1701931861e+01   2.1323508093e+01    0.2106988    0.1324394   9.62 0.0005046636    1.748    0.428
        24 -11.9937    107.4321    139.7982   6.0401606777e+01   3.2082312932e+01    0.5546165    0.3987574   9.79  0.002526107    1.778    0.438
        25 -12.0582    111.6683    150.0252   6.1213470321e+01   2.9011468572e+01    0.5503931    0.3576396  68.67  0.001241595    2.368    0.578
        26 -11.9400    108.8393    145.4384   6.1118042562e+01   3.0537042433e+01    0.3355114    0.3135674 -45.36 0.0006920662    1.112    0.101
        27 -12.2665    133.7538    146.1643   5.4738344698e+01   2.6046737592e+01     1.045303      0.32177 -54.24   0.00313345    4.226    0.763
        28  -9.4319     75.1992    212.7248   7.9832544644e+01   2.0439143654e+01    0.1839177    0.1426735 -85.50  0.001084115    1.574    0.365
        29  -9.2429    152.3966    136.4750   4.8419896141e+01   2.4703294721e+01     0.137956    0.1287487 -23.44 -3.582846e-05    1.024    0.024
        30 -11.4755    133.7950    128.2520   5.0932137831e+01   2.9798660551e+01    0.5097067    0.3852525  68.41  0.002474583    1.683    0.406
        31  -9.9155    160.5972    127.8262   4.4820198024e+01   2.4876055387e+01    0.2039096    0.1243773 -52.66 0.0009517518    1.764    0.433
        32  -9.1954    218.4772    124.9374   3.4457518169e+01   1.5669822711e+01    0.1799451    0.0989361 -37.38 0.0005101894    1.500    0.333
        33 -12.5063    110.0082    121.9522   5.5822895647e+01   3.5740778550e+01    0.9192441    0.3930009  53.29   0.00297254    3.147    0.682
        34 -10.9009    104.1040    120.0994   5.7126835949e+01   3.7300922814e+01    0.3260346    0.2628421  15.59 0.0006192662    1.455    0.313
        35 -11.5286    120.8810    114.1751   5.0960317092e+01   3.5350521124e+01    0.4462786    0.3317001  74.68  0.001919477    1.740    0.425
        36 -12.1773    117.1294    108.2986   5.0520253459e+01   3.7405087190e+01    0.5719621     0.455461  83.03  0.001089738    1.529    0.346
        37 -11.5566    119.2093    104.6186   4.9012327589e+01   3.7777918923e+01    0.3628914    0.2791318  53.98 0.0009836055    1.319    0.242
        38 -11.8285    113.2988    100.2993   4.9510201947e+01   3.9964223685e+01    0.5575953    0.3896232  80.76  0.001450962    2.042    0.510
        39 -10.9129    107.5216     96.0223   5.0019380182e+01   4.2134928815e+01    0.4255591    0.2836649  77.11  0.001308264    2.218    0.549
        40 -10.8405    110.9630    114.8803   5.3881976073e+01   3.7175114967e+01    0.3092414    0.2440424  80.83 0.0006566772    1.559    0.359
        41  -9.8833    107.0820    111.1970   5.4112088781e+01   3.8790823448e+01    0.2411294    0.2053087  72.63 0.0003783047    1.281    0.219
        42 -12.0510     78.9074    107.4104   6.2389566258e+01   4.5106385387e+01    0.4124501    0.3933893 -82.67  0.001222422    1.056    0.053
        43 -11.0112     83.1907    110.7952   6.1685104368e+01   4.3479863593e+01    0.2955903     0.271836 -72.82   0.00058238    1.109    0.098
        44 -11.5735     85.2371    107.1084   6.0087729486e+01   4.4017312176e+01    0.5137118     0.288734  53.61 0.0004959486    2.001    0.500
        45 -10.5719    134.4992    105.0517   4.5229955918e+01   3.4482997093e+01    0.3982801    0.1432893 -45.05  0.001362369    2.730    0.634
        46  -9.6725    101.8637     97.1107   5.2027914381e+01   4.3085267205e+01    0.2031067    0.1860555  -0.25 0.0003400469    1.271    0.213
        47 -10.1278    118.1480     91.5132   4.5767862413e+01   4.0803643249e+01    0.3337901    0.2015371 -64.06  0.001329621    2.133    0.531
        48 -12.5461     55.4982    227.4941   8.6001718986e+01   1.9664564672e+01    0.2642575    0.2049563 -66.74  0.001455063    1.568    0.362
        49  -9.2773    100.4701     89.4816   5.0316676962e+01   4.5099094409e+01    0.2301171    0.1447783  55.68 0.0006103356    1.670    0.401
        50 -10.4179     95.0733     86.4552   5.1157482827e+01   4.6933280420e+01     0.485463     0.254832  60.30  0.001244644    2.522    0.603
        51 -10.6728     65.6099     88.3530   6.2616505845e+01   5.2293877340e+01    0.2833776    0.2740498  15.98 0.0002050342    1.091    0.084
        52  -9.4184    111.5562     83.4530   4.5251939238e+01   4.3956263971e+01    0.1532086    0.1455467  86.34 0.0001313081    1.013    0.013
        53 -10.9063     40.3004    238.5586   9.0343757571e+01   1.9046670085e+01    0.1231666    0.0740445 -28.72 0.0006245687    2.582    0.613
        54 -13.2524    168.8242     67.9853   2.8705339272e+01   3.3730415453e+01    0.7451577    0.5151001 -46.97  0.001231234    1.307    0.235
        55 -10.7527     61.6811    222.5311   8.4101434456e+01   1.9988792786e+01    0.2742473    0.1379153  85.50  0.001124937    2.990    0.666
        56 -13.9140    185.0435     55.3730   2.3230470094e+01   3.2098392240e+01     1.104759    0.9175514  23.30    0.0039621    1.694    0.410
        57 -12.0678    190.9153     49.5598   2.1104272820e+01   3.1657732053e+01    0.3337021    0.3189447 -85.91 0.0008900468    1.209    0.173
        58 -10.7615     57.9706    221.2773   8.4935468358e+01   2.0641568309e+01    0.1707407    0.1337625  43.75  0.001059528    1.111    0.100
        59  -8.7442    213.6830    247.2696   5.5260561281e+01  -3.7852687075e-01   0.08572345     0.069598  17.70 0.0003438491    1.557    0.358
        60 -10.2669     60.7381     21.1656   3.7873232172e+01   6.7226146930e+01    0.2457725    0.1822648  64.97 0.0007095435    1.348    0.258
