#   1 NUMBER                 Running object number                                     
#   2 MAG_AUTO               Kron-like elliptical aperture magnitude                    [mag]
#   3 X_IMAGE                Object position along x                                    [pixel]
#   4 Y_IMAGE                Object position along y                                    [pixel]
#   5 X_WORLD                Barycenter position along world x axis                     [deg]
#   6 Y_WORLD                Barycenter position along world y axis                     [deg]
#   7 A_WORLD                Profile RMS along major axis (world units)                 [deg]
#   8 B_WORLD                Profile RMS along minor axis (world units)                 [deg]
#   9 THETA_WORLD            Position angle (CCW/world-x)                               [deg]
#  10 FWHM_WORLD             FWHM assuming a gaussian core                              [deg]
#  11 ELONGATION             A_IMAGE/B_IMAGE                                           
#  12 ELLIPTICITY            1 - B_IMAGE/A_IMAGE                                       
         1 -16.0638    240.9710     74.4753   4.0362907702e+01   1.7804992913e+01     6.785598     1.269472 -39.10   0.02213599    4.263    0.765
         2  -9.7612    182.6113    134.2026   6.2968704123e+01   1.8821653721e+01    0.2208091    0.1340834 -33.29 0.0009524595    1.684    0.406
         3  -9.3765    235.9551    232.4630   7.2242387024e+01  -7.4698646883e+00     0.140753    0.1017265  48.61 0.0006995911    2.403    0.584
         4  -9.7350    250.0152    213.4845   6.6486559128e+01  -6.3563823040e+00     0.161068    0.1100521  25.61 0.0008799143    1.550    0.355
         5  -9.8676    248.0800    208.4673   6.5914780139e+01  -5.3597274841e+00    0.1660947    0.1118548  25.17 0.0005102983    1.562    0.360
         6 -10.3235    236.9211    204.8822   6.7185901452e+01  -3.3689958469e+00    0.3078617    0.2199537  67.79  0.001398948    3.945    0.747
         7 -10.0136    245.6758    203.5816   6.5435639553e+01  -4.3010174653e+00    0.2000747    0.1366388 -46.62  0.001165903    1.746    0.427
         8  -9.5709    250.0625    202.3381   6.4471890956e+01  -4.6630360248e+00    0.1657899    0.1357094  -9.98 0.0005924578    1.100    0.091
         9  -9.6004    237.7997    200.6032   6.6243325585e+01  -2.7978607555e+00    0.1575939    0.1166903  39.94 0.0009432929    1.713    0.416
        10  -9.7226    243.5045    198.9708   6.4957813214e+01  -3.2916424759e+00    0.1897598    0.1044183 -36.62 0.0006845489    1.553    0.356
        11 -10.4481    124.2380    199.0105   9.0133036067e+01   1.5457003238e+01    0.1937535    0.1225055 -52.95 0.0007933836    1.645    0.392
        12  -9.2617    224.6602    198.3163   6.8168800072e+01  -6.0324968652e-01    0.1160543    0.1063397 -74.23 0.0007048371    1.705    0.414
        13  -9.7665    248.3360    196.6759   6.3720629821e+01  -3.5564559798e+00     0.262606    0.1811251  59.79  0.001337462    3.125    0.680
        14 -10.2088    246.2892    193.0781   6.3394264807e+01  -2.7153774252e+00    0.2220291    0.1504864 -33.74 0.0008418318    1.249    0.199
        15 -10.1340    103.3973    190.8223   9.3998541961e+01   2.0734456244e+01    0.2152311    0.1299077 -45.92  0.000917765    1.743    0.426
        16  -9.9764    243.8281    188.1470   6.2880689631e+01  -1.5855769527e+00    0.1874642    0.1572848 -36.30 0.0009040034    1.275    0.216
        17 -10.7081    120.8313    188.1441   8.9095626234e+01   1.8501278333e+01     0.213062    0.1766594 -19.85  0.001084235    1.350    0.259
        18  -9.6214    229.9129    187.0183   6.5067557060e+01   5.6378342734e-01    0.1878695     0.159122 -63.22  0.001113067    1.726    0.420
        19 -10.4793    157.5267    186.5028   7.9851494138e+01   1.2505093887e+01    0.1469554    0.1383861  -2.37 0.0001851367    1.018    0.018
        20 -10.9511     96.3541    183.7191   9.4658947013e+01   2.3556010123e+01    0.4616567    0.1490925 -50.41  0.001527166    3.041    0.671
        21 -11.1478    242.2533    180.9087   6.1766111603e+01  -1.7121069511e-01    0.3915552      0.22774 -50.88  0.001970207    2.084    0.520
        22 -10.8451    109.3323    182.1384   9.0982189415e+01   2.1841993234e+01    0.2722292    0.2083252  21.86  0.001330578    1.403    0.287
        23 -10.8906    121.9855    180.9935   8.7501072738e+01   1.9972394124e+01    0.2543641     0.185689 -14.62   0.00114873    1.775    0.437
        24  -9.9371     89.6698    181.6810   9.6095324206e+01   2.5090437657e+01    0.1509729    0.1133838 -22.93 0.0007047863    1.689    0.408
        25 -10.0320    145.3163    180.3186   8.1544374610e+01   1.6016857371e+01    0.1556504    0.1153445 -10.39 0.0005254691    1.655    0.396
        26 -10.3838    249.3852    177.2370   5.9896478364e+01  -5.5820810329e-01    0.2971816    0.1859393 -57.52  0.001208307    2.480    0.597
        27 -10.6842    163.6131    177.8052   7.6715552740e+01   1.3279265053e+01    0.2096462    0.1400401 -54.98 0.0009491682    1.681    0.405
        28  -9.7936    178.6957    177.3649   7.3250168056e+01   1.0680833493e+01    0.1423999    0.1189258 -84.57 0.0007036575    1.739    0.425
        29 -10.0969    249.0873    168.7304   5.8308727739e+01   8.9133970217e-01     0.283469    0.1498699 -48.38  0.001093341    1.986    0.496
        30  -9.9233    118.6091    170.1953   8.6318169113e+01   2.3124915941e+01    0.2269986    0.1367141 -42.33 0.0009514118    1.719    0.418
        31  -9.6882    101.3220    170.3402   9.0983132641e+01   2.6040799925e+01    0.1586795    0.1166545 -21.62 0.0007050542    1.720    0.419
        32  -9.2126    217.6434    168.2946   6.3572708860e+01   5.7808910373e+00    0.1280829    0.1097538 -78.01 0.0007032004    1.694    0.410
        33 -10.2990    129.0000    167.9673   8.3159902233e+01   2.1796598631e+01    0.2566931   0.08675299 -51.18  0.000803622    2.951    0.661
        34 -10.2835    138.6718    163.8659   7.9839656203e+01   2.0971456559e+01    0.2596771    0.1924846 -30.69  0.001202025    1.443    0.307
        35  -9.5327    119.3298    164.3117   8.4954373932e+01   2.4412324045e+01    0.1595484    0.1203928 -13.71 0.0006188718    1.670    0.401
        36 -10.0173    146.5725    163.2032   7.7729896544e+01   1.9639724062e+01    0.2263261    0.1394729 -36.31 0.0009494862    1.703    0.413
        37  -9.8572    182.6838    162.6913   6.9318267891e+01   1.2967095878e+01    0.1514974     0.111576  -7.03 0.0003839351    1.633    0.388
        38 -10.3897    153.3801    161.8466   7.5783610153e+01   1.8656042385e+01     0.229663    0.1363015 -36.30 0.0009494618    1.756    0.431
        39 -10.2363    207.9710    161.4702   6.3964971652e+01   8.6819837771e+00    0.1768742    0.1269449  71.14 0.0008077073    2.391    0.582
        40  -9.7120    212.3161    160.6359   6.2975187698e+01   8.0926883763e+00    0.1377922    0.1091593 -69.63 0.0007040394    1.768    0.434
        41  -9.3106    136.3287    159.3272   7.9468869840e+01   2.2464244046e+01    0.1623505    0.1209753 -11.09 0.0007050749    1.705    0.413
        42 -10.5648    204.3883    156.1738   6.3528032628e+01   1.0324747951e+01    0.2081386    0.1241401 -48.97 0.0009499246    1.698    0.411
        43 -10.1733    167.3301    156.3218   7.1314275083e+01   1.7197860816e+01    0.1581776    0.1170377  -6.72 0.0007049204    1.695    0.410
        44 -10.5175    158.5596    153.7603   7.2776664505e+01   1.9452233490e+01    0.3014163      0.14247 -41.00  0.001127377    2.095    0.523
        45 -10.5260    163.3058    151.0008   7.1050990928e+01   1.9128802820e+01    0.2267117    0.1954011 -38.82  0.001105733    1.112    0.101
        46  -9.5028    122.5138    149.9978   8.1067197276e+01   2.7274782488e+01    0.2304267    0.1271791 -30.15 0.0008099403    2.510    0.602
        47 -11.1004    243.3128    148.6304   5.5246977757e+01   5.1629136854e+00    0.2409238    0.1347309 -46.29 0.0008587602    1.631    0.387
        48  -9.8358    186.6430    146.2098   6.4874247573e+01   1.5588955559e+01    0.2149196    0.1299887 -35.12 0.0009446641    1.612    0.380
        49 -10.5933    195.4842    144.4871   6.2712275445e+01   1.4244679622e+01    0.1464997    0.1332969 -31.59 0.0001794349    1.008    0.008
        50  -9.9744    171.3033    144.3493   6.7730494410e+01   1.8977772365e+01    0.1578829    0.1173398  -9.35 0.0007040284    1.697    0.411
        51 -10.0443    148.4044    142.7839   7.2721540090e+01   2.3904483207e+01    0.2305837    0.1417474 -35.42 0.0009488408    1.713    0.416
        52  -9.4484    138.5089    142.5246   7.5148403325e+01   2.5939320980e+01    0.1573285    0.1499535 -17.78 0.0008098684    1.035    0.033
        53  -9.1985    241.6437    233.2921   7.1376320387e+01  -8.2641149687e+00   0.09880012   0.09481349  17.02 0.0007029417    1.687    0.407
        54  -9.6663    164.6184    134.1904   6.6858434283e+01   2.2487887815e+01    0.2289151    0.1389332 -34.30 0.0009535131    1.718    0.418
        55  -9.8441    173.5990    129.1965   6.3687347417e+01   2.1683149246e+01     0.225257    0.1374594 -32.16 0.0009493346    1.748    0.428
        56  -9.7478    186.3315    128.3145   6.0842805066e+01   1.9254100839e+01    0.1503592    0.1158627  -1.73 0.0007045576    1.681    0.405
        57 -10.9354    187.1552    140.1517   6.3403516097e+01   1.6715828522e+01    0.2046239    0.1737886 -62.82 0.0005491503    1.320    0.242
        58 -10.9928    209.5498    138.0105   5.8639197261e+01   1.2859364119e+01    0.2227937    0.1263444 -41.31  0.001021066    1.572    0.364
        59 -10.0239    200.4733    137.4959   6.0195771134e+01   1.4664682909e+01     0.145219     0.131263 -36.26 0.0001415174    1.014    0.014
        60  -9.2050    172.3042    137.3394   6.5889237407e+01   2.0254401952e+01    0.1562285    0.1181227  -7.72 0.0005191679    1.675    0.403
        61 -10.0523    181.6044    125.1921   6.1060872698e+01   2.0843965869e+01    0.2211186    0.1351957 -32.09 0.0009510893    1.723    0.420
        62  -9.9581    167.3716    139.8241   6.7562987005e+01   2.0726471834e+01    0.2272159    0.1368388 -34.37 0.0009477969    1.721    0.419
        63  -9.3425    157.4787    119.4971   6.4903512247e+01   2.7096585101e+01    0.1534705    0.1475991 -28.66 5.501253e-05    1.022    0.022
        64  -9.1111    162.2889    117.3788   6.3279386517e+01   2.6505997554e+01    0.1581778    0.1202796  -7.16  0.000630935    1.735    0.424
        65 -10.3860    195.6216    112.7561   5.5424622894e+01   2.0362236183e+01     0.211826    0.1242789 -48.57 0.0006842483    1.634    0.388
        66  -9.4504    155.3756    134.8295   6.9155840827e+01   2.4251114092e+01    0.2281404     0.140383 -34.95 0.0009455077    1.699    0.411
        67  -9.3485    149.3271    135.3429   7.0736755186e+01   2.5379729541e+01    0.1635218    0.1228127  -6.95 0.0007051034    1.741    0.426
        68  -9.6183    212.6388    134.2947   5.7278175764e+01   1.2985202737e+01    0.1389159    0.1084679 -75.40  0.000703121    1.705    0.414
