#   1 NUMBER                 Running object number                                     
#   2 MAG_AUTO               Kron-like elliptical aperture magnitude                    [mag]
#   3 X_IMAGE                Object position along x                                    [pixel]
#   4 Y_IMAGE                Object position along y                                    [pixel]
#   5 X_WORLD                Barycenter position along world x axis                     [deg]
#   6 Y_WORLD                Barycenter position along world y axis                     [deg]
#   7 A_WORLD                Profile RMS along major axis (world units)                 [deg]
#   8 B_WORLD                Profile RMS along minor axis (world units)                 [deg]
#   9 THETA_WORLD            Position angle (CCW/world-x)                               [deg]
#  10 FWHM_WORLD             FWHM assuming a gaussian core                              [deg]
#  11 ELONGATION             A_IMAGE/B_IMAGE                                           
#  12 ELLIPTICITY            1 - B_IMAGE/A_IMAGE                                       
         1 -12.0425     42.9876     20.7834   2.9138949660e+02   7.2963364171e+00   0.03707498   0.02149393   0.32   0.00276332    2.487    0.598
         2 -11.9834    216.9983     16.6061   2.8933504290e+02   6.3356034568e+00   0.02035733   0.01678986  13.59  0.001299102    1.267    0.211
         3 -13.0432    187.8018      6.8123   2.8961605788e+02   6.6190308711e+00   0.02424643   0.01909286 -74.92   0.00273109    1.349    0.259
         4 -12.8934    183.4586      4.4611   2.8965250470e+02   6.6715403560e+00   0.03834384   0.01564555 -60.74  0.003169985    2.363    0.577
         5 -11.6628     43.6995      8.5175   2.9130760904e+02   7.4345098693e+00   0.01729215   0.01288445  34.54  0.001117914    1.337    0.252
         6 -11.9645     59.8982      7.2272   2.9111064408e+02   7.3559276549e+00   0.02338303     0.013458  38.15  0.001812776    1.728    0.421
         7 -11.2437    165.5036      2.0000   2.8984692861e+02   6.8044584590e+00    0.0147903  0.003763513  26.62 0.0009373719    3.956    0.747
         8 -10.8555    230.9883    223.6559   2.9041495806e+02   3.8517264403e+00   0.01181198  0.003451417  45.17 0.0007050398    4.466    0.776
         9 -10.0770     14.6417    250.2898   2.9308970985e+02   4.7926063617e+00  0.007046601   0.00487128  58.03  0.000702663    1.686    0.407
        10 -11.0215    149.4967    221.6418   2.9135004981e+02   4.3473035693e+00   0.02297926  0.008353925 -56.24  0.001819746    2.517    0.603
        11 -10.7607    226.4686    221.5158   2.9045464842e+02   3.9027887397e+00  0.006529606  0.006460269  75.79 0.0001427338    1.032    0.031
        12 -10.4823    211.3940    218.1829   2.9060983149e+02   4.0289080046e+00  0.009634953  0.006413258 -79.22 0.0009526888    1.755    0.430
        13 -10.6158    115.8230    210.2234   2.9167363217e+02   4.6748035716e+00   0.01184647  0.006432504  62.65 0.0009512839    2.826    0.646
        14 -10.8762    185.8595    203.7646   2.9082036983e+02   4.3444044820e+00   0.01311484  0.008373298 -79.33  0.001269867    1.873    0.466
        15 -10.4495    149.6759    199.3428   2.9121475230e+02   4.6053891275e+00  0.007095689  0.004966635  63.51 0.0007050746    1.733    0.423
        16 -10.4422      5.5549    199.5151   2.9289375319e+02   5.4353501048e+00   0.01210419  0.005338815  38.65 0.0008907567    2.236    0.553
        17 -10.6877    112.6632    197.8291   2.9163642111e+02   4.8371376907e+00   0.01459412  0.008308446  81.38  0.001162573    3.007    0.667
        18  -9.8650    215.3516    194.6594   2.9042307640e+02   4.2791411232e+00  0.007231697  0.004906337  61.90 0.0007043142    1.803    0.445
        19 -11.9278    159.4417    192.5412   2.9106048353e+02   4.6278677258e+00   0.03124013   0.01842397  84.45  0.002659508    2.667    0.625
        20 -10.2296    210.5054    182.9684   2.9040940210e+02   4.4430255962e+00   0.01047516  0.006450052 -61.60  0.001036788    1.602    0.376
        21 -10.7313    183.4901    182.9625   2.9072346664e+02   4.5997873231e+00   0.01610299  0.005348746 -55.76  0.001219244    2.713    0.631
        22  -9.9478    137.3276    178.6584   2.9123480268e+02   4.9172434654e+00  0.007109954  0.004959958  63.22 0.0006758983    1.739    0.425
        23 -10.1858    101.0007    176.0229   2.9164198064e+02   5.1580278252e+00  0.009096901  0.008851942 -29.28            0    1.022    0.022
        24 -11.1119     34.4006    173.2086   2.9240103503e+02   5.5751617398e+00  0.009614037  0.006429053 -79.17 0.0009550058    1.737    0.424
        25 -11.2578    121.1473    168.3273   2.9136139976e+02   5.1309496219e+00   0.01881652  0.005358943 -67.80  0.001106364    4.745    0.789
        26 -10.1451     55.2071    167.4327   2.9212414117e+02   5.5223479539e+00  0.009646939  0.005818459  39.82 0.0008817879    1.670    0.401
        27 -10.3459    138.4918    164.4847   2.9113648890e+02   5.0752041565e+00    0.0120845  0.006633171 -78.98  0.001034034    2.397    0.583
        28 -10.4044     98.3254    165.6709   2.9161129590e+02   5.2938171472e+00  0.007046046   0.00496652  62.62 0.0004624515    1.701    0.412
        29 -11.7956    105.8054    157.0643   2.9147273448e+02   5.3505945191e+00   0.02886342   0.01831119  89.13  0.002700852    2.155    0.536
        30 -10.9614    167.4462    157.2274   2.9075605445e+02   4.9917539665e+00   0.01446184  0.009918302  89.04   0.00144011    1.853    0.460
        31 -10.1002    218.3268    156.6623   2.9016087777e+02   4.7030911192e+00  0.007087321  0.004965473  63.15 0.0007051672    1.727    0.421
        32 -10.2573     28.9115    155.9115   2.9236188003e+02   5.8078931477e+00   0.01450605  0.006905671  62.18  0.000963807    4.173    0.760
        33 -10.2560      6.7869    155.9761   2.9262018521e+02   5.9345339118e+00  0.009033795  0.005280036 -62.04 0.0006746053    1.688    0.408
        34  -9.6695     39.9967    152.4936   2.9221227433e+02   5.7837411451e+00  0.009832242  0.004764256  48.74 0.0008093027    2.440    0.590
        35 -10.7865    189.8770    150.5559   2.9045511792e+02   4.9391432165e+00   0.01361248   0.00912447  89.24  0.001327751    1.933    0.483
        36 -11.4723    107.7790    146.0351   2.9138379695e+02   5.4673519478e+00    0.0222863  0.009163321  55.08  0.001408717    4.526    0.779
        37 -10.4676    148.5028    145.0139   2.9090341785e+02   5.2434339849e+00  0.009625533  0.005759471  82.88 0.0008105598    2.592    0.614
        38 -10.1535    124.6688    143.0004   2.9116890566e+02   5.4048730000e+00   0.01091973  0.005510095  88.58 0.0007052046    4.366    0.771
        39 -10.2170    181.5234    141.4968   2.9049802150e+02   5.0928213007e+00  0.006578305  0.006421154  67.53 0.0008096626    1.053    0.050
        40 -11.6640     83.0046    129.5512   2.9157390565e+02   5.8021503746e+00   0.03038079  0.009758358 -67.91  0.001993013    3.896    0.743
        41 -11.7168     98.4901    127.8998   2.9138354569e+02   5.7318129654e+00   0.02827469    0.0151161  82.32  0.002037183    3.775    0.735
        42 -10.9633     28.4985    122.9995   2.9217029494e+02   6.1928480513e+00  0.009720682  0.005758889  83.18 0.0008106639    2.647    0.622
        43 -11.3929    193.2339    118.7931   2.9022564075e+02   5.2884767570e+00   0.02663639   0.01824562  69.39  0.002664181    1.872    0.466
        44 -10.4350     37.8426    121.1513   2.9205027250e+02   6.1604680372e+00  0.009551576  0.008638329  60.38 0.0003220619    1.167    0.143
        45 -11.3326    140.9766    115.8267   2.9081623810e+02   5.6260866124e+00   0.02991271  0.008057139 -60.86  0.002039531    3.442    0.709
        46 -10.7690    108.2574    112.4148   2.9117702790e+02   5.8552105148e+00   0.02016594  0.008792038 -78.55  0.001346678    4.038    0.752
        47 -10.9163     78.3045    112.0152   2.9152380573e+02   6.0330728496e+00   0.01883293   0.01031544  86.35  0.001444333    3.265    0.694
        48 -10.7010    174.1375    111.0616   2.9040152094e+02   5.4891016523e+00   0.01438439  0.009056174 -85.24  0.001281442    2.067    0.516
        49 -11.6420    159.4924    111.0942   2.9057222974e+02   5.5736940025e+00   0.01962459   0.01149207 -71.41  0.001861859    1.890    0.471
        50 -10.4090     91.4979    111.5067   2.9136694440e+02   5.9627134729e+00    0.0124154  0.006653074 -78.69  0.001043225    2.488    0.598
        51 -11.7118     13.9229    108.8750   2.9225598618e+02   6.4409553213e+00   0.02811817  0.009297589 -61.64  0.002091628    2.907    0.656
        52 -10.0550     59.5244    109.5427   2.9172801583e+02   6.1702743707e+00  0.006535562  0.006433648  64.25 0.0001298613    1.040    0.038
        53 -12.2313    139.9715    104.2048   2.9075829375e+02   5.7668852957e+00   0.01760956   0.01543385 -47.27  0.001849508    1.128    0.114
        54 -11.9350    150.1915    101.9182   2.9062553313e+02   5.7341864684e+00   0.01504461   0.01245746  85.65  0.001719684    1.358    0.263
        55 -12.1816     43.4542     99.7889   2.9185714208e+02   6.3763379017e+00   0.03064497   0.01780742  81.75  0.002545949    2.820    0.645
        56 -11.2273    127.8014    101.0996   2.9088148001e+02   5.8734705051e+00   0.01745091  0.009358719 -76.63  0.001504985    2.371    0.578
        57 -11.8433    107.1559     98.1227   2.9110426763e+02   6.0275969642e+00   0.02336584   0.01462332 -88.83  0.002108688    2.176    0.541
        58 -10.6671     81.4311    100.2633   2.9141701843e+02   6.1515306051e+00  0.009435934  0.006469754 -80.51 0.0009496011    1.700    0.412
        59 -10.9703     19.6249     97.5731   2.9212194010e+02   6.5394440458e+00   0.01661141  0.006754996 -69.21  0.001257694    2.909    0.656
        60 -13.0569    169.8246     90.6238   2.9032912636e+02   5.7514045178e+00    0.0228757    0.0144108  49.04 0.0009610879    1.743    0.426
        61 -10.9395     41.8371     87.9890   2.9180543945e+02   6.5227509239e+00   0.01571168  0.009132469   1.11  0.001365969    2.447    0.591
        62 -10.9024     34.2876     85.5137   2.9187873447e+02   6.5950425431e+00   0.02855753  0.007082396 -49.76  0.001856021    3.794    0.736
        63 -10.7841     86.1536     86.9932   2.9128248505e+02   6.2783638750e+00   0.01144679  0.007535583  74.34  0.001083565    2.070    0.517
        64  -9.5467    173.4494     86.4777   2.9026203300e+02   5.7784872827e+00  0.006571236   0.00639447 -35.50  0.000116012    1.018    0.018
        65 -11.1744    103.9901     82.5612   2.9104793116e+02   6.2266419950e+00   0.01809671  0.009629874 -77.75  0.001537169    2.467    0.595
        66 -10.9964    140.5758     82.3259   2.9062005483e+02   6.0174216136e+00   0.01307877  0.006669061 -68.77    0.0011462    2.146    0.534
        67 -10.9027     46.3647     80.3714   2.9170702996e+02   6.5851131042e+00   0.02253717  0.008375792 -43.37  0.001643192    3.131    0.681
        68 -10.5356    119.2411     80.2738   2.9085640735e+02   6.1648914480e+00   0.01044988  0.005697926 -78.16 0.0008893296    2.386    0.581
        69 -10.7411     81.8041     72.9617   2.9124915731e+02   6.4664613686e+00   0.01142714   0.00756535  74.06  0.001088076    2.044    0.511
        70 -11.8164    223.6438     71.1304   2.8958566196e+02   5.6648137387e+00   0.02488291   0.01217565  48.40 0.0004294057    2.387    0.581
        71  -8.6985    220.4832     65.4909   2.8958853201e+02   5.7486120251e+00   0.01305925  0.007995792 -30.36 0.0009509728    2.006    0.502
        72 -10.8569     62.5005     70.0081   2.9145668831e+02   6.6123142244e+00   0.01053218  0.006448281 -61.75  0.001040266    1.612    0.380
        73 -10.6945     51.4282     69.6928   2.9158401568e+02   6.6799094406e+00   0.01252813  0.006634426 -68.33 0.0008871078    2.031    0.508
        74 -13.4831     27.9329     59.2564   2.9179581064e+02   6.9366274111e+00   0.04992943   0.03777134  31.04  0.005579248    1.317    0.241
        75 -10.0948    115.6685     72.3442   2.9085050763e+02   6.2776486494e+00  0.007137494  0.004949176  63.11 0.0007050503    1.756    0.431
        76 -11.3776     19.8770     58.9671   2.9188814369e+02   6.9864126023e+00   0.01415793  0.009268904 -53.36  0.001057923    1.482    0.325
        77 -11.9477      7.7085     55.0806   2.9200699330e+02   7.1016203922e+00   0.02546166   0.01004425 -60.68  0.002069917    2.427    0.588
        78 -10.9163    149.9255     52.6433   2.9033293328e+02   6.3076828113e+00  0.009492151  0.008230912  29.60  0.000520682    1.156    0.135
        79 -11.0239     39.7353     52.7327   2.9161894772e+02   6.9443103000e+00   0.01298182  0.009541701 -25.54 0.0008988238    1.550    0.355
        80 -12.2479     20.8851     50.9814   2.9182857585e+02   7.0733222775e+00   0.02598388   0.01591103 -64.78   0.00259147    1.652    0.395
        81 -10.2606    157.1053     44.8941   2.9020271165e+02   6.3559084749e+00  0.009964562  0.008681926  56.65 0.0003843248    1.216    0.178
        82 -10.0039      9.9734     44.2001   2.9191542884e+02   7.2148989417e+00   0.00902617  0.005195681  26.73 0.0004562683    1.742    0.426
        83 -10.6264      5.2986     42.2309   2.9195825110e+02   7.2646710852e+00   0.01643544   0.01015198  83.76  0.001470331    2.379    0.580
        84 -11.2379     69.9813     41.6556   2.9119946224e+02   6.8982355015e+00   0.01749897   0.01075287  77.87  0.001549035    2.446    0.591
        85 -11.9195     42.5390     38.3312   2.9149992978e+02   7.0953029245e+00   0.01971789   0.01793117  73.06  0.001503539    1.176    0.150
        86 -10.5849    119.7334     33.8198   2.9057190175e+02   6.7011784475e+00   0.01310489  0.009483255  87.82  0.001359443    1.694    0.410
        87 -11.1548    103.7324     30.0884   2.9073616178e+02   6.8371750390e+00   0.02781925   0.01363862  46.45  0.001675592    2.280    0.561
        88 -11.5649    220.2529    248.8217   2.9069012028e+02   3.6217535359e+00   0.01746807  0.009756738  67.33  0.001414361    2.894    0.654
        89 -10.3837    239.8057     20.7431   2.8909458455e+02   6.1547989084e+00   0.01000786  0.008725326 -27.77 0.0005598371    1.195    0.163
        90 -11.4822     24.7918    241.7775   2.9292102775e+02   4.8331734149e+00   0.02264366   0.01135346  66.75  0.001552326    4.085    0.755
        91 -10.0156     56.5977     16.1668   2.9120283979e+02   7.2713096530e+00  0.009335621   0.00565537 -48.04 0.0002677065    1.637    0.389
        92 -11.2441     29.8963    233.0030   2.9280946204e+02   4.9058151740e+00   0.02427668   0.01342856  62.42  0.002025883    2.680    0.627
        93 -10.9294     12.8065    227.3193   2.9297461789e+02   5.0702878171e+00    0.0109835  0.009008946 -79.44 0.0005449839    1.306    0.234
        94 -11.4205     95.7806    224.3776   2.9199129465e+02   4.6260969039e+00   0.01934393   0.01595732 -75.48  0.002231275    1.274    0.215
        95 -10.0617     76.8549    225.6977   2.9221941235e+02   4.7200247390e+00   0.01306843  0.006299504  16.44  0.001071483    2.532    0.605
