#   1 NUMBER                 Running object number                                     
#   2 MAG_AUTO               Kron-like elliptical aperture magnitude                    [mag]
#   3 X_IMAGE                Object position along x                                    [pixel]
#   4 Y_IMAGE                Object position along y                                    [pixel]
#   5 X_WORLD                Barycenter position along world x axis                     [deg]
#   6 Y_WORLD                Barycenter position along world y axis                     [deg]
#   7 A_WORLD                Profile RMS along major axis (world units)                 [deg]
#   8 B_WORLD                Profile RMS along minor axis (world units)                 [deg]
#   9 THETA_WORLD            Position angle (CCW/world-x)                               [deg]
#  10 FWHM_WORLD             FWHM assuming a gaussian core                              [deg]
#  11 ELONGATION             A_IMAGE/B_IMAGE                                           
#  12 ELLIPTICITY            1 - B_IMAGE/A_IMAGE                                       
         1 -13.8921      6.4318     12.6930   1.2432617976e+02   7.1300491683e+01     2.345742    0.6294292 -53.23   0.01091475    2.290    0.563
         2 -14.4417    198.8316     17.4600   6.4827039641e+01   3.2741482058e+01     2.927722     1.506122  32.91  0.009791961    2.275    0.560
         3 -14.0491    203.5181      9.8624   6.1838777008e+01   3.2233554056e+01     2.634271     1.282507  25.20  0.001400577    2.786    0.641
         4  -9.4304     93.0708    244.5258   1.3366760308e+02   1.7347447868e+01    0.1463185   0.07048544  43.62  0.000396959    1.496    0.332
         5 -10.8662    206.5701    250.3511   1.1604958497e+02   1.3974865172e+00    0.3695967   0.09539285  44.61  0.001640011    3.379    0.704
         6  -9.8062    184.1696    250.5816   1.1961205537e+02   4.5010334025e+00    0.1557464   0.07004073  33.32  0.000656457    1.721    0.419
         7  -9.6751    150.7999    239.3725   1.2380521899e+02   1.0398675316e+01    0.1663339   0.07801548  41.35 0.0006480503    1.541    0.351
         8 -11.7416    150.3622    247.4044   1.2469684701e+02   9.5347489064e+00    0.4256189    0.3337419  13.42  0.002969027    1.554    0.356
         9 -11.6448    146.0453    241.0756   1.2476560160e+02   1.0861896884e+01     0.321283    0.2643879  15.27  0.000607539    1.446    0.308
        10 -11.2447    136.3032    227.9566   1.2505304113e+02   1.3851904249e+01    0.2831073    0.2192097 -28.74  0.002116296    1.857    0.461
        11 -11.6154    135.5228    241.0748   1.2649767804e+02   1.2309418735e+01    0.3343961     0.215805  25.80  0.001955086    1.714    0.416
        12 -12.4339    135.2756    236.4344   1.2608758689e+02   1.2915756522e+01    0.4287357    0.3259705 -79.32  0.003048041    1.855    0.461
        13 -11.1066    133.8676    249.3006   1.2753183760e+02   1.1547693861e+01    0.4257346    0.1557433  47.58  0.002419281    2.127    0.530
        14 -12.5985    125.1504    244.1164   1.2847408762e+02   1.3329196237e+01    0.5938886    0.4836498 -30.33  0.004102865    1.857    0.462
        15 -12.1472    111.4195    248.2407   1.3102862605e+02   1.4595932230e+01    0.8813338    0.2342012  42.85  0.004448378    2.564    0.610
        16 -12.2247     96.3478    239.2268   1.3275224155e+02   1.7651523640e+01    0.6721672    0.3715205  70.38  0.004487859    2.152    0.535
        17  -9.7582     93.6931    217.1484   1.3141944666e+02   2.1117157586e+01     0.236368     0.137335  86.83  0.001478527    2.293    0.564
        18 -12.2725    109.8800    230.1950   1.2977195693e+02   1.7154305624e+01    0.7463511     0.233367  42.39   0.00242015    2.328    0.570
        19 -10.9946     98.5558    231.5612   1.3178949536e+02   1.8422654426e+01    0.2548297    0.2108642  68.40 0.0008705062    1.201    0.168
        20 -10.7812    110.4568    222.3147   1.2895849878e+02   1.8176212924e+01     0.247771    0.2013579 -47.53 0.0007387918    1.670    0.401
        21 -11.0167     99.0487    247.3795   1.3292600133e+02   1.6248085031e+01    0.3909965    0.2004634  63.11  0.002607072    2.073    0.518
        22 -10.7606    104.6125    237.9099   1.3130072452e+02   1.6792610392e+01    0.2777314    0.1484814  37.78  0.001368148    1.553    0.356
        23 -10.8225    105.1061    219.1255   1.2959626008e+02   1.9345392436e+01    0.4099271    0.1870909  60.86  0.002018729    2.724    0.633
        24 -10.9907     92.6473    226.0076   1.3233587292e+02   1.9948790070e+01    0.3279147    0.1685445  54.75  0.001566616    1.638    0.390
        25 -12.0309     99.1532    223.2548   1.3099650226e+02   1.9522050984e+01    0.4414494    0.2290675  38.44   0.00107413    1.613    0.380
        26 -11.2026     80.9591    246.1796   1.3568771907e+02   1.8562661203e+01     0.412232    0.2318779  65.88  0.002519639    1.684    0.406
        27 -10.6228     87.5902    250.5506   1.3494007139e+02   1.7216171871e+01     0.411933    0.1441335  36.42   0.00178576    2.522    0.603
        28 -10.2371     88.1963    247.2050   1.3462282428e+02   1.7579399052e+01    0.1852914    0.1371305  23.99  0.001134712    1.830    0.454
        29  -9.6602     74.6292    250.6151   1.3693780238e+02   1.8699285612e+01     0.222076   0.07446005  36.10  0.001246837    2.705    0.630
        30 -13.6728     45.3792    247.3649   1.4117668796e+02   2.2252662918e+01     1.104945    0.5817212  35.35  0.008374392    1.872    0.466
        31 -12.7911     42.0012    236.7855   1.4120449143e+02   2.4068608159e+01    0.4977126    0.1907278  46.72  0.001002257    1.793    0.442
        32 -13.1410     46.7971    228.3728   1.4004413245e+02   2.4809550118e+01    0.3753428    0.3232493  37.98  0.001015464    1.505    0.336
        33 -14.9418     55.2893    217.1836   1.3802445596e+02   2.5616723988e+01     2.033137     1.570409  73.86   0.01737309    1.142    0.124
        34 -10.8176     72.3624    236.9854   1.3646068614e+02   2.0804372742e+01    0.5690136    0.2450473  79.92  0.002993015    3.870    0.742
        35 -10.3166     73.3140    230.2997   1.3587347184e+02   2.1646791941e+01    0.3306784    0.1814927  49.51  0.002408068    1.342    0.255
        36 -11.0622    143.1138    249.2313   1.2604211812e+02   1.0315111635e+01    0.3874535    0.2567971  75.28  0.002669461    2.393    0.582
        37 -10.7433     83.8056    242.1783   1.3497684013e+02   1.8766283767e+01    0.3169611    0.2082661  37.42   0.00249351    1.425    0.298
        38 -11.3658     89.9879    236.1566   1.3355805176e+02   1.8847905616e+01     0.440087    0.1681295  49.63  0.002635163    1.993    0.498
        39 -10.1663     83.6436    238.2755   1.3473698083e+02   1.9317029214e+01    0.2873565    0.1052939  41.40  0.001524938    2.004    0.501
        40  -9.7644     86.3035    237.2883   1.3423857797e+02   1.9136319523e+01    0.1677982    0.1168525  77.36 0.0002786037    1.475    0.322
        41 -10.9227    173.2916    240.0582   1.2017013283e+02   7.1249412851e+00     0.202857    0.1806154 -81.50  0.001009165    1.760    0.432
        42  -9.8539    115.9802    240.2161   1.2962944064e+02   1.5026289984e+01    0.1527605    0.1339471  58.45 0.0007824931    1.223    0.182
        43  -9.1269    211.6858    239.6687   1.1389220809e+02   1.6444356296e+00    0.1112037   0.06277293  19.68 0.0007045285    1.680    0.405
        44  -9.2967    119.4652    237.7016   1.2883534689e+02   1.4892133919e+01    0.2893304     0.148788  73.34  0.001406354    4.219    0.763
        45 -13.5645     20.0505    232.6662   1.4436215466e+02   2.6736875682e+01    0.6850706    0.4499497  82.61   0.00420094    1.326    0.246
        46 -11.0870    121.6935    232.9316   1.2802821965e+02   1.5216348877e+01    0.2844082     0.198445  41.81  0.001088416    1.115    0.103
        47 -11.3195    128.3211    233.3030   1.2694781831e+02   1.4268293300e+01    0.2923222    0.1754053  44.02  0.001723353    1.233    0.189
        48 -10.3556    165.5291    235.5305   1.2093564006e+02   8.7442630496e+00    0.1777958    0.1092436 -43.85  0.001226198    2.228    0.551
        49 -10.7934    162.3043    232.6595   1.2114705083e+02   9.5421246671e+00    0.2417314     0.150789  62.63  0.001477546    2.319    0.569
        50 -10.1858    108.1807    242.3947   1.3108127855e+02   1.5750328012e+01    0.1721647    0.1358927 -81.15  0.001458349    1.575    0.365
        51 -10.8538    166.1301    241.5421   1.2151284958e+02   7.9851033260e+00    0.2932868    0.1313424  29.73  0.001256142    2.279    0.561
        52 -10.5115    181.2494    230.4237   1.1769227400e+02   7.0158917360e+00    0.2330479    0.1786305 -61.66  0.001657564    2.219    0.549
        53 -11.3864    141.8972    230.1490   1.2432773726e+02   1.2779636383e+01    0.3048389    0.2222856 -35.26  0.001801802    1.919    0.479
        54 -10.5145     84.7133    229.8562   1.3396268342e+02   2.0369317073e+01    0.1786747    0.1610539  46.71   0.00084849    1.327    0.247
        55 -11.1337    165.4308    227.4073   1.2000001499e+02   9.7022920336e+00     0.296155    0.2101038 -66.38  0.001538982    2.384    0.581
        56  -9.8301    164.3174    220.8686   1.1939284471e+02   1.0657809985e+01     0.218962    0.1635551 -12.84 0.0009141304    1.788    0.441
        57  -9.5704    151.1360    229.9244   1.2272953129e+02   1.1486163870e+01    0.1733655    0.1159187  50.45 0.0007708558    1.340    0.254
        58 -10.3386     79.4496    229.1220   1.3478232226e+02   2.1102092463e+01    0.1724184    0.1130797  65.76 0.0007867261    1.346    0.257
        59 -10.4326    190.8370    228.1458   1.1579331476e+02   5.8375437107e+00    0.1798576    0.1321425  34.11 0.0002762167    1.064    0.060
        60 -10.9015    156.7485    231.6111   1.2196564293e+02   1.0471059662e+01    0.2022039    0.1554659  40.53 0.0003522582    1.060    0.057
        61  -9.2151    184.6631    228.6858   1.1689902747e+02   6.6996623767e+00    0.1135983   0.06940459  20.41 0.0007046906    1.693    0.409
        62 -10.7952    132.8011    224.2384   1.2526752730e+02   1.4835938893e+01    0.1932056    0.1486974  26.24 0.0007258652    1.380    0.275
        63 -10.9006    117.2729    224.3904   1.2797383048e+02   1.6967381498e+01    0.2178175    0.1537508  39.35 0.0004790245    1.193    0.161
        64  -8.5337     83.2991    225.6302   1.3388561355e+02   2.1149710929e+01     0.107421   0.05904926  63.50 0.0007030934    1.738    0.425
        65 -10.4732     78.6151    223.1489   1.3449208641e+02   2.2074723366e+01    0.3119167    0.2046257  78.82  0.002340567    1.562    0.360
        66  -9.5798    160.3651    224.1304   1.2047672209e+02   1.0847804419e+01    0.1586282    0.1291626   9.92 0.0008771695    1.408    0.290
        67  -8.8655    220.3686    223.4949   1.1025823096e+02   1.8982964835e+00    0.1104564   0.08106337  24.57 -7.508442e-05    1.052    0.050
        68  -9.1958    155.9453    223.4970   1.2116627334e+02   1.1580833470e+01     0.167138   0.08469585  41.30 0.0003531008    1.487    0.328
        69 -10.3833    149.9692    222.4553   1.2208321377e+02   1.2593278605e+01    0.1799643    0.1545233  26.97 0.0001348766    1.201    0.167
        70  -9.3782    149.5687    218.5361   1.2169434623e+02   1.3159433170e+01    0.1943808    0.1296157  54.45 0.0004761374    1.494    0.331
        71 -10.4472    141.6516    212.7905   1.2242413514e+02   1.5105879718e+01    0.3637716    0.1914498  39.82  0.001403249    1.495    0.331
        72 -12.1178    142.1207    221.0223   1.2329146991e+02   1.3926908308e+01    0.3081749    0.2935332  85.08  0.001017571    1.326    0.246
        73 -10.3242    137.3579    214.7635   1.2342455246e+02   1.5466900475e+01    0.2184531    0.1604078  69.49 0.0009640815    1.656    0.396
        74 -10.6200    176.8286    218.6413   1.1693148391e+02   9.0272550209e+00    0.3051909    0.1896426 -59.21  0.001774202    2.943    0.660
        75  -9.7830     89.1510    219.3618   1.3239601984e+02   2.1357920641e+01    0.1611221    0.1396315 -50.63  0.001114809    1.604    0.377
        76 -10.1893    233.9748    217.4900   1.0714932213e+02   4.4165241715e-01    0.1975115    0.1437062 -44.63 0.0008880179    2.507    0.601
        77  -9.2460    133.9239    217.6927   1.2436558449e+02   1.5562159852e+01     0.164077    0.1110259  42.42 0.0005619227    1.141    0.124
        78  -9.8630    183.1458    214.1571   1.1522448771e+02   8.5832585804e+00    0.1507423    0.1172628  46.44 0.0003858707    1.321    0.243
        79 -10.5186    102.2524    212.1853   1.2945443302e+02   2.0752449640e+01    0.3101087    0.1560599  59.33  0.001322397    2.088    0.521
        80 -10.9044     88.1126    213.0310   1.3205032204e+02   2.2445988002e+01    0.2065068    0.1864861  36.32 0.0004273922    1.344    0.256
        81 -15.3123     11.6854    208.7179   1.4479687265e+02   3.1117384401e+01     2.539259     1.127717 -79.13   0.01723209    2.087    0.521
        82 -12.6690    131.8475    211.6324   1.2405899005e+02   1.6709970999e+01    0.3028273    0.2320304  18.95 0.0005589536    1.556    0.357
        83  -9.5530    152.1422    211.9406   1.2043328335e+02   1.3645361717e+01    0.1685722    0.1303355  51.84 0.0005242723    1.251    0.201
        84 -10.1792    108.8234    208.7973   1.2793546776e+02   2.0381210351e+01    0.3119667    0.1607342 -81.33  0.001563196    3.513    0.715
        85 -13.2657     13.9931    239.0557   1.4546517388e+02   2.6351918060e+01    0.3196333    0.1656848  45.17  0.001003472    1.468    0.319
        86  -8.9161    197.8152    208.1158   1.1179439767e+02   6.9799207812e+00    0.1561404     0.107591  22.37 0.0002995143    1.251    0.200
        87 -10.7364    174.4006    206.3043   1.1567652867e+02   1.0920195265e+01    0.3329326    0.2231116  18.42  0.001185171    1.599    0.375
        88 -11.7640     93.1458    205.0962   1.3043807704e+02   2.3042885330e+01    0.5494517    0.2320976  45.21  0.001549284    1.871    0.465
        89 -11.5264    247.3460    205.3754   1.0306268708e+02  -4.3672267917e-01    0.4231224    0.1900913  25.80  0.002276626    1.937    0.484
        90 -10.3095    169.8070    200.2491   1.1564779606e+02   1.2441243128e+01    0.2022881    0.1529631  34.28  0.000368542    1.050    0.048
        91  -9.9854    125.9336    205.9559   1.2449226023e+02   1.8394474981e+01    0.1748105    0.1350706  48.46 0.0004483965    1.059    0.056
        92  -9.4069    113.8088    205.0204   1.2662742433e+02   2.0266604050e+01    0.2788501    0.1288285 -70.94  0.001356223    3.558    0.719
        93 -10.2633    115.2836    200.2785   1.2583312275e+02   2.0790090035e+01    0.2084636    0.1833367  12.25 0.0002604933    1.437    0.304
        94 -10.1908    122.6919    201.2939   1.2455815869e+02   1.9567023884e+01    0.1844771    0.1200749  48.05 0.0006274643    1.268    0.211
        95 -10.0368    149.6706    204.3288   1.1991336275e+02   1.5065132765e+01     0.234339    0.1715886  12.49 0.0009856793    1.700    0.412
        96 -10.4370    103.3488    202.9920   1.2835235998e+02   2.2023235072e+01    0.3021274    0.1941883  52.74  0.001378823    1.307    0.235
        97  -9.7583    100.5077    198.4246   1.2841579176e+02   2.3135231075e+01    0.2108668    0.1792874   2.56  0.001510068    1.694    0.410
        98 -10.5853     99.2689    194.9668   1.2829114978e+02   2.3865256213e+01     0.281012    0.2294962  10.70 0.0009071107    1.718    0.418
        99  -9.7937     75.4900    203.5743   1.3352406776e+02   2.5488896877e+01    0.2802533    0.1609032  29.72  0.001747876    2.014    0.503
       100  -9.5585    224.9175    202.6496   1.0629411377e+02   3.2806074898e+00    0.1669099    0.1135785  30.49 0.0004055069    1.134    0.118
       101  -9.8733    133.0553    202.9548   1.2281910198e+02   1.7789225482e+01    0.1706689    0.1395533  46.90 0.0003423078    1.041    0.039
       102 -10.8092    134.0344    197.7187   1.2198777810e+02   1.8423033873e+01    0.2597616    0.2047089 -88.59 0.0003105279    1.654    0.395
       103 -10.4901    197.1580    200.6375   1.1076856976e+02   7.9566142625e+00    0.3508492    0.2012913  47.21  0.001922415    1.705    0.414
       104 -10.5861    166.9362    203.2305   1.1659687744e+02   1.2505083816e+01    0.2547657    0.1371859  27.93 0.0003050192    1.905    0.475
       105 -10.1484     86.0814    197.6112   1.3104813798e+02   2.5159100874e+01    0.3358768    0.1472481 -66.33 0.0006962505    2.583    0.613
       106 -10.3201     83.6832    193.2676   1.3109284178e+02   2.6187222178e+01    0.3176239    0.2097666  14.79  0.001697293    2.583    0.613
       107  -9.5458    192.0427    197.9838   1.1126705582e+02   9.1117500273e+00    0.1793231    0.1408871  27.77  0.001208339    1.017    0.017
       108 -12.0495     70.8144    194.5254   1.3363478147e+02   2.7546776583e+01    0.3854171    0.2478685 -51.80  0.002187947    2.029    0.507
       109 -12.0086     75.5506    187.9230   1.3215271951e+02   2.8111077436e+01    0.2685638    0.2317007  57.99 0.0006352625    1.112    0.100
       110  -9.5391    112.8820    195.6431   1.2576492329e+02   2.1863619133e+01    0.2915383     0.131746  55.66  0.001431316    2.448    0.591
       111  -9.7304    113.0026    192.0292   1.2532438441e+02   2.2428389156e+01    0.1714246    0.1454345  46.49 0.0003060285    1.064    0.060
       112  -9.4058    107.3573    195.9231   1.2685086219e+02   2.2598072632e+01    0.1658792     0.127566  78.89 0.0006614757    1.408    0.290
       113 -10.3941    159.6920    194.2316   1.1666122456e+02   1.4901083712e+01    0.2772401    0.1725734  49.87  0.001041302    1.527    0.345
       114 -11.2096    120.4412    193.7500   1.2409308827e+02   2.1070156295e+01     0.335686    0.2530746  48.57  0.002284892    1.104    0.095
       115 -10.8731     38.6643    192.6830   1.3942115831e+02   3.1333479071e+01    0.2231661    0.1578762 -72.97  0.001738692    1.488    0.328
       116 -14.4820     27.1267    248.0224   1.4386939896e+02   2.3924700471e+01    0.9281394    0.5809254  39.00  0.006731607    1.562    0.360
       117 -10.4425    248.7148    193.9028   1.0088955569e+02   4.3298856421e-01    0.2827293    0.1312921  22.01  0.001442407    2.095    0.523
       118 -11.5342    249.6754    187.6813   9.9631543058e+01   8.8775884682e-01    0.3361842    0.2139671  -4.70   0.00210689    1.451    0.311
       119 -10.1349    173.0096    192.6467   1.1392742280e+02   1.2940341740e+01    0.2602441    0.1823863 -10.92 0.0009978041    1.848    0.459
       120  -9.7873     47.2680    192.9293   1.3787372755e+02   3.0425772634e+01    0.1358022    0.1198375 -84.84 0.0005283004    1.306    0.234
       121 -15.4111      6.0591    243.6571   1.4672621075e+02   2.6381742818e+01     1.230303    0.5774457 -86.64   0.01010083    1.990    0.497
       122 -10.4969    191.3085    191.5581   1.1037927694e+02   1.0035107748e+01    0.2753035    0.1889366  27.15 0.0007354773    1.229    0.187
       123  -9.8378    135.6596    190.1070   1.2068623007e+02   1.9338285067e+01     0.244929    0.1918147 -14.02  0.001195895    1.773    0.436
       124 -12.5268    249.1229    240.4211   1.0815615757e+02  -3.6386395542e+00    0.5584079    0.3133529  17.57  0.003924742    1.417    0.295
       125  -9.8099     42.5007    189.4016   1.3851452501e+02   3.1520959043e+01    0.2744744    0.1894975  20.40  0.001920141    2.083    0.520
       126  -9.3976     46.5962    187.4766   1.3762492099e+02   3.1441750042e+01    0.2279634    0.1246395  23.09  0.001338815    2.651    0.623
       127  -9.9922    175.7776    187.0029   1.1252802436e+02   1.3250079782e+01    0.2040481    0.1502475  36.56 0.0003387857    1.113    0.101
       128  -9.4612     67.4817    186.8541   1.3361290937e+02   2.9259885245e+01    0.1837889    0.1359927  21.84 0.0007121267    1.811    0.448
       129  -8.5807    161.2652    185.6603   1.1508581297e+02   1.5876316673e+01    0.1136658   0.09246615  69.48  0.000234192    1.595    0.373
       130  -8.9450    154.5146    185.4921   1.1636661751e+02   1.7019818871e+01    0.1243726    0.1030314  35.50 2.472825e-05    1.020    0.019
       131 -10.1618    143.3254    184.7220   1.1844021420e+02   1.8961493426e+01    0.1810891     0.171899  36.09  0.000585623    1.134    0.118
       132 -10.1966    140.0512    183.2925   1.1888068445e+02   1.9712029514e+01    0.2216803    0.1821974  73.29 0.0002741559    1.443    0.307
       133  -8.9202     81.8061    183.8879   1.3054359926e+02   2.8038532165e+01    0.1494629    0.1271045  72.08 0.0003228413    1.072    0.067
       134  -9.4982     87.4855    183.4839   1.2937851061e+02   2.7379360045e+01    0.3527736    0.1525382  34.50  0.001795126    2.302    0.566
       135  -9.5431     37.5754    184.2417   1.3909346541e+02   3.2913043819e+01    0.1857264    0.1186907  43.40  0.001349655    1.430    0.301
       136  -9.7057    217.3250    183.2318   1.0429590529e+02   6.6590401355e+00    0.1966947    0.1451387  32.01 0.0003069023    1.148    0.129
       137 -11.2326    248.5157    177.9632   9.8036245850e+01   2.0495686775e+00    0.2669989    0.2153702  -9.29  0.001820378    1.314    0.239
       138  -9.9261     66.0007    181.9996   1.3347533136e+02   3.0291298780e+01    0.1590475    0.1306318  64.30            0    1.024    0.024
       139 -10.6713    129.6464    179.8502   1.2047082112e+02   2.1919882751e+01    0.4537021    0.2014792  51.52  0.001803666    2.329    0.571
       140 -10.1672    135.3347    178.2906   1.1910144582e+02   2.1272726192e+01    0.3158776    0.1689013 -44.01  0.001657076    2.236    0.553
       141  -9.4487    114.8110    179.9955   1.2348648134e+02   2.4164815760e+01    0.2096716    0.1610111  78.15  0.001342434    1.476    0.322
       142  -9.8515    115.0018    176.5127   1.2299162148e+02   2.4733213951e+01    0.2451109    0.1712337  77.35 0.0009979737    1.793    0.442
       143 -10.1063    104.1412    180.7569   1.2573734562e+02   2.5585143481e+01    0.1737355    0.1596034 -87.71 0.0002944177    1.174    0.148
       144  -9.8472    175.7368    179.9191   1.1138248813e+02   1.4247528568e+01    0.2193659     0.148444  31.01 0.0004230335    1.283    0.220
       145  -9.3346     48.1934    179.8247   1.3676720070e+02   3.2639684226e+01    0.1575687     0.108965  60.22 0.0004416771    1.192    0.161
       146 -10.6264    181.8320    177.3416   1.0977972430e+02   1.3551741548e+01    0.3184492    0.2056003  35.24  0.001806823    1.297    0.229
       147 -11.6910     84.5712    176.0282   1.2916800051e+02   2.9084383534e+01    0.3882047    0.2728418  57.00  0.001298594    1.257    0.205
       148  -9.9819     77.1882    175.7302   1.3064081725e+02   3.0077432290e+01     0.168145    0.1331408  77.92 0.0005920957    1.168    0.144
       149 -12.3725     70.9642    174.1691   1.3175021733e+02   3.1124814860e+01    0.3220718    0.2656514  18.17 0.0006610558    1.619    0.382
       150 -11.0343     68.9837    167.4388   1.3148190406e+02   3.2615636023e+01     0.304658    0.1828363 -63.70 0.0009593814    1.698    0.411
       151 -10.3745     30.3214    177.4935   1.4003416636e+02   3.4806442067e+01    0.3980525   0.09890243  40.58   0.00201406    2.953    0.661
       152  -9.6042    109.0418    176.3277   1.2418953517e+02   2.5648625031e+01    0.2030341    0.1485837  75.65 0.0006689496    1.547    0.353
       153  -9.3504     95.6449    174.7883   1.2675479036e+02   2.7825770216e+01    0.2352062    0.1830847 -47.79 0.0008394012    1.559    0.359
       154 -11.9968    249.0812    171.7322   9.6760771203e+01   2.6043209413e+00    0.4212376    0.2957062  35.09  0.002638131    1.340    0.254
       155  -9.5836    154.3120    172.9785   1.1445267498e+02   1.8977281916e+01    0.3149294    0.1860944  19.26  0.001052999    2.383    0.580
       156  -9.4566    139.1902    173.4171   1.1759157601e+02   2.1446123907e+01    0.1795243    0.1027199  49.47 0.0003726281    1.642    0.391
       157  -9.6424     89.1199    157.0932   1.2593584300e+02   3.2017192742e+01    0.2014008      0.15764  33.50            0    1.354    0.262
       158 -10.9391     80.7429    163.4688   1.2855273127e+02   3.1908685281e+01    0.2219597    0.1882841  69.42   0.00021667    1.039    0.038
       159 -10.1407     91.1598    172.7867   1.2744563316e+02   2.8799348627e+01    0.2181777    0.1863156 -19.47 0.0008163744    1.667    0.400
       160 -12.5715     89.9734    167.1693   1.2702379314e+02   2.9992500906e+01    0.6132334    0.5761511  80.76  0.002757503    1.125    0.111
       161  -9.9366     84.9790    165.2300   1.2785356555e+02   3.1022970297e+01    0.1935574    0.1387032  51.63 0.0003221172    1.246    0.197
       162 -11.6024      2.1233    170.4784   1.4495482090e+02   3.8387800332e+01    0.5193089    0.1172408 -82.50  0.002375114    3.877    0.742
       163 -10.0434     31.5103    171.5800   1.3942845996e+02   3.5781018606e+01    0.1379808   0.08178503  84.15 8.305206e-05    1.483    0.326
       164 -12.0916     24.4968    164.4453   1.4034976562e+02   3.7738657061e+01    0.4221782    0.2855362 -80.65  0.003132601    1.311    0.237
       165 -11.5989     35.1367    159.2624   1.3782232216e+02   3.7778541729e+01    0.5076991    0.2833527  16.52  0.002885573    2.871    0.652
       166 -12.0754     23.8469    149.3278   1.3946317582e+02   4.0717564886e+01    0.4658365    0.2121804  87.09  0.002453359    2.124    0.529
       167 -12.3701     22.7428    156.3270   1.4017814603e+02   3.9439422532e+01    0.4036121    0.3591684 -25.71  0.003253347    1.672    0.402
       168 -10.0543     32.8681    154.1397   1.3790296997e+02   3.8985543731e+01    0.1611686    0.1355871  86.38            0    1.098    0.089
       169  -9.1314    183.5074    171.4560   1.0842770452e+02   1.4086025879e+01     0.131635    0.1084102  27.15 9.389569e-05    1.007    0.007
       170  -8.9477    100.6199    170.7385   1.2522211758e+02   2.7858600814e+01    0.1515786    0.1096631 -78.91 0.0009328543    1.547    0.354
       171  -8.6711    167.2273    170.0091   1.1136595543e+02   1.7191726753e+01    0.1524408    0.1081053 -37.97 0.0008672536    1.618    0.382
       172 -11.0209     43.9942    169.2598   1.3678476345e+02   3.5015223081e+01    0.2646898    0.2387923  63.09  0.001238975    1.216    0.177
       173 -10.3395     47.6861    168.3310   1.3596287858e+02   3.4814283468e+01    0.2422322    0.1367268  89.03 0.0008628165    1.740    0.425
       174  -9.3183     36.0288    170.5053   1.3846737255e+02   3.5559430144e+01     0.148001   0.09075418  41.70 0.0005778348    1.537    0.349
       175  -8.7565    113.3451    169.6796   1.2240934707e+02   2.6179941621e+01    0.1282835    0.0858236  66.65 0.0007049612    1.729    0.422
       176  -9.7883    107.5334    168.2067   1.2343353441e+02   2.7313404977e+01    0.2391433    0.1424817  36.28  0.000998883    1.603    0.376
       177  -9.5033     58.7635    167.7872   1.3364276452e+02   3.3728882983e+01     0.152926     0.133716  79.53 0.0004789312    1.096    0.088
       178 -11.3845    249.0660    150.1241   9.2417021073e+01   4.9628000801e+00    0.6124762    0.3239902 -28.75  0.002861785    1.896    0.473
       179 -12.4285    245.0744    162.3948   9.5588762996e+01   4.2854244964e+00    0.4851151    0.3644206 -10.18   0.00305799    1.248    0.198
       180  -9.0916    175.9214    166.4308   1.0900665369e+02   1.6179577246e+01     0.170782    0.1070533  60.58 0.0003553775    2.296    0.564
       181  -9.5297    136.2711    165.6421   1.1698156649e+02   2.3236038589e+01    0.1860537    0.1822092 -52.11 0.0004514033    1.158    0.137
       182 -11.1853     29.1560    156.2706   1.3884448826e+02   3.8900679940e+01    0.2627594    0.2439692 -76.54  0.001087196    1.317    0.241
       183  -8.8917    124.4305    165.4264   1.1944977124e+02   2.5208375374e+01    0.1241768    0.1098784  47.61 -2.688501e-07    1.002    0.002
       184 -10.0199     47.1847    163.4153   1.3565392362e+02   3.5800403815e+01    0.1903961    0.1313809 -87.56 0.0006391693    1.305    0.233
       185 -12.4581    245.6055    156.4073   9.4289040015e+01   4.8616914903e+00    0.9931689    0.8070485  86.04  0.005268957    2.882    0.653
       186  -9.8941     37.1128    162.8508   1.3768842171e+02   3.6902372842e+01    0.1681027    0.1147798  67.32 0.0005710243    1.244    0.196
       187  -9.8084    123.2664    160.7831   1.1898526125e+02   2.6222806844e+01    0.2022318    0.1832922  22.51  0.000226407    1.185    0.156
       188  -8.7626    119.7393    159.3190   1.1952233223e+02   2.7053191747e+01    0.1673718     0.112029  33.13            0    1.493    0.330
       189 -11.3432     96.1950    159.0451   1.2463665046e+02   3.0657074257e+01    0.2895156    0.2404726 -49.75  0.001898383    1.372    0.271
       190 -10.2846     71.9808    156.5064   1.2964871471e+02   3.4354964629e+01    0.2980644    0.2142213   9.42  0.001332813    2.175    0.540
       191  -9.9264     79.0542    158.9520   1.2838405789e+02   3.2991745688e+01    0.1746011    0.1519694  68.76 0.0003974111    1.005    0.005
       192  -9.2693     52.5137    158.4940   1.3408784165e+02   3.6195513406e+01    0.1111478   0.09400285  77.56 -3.50847e-05    1.030    0.029
       193  -9.5161     47.5156    157.7102   1.3508418141e+02   3.6871044035e+01    0.1789919     0.146895  67.82  0.001111657    1.061    0.058
       194  -9.7897    134.4837    155.9459   1.1576596349e+02   2.5229921876e+01    0.2218959     0.188821 -82.02 0.0005468189    1.413    0.292
       195  -9.6848    132.0812    152.3287   1.1567142006e+02   2.6288719400e+01    0.2024788    0.1785733 -75.93 0.0003688561    1.298    0.230
       196  -8.8798    228.3603    155.2616   9.6991061567e+01   8.0749052735e+00     0.168501    0.1151006 -30.46 0.0005165129    1.609    0.379
       197 -11.3965     13.5660    153.9311   1.4191162056e+02   4.0635245676e+01    0.2327579    0.1575089 -82.65   0.00111266    1.249    0.200
       198  -9.2915      8.6782    155.3221   1.4297969024e+02   4.0733172956e+01    0.1105929     0.056196  64.97 0.0007045749    1.676    0.403
       199  -9.7197     62.2176    152.7672   1.3138825909e+02   3.6251356401e+01    0.2702781    0.1467768 -74.28 0.0009886632    1.812    0.448
       200 -10.7468    112.6376    152.3679   1.2000451639e+02   2.9467922383e+01    0.3145049    0.2397013  47.56 0.0006158697    1.209    0.173
       201 -10.9544     74.0111    159.6186   1.2956199060e+02   3.3498777246e+01    0.2786048     0.200759 -58.78 0.0003479835    1.480    0.324
       202 -10.8975    102.3021    151.0020   1.2212461117e+02   3.1310949153e+01    0.2941556    0.2513597  70.84  0.001539098    1.149    0.130
       203  -9.8348    105.0255    146.0415   1.2073400073e+02   3.1864800221e+01     0.257315    0.2152422 -17.62   0.00155049    1.559    0.359
       204  -8.7499    119.7204    151.3473   1.1825231121e+02   2.8528955021e+01    0.1288505   0.09676563  76.61 0.0003026261    1.639    0.390
       205 -10.4104     90.9439    150.2348   1.2459405260e+02   3.3101616276e+01    0.2006832    0.1680336 -82.93 0.0004054673    1.191    0.160
       206 -11.1475     56.1817    150.3680   1.3247562372e+02   3.7406608071e+01    0.4630808    0.3435954 -55.68  0.001998932    1.490    0.329
       207  -9.7914     53.4286    146.4767   1.3268432015e+02   3.8489061503e+01    0.1798406    0.1529254  72.39 -0.0001130553    1.048    0.045
       208 -12.3756     74.0681    138.9350   1.2695846625e+02   3.7630639897e+01    0.8796111    0.4504771  51.74  0.004059944    1.999    0.500
       209 -10.5610     66.7208    147.6909   1.2979461505e+02   3.6742822102e+01    0.1929341    0.1545203 -87.67 0.0002195025    1.153    0.133
       210 -13.0721     67.2544    143.5858   1.2917249363e+02   3.7512667852e+01     0.782446    0.4192931  63.97  0.003056156    2.182    0.542
       211 -11.4673    133.7163    143.0787   1.1364538772e+02   2.7700883976e+01    0.8401723    0.2863111 -51.64  0.003084703    3.397    0.706
       212 -10.5308     35.6477    149.3233   1.3691439759e+02   3.9685267189e+01     0.231679    0.1256463  56.05 0.0008052325    1.705    0.414
       213 -11.2619     32.5011    145.9910   1.3732526641e+02   4.0638854653e+01    0.3249637    0.1573117 -69.87  0.001908929    1.814    0.449
       214 -12.0088     32.7472    141.6664   1.3690136009e+02   4.1492789227e+01    0.3268279    0.3129489 -37.88  0.002435601    1.398    0.285
       215  -9.1219    141.4967    147.9981   1.1282087617e+02   2.5425829030e+01    0.2790559    0.1653734  10.54   0.00104371    3.596    0.722
       216 -10.6502     41.4956    146.5028   1.3537356416e+02   3.9699287550e+01    0.2218808    0.1507676 -38.36  0.001374456    2.133    0.531
       217 -12.2568      2.0566    122.4002   1.4248623216e+02   4.7737155310e+01    0.6477828    0.1256163 -80.44  0.002423336    4.445    0.775
       218 -10.5504    236.5038    146.0929   9.3659402240e+01   7.6996672742e+00    0.3462555     0.156258  40.59  0.001589724    1.992    0.498
       219 -12.4239    248.1082    101.6774   8.1495980973e+01   1.0908400989e+01    0.9593546    0.4648629 -19.07  0.004199403    1.974    0.494
       220 -11.5968    249.4243    124.0248   8.6613914197e+01   7.9372751777e+00    0.8119655    0.6450239 -88.65  0.004160877    2.573    0.611
       221 -10.1003    249.5201    117.9147   8.5179241547e+01   8.6522724118e+00    0.2496424     0.209076  12.11  0.000734703    1.074    0.068
       222 -11.4536    248.3943    113.0263   8.4200390379e+01   9.4638914506e+00     0.546997    0.3888802  18.52  0.002993748    1.298    0.230
       223 -11.6067    247.9841    141.5319   9.0760469876e+01   6.1399525634e+00    0.8658942    0.2548045  38.24  0.003202183    3.224    0.690
       224 -12.4177    248.3621    134.1042   8.9066678168e+01   6.9397275546e+00    0.8615232    0.7244684   5.58  0.005137896    1.103    0.093
       225 -11.7063     26.7254    140.5741   1.3816409266e+02   4.2234542274e+01     0.360351    0.1832278 -89.35  0.002103296    1.812    0.448
       226  -9.3047     53.5341    140.0867   1.3196211198e+02   3.9785496339e+01    0.1616469    0.1317926 -85.68 0.0003937008    1.084    0.078
       227 -10.7020     46.0077    138.9886   1.3360130613e+02   4.0791449886e+01    0.2071542    0.1487616 -79.80  0.000814072    1.231    0.187
       228 -10.0454     49.7634    137.7671   1.3258901612e+02   4.0662578771e+01    0.2944311    0.1309927  44.08  0.001347905    2.140    0.533
       229  -8.7272    164.2442    139.6228   1.0621050320e+02   2.2644624242e+01    0.1298642     0.110459 -79.01 0.0006772642    1.635    0.388
       230 -10.2391    119.1702    138.2862   1.1611521089e+02   3.1113244035e+01    0.2477759    0.1956577 -22.89  0.001379868    1.585    0.369
       231 -11.0096    112.6810    136.3354   1.1729619907e+02   3.2568304468e+01    0.4747714    0.2771997  42.60  0.001894696    1.632    0.387
       232 -11.6002      2.3112    144.2684   1.4369881688e+02   4.3317637623e+01    0.3679374    0.1446269 -81.24  0.002134765    2.046    0.511
       233 -10.8961     33.5280    136.0269   1.3621484438e+02   4.2582015855e+01    0.2240039    0.2043128 -26.43  0.001147245    1.492    0.330
       234 -11.0896     58.3960    133.4643   1.3001469293e+02   4.0635094577e+01    0.2774754    0.2036915  38.12  0.001482539    1.437    0.304
       235 -12.2305     45.9181    131.6026   1.3282006853e+02   4.2342762356e+01    0.5641216    0.3409068  56.55    0.0028301    1.645    0.392
       236  -9.3127    107.0827    129.8973   1.1747883313e+02   3.4764603305e+01    0.2260448    0.1380372  61.25 0.0006551027    2.051    0.512
       237 -11.4612     66.2224    127.9142   1.2733913786e+02   4.0906407546e+01    0.4124101    0.2867661 -78.74  0.001367809    1.398    0.285
       238  -9.9599    117.8496    128.9149   1.1466355649e+02   3.3181659713e+01    0.2179016    0.1507538 -23.72 0.0008855987    1.997    0.499
       239 -11.8438     31.9018    126.7747   1.3571109127e+02   4.4661053160e+01    0.3245271    0.2160479  50.68  0.001573934    1.488    0.328
       240 -10.3954    209.7510    125.8258   9.3911099251e+01   1.5607070957e+01    0.2629628    0.2245141  -4.48 0.0005240247    1.098    0.089
       241  -9.6089     85.9582    126.6995   1.2217819293e+02   3.8603304292e+01     0.230667     0.185114 -14.34  0.001244602    1.708    0.414
       242 -11.9337      9.2323    125.2226   1.4099904926e+02   4.6702522186e+01    0.3319609    0.1399675 -87.55  0.001806987    2.071    0.517
       243  -9.6717    159.9869    126.4920   1.0429817027e+02   2.5756955657e+01    0.1929964    0.1250101  66.37 0.0004942184    2.389    0.581
       244 -11.6526     37.8587    123.9202   1.3394331070e+02   4.4742075960e+01    0.4031385    0.2262199 -66.54  0.001511936    1.546    0.353
       245  -9.9579     61.1035    124.8874   1.2820406707e+02   4.2151732147e+01    0.1877575    0.1502481  77.09 0.0004114516    1.209    0.173
       246  -8.8928    114.7202    122.9857   1.1425554911e+02   3.4906560049e+01    0.1641733    0.1193069 -50.99 0.0003096972    1.399    0.285
       247  -9.4111     50.4839    122.9940   1.3065024387e+02   4.3714851814e+01    0.1833631    0.1056145 -73.41  0.001020238    1.582    0.368
       248  -9.5470    238.9571    121.5770   8.7746191019e+01   1.0265780672e+01    0.3089117     0.158042  -5.46  0.001258192    2.483    0.597
       249 -10.9372     21.1201    120.6985   1.3777269865e+02   4.6816203183e+01     0.220124    0.1083193 -52.99   0.00123622    2.121    0.529
       250 -12.3559      8.9212    142.6818   1.4221408346e+02   4.3179521691e+01    0.3426693    0.2819332  41.55  0.002789946    1.402    0.287
       251  -8.7001    130.6663    119.2605   1.0952910646e+02   3.2806496994e+01    0.1377093     0.109482  72.21 0.0002443563    1.574    0.365
       252 -11.6130     30.3305    117.8494   1.3518075352e+02   4.6700057399e+01    0.3071179    0.1983845  54.61  0.001196421    1.561    0.359
       253 -10.1896     37.1411    143.8596   1.3610683120e+02   4.0647482515e+01    0.1681859    0.1266348  67.73 0.0005178157    1.174    0.148
       254 -11.1751     33.0000    115.0104   1.3417964779e+02   4.7090236541e+01    0.3058506    0.1309507 -73.21  0.001474295    2.012    0.503
       255 -11.0597    168.2466    113.5060   9.9401688237e+01   2.6325105775e+01    0.3538891    0.3156155 -87.24 0.0009016847    1.489    0.328
       256  -9.5484     72.7405    115.0531   1.2364735251e+02   4.2872077641e+01    0.1731244    0.1544901 -67.08 0.0003430635    1.060    0.056
       257  -8.7965     82.0293    114.2453   1.2101990882e+02   4.1810942798e+01    0.1529052    0.1100022  36.57  0.000224759    1.466    0.318
       258  -9.2668    203.5079    111.5078   9.1628408834e+01   1.9022524288e+01    0.1510554    0.1291962  12.00  0.000810206    1.043    0.042
       259 -10.0026     69.9746    111.3102   1.2375280039e+02   4.4039406508e+01    0.1699672    0.1550334  55.97 0.0002979529    1.144    0.126
       260 -11.4753     57.1519    110.6785   1.2714678452e+02   4.5688098578e+01    0.4494492    0.2396685  24.82  0.002270903    2.337    0.572
       261  -9.2226    114.6542    107.2712   1.1088075276e+02   3.8136987895e+01    0.1397597    0.1096763  74.53 0.0002558503    1.619    0.382
       262 -10.3105    134.7793    105.5326   1.0530002376e+02   3.4709017805e+01    0.3788101    0.1742969 -43.41  0.001500139    2.199    0.545
       263 -10.2852     28.5424    106.0577   1.3432336446e+02   4.9412477577e+01    0.1618583    0.1489776  77.27 0.0003118927    1.167    0.143
       264 -11.6001      2.9149    138.7355   1.4327238829e+02   4.4370210874e+01    0.2750959    0.1931855  70.30   0.00120642    1.179    0.151
       265  -8.9100    106.0757    102.9957   1.1218419389e+02   4.0518071983e+01    0.1601335    0.1530838  38.79 0.0003243497    1.071    0.066
       266  -8.8973     42.6808    103.6985   1.3010310704e+02   4.8713300470e+01    0.1201732   0.08324774 -42.14 0.0003499225    1.624    0.384
       267 -10.3470     62.5693    106.8140   1.2502308354e+02   4.5926154072e+01    0.2515965    0.1054147 -58.53  0.001140379    2.087    0.521
       268  -9.8565     62.8502     99.7737   1.2369918772e+02   4.7457170091e+01    0.2300366    0.1517789 -52.98   0.00074741    1.396    0.284
       269 -10.8280      1.7622     90.1662   1.4008330441e+02   5.4613084630e+01     0.337087   0.07900872 -79.49  0.001299077    3.681    0.728
       270 -10.2834     46.4076     90.1420   1.2684932171e+02   5.1392835954e+01    0.3176501    0.1744223  22.79  0.001653456    2.272    0.560
       271  -8.4378     64.3026     76.6889   1.1840712955e+02   5.2441813122e+01    0.1288257    0.1001985  83.21 0.0006603438    1.609    0.379
       272 -10.9826    221.5812    245.7769   1.1312672577e+02  -2.9121879801e-01    0.3626834    0.1536005  16.59  0.001565466    4.410    0.773
       273  -9.6679    199.7865    245.7974   1.1656522629e+02   2.7654915771e+00    0.1364545   0.09992286  41.73 0.0004281473    1.328    0.247
