#   1 NUMBER                 Running object number                                     
#   2 MAG_AUTO               Kron-like elliptical aperture magnitude                    [mag]
#   3 X_IMAGE                Object position along x                                    [pixel]
#   4 Y_IMAGE                Object position along y                                    [pixel]
#   5 X_WORLD                Barycenter position along world x axis                     [deg]
#   6 Y_WORLD                Barycenter position along world y axis                     [deg]
#   7 A_WORLD                Profile RMS along major axis (world units)                 [deg]
#   8 B_WORLD                Profile RMS along minor axis (world units)                 [deg]
#   9 THETA_WORLD            Position angle (CCW/world-x)                               [deg]
#  10 FWHM_WORLD             FWHM assuming a gaussian core                              [deg]
#  11 ELONGATION             A_IMAGE/B_IMAGE                                           
#  12 ELLIPTICITY            1 - B_IMAGE/A_IMAGE                                       
         1 -14.0089    166.9638     37.9124   7.7742115129e+01   3.9078981437e+01      1.33099     1.040837   1.60  0.004437804    1.552    0.356
         2 -13.4775    181.5594      6.0265   6.5596195700e+01   3.8874695490e+01     1.007389    0.7817445  71.65  0.004186099    1.163    0.140
         3 -11.5690     13.6838    244.6650   1.5067627149e+02   2.4209376936e+01    0.2329336   0.07097059 -74.39  0.001311664    3.003    0.667
         4  -9.2274    150.7382    250.6724   1.2812327429e+02   4.6331184675e+00    0.1625523   0.08170874  47.63 0.0003910718    1.547    0.354
         5 -19.8865     65.3138    169.4940   1.3539881253e+02   3.2779433171e+01     18.23653     4.254937 -67.09   0.06051486    4.342    0.770
         6 -11.1915    208.0649    196.5271   1.0960670587e+02   2.5599388412e+00    0.2331669    0.2100059  67.92  0.000935766    1.450    0.310
         7 -11.7103    202.5068    197.4930   1.1081380912e+02   3.4285122500e+00    0.3585835    0.2022994  21.20  0.001623505    2.318    0.569
         8 -11.0900    140.7025    199.6822   1.2332242473e+02   1.4448668437e+01    0.2559229    0.2100979  31.94 0.0004228071    1.291    0.225
         9 -11.5528    137.5271    198.5318   1.2379764885e+02   1.5226378002e+01    0.4584947    0.2745667  68.58   0.00213782    2.225    0.550
        10 -10.2620     23.0012    232.2842   1.4863859537e+02   2.5362650894e+01    0.2278072    0.1294485  37.26  0.001547857    1.963    0.491
        11 -10.9475    175.1920    194.1142   1.1548428433e+02   9.0432683107e+00    0.2800478    0.2026796 -88.18 0.0008660253    2.302    0.566
        12  -9.6512    153.2102    194.3878   1.1995102548e+02   1.3115725442e+01    0.1914438    0.1119813  51.57 0.0003597979    1.588    0.370
        13 -10.8413    180.0234    192.2951   1.1421372142e+02   8.4328129196e+00    0.2472588    0.2138232  60.90 0.0004333032    1.262    0.208
        14 -11.6283    167.1937    191.7866   1.1668285125e+02   1.0949093944e+01    0.3650512     0.219289  36.01  0.001800107    1.589    0.371
        15  -9.2631    227.6600    231.7512   1.1206715205e+02  -5.3271935436e+00    0.1380221    0.1057419 -32.83 0.0007491055    1.612    0.380
        16 -10.4799    176.4525    188.2396   1.1420556781e+02   9.7923461934e+00    0.2352252    0.1354812 -38.65 0.0008971541    1.989    0.497
        17 -10.7402    184.5053    186.7833   1.1234379486e+02   8.4910686736e+00    0.2614966    0.1780669  42.25 0.0008104493    1.308    0.236
        18 -10.8573     27.9134    184.0208   1.4477391714e+02   3.4096419834e+01    0.1674719    0.1340625  71.87 0.0002998151    1.125    0.111
        19 -12.4355    206.1849    180.1437   1.0689872117e+02   5.3972077883e+00    0.8571178    0.3933861  36.13  0.003197407    2.166    0.538
        20 -12.1223    196.9282    173.0033   1.0727812220e+02   8.3583031957e+00    0.7630214    0.4093094 -49.75   0.00265401    2.320    0.569
        21 -13.1955    137.7968    171.1493   1.1928666703e+02   2.0443484350e+01    0.6958788    0.5106772  60.55  0.003394737    1.360    0.265
        22 -10.6690    177.7579    170.9211   1.1070708012e+02   1.2563034407e+01    0.4220784    0.1644271 -52.20  0.001443392    3.585    0.721
        23 -12.3762    145.0068    168.9869   1.1730846869e+02   1.9480547549e+01    0.6221157    0.4069096  88.27  0.002630847    2.523    0.604
        24  -9.9878    202.1429    166.2110   1.0489338316e+02   8.4492933664e+00    0.2588047    0.1876652 -66.96  0.001232336    2.118    0.528
        25 -10.7560     27.2075    227.6403   1.4770025044e+02   2.5735346362e+01    0.1600121    0.1146325 -87.89 0.0004090446    1.299    0.230
        26 -10.3992    196.8804    245.1192   1.1935066591e+02  -2.0386727655e+00    0.1748088    0.1371286  46.07 0.0007057886    1.270    0.212
        27 -10.1233    224.0023    164.4874   1.0044913766e+02   4.4048931201e+00    0.2411336     0.186327 -46.97 0.0005976305    1.530    0.347
        28 -10.4857    130.5309    161.6759   1.1920701809e+02   2.3779854810e+01    0.2444998    0.1607158  63.81 0.0006661774    1.700    0.412
        29 -11.6550    164.1964    157.3153   1.1083621275e+02   1.7893892778e+01    0.3427313    0.2820684  17.85  0.001069305    1.403    0.287
        30 -12.1241    167.9345    233.0072   1.2283176855e+02   4.3052957249e+00    0.3672988    0.2218451  45.18 0.0009788326    1.333    0.250
        31 -12.9985    134.2009    146.3272   1.1536298152e+02   2.6315051494e+01      1.29294    0.3497936 -55.35  0.003348278    5.313    0.812
        32 -10.7482     20.8123    219.2196   1.4832661300e+02   2.7946655164e+01     0.136764    0.0967117  70.23 0.0002121575    1.038    0.036
        33 -11.2741     16.5695    217.6529   1.4896713463e+02   2.8670251586e+01    0.1409035    0.1140099  80.07  0.001146552    1.262    0.207
        34 -12.4328     13.4613    143.5069   1.4457421680e+02   4.4144997414e+01    0.3206496    0.2000015  88.04  0.001844151    1.316    0.240
        35 -13.1121      6.5525    139.0490   1.4580613735e+02   4.5661754798e+01    0.5453843     0.423202  72.54  0.003978583    1.187    0.158
        36 -12.7831      3.0151    126.4170   1.4555687459e+02   4.8698546771e+01     1.071448    0.2709179 -74.22  0.004539795    2.936    0.659
        37 -10.9784    174.3348    149.2312   1.0694418001e+02   1.7305253384e+01    0.3072969    0.2428233  41.60 0.0009715126    1.212    0.175
        38 -10.6918    151.5471    150.0584   1.1212699902e+02   2.1980311074e+01    0.2706895     0.197281  61.45 0.0005399581    1.465    0.317
        39 -11.6980    159.0195    234.5260   1.2466153383e+02   5.5786205485e+00    0.3842001     0.195558  45.49  0.001669925    1.563    0.360
        40 -12.3590    144.5872    145.7628   1.1281384228e+02   2.4315512634e+01    0.5694833    0.3626276  69.25  0.002373786    2.140    0.533
        41 -10.3429    127.7820    143.3829   1.1628918789e+02   2.8227134161e+01    0.2031256    0.1378845  36.20 0.0004732803    1.582    0.368
        42 -11.9648     23.5785    140.7103   1.4189763435e+02   4.3906809903e+01    0.3411265      0.17674  31.20  0.001267306    2.254    0.556
        43 -10.7996    163.1294    210.3609   1.2048166800e+02   8.5887371752e+00    0.2214923    0.1968319 -68.25 0.0009622002    1.361    0.265
        44 -11.9993    135.6256    122.3751   1.0967971915e+02   3.1190322714e+01     0.643412    0.2727613 -55.75  0.002152436    2.903    0.656
        45 -11.5242    109.3484    124.9929   1.1699992511e+02   3.5869378833e+01    0.3019114    0.2869345 -36.62 0.0005468981    1.165    0.141
        46 -12.7289    119.8312    129.1057   1.1520447521e+02   3.2940006174e+01    0.5908269    0.4689617  13.33  0.001663216    1.709    0.415
        47 -11.9988    125.4883    127.2698   1.1336008551e+02   3.2222576043e+01    0.5663357    0.3690779 -82.50  0.002275934    2.372    0.578
        48 -12.3964     19.5635    127.9943   1.4153141648e+02   4.7122134564e+01    0.3482704    0.2414148 -40.69  0.001978512    1.824    0.452
        49 -11.3964    161.1727    127.3222   1.0481818827e+02   2.4537754495e+01    0.4032243    0.2703864 -46.09  0.001814535    1.527    0.345
        50 -11.0644    114.0434    118.4606   1.1427297064e+02   3.6450701437e+01    0.2830991    0.2180307 -54.46 0.0003534675    1.271    0.213
        51 -11.1188    169.5477    115.4026   9.9984824581e+01   2.5001098429e+01    0.5404175    0.3555884 -75.47  0.002060106    2.512    0.602
        52 -11.6392      4.1487    112.3100   1.4387843567e+02   5.1765653565e+01    0.3236638    0.2408494  -9.79  0.002210507    1.957    0.489
        53 -10.2631    205.4602    110.1762   9.1368358714e+01   1.7500200214e+01    0.3361252    0.2156104  42.68 0.0009871016    1.619    0.382
        54 -12.0682     98.0398    110.8856   1.1683854542e+02   4.1136187298e+01    0.3488265     0.325437  40.67  0.001301388    1.152    0.132
        55 -10.9266    126.2843    209.5786   1.2761316656e+02   1.5183991330e+01    0.2526931    0.1029072  46.21  0.001108691    2.054    0.513
        56 -12.4675    105.9305    130.6044   1.1909933408e+02   3.5222737833e+01    0.5908616    0.4210696  81.43  0.002027804    1.747    0.428
        57 -10.7095    175.6318    234.3356   1.2161564852e+02   2.8285795435e+00    0.1993215    0.1180522 -50.57  0.001135533    2.234    0.552
        58 -11.9541    163.6662    204.4976   1.1947020379e+02   9.4521126078e+00    0.4827231    0.2741714 -59.19  0.001208843    2.420    0.587
        59  -9.5361     30.6802    204.9493   1.4572496534e+02   2.9600565183e+01    0.1345929      0.10329  67.08 0.0009943796    1.126    0.112
        60  -9.3845     13.4989     59.9223   1.3266832088e+02   6.2757455003e+01      0.17436   0.09286814 -62.04 0.0003812513    1.479    0.324
        61 -13.4121    155.0823     53.4557   8.5101702201e+01   3.9904129326e+01      1.14993    0.8632322  41.62  0.001086693    1.362    0.266
        62 -10.6519    158.9831    205.5378   1.2055383375e+02   1.0129127120e+01    0.3107301    0.2049992  52.23  0.001263732    1.394    0.283
        63 -11.9455    170.6386     30.5786   7.4765048277e+01   3.9061253748e+01    0.3843403    0.3450545   7.16  0.000917881    1.255    0.203
        64  -9.9738    138.7762     31.7899   8.1171566064e+01   4.7158565898e+01    0.3878704    0.1967311  74.74  0.001414728    2.791    0.642
