#   1 NUMBER                 Running object number                                     
#   2 MAG_AUTO               Kron-like elliptical aperture magnitude                    [mag]
#   3 X_IMAGE                Object position along x                                    [pixel]
#   4 Y_IMAGE                Object position along y                                    [pixel]
#   5 X_WORLD                Barycenter position along world x axis                     [deg]
#   6 Y_WORLD                Barycenter position along world y axis                     [deg]
#   7 A_WORLD                Profile RMS along major axis (world units)                 [deg]
#   8 B_WORLD                Profile RMS along minor axis (world units)                 [deg]
#   9 THETA_WORLD            Position angle (CCW/world-x)                               [deg]
#  10 FWHM_WORLD             FWHM assuming a gaussian core                              [deg]
#  11 ELONGATION             A_IMAGE/B_IMAGE                                           
#  12 ELLIPTICITY            1 - B_IMAGE/A_IMAGE                                       
         1 -13.4050      2.5771    125.9577   1.2024208301e+02   4.8262921324e+01      6.12126    0.5243197 -73.98   0.01222156   11.386    0.912
         2 -12.2016    210.3082     33.1707   4.2836404496e+01   2.8726332450e+01    0.9791508    0.7818397 -49.53  0.004665732    1.168    0.144
         3 -11.0054    217.8187     26.2804   4.0319289217e+01   2.7826460961e+01    0.5459005    0.3719999  36.03  0.001906616    2.085    0.520
         4 -10.1119      1.9484     19.9697   9.8068216051e+01   7.1337223198e+01    0.3566464    0.1307749 -58.43  0.001591273    3.312    0.698
         5 -11.8035    229.6424     14.7860   3.6528902738e+01   2.6487763905e+01    0.7033133    0.5736825 -64.30  0.002721435    1.040    0.039
         6  -9.9273      2.3179      6.0543   9.1685237938e+01   7.3583061872e+01    0.6486737   0.07061841 -45.91  0.002154014    5.724    0.825
         7  -7.8532    124.0784      4.7719   4.6666103736e+01   5.2810526995e+01    0.1773084   0.09924239  65.66 0.0006784148    1.634    0.388
         8  -9.6248    102.4296    240.3076   1.0995173465e+02   1.1173025125e+01    0.2322266    0.1191802  54.09    0.0012035    1.817    0.450
         9 -11.2132     85.2479    249.7069   1.1413147639e+02   1.1959086531e+01     0.846782    0.2459061  33.88  0.003040351    4.069    0.754
        10  -9.8969     75.8501    246.8066   1.1560874396e+02   1.3756941476e+01     0.275989    0.2019623  39.32  0.001847139    1.364    0.267
        11  -9.5124     69.5743    247.7161   1.1683523231e+02   1.4428438254e+01    0.2653976    0.1543021 -73.70  0.001632427    1.828    0.453
        12 -10.0063     61.4604    249.2769   1.1842336213e+02   1.5197789629e+01    0.4261996    0.3182216  54.96   0.00197473    1.104    0.094
        13 -10.3376     31.2048    247.6567   1.2360273120e+02   1.9108008335e+01      0.46223    0.3334061 -87.66  0.003467572    1.297    0.229
        14 -10.1009     25.4525    228.7180   1.2348266162e+02   2.3318040243e+01    0.4471005    0.1920915  56.32  0.001997355    1.910    0.476
        15 -11.4743     19.4456    220.6039   1.2407909280e+02   2.5557397200e+01    0.7291147    0.4658717  44.37  0.004303061    1.502    0.334
        16 -11.3941     10.3680    233.6571   1.2640404598e+02   2.3913548003e+01    0.6102296    0.4877751 -70.72   0.00477295    1.541    0.351
        17 -12.6652      8.8357    207.1810   1.2525041844e+02   2.9340689156e+01     1.028991    0.7628742 -69.98  0.004371558    1.441    0.306
        18 -12.4634      4.1614    244.5744   1.2793871570e+02   2.2484614153e+01     1.466808      0.80997  86.69  0.009314205    1.457    0.314
        19 -10.4813      5.5694    229.4591   1.2702002494e+02   2.5183025598e+01    0.4377901    0.2862935  85.00  0.001849177    1.191    0.161
        20  -7.9669     86.3100    237.6597   1.1279303381e+02   1.3985154411e+01     0.128378   0.07675637  66.03 0.0007044766    1.691    0.409
        21 -10.3706     41.2137    236.0255   1.2111046721e+02   2.0136362207e+01    0.2473174    0.1561462  72.12 0.0005050466    1.318    0.241
        22  -9.0205     38.3198    231.4657   1.2132326206e+02   2.1351939990e+01     0.260788    0.1710761 -70.08  0.001134017    1.578    0.366
        23  -8.4124     61.9702    235.6389   1.1724685450e+02   1.7658288980e+01    0.2021732     0.126609  69.55 0.0004082268    1.442    0.306
        24 -11.4412    127.5906    231.3480   1.0392089208e+02   8.9253780970e+00    0.4581783    0.3810924  67.45  0.002932558    1.247    0.198
        25 -11.4841    116.9716    230.5496   1.0595441610e+02   1.0737620294e+01    0.6030538    0.2954834  46.89  0.002991357    1.779    0.438
        26 -10.1472    121.9357    225.7133   1.0433371096e+02   1.0847662134e+01    0.2860733    0.2485069 -81.79  0.001841184    1.273    0.214
        27 -10.9633     88.2550    227.2674   1.1134538710e+02   1.5679080886e+01    0.5597278    0.3387097  86.69  0.002412711    2.006    0.501
        28  -8.2347     33.4367    227.1889   1.2192850899e+02   2.2745234401e+01    0.1926603    0.0925953 -70.88 0.0009528217    1.972    0.493
        29  -8.4712     96.6019    227.2137   1.0966325688e+02   1.4466977708e+01    0.1617307    0.1138213 -53.32 0.0009484605    1.669    0.401
        30  -8.3441     48.5018    224.9718   1.1893429718e+02   2.1430329534e+01    0.1713478    0.1336215  58.87 0.0003461048    1.122    0.109
        31  -9.6955    165.0111    221.2608   9.4903965960e+01   4.5739479495e+00    0.2786096    0.1771989 -35.23  0.001478519    1.813    0.449
        32  -7.7828     94.2389    220.6384   1.0939349247e+02   1.6101635896e+01    0.1274743   0.08624493  74.64 0.0006919638    1.594    0.373
        33 -10.3528     83.8493    227.1343   1.1221147461e+02   1.6336011708e+01    0.4265643    0.2471543 -67.04  0.002094759    1.831    0.454
        34  -9.2603     29.5878    218.4470   1.2205006725e+02   2.4924808000e+01    0.2115948    0.1567778  83.20 0.0007913091    1.095    0.087
        35 -11.7904      3.3895    183.9696   1.2488873086e+02   3.4795054590e+01    0.9390731    0.4096293 -84.86  0.004996433    1.890    0.471
        36 -12.6978     10.9650    156.1929   1.2108495504e+02   4.0505796508e+01     2.441004    0.9040038  84.55  0.009235333    3.605    0.723
        37 -10.3730     82.3427    245.1030   1.1425223407e+02   1.3178647995e+01    0.3445042    0.2201309  24.06  0.001944362    2.170    0.539
        38 -10.1063     64.8614    174.9321   1.1026709850e+02   3.0293622756e+01    0.2844155    0.2422794 -42.42  0.000687111    1.435    0.303
        39  -8.3284    101.1655    171.8497   1.0100237305e+02   2.5575874436e+01    0.1931633    0.1743335 -26.67 0.0008015092    1.328    0.247
        40  -9.5750     32.7323    168.5326   1.1714408107e+02   3.5607279519e+01     0.370406    0.1970494 -61.89  0.001942531    1.696    0.411
        41  -9.8928     74.8190    164.9620   1.0641696056e+02   3.1288493899e+01    0.2791672    0.2543761 -48.65 0.0004268419    1.240    0.193
        42 -11.3279     82.1306    158.9237   1.0360005265e+02   3.1667709827e+01    0.8121746    0.6444666 -79.20  0.002738395    1.221    0.181
        43 -11.7307     61.9433    161.2238   1.0910340829e+02   3.3954740914e+01    0.5035585    0.3022207 -43.86  0.001497821    1.996    0.499
        44  -9.7996     23.9061    202.6462   1.2203361196e+02   2.8827759012e+01    0.2474388    0.2317685 -42.45  0.001216888    1.560    0.359
        45 -11.7924     68.1132    144.3602   1.0483816255e+02   3.7257710903e+01    0.7741116    0.5144305  73.50  0.002930181    1.822    0.451
        46  -8.3054    134.0000    142.0049   8.6886610382e+01   2.6497288244e+01     0.260671   0.08678894 -48.47 0.0008042145    2.955    0.662
        47 -10.5154     84.9107    142.4382   9.9911281515e+01   3.5261857924e+01    0.3488952     0.273806 -48.07 0.0005431321    1.275    0.216
        48  -9.3644     97.9226    142.4737   9.6393384579e+01   3.3124715146e+01    0.5567101    0.3463248 -21.42  0.002091623    2.936    0.659
        49  -8.3406     22.4761    132.9777   1.1564063189e+02   4.5120258431e+01    0.1991899    0.1062049 -73.02  0.001008977    1.548    0.354
        50 -11.3294     31.1411    208.4171   1.2102649869e+02   2.6837399353e+01    0.4433825    0.3066041 -51.81  0.001329649    1.895    0.472
        51  -8.9624     95.8323    128.2518   9.3926671153e+01   3.6934037861e+01    0.3436189    0.2602665 -22.75  0.001622829    1.672    0.402
        52  -9.2884    107.9075    131.7735   9.1375987851e+01   3.3935581992e+01    0.4258282    0.3122378  39.29  0.001573176    1.428    0.300
        53  -8.1363    106.1319    120.1922   8.9130957047e+01   3.7021244772e+01    0.2211815    0.2026116 -12.25 0.0003915192    1.199    0.166
        54  -7.9624    168.1977    113.2030   7.1584890334e+01   2.5403803924e+01    0.2617084     0.184707 -78.89  0.001052737    2.171    0.539
        55  -7.9602    205.8155    110.5752   6.3360919808e+01   1.7430168935e+01    0.2012218    0.1468631  70.10 0.0007705732    1.711    0.416
        56 -13.2600     39.5142    196.1223   1.1830328661e+02   2.8564920093e+01     3.011244     1.198559  67.48   0.01199554    3.353    0.702
        57  -8.9561     22.5322    208.5113   1.2271725876e+02   2.7725522323e+01    0.2111856     0.134723  56.62 0.0006515466    1.340    0.254
        58  -9.3233     20.6668    193.8016   1.2203573680e+02   3.1068458241e+01    0.3093444    0.1679743  77.39  0.001704243    1.667    0.400
        59  -9.6912     13.2461     60.4710   1.0562695940e+02   6.2743943474e+01    0.2350175    0.1367034 -56.25 0.0007995116    1.367    0.268
        60  -8.7522     40.9277     59.0957   9.3868532082e+01   6.0604241342e+01    0.2848859    0.1704147  40.91  0.001473693    2.107    0.525
        61 -10.1529     59.1987    180.6633   1.1232215487e+02   2.9695148316e+01    0.3975013    0.2625607 -42.62  0.001251833    1.983    0.496
        62 -11.7417    202.8213     38.7854   4.5181366690e+01   2.9781633198e+01    0.6039504    0.5105652 -76.11  0.002211782    1.114    0.103
        63 -10.4347    114.0912    243.2951   1.0802605481e+02   8.9088320350e+00    0.3228057    0.2317696 -73.45   0.00201757    1.652    0.395
        64  -8.8419    135.8255     42.5587   5.7578494545e+01   4.5784567972e+01    0.2382012    0.2023654 -26.59 0.0004397392    1.219    0.179
        65  -9.7138      1.7554     34.9844   1.0352456419e+02   6.8601705836e+01    0.2373603   0.09785656 -58.41  0.001219472    2.079    0.519
        66  -9.0782    107.4744    244.9201   1.0947631552e+02   9.6137666898e+00    0.1638266    0.1178915 -68.36  0.001034474    1.603    0.376
        67  -9.5420     21.3725    241.2894   1.2492194337e+02   2.1349798505e+01    0.2769888    0.1618913 -72.66  0.001026894    1.710    0.415
        68 -11.0945    121.8814    241.3560   1.0629152360e+02   8.0607862448e+00    0.5270215    0.1854476  39.55  0.002306383    2.368    0.578
        69  -8.7820     92.4715    242.4760   1.1208922433e+02   1.2229269107e+01    0.1210769   0.09746217  57.68 0.0002514971    1.006    0.006
