#   1 NUMBER                 Running object number                                     
#   2 MAG_AUTO               Kron-like elliptical aperture magnitude                    [mag]
#   3 X_IMAGE                Object position along x                                    [pixel]
#   4 Y_IMAGE                Object position along y                                    [pixel]
#   5 X_WORLD                Barycenter position along world x axis                     [deg]
#   6 Y_WORLD                Barycenter position along world y axis                     [deg]
#   7 A_WORLD                Profile RMS along major axis (world units)                 [deg]
#   8 B_WORLD                Profile RMS along minor axis (world units)                 [deg]
#   9 THETA_WORLD            Position angle (CCW/world-x)                               [deg]
#  10 FWHM_WORLD             FWHM assuming a gaussian core                              [deg]
#  11 ELONGATION             A_IMAGE/B_IMAGE                                           
#  12 ELLIPTICITY            1 - B_IMAGE/A_IMAGE                                       
         1 -12.3939     74.8555     51.5362   8.2388387859e+01   5.7310132507e+01     1.322688    0.7536087 -47.80  0.006156376    1.883    0.469
         2 -13.4472     42.0830     45.6480   9.3159422319e+01   6.2986487465e+01    0.8966264    0.5940816  44.97 0.0005453293    2.105    0.525
         3 -12.1612     60.5592     46.4187   8.5869077762e+01   6.0467701975e+01     1.123901    0.5893941 -41.63  0.005421847    1.736    0.424
         4 -12.0738    124.9422     27.9548   5.8222268809e+01   5.0498295328e+01    0.8649306     0.411182  44.52  0.002730114    1.980    0.495
         5 -11.1975    136.0181     55.1537   6.5230137043e+01   4.3945630640e+01     1.399064    0.9820292  -4.02  0.006243898    1.820    0.451
         6 -12.1103    130.8095     15.1904   5.2245104052e+01   5.0496250062e+01     1.535619    0.5995058  56.39  0.006214235    2.160    0.537
         7 -11.0710    153.7560     25.4530   5.1454772400e+01   4.3631947513e+01      1.20199    0.6479673  45.13  0.005289398    1.843    0.457
         8 -11.7545    137.8945     23.2472   5.3707567318e+01   4.7884169619e+01    0.8008638    0.5570689  48.22  0.001696279    1.316    0.240
         9 -10.8830    146.6894     20.1693   5.0961387279e+01   4.6018158107e+01     1.026007    0.6200873  -2.75  0.004609581    2.196    0.545
        10 -10.9295    178.4761     21.3784   4.6273754520e+01   3.7761646064e+01    0.6118113    0.3548014  36.45  0.002070165    2.159    0.537
        11  99.0000      6.5708     34.1070   1.0540807162e+02   6.8189996354e+01     1.540954     0.440636 -53.55  0.007119028    2.407    0.585
        12 -10.9059     22.4144      5.3803   8.5117837378e+01   7.1834752314e+01    0.2466374    0.1733874 -33.25 0.0006010593    1.382    0.276
        13 -11.9471     26.2097     28.0779   9.3662368972e+01   6.7849744708e+01    0.4930602    0.4183181   1.58   0.00291137    1.251    0.201
        14 -11.6599     20.1874     22.0340   9.4154423234e+01   6.9441823421e+01    0.6407171    0.2360503 -44.79   0.00314313    2.170    0.539
        15 -12.6016     16.8777     13.2691   9.2008144814e+01   7.1179989844e+01    0.7710456    0.4599548 -25.54  0.003238449    1.350    0.259
        16 -12.1203     22.6739     11.5781   8.8113985612e+01   7.0900690386e+01    0.5440282    0.3461228 -14.55  0.002184291    1.357    0.263
        17 -11.2688    106.0179     20.3178   5.9955355018e+01   5.5791915904e+01    0.3765542    0.2668805 -25.28 0.0005784938    1.468    0.319
        18 -12.3710    113.3823     25.0485   5.9930017241e+01   5.3566930389e+01     0.873558    0.4090509  52.42  0.003314397    1.937    0.484
        19 -10.8576    214.5891     23.0979   4.2315676521e+01   2.8532576998e+01    0.4382006     0.342428  10.50  0.002398928    1.786    0.440
        20 -10.4868     87.4095      7.5372   5.9657048668e+01   6.1152555628e+01    0.5670856    0.3049243  53.55  0.002374833    1.761    0.432
        21 -11.0877     90.7804     20.8103   6.4489135266e+01   5.9016186728e+01    0.6152268    0.3865569 -23.98  0.002415061    1.599    0.375
        22 -11.1082     85.9545     14.4362   6.3184392430e+01   6.0737693356e+01     0.791446    0.4382392  10.31   0.00316717    2.335    0.572
        23  -9.8089     50.0105      6.1782   7.2250403190e+01   6.8126407673e+01    0.2100278    0.1481649   9.49 0.0004741323    1.220    0.181
        24 -10.2243     47.1985     18.9516   7.9816259662e+01   6.6867913201e+01      0.34226    0.2826968 -19.62  0.001472369    1.188    0.158
        25 -10.3572     32.1717     12.3700   8.3652060467e+01   6.9750216121e+01    0.2032415    0.1914193 -16.34  0.000574001    1.537    0.349
        26 -11.6618     36.3272     18.7575   8.4711006488e+01   6.8306480955e+01    0.6497606    0.3564934 -34.68  0.002769973    1.575    0.365
        27 -12.2494     49.1763     12.8733   7.6006365391e+01   6.7421893548e+01    0.5549232    0.3137297  41.22  0.003056446    1.925    0.480
        28 -10.1847     41.9820     14.4843   8.0014923345e+01   6.8216491459e+01    0.2763462    0.1899725  28.68   0.00100794    1.470    0.320
        29 -11.8779     68.2719     18.1309   7.0872443850e+01   6.3652202361e+01    0.4803637    0.4007517   4.34  0.001706589    1.023    0.023
        30 -12.0771    237.5609     15.8997   3.8386805386e+01   2.3995725453e+01    0.7883795     0.420534  72.44   0.00334796    1.822    0.451
        31 -10.8309    241.9247      3.8225   3.5343176264e+01   2.4352557159e+01    0.3525107    0.1934244 -89.73  0.001526308    1.768    0.434
        32 -11.2613    165.0876     17.8439   4.7152240512e+01   4.1577253283e+01    0.4647346    0.2774365  38.34  0.001384725    1.895    0.472
        33 -10.3360    226.1272     15.1776   3.9222913445e+01   2.6702903875e+01    0.4264832    0.1872001 -38.74   0.00150215    2.037    0.509
        34 -11.8625    247.0825      6.6461   3.5586777803e+01   2.2919518200e+01    0.5630428    0.4576308  27.14  0.003274024    1.831    0.454
        35 -10.3586    186.3661     15.0981   4.3425118379e+01   3.6438308923e+01    0.2671483    0.2256898  66.11 0.0004149377    1.123    0.109
        36 -11.3434    192.3861      7.9765   4.0755488014e+01   3.5655642023e+01    0.6079078    0.3895081  20.49  0.002030436    2.344    0.573
        37  -9.5365    194.4436      1.4600   3.8793787657e+01   3.5772057137e+01    0.1843079    0.1132591  88.49 2.238624e-05    1.558    0.358
        38 -12.1915    104.5592     12.7186   5.7224739253e+01   5.6932710612e+01    0.5048283    0.4370484 -26.16   0.00181876    1.282    0.220
        39  -8.1286      4.4170     11.7358   9.8220056923e+01   7.2376832650e+01     0.332861    0.1609866 -41.69   0.00201091    1.533    0.347
        40 -11.4263    211.8122      9.7546   3.9234010406e+01   3.0696082840e+01    0.4923616     0.329279   8.26  0.001163883    2.384    0.581
        41  -9.5244     94.4935     12.0383   5.9620612235e+01   5.9211183467e+01    0.2166694    0.1566411  37.74 0.0004119789    1.211    0.174
        42  -8.5408     62.0000     12.0067   7.0331470636e+01   6.5491520073e+01    0.1887569   0.06562694 -29.21 0.0005045789    2.776    0.640
        43 -10.0643    168.9651      9.7080   4.4098658309e+01   4.1410588707e+01     0.373842    0.1664012  48.24  0.001565733    2.247    0.555
        44  -9.9818    163.3842      7.1317   4.4072986380e+01   4.3075193459e+01     0.558163    0.2679925 -12.68  0.002349625    2.740    0.635
        45  -9.9170     66.0497     10.0703   6.7864237539e+01   6.5013539426e+01    0.2962356    0.1878039  44.32 0.0009364754    1.570    0.363
        46  -9.7603     62.9090      6.7308   6.7385165213e+01   6.5936137769e+01    0.2807955    0.1885598  14.86  0.001583501    1.364    0.267
        47 -11.0483    233.8038      6.9770   3.6659069176e+01   2.5834946215e+01    0.5466083    0.2575469  65.60   0.00218808    2.042    0.510
        48 -10.4288    227.9292      3.6392   3.6358066764e+01   2.7529792967e+01    0.3394946    0.2460945 -54.59  0.001524159    1.231    0.187
        49 -10.9885    218.8475      3.1276   3.6979113948e+01   2.9700068778e+01     0.331586    0.2871843 -33.74  0.001165675    1.295    0.228
        50 -10.1636    223.5177      2.0045   3.6329236203e+01   2.8718655862e+01    0.2747211    0.2147057  73.06 0.0009805318    1.249    0.199
        51 -11.0764     40.9021      5.5600   7.5963772324e+01   6.9542012443e+01    0.4673021    0.2327059 -10.90  0.002260681    2.420    0.587
        52 -10.7785    176.4499      5.5547   4.1909271337e+01   3.9901873650e+01    0.4993892    0.2400255  80.70 0.0008904933    2.150    0.535
        53  -9.5507    169.8728      3.1737   4.2018727882e+01   4.1785257065e+01    0.3043102    0.1447061 -58.39   0.00124426    2.684    0.627
        54  -9.5803    154.4967      6.9837   4.5302480282e+01   4.5346714705e+01    0.3679967     0.174857  71.87  0.001336876    2.010    0.503
        55  -7.8960     78.4935      7.5031   6.2363206617e+01   6.2958073683e+01    0.2712989    0.1927654  63.19  0.001238543    1.809    0.447
        56 -10.2640     76.5181      3.4992   6.1100015949e+01   6.3734476808e+01    0.3046651    0.2095197   8.97  0.001035688    1.383    0.277
        57 -10.4035     73.0049      2.7651   6.1882310639e+01   6.4484298475e+01     0.520202    0.2532008  21.78   0.00236311    2.406    0.584
        58 -10.5591    115.4348      3.1865   5.0864377611e+01   5.5294619075e+01    0.6902516    0.2626127  48.86  0.002916575    2.157    0.536
        59 -10.5466    183.4146      4.9481   4.0918987216e+01   3.8199617726e+01    0.4068528    0.2652455 -40.52  0.001602746    1.574    0.365
        60 -10.5053    142.3325      3.0509   4.5879137508e+01   4.8752158947e+01    0.4572798    0.2591676  53.33  0.001806281    1.526    0.345
        61 -11.6198    133.6461      2.6882   4.7201917398e+01   5.0938602536e+01    0.4211251    0.2663956  56.87  0.001446498    1.352    0.260
        62 -10.4550    206.1028      2.4664   3.7937788886e+01   3.2817314984e+01    0.5158113    0.2340203  82.31  0.002293303    2.190    0.543
        63  -9.7139    158.7186      2.1476   4.3160431176e+01   4.4701166133e+01    0.4875938    0.1582263  52.75  0.001866115    2.635    0.621
        64 -11.1654      3.3994      1.7865   9.4162478213e+01   7.4042251768e+01    0.4208494    0.1687095  12.38  0.002221542    2.856    0.650
        65 -10.4195     12.8149      1.8723   8.8618038724e+01   7.3271499741e+01    0.2491926     0.140548  13.46 0.0009185431    1.746    0.427
        66  -8.7459    152.0252      1.1832   4.3788610779e+01   4.6472849335e+01    0.1874312   0.09167787  67.93 0.0005952658    1.789    0.441
        67 -10.3050     82.2110      1.3048   5.8322505086e+01   6.2793680476e+01    0.1983539    0.1017924  51.55 0.0003439679    1.743    0.426
        68 -10.9549    106.3401      1.8827   5.2326163023e+01   5.7512169213e+01    0.6409861     0.232908  63.00     0.002092    2.652    0.623
        69  -9.9405    215.1943    150.7606   7.4394849179e+01   7.7533305540e+00    0.2611573    0.2054517 -25.22  0.001370467    1.202    0.168
        70 -10.4143    143.2647    248.9354   1.0621631058e+02   3.9892593753e+00    0.2729765    0.1861365 -26.29  0.001597908    2.216    0.549
        71  -9.5660    234.3344    150.3878   7.0786427075e+01   4.1202457170e+00    0.2250599    0.1578007   4.23  0.001114257    1.650    0.394
        72  -9.6408    239.8597    146.7123   6.9007543683e+01   3.6958307976e+00    0.2371254    0.1756093 -18.15 0.0006275218    1.267    0.210
        73 -10.7463    249.5900    142.9331   6.6541442683e+01   2.5260718717e+00    0.6534622    0.2309143 -34.55  0.002516812    2.516    0.603
        74 -10.8902     33.0746    144.5687   1.1752284104e+02   4.1158137847e+01    0.4236928    0.3027013  40.81  0.002269818    1.540    0.351
        75 -11.1786    133.3789    141.5149   9.0507960238e+01   2.6695102673e+01     0.345586    0.3027099 -68.11  0.001764797    1.209    0.173
        76 -10.2772     26.9646    139.7332   1.1851885308e+02   4.2878850098e+01    0.3624577    0.2468967  44.56  0.001418268    1.593    0.372
        77 -11.4933     23.5711    135.0916   1.1885667823e+02   4.4279692739e+01    0.8125442    0.3075201  38.99  0.003770476    2.749    0.636
        78 -12.0203     30.0073    132.8745   1.1686775158e+02   4.4248153979e+01    0.5136042    0.3290337  87.95 0.0003410609    1.535    0.349
        79 -10.3165     39.3682    138.1935   1.1506323559e+02   4.2065008449e+01    0.2971783    0.2463399  14.83  0.001836365    1.562    0.360
        80  -9.7390     79.3197    137.6772   1.0409460986e+02   3.7195327047e+01    0.2621772    0.2140198 -88.28  0.001332935    1.254    0.203
        81  -9.9410     82.3352    135.3022   1.0281245933e+02   3.7319295071e+01    0.3402426    0.2272899  19.87  0.001181116    1.976    0.494
        82 -10.5584     67.5849    135.7376   1.0698416478e+02   3.9332213359e+01    0.3566693    0.2460281 -41.40 0.0009966375    1.617    0.382
        83 -10.3765     47.2657    135.8079   1.1259173126e+02   4.1804754766e+01    0.4567314    0.1810097 -61.82   0.00127334    2.096    0.523
        84  -9.2138    192.4525    136.4926   7.5618572625e+01   1.5129685517e+01    0.1525016    0.1448345 -11.45 0.0001463425    1.012    0.011
        85  -9.0865    216.6404    135.2037   7.0534267045e+01   1.0231472462e+01    0.2086289    0.1310918 -26.47 0.0006291645    1.613    0.380
        86 -11.0320     93.0194    131.4737   9.9068728034e+01   3.6546189398e+01    0.7145503    0.3217468 -59.63  0.002717614    2.254    0.556
        87  -9.3809     87.3314    135.3026   1.0142933886e+02   3.6541908374e+01    0.1455051    0.1128623 -24.24 0.0007035025    1.653    0.395
        88 -10.0260     74.0753    132.6667   1.0461593561e+02   3.9182510035e+01    0.2906641    0.2138138 -25.30  0.001436435    1.808    0.447
        89  -9.4366     38.9304    132.8368   1.1443754681e+02   4.3405473419e+01    0.2141486    0.1737586  49.61 0.0009684528    1.347    0.258
        90 -10.0213     62.2797    131.6006   1.0774193279e+02   4.1041991436e+01    0.4182919    0.2718527 -32.75   0.00199764    2.022    0.505
        91  -9.3199    103.6389    130.8410   9.5987840803e+01   3.4868844589e+01    0.2428521    0.2036878  26.49 0.0003374536    1.326    0.246
        92 -10.9179     10.6858    127.0768   1.2135569550e+02   4.7166826575e+01    0.5277634    0.1912799 -58.97  0.001884539    2.178    0.541
        93 -10.2252     82.1347    125.5602   1.0091562679e+02   3.9722164474e+01     0.437868     0.271408 -23.69  0.001491778    2.640    0.621
        94  -9.0411    223.8814    126.7876   6.7219820450e+01   1.0222159807e+01    0.1944985    0.1659338 -54.10  0.000414236    1.312    0.238
        95 -10.2313     22.9866    126.9773   1.1802003858e+02   4.6266975843e+01    0.1852927    0.1500524 -76.93  0.001196954    1.008    0.008
        96  -9.7344     18.5661    124.7216   1.1895148768e+02   4.7154005047e+01     0.400367    0.0924319 -64.96  0.001527093    2.942    0.660
        97 -10.9983      4.5356    120.3731   1.2228517127e+02   4.9139487987e+01    0.7920363    0.1326984 -58.94   0.00295181    3.549    0.718
        98 -11.5086      2.4134    112.1316   1.2196808720e+02   5.1189385114e+01    0.3866866    0.2832179  80.50   0.00137729    1.335    0.251
        99 -11.6335      3.8040    105.5813   1.2079336188e+02   5.2641483546e+01    0.4465877    0.3380304 -76.41  0.001957138    1.063    0.059
       100 -10.7498     55.6772    123.5605   1.0821120654e+02   4.3829176830e+01    0.5302114    0.3929933  -4.23   0.00258385    1.895    0.472
       101  -9.5475     49.9846    122.8457   1.0974510637e+02   4.4664516300e+01    0.3167839    0.2015855  -2.21  0.001415807    2.565    0.610
       102 -11.0815     45.4925    120.2163   1.1061068241e+02   4.5797800320e+01    0.4612511    0.2992336  69.89  0.002329188    1.895    0.472
       103  -9.8700    107.3814    145.9896   9.8167076124e+01   3.0598376965e+01    0.2599604    0.2110385  51.62   0.00041173    1.242    0.195
       104 -11.9190    104.0935    122.1653   9.3886374487e+01   3.6854397957e+01    0.4608188    0.4409303  -6.83   0.00111168    1.127    0.112
       105  -9.1147     66.6697    124.2912   1.0514260766e+02   4.2256737230e+01    0.3200244    0.1825557  -2.54   0.00108304    4.364    0.771
       106 -10.9346     32.9741    119.2426   1.1411874165e+02   4.7269459016e+01    0.3987347    0.2854946 -71.50  0.001669408    1.171    0.146
       107  -9.2199    221.2038    120.4062   6.6164261064e+01   1.1908375420e+01    0.1922264    0.1455829  63.84  0.000625551    1.616    0.381
       108  -9.2374    148.1974    119.9942   8.1578585232e+01   2.8360655370e+01    0.2625512    0.1839735 -14.98  0.000690992    1.965    0.491
       109  -9.2694     71.9264    120.2576   1.0279616757e+02   4.2519807899e+01    0.2235766    0.1612908 -16.28  0.001065369    1.943    0.485
       110  -9.3755    185.2474    118.9941   7.2795916007e+01   2.0154681881e+01    0.2142717    0.1303524 -38.57 0.0008891592    1.600    0.375
       111  -9.7869    113.8073    115.8586   8.9615321328e+01   3.6507586284e+01    0.2973392    0.2218405  24.14 0.0007380316    1.568    0.362
       112  -9.6931     95.0755    112.3660   9.4139811584e+01   4.0783397691e+01    0.4237175    0.2797521  28.89    0.0019217    1.737    0.424
       113 -10.6884    107.7577    112.0918   9.0374682294e+01   3.8545875298e+01    0.7714024    0.4451277 -70.46  0.002762701    2.786    0.641
       114 -10.5830    101.9229    110.3270   9.1616282182e+01   4.0043919610e+01    0.4740482    0.4008147  59.77  0.002082712    1.313    0.238
       115  -9.7326    103.2389    106.0150   9.0114576474e+01   4.0804682064e+01    0.3105091    0.2221597  43.16 0.0003632643    1.469    0.319
       116  -9.4907     67.4287    114.2792   1.0289897312e+02   4.4597514038e+01    0.3064135    0.2319685  87.88  0.001573705    1.561    0.359
       117  -9.8003     67.4618    110.5025   1.0207798488e+02   4.5508609314e+01    0.3314255    0.2369192  27.75   0.00170823    1.601    0.376
       118  -9.7940     45.7155    105.8741   1.0792774193e+02   4.9254754916e+01     0.245313    0.1502943 -50.20 0.0006312806    1.439    0.305
       119 -11.0460     51.1350     96.8810   1.0429355056e+02   5.0814401349e+01     1.376797    0.3955706 -59.60   0.00477441    3.039    0.671
       120 -10.9690     42.2758     94.0484   1.0662872199e+02   5.2434796472e+01    0.4097741    0.3217378  88.71  0.001598564    1.482    0.325
       121 -11.6310     17.0166    100.9317   1.1612675533e+02   5.2922522681e+01    0.3419206    0.2499953 -55.11 0.0003640202    1.173    0.147
       122 -11.4671     34.9808     92.5104   1.0876283125e+02   5.3495100409e+01     1.532324    0.6446843 -71.75  0.006158647    2.695    0.629
       123 -12.3312     41.9977     85.4155   1.0479212516e+02   5.4483258751e+01      1.74175    0.5272803  21.13  0.005816905    4.893    0.796
       124 -11.6110      9.0866     96.6727   1.1798151735e+02   5.4423582349e+01    0.5387997    0.4146349  79.89  0.002552817    1.396    0.284
       125 -12.0887      7.1304     88.8433   1.1743101067e+02   5.6350771444e+01    0.5056975    0.4607296  49.23  0.002389984    1.369    0.269
       126 -11.7627     21.9472     94.8261   1.1354223672e+02   5.4013966415e+01    0.6697632    0.3720745   3.37  0.003426626    2.557    0.609
       127 -12.3444     18.2657     89.7741   1.1387533175e+02   5.5456903251e+01    0.6303518    0.2833319 -48.07  0.001141606    1.881    0.468
       128 -12.9059     25.4787    106.7486   1.1441210110e+02   5.0914697509e+01     1.053513    0.8016619 -23.17  0.004057747    1.601    0.376
       129 -11.9486     18.7458    106.1487   1.1638327792e+02   5.1566002342e+01    0.2448268    0.2066449 -59.28 0.0002454678    1.111    0.100
       130 -11.3594     22.6357    114.0370   1.1637255546e+02   4.9394379593e+01    0.4120388    0.2643067  -1.53  0.001986715    2.260    0.558
       131 -11.2318     28.3140    113.1137   1.1455231084e+02   4.9156088499e+01    0.4047907    0.2723523   7.68   0.00157397    2.014    0.504
       132  -9.7882     48.8585    112.3614   1.0819381804e+02   4.7345172949e+01    0.2355566    0.2264072  89.14  0.001049779    1.136    0.120
       133 -11.1130    170.3746    110.4650   7.3808311229e+01   2.5298832077e+01    0.4602414    0.3924243 -29.54  0.001415396    1.174    0.148
       134 -10.2754     89.8041    104.3936   9.3730486996e+01   4.3566411373e+01    0.4837406    0.3095846  20.89  0.001787704    2.026    0.506
       135 -10.4432     85.9128    103.8745   9.4795395502e+01   4.4334242616e+01    0.4954108    0.3154934 -15.14  0.001704012    2.594    0.614
       136 -10.0820    130.4747    110.0036   8.3516481805e+01   3.4427837049e+01    0.3537627    0.1994941  27.69  0.001281532    2.440    0.590
       137 -10.0671    120.2448    109.5450   8.6182516318e+01   3.6671437841e+01    0.3059944    0.2118786 -46.29   0.00137114    1.403    0.287
       138 -11.3032     79.3988    108.4736   9.7931932224e+01   4.4272438601e+01     0.746008    0.4151022  37.63   0.00263346    1.936    0.483
       139  -9.4536     58.5164    108.3027   1.0438964682e+02   4.7201101389e+01    0.2614952    0.1280293 -64.93  0.000798829    1.984    0.496
       140 -10.3160    157.5539    106.4900   7.5700295370e+01   2.9105040929e+01    0.4189569    0.3087191  -4.56  0.001503284    1.841    0.457
       141 -10.2855    143.4821    105.9866   7.9026484553e+01   3.2441188426e+01    0.3342279    0.3030557  88.89  0.001222085    1.253    0.202
       142 -11.7278    145.5128    100.4959   7.6978846626e+01   3.3140187841e+01    0.5914909    0.5196355  34.93  0.002465983    1.163    0.141
       143 -10.1045     57.7048    103.0289   1.0351288982e+02   4.8571143209e+01    0.5075621    0.2273746 -65.63    0.0020256    2.341    0.573
       144  -9.9524     60.6186     97.8155   1.0138141836e+02   4.9450091024e+01     0.221197     0.185157 -89.23 0.0005131361    1.379    0.275
       145  -9.8442     57.4831     97.5352   1.0234629253e+02   4.9908944794e+01    0.2508717    0.1807629  32.29  0.001024611    1.568    0.362
       146  -9.9987     82.7831    101.8535   9.5256675307e+01   4.5314663487e+01    0.4478442    0.1563062 -39.39  0.001319989    3.897    0.743
       147  -9.4763    120.9462    101.0409   8.3664470619e+01   3.8431008446e+01    0.2545041    0.1944925  -7.00  0.001131897    1.692    0.409
       148 -10.8871     89.8584     89.5154   8.9682879262e+01   4.6973479203e+01    0.9688949    0.5292879 -25.83  0.003550245    2.784    0.641
       149 -11.3709     67.3145     95.7715   9.8687913456e+01   4.9044356526e+01    0.5683724    0.4784501   3.08  0.002534122    1.366    0.268
       150  -9.6140     77.5038     96.9485   9.5674187897e+01   4.7287803858e+01    0.3473329    0.2779647  20.27  0.001173205    1.413    0.292
       151 -10.7100     82.4470     93.3735   9.3134993313e+01   4.7338927827e+01    0.4889376    0.2833317  38.68   0.00155029    1.859    0.462
       152 -10.5583     76.4672     92.9958   9.4972290624e+01   4.8363201084e+01    0.5430537    0.3429493 -18.01  0.002171071    2.341    0.573
       153 -10.0416    210.7237     97.6231   6.2322799811e+01   1.8269313728e+01    0.3841421    0.3068197  21.10  0.001900287    1.484    0.326
       154  -9.8377    141.9773     95.8402   7.6542806424e+01   3.4922482057e+01    0.4368479    0.1998935  39.34  0.001253487    2.432    0.589
       155 -10.1084    117.5335     93.1240   8.2362042194e+01   4.0874093448e+01    0.5867148    0.3476573  27.18  0.002292384    2.191    0.544
       156 -10.1038    120.6310     89.2212   8.0325757414e+01   4.1054464079e+01    0.3316027    0.3102568  22.90 0.0009043824    1.084    0.078
       157 -11.0043    121.0768     85.0208   7.8926466256e+01   4.1836474955e+01    0.4980026      0.42024  80.97   0.00222708    1.498    0.332
       158 -10.1798    125.9684     93.4952   8.0104838971e+01   3.8998670540e+01    0.3591566     0.312786  39.89  0.001037547    1.170    0.146
       159 -10.5641    122.4730     93.5343   8.1086040712e+01   3.9743336128e+01    0.3532983    0.2790071 -49.34 0.0009811806    1.276    0.216
       160  -9.2392    160.9887     93.9730   7.1384418367e+01   3.0823883698e+01    0.2564695    0.1995203 -78.50 0.0008297447    1.695    0.410
       161 -11.4729    102.4096     89.7133   8.5826486668e+01   4.4641180401e+01    0.8261689    0.6033016 -23.33  0.003856645    1.554    0.357
       162 -11.0790    113.2689     84.9139   8.1137099300e+01   4.3509806444e+01    0.6623962    0.3649996 -34.20  0.001804305    1.926    0.481
       163  -9.6635    103.2040     79.7323   8.2549415506e+01   4.6623856513e+01     0.347142    0.2033604 -35.56   0.00147418    1.718    0.418
       164 -10.3802    104.5897     76.4177   8.1072054439e+01   4.7033454860e+01    0.4355502    0.3505154  71.32  0.002119867    1.654    0.395
       165 -10.7491    152.3862     91.7770   7.2778331688e+01   3.3314569269e+01     0.480226    0.3540741  57.33  0.001595521    1.446    0.308
       166  -9.2391    138.2144     93.0679   7.6703752116e+01   3.6358247868e+01    0.3380595    0.1994965  22.03  0.001167701    2.778    0.640
       167 -10.8019     91.0654     47.9941   7.5440478319e+01   5.5016336126e+01    0.3760863    0.2241814 -34.17  0.001318085    1.624    0.384
       168 -10.0675     94.5124     76.1803   8.4155927570e+01   4.9022435658e+01    0.5215404    0.3279645  36.04  0.001992334    1.674    0.403
       169  -9.6457    175.0235    246.7075   9.9949253844e+01  -6.7712160060e-01    0.1842146    0.1334429  34.02 0.0008636304    1.095    0.086
       170 -11.1569     46.8990     74.1866   1.0018377776e+02   5.6517973780e+01    0.2928849    0.1877241 -48.06            0    1.310    0.237
       171 -11.5745     76.0163     79.7879   9.1403568903e+01   5.1407974193e+01     1.121392     1.075874   7.06  0.006659309    1.117    0.105
       172 -10.4117     67.2889     81.9384   9.5027367913e+01   5.2225650263e+01     0.864807    0.6595736  -7.60   0.00456717    1.534    0.348
       173 -11.6899     85.5466     73.7587   8.6320036153e+01   5.1133859414e+01    0.6631815    0.5416627  47.42  0.002631411    1.396    0.283
       174 -12.0627     90.3779     59.2703   7.9814152813e+01   5.3138426516e+01     1.028922    0.8469705  66.80  0.005380151    1.654    0.396
       175 -11.0857     79.8604     67.7791   8.6310022998e+01   5.3332470298e+01    0.5830176    0.4012965  37.88  0.002662485    1.553    0.356
       176 -10.4156     84.0553     64.3382   8.3710543290e+01   5.3307080158e+01    0.3251871    0.1916818 -38.45 0.0006642052    1.591    0.372
       177 -13.0037     52.3671     73.5717   9.7991787001e+01   5.6027152811e+01    0.5713253    0.3083045 -57.82 0.0008070807    1.791    0.442
       178 -11.1164     57.8999     77.6770   9.7137586780e+01   5.4436491602e+01      0.44868    0.2728537 -63.85 0.0004788778    1.843    0.457
       179  -9.9721    199.8640     87.8544   6.1689749513e+01   2.2544462213e+01    0.2455727     0.237916 -38.59 0.0003915716    1.013    0.013
       180 -10.4537    183.5156     85.7577   6.4213588567e+01   2.6888970412e+01    0.7534543    0.3121959 -47.06  0.002535849    2.648    0.622
       181 -10.4033    165.6656     83.5176   6.7298545598e+01   3.1691517233e+01    0.4279309    0.3750418 -65.16  0.001456689    1.246    0.197
       182 -11.4205    143.0646     84.0301   7.2764383827e+01   3.7054665338e+01    0.3976586     0.359148  42.63 0.0006332839    1.112    0.101
       183 -10.3271    127.4096     82.6928   7.6451831716e+01   4.0920416363e+01     0.420153    0.2906428 -44.01  0.001858877    1.441    0.306
       184  -9.9036    127.2116     77.1612   7.4770131263e+01   4.2062142132e+01    0.3367027     0.275548 -52.20  0.001011636    1.314    0.239
       185  -9.8217    124.8504     73.3094   7.4178921344e+01   4.3338664244e+01    0.3898943    0.2626601  71.44  0.001508733    2.201    0.546
       186 -10.5227    120.4681     68.9868   7.3976016471e+01   4.5137309042e+01    0.3362284    0.2945857 -75.52 0.0007727715    1.408    0.290
       187 -11.3096    123.8749     68.1387   7.2750544737e+01   4.4532201546e+01    0.4175229    0.3654559  47.53  0.001040202    1.167    0.143
       188 -10.3890    109.1028     80.6254   8.1040774144e+01   4.5259144768e+01    0.3798711    0.3223311 -20.10   0.00115434    1.197    0.165
       189  -9.7199      1.4500     79.1502   1.1781462934e+02   5.8849124863e+01    0.2927407    0.1242708 -75.97 0.0007262494    2.143    0.533
       190 -11.6020      1.9642     71.2664   1.1628873572e+02   6.0596346356e+01    0.4343963    0.1697794 -68.03   0.00213382    1.998    0.499
       191 -12.4052      6.3399     62.4005   1.1288885219e+02   6.2344390202e+01    0.6934729    0.3870975 -32.99  0.003194143    1.729    0.422
       192 -10.2720    232.8889     77.3079   5.3671422642e+01   1.6621478995e+01    0.4021046    0.2269598 -33.50  0.001408586    1.645    0.392
       193  -9.2678     20.1158     72.0037   1.0968414774e+02   5.9399344113e+01    0.1998527    0.1382675 -43.04  0.001218482    1.230    0.187
       194 -11.9399     13.5277     74.7435   1.1270953548e+02   5.9209393395e+01     0.491217    0.3748157 -39.57  0.003248099    1.221    0.181
       195 -10.2320     14.5079     67.3522   1.1078605571e+02   6.0801335402e+01    0.3384042     0.267309  -8.87  0.001986448    1.444    0.308
       196  -8.9956    170.6111     77.8070   6.4559966766e+01   3.1510650370e+01    0.2206088    0.1414239 -45.63 0.0004252209    1.589    0.371
       197  -9.6123    139.0473     77.4670   7.1754728719e+01   3.9271186888e+01    0.2345434    0.1534476  48.50 0.0003484295    1.531    0.347
       198 -12.2343    186.1858     69.8625   5.9196820744e+01   2.8987668141e+01     1.186798    0.6420165 -38.36  0.004014628    1.788    0.441
       199  -9.5648     63.6730     76.2554   9.4665295109e+01   5.3989071561e+01    0.2056646    0.1655874 -41.88 0.0001769793    1.093    0.085
       200 -10.0184     66.4844     74.0414   9.3005028131e+01   5.4079588122e+01    0.2954322    0.2323641 -58.51 0.0009293749    1.346    0.257
       201  -8.8039    112.8013     75.3957   7.8279001506e+01   4.5555954844e+01    0.2185767    0.1418896  33.80  0.000952361    1.653    0.395
       202  -9.7476    192.4237     65.7436   5.6920133221e+01   2.8100918672e+01    0.2892933    0.2385486 -87.92 0.0008730722    1.334    0.250
       203 -10.8712     59.3605     62.8237   9.2104836033e+01   5.7436810103e+01    0.6160131    0.4676427  36.56  0.003472824    1.505    0.336
       204 -10.5667     22.4030     36.9491   9.8832081592e+01   6.6557240607e+01    0.4664153     0.251188  41.66  0.002166034    2.807    0.644
       205 -11.5966     21.6280     46.6919   1.0240518107e+02   6.4705813783e+01    0.6150011    0.3098271 -31.61   0.00148224    1.878    0.468
       206  -9.1219    199.0119    244.5272   9.5166960059e+01  -4.1130477054e+00    0.1912979   0.09717564  37.52  0.001033512    1.602    0.376
       207 -11.7872     40.8579     70.6205   1.0147865967e+02   5.7945541771e+01    0.7391498    0.2785003 -50.21  0.003020569    2.104    0.525
       208 -11.4142     32.1866     72.0016   1.0512601853e+02   5.8455957200e+01    0.5354835    0.2838414  22.85  0.001938818    2.213    0.548
       209 -10.8169     20.3234     55.1926   1.0544398415e+02   6.3046410246e+01    0.5305913    0.3957586  75.52   0.00259559    2.102    0.524
       210 -11.3525     33.6567     58.2459   1.0080278678e+02   6.1308777781e+01    0.5254315    0.2697093 -26.00 0.0007023307    2.287    0.563
       211 -11.8680     27.5944     53.0980   1.0178344375e+02   6.2918004111e+01     1.017542    0.5860124 -46.41  0.005169269    1.371    0.271
       212 -11.2774    127.8993    241.8120   1.0828318027e+02   7.5149319669e+00    0.3313931    0.3291174 -82.37   0.00246952    1.257    0.204
       213 -11.1429     60.6336     36.1624   8.1778625039e+01   6.2246732488e+01    0.4127278    0.2556641 -36.86    0.0011351    1.499    0.333
       214 -12.0895     48.6916     60.2649   9.5395432698e+01   5.9309534655e+01    0.7089127    0.5031508  43.96  0.002139791    1.801    0.445
       215 -11.0857     41.0255     57.1034   9.7455281929e+01   6.0817632822e+01    0.3708365    0.2775571  53.01  0.001634561    1.936    0.484
       216 -10.9873     57.1185     30.8237   8.0949800082e+01   6.3639884951e+01     0.487339    0.3045171   3.93  0.002193733    1.875    0.467
       217 -11.4034     48.5233     30.6069   8.4475115931e+01   6.4884645375e+01    0.6053509    0.2577429  29.35  0.002724796    2.540    0.606
       218  -9.7164     24.3268     72.7429   1.0826836557e+02   5.8928998673e+01    0.2886411    0.1528849 -66.91  0.001464903    1.768    0.434
       219  -9.7806    162.2941     70.9258   6.4267673021e+01   3.4800433023e+01    0.2968334    0.2604857 -86.68  0.001102938    1.282    0.220
       220  -9.9032    172.4673     68.5081   6.1426409685e+01   3.2662518348e+01    0.3746263    0.2764306  23.56  0.001226718    1.689    0.408
       221  -9.9709    172.1915     65.2792   6.0516484910e+01   3.3271413777e+01    0.4967712    0.3856938 -85.43  0.002336297    1.568    0.362
       222 -11.4593    220.0556     66.3196   5.2727190620e+01   2.1285496853e+01     0.645213    0.4062938  53.91  0.002873823    1.675    0.403
       223  -9.1670    207.5518     68.4861   5.5178890007e+01   2.3935234278e+01     0.267985    0.1243046  48.13  0.001029304    2.337    0.572
       224  -9.6556     53.2440     66.1697   9.5480844058e+01   5.7523334931e+01    0.2793409    0.2055593  43.54  0.001341961    1.678    0.404
       225  -9.5518     25.9059     65.4810   1.0590128279e+02   6.0417004412e+01    0.2031326     0.135041 -47.63 0.0004152651    1.193    0.162
       226 -10.5571     21.1971     65.4684   1.0774689641e+02   6.0772531976e+01    0.2412997    0.2128389  71.61 0.0005807685    1.473    0.321
       227  -9.8233    105.8777     64.3554   7.6668962888e+01   4.9135330810e+01    0.3352969    0.2514317  10.56  0.001523758    1.561    0.359
       228 -10.0117    199.2688     63.4468   5.5135773791e+01   2.6763032381e+01    0.5142589    0.3122908 -89.75  0.002037689    2.444    0.591
       229 -11.2976    234.0799     61.0423   4.9508184928e+01   1.8843921841e+01    0.5259991    0.4013418  67.22  0.001931065    1.394    0.283
       230 -10.2784    159.1230     62.1673   6.2243284722e+01   3.7083645800e+01    0.5572152    0.2631555  42.53  0.002039057    2.320    0.569
       231 -12.1283    119.8746     58.1958   7.0472160529e+01   4.7214706819e+01     1.858563     1.277827 -73.52  0.007562556    2.549    0.608
       232  -9.6117     67.9943    240.4763   1.1939073177e+02   1.6445930719e+01    0.1730371   0.09442554  42.22  0.001012055    1.578    0.366
       233 -12.3622    117.7693     43.8157   6.5899810914e+01   5.0018601087e+01    0.7583977    0.5431756  59.72  0.002596072    1.523    0.343
       234 -12.9709    118.5175     38.0316   6.3561291905e+01   5.0688779603e+01     1.296609    0.6479055  49.76  0.003446596    1.870    0.465
       235  -9.4796    148.1393     60.7744   6.4225687116e+01   4.0056110876e+01    0.4645447    0.1326476  56.99  0.001304524    3.815    0.738
       236 -10.0658    102.8333     58.8324   7.5672336644e+01   5.0777886814e+01    0.4697334    0.2740063 -59.06  0.001792015    2.818    0.645
       237 -10.0285    106.1812     57.9821   7.4349598590e+01   5.0236438219e+01    0.4763772    0.2081753 -48.32  0.001690268    2.841    0.648
       238 -10.7759    147.0037    237.7557   1.0409121492e+02   5.1360570759e+00    0.2339596    0.2080323  31.65  0.001602604    1.121    0.108
       239 -11.4558    146.0637     47.4597   6.0311344727e+01   4.2671564647e+01    0.8640921    0.3899025 -24.15  0.003132714    2.658    0.624
       240 -10.3437    146.2968     43.3291   5.8877418632e+01   4.3214300503e+01    0.2993781    0.2660698  -1.94 0.0006997152    1.196    0.164
       241 -11.1781    156.7840     53.3996   5.9962997086e+01   3.9075669055e+01     1.154573    0.8486181 -17.55  0.005474052    1.532    0.347
       242 -10.7861    198.2601    232.7512   9.3492843830e+01  -2.4124666604e+00    0.3380208    0.3054567   2.79  0.002356347    1.198    0.165
       243  -9.5188    167.5288    237.5070   1.0008330085e+02   1.8516724030e+00    0.1259689    0.1025566  34.21  0.000809921    1.011    0.011
       244  -9.7484     15.1521    233.7055   1.2819699550e+02   2.3833633708e+01    0.1933471    0.1236048 -83.44 0.0009919406    1.408    0.290
       245 -10.3301    247.3738    231.5324   8.4394144428e+01  -9.6229778708e+00    0.2086014     0.127845 -21.56 0.0008942406    1.563    0.360
       246 -11.3032    155.8362     42.0185   5.6485906832e+01   4.0988092798e+01    0.8637608    0.5305709  59.44  0.003911841    1.558    0.358
       247 -11.6917    153.0764     36.0312   5.5066338927e+01   4.2499208537e+01    0.3285809    0.3029795 -31.21 0.0004004732    1.140    0.123
       248 -11.5944    159.9278     29.8356   5.1787967142e+01   4.1532797951e+01    0.4896538    0.4522845 -36.78  0.001341383    1.146    0.127
       249 -12.2558    164.2625     27.7603   5.0388855898e+01   4.0671099263e+01    0.3019706    0.2817226 -44.03 0.0002806058    1.129    0.115
       250  -9.9063    187.8583     55.6747   5.4833586047e+01   3.0821854805e+01    0.2632208    0.2490974  48.37 0.0006041555    1.100    0.091
       251 -10.1278     67.1382     54.7485   8.6409608558e+01   5.7933633125e+01    0.3240736    0.2059156 -48.76 0.0009350788    1.615    0.381
       252 -10.7207    244.9399     50.9919   4.5813181850e+01   1.7869073742e+01     0.264439    0.2126489 -88.46 0.0006602834    1.279    0.218
       253  -9.5165    237.4044     54.2027   4.7436783937e+01   1.9088601675e+01    0.2819986    0.1514221 -55.10 0.0007375222    1.923    0.480
       254 -10.7300    240.4014     50.5540   4.6215523610e+01   1.8933630381e+01    0.4548491    0.3112707 -22.88  0.002290139    1.641    0.391
       255  -9.0778      6.8641     55.0886   1.1103260125e+02   6.3893818786e+01    0.1684671    0.1017112 -45.69 0.0003837071    1.274    0.215
       256  -9.3028    212.1928     53.2003   5.0422458441e+01   2.5139567910e+01    0.2122737    0.1599407 -64.53  0.001082996    1.366    0.268
       257  -9.3531    205.5065     52.4746   5.1180493636e+01   2.6881787190e+01    0.3203332    0.1368932  61.22  0.001243593    2.315    0.568
       258 -10.7597    201.8839     48.8386   5.0719534527e+01   2.8304026161e+01    0.6177446    0.3215356 -24.73  0.002550233    2.193    0.544
       259 -10.7423    200.7747     45.3749   4.9931530359e+01   2.9069368175e+01    0.5556301    0.3106396  73.86  0.002412145    1.949    0.487
       260  -9.5281    176.7326     43.5618   5.3153223535e+01   3.5421823498e+01    0.3116478    0.2137399  80.16  0.001447929    1.621    0.383
       261 -10.1871     13.1971     47.2046   1.0627590430e+02   6.5185005242e+01    0.3911864    0.1461656 -36.57   0.00181769    2.435    0.589
       262 -10.1408     17.8496     41.7267   1.0253947223e+02   6.5978359896e+01    0.3088326    0.1829013 -20.38  0.001790769    1.712    0.416
       263  -9.6757      2.5327     48.7334   1.1133576085e+02   6.5442793596e+01    0.2486597    0.2294684 -74.97  0.001733343    1.331    0.248
       264  -9.6904      5.5451     42.5835   1.0840084020e+02   6.6562042766e+01    0.4125485    0.2428925 -55.42   0.00184073    1.327    0.246
       265  -8.5299    209.3420     47.2787   4.9247992360e+01   2.6683094216e+01    0.1413774     0.107802  33.70 0.0007006602    1.626    0.385
       266 -10.9413    173.9550     47.9386   5.4954213743e+01   3.5512604441e+01    0.6081722    0.4408302  80.18  0.002901183    1.531    0.347
       267  -9.0991    230.3265     46.3140   4.6347995761e+01   2.1812441637e+01    0.1328149    0.1062407  26.79 0.0007042958    1.668    0.400
       268 -10.9840    139.0824     44.4010   6.0834279324e+01   4.4853383320e+01    0.5232885    0.2467413  43.99  0.002035306    2.127    0.530
       269  -9.5596    234.2854     44.9337   4.5556471913e+01   2.1092115262e+01    0.1922454    0.1654058 -53.82   0.00057085    1.042    0.040
       270  -9.0764    101.4682     44.5031   7.0817662100e+01   5.3490522457e+01    0.2386906    0.1379492  47.54 0.0009283402    1.728    0.421
       271 -11.1345     94.6235     41.3699   7.1733895992e+01   5.5389423840e+01    0.7235305    0.3160715  47.61  0.002937065    2.301    0.565
       272 -10.3032    189.3112     40.6798   5.0300539180e+01   3.2603222622e+01    0.7795405    0.2850819 -21.54  0.002400604    4.097    0.756
       273 -10.0784     86.2531     30.3630   6.9984188252e+01   5.8681106313e+01    0.3885355    0.2186475 -11.86  0.001717387    2.203    0.546
       274 -10.6259     80.8786     39.9789   7.5763384057e+01   5.8248801199e+01    0.6211815    0.4087851  44.29  0.002929913    1.610    0.379
       275 -10.7231     77.7503     34.4508   7.4605323351e+01   5.9680674528e+01    0.4432573    0.2632968  36.84  0.001606648    1.650    0.394
       276 -10.5874     82.1536     31.9597   7.2029482098e+01   5.9239725296e+01    0.4519391    0.3551086 -77.02  0.001847907    2.339    0.572
       277  -9.8616    231.3346     38.9759   4.4439572961e+01   2.2571820454e+01    0.2999984    0.1943877 -42.30  0.001573135    1.397    0.284
       278  -8.5466    184.3143     38.6749   5.0483486757e+01   3.4145283944e+01    0.1533194    0.1050809 -66.04 0.0006140349    1.665    0.400
       279 -11.0377    176.9012     36.3600   5.0965512961e+01   3.6349031726e+01    0.4061505    0.3603162 -11.18  0.001739511    1.263    0.208
       280  -9.7841    171.7256     33.0812   5.0810457382e+01   3.8099593277e+01    0.2858906    0.2021233  66.66  0.001298076    1.349    0.259
       281  -9.6718     23.5638    231.6213   1.2666277305e+02   2.3353634449e+01    0.1908207    0.1031761  47.24 0.0006732533    1.547    0.354
       282 -10.7454    177.0952     29.8286   4.8981558376e+01   3.7124539343e+01    0.5387005    0.2330057  53.86  0.001436863    2.152    0.535
       283 -11.3053    183.1691     25.1420   4.6717886409e+01   3.6130796351e+01    0.6284292    0.3137699  51.08  0.002723029    1.988    0.497
       284  -9.5466    133.2863     36.9491   5.9556265012e+01   4.7321353736e+01    0.3739195    0.2538575 -64.64  0.001662962    2.104    0.525
       285  -9.5594    207.0839     36.9212   4.6792324087e+01   2.8646000957e+01    0.2459819    0.2012749  56.18  0.001362041    1.275    0.216
       286 -10.7534    138.0628     33.4875   5.7272723158e+01   4.6603411312e+01     0.510267    0.3347397 -53.71  0.001552942    1.892    0.471
       287  -9.4001     94.6404     36.0539   6.9622902064e+01   5.6189732057e+01    0.2593543    0.1933618  63.28  0.001323581    1.746    0.427
       288  -8.8756    189.9706    229.9572   9.4629063949e+01  -6.8279589328e-01     0.156099    0.1244288  26.71 0.0005959822    1.026    0.025
       289  -9.4890    108.3963    230.2169   1.1073330957e+02   1.2535770311e+01    0.1595042    0.1130778 -83.79 0.0005637824    1.646    0.393
       290 -10.9650     14.2310     23.3880   9.7759263017e+01   6.9687057393e+01    0.3682511    0.3129068  16.39  0.001611732    1.458    0.314
       291  -9.3444    181.0037    228.2533   9.6095251365e+01   1.0387033585e+00    0.1721536   0.09323563  37.93 0.0008812114    1.549    0.354
       292  -9.8886    234.0822    222.9408   8.5247723482e+01  -6.6518562311e+00    0.2034522    0.1241861   8.52 0.0008717452    1.675    0.403
       293  -8.6970    209.3176    223.3429   8.9867156684e+01  -2.8664634177e+00    0.1327998   0.08564689   7.27 0.0007048952    1.716    0.417
       294  -9.8844     10.2133    217.7025   1.2824141886e+02   2.7349163249e+01    0.1845654    0.1235607  89.52 0.0008676182    1.213    0.176
       295  -9.6540    193.7125     38.9498   4.9162756838e+01   3.1719787987e+01    0.2227993    0.1856122  57.64  0.000357915    1.204    0.169
       296 -10.4436    165.2142    212.3620   9.6731067627e+01   6.2780226956e+00    0.2989055    0.1924222  49.87  0.001554046    1.558    0.358
       297 -12.1579    105.8987     32.8288   6.4989646874e+01   5.4256536325e+01    0.5165635    0.3147198  17.04  0.001336845    2.104    0.525
       298  -9.2600    204.5080    208.5081   8.8205382094e+01   9.5459645716e-02    0.1325782    0.1126689  17.35 -5.419891e-05    1.026    0.025
       299  -9.5278    215.9331     33.0899   4.4711500906e+01   2.6979776257e+01    0.3667985    0.2174234  15.20   0.00139108    3.629    0.724
       300 -10.9271    198.2478     29.1896   4.5840930028e+01   3.1826613158e+01    0.5008871    0.4043077 -20.41  0.002069338    1.406    0.289
       301 -10.2093     68.6130     32.9994   7.7348232122e+01   6.1488581590e+01    0.4281203    0.3026233  42.00  0.002381534    1.556    0.357
       302 -10.5251    189.1324     28.2518   4.6786595305e+01   3.4241687547e+01    0.5131678    0.3298885   8.94  0.002253086    2.452    0.592
       303  -9.5237    199.7068     24.6726   4.4430837464e+01   3.2006099383e+01    0.2483468    0.1737235  41.32 0.0007596318    1.684    0.406
       304  -9.0815     35.8186     31.6034   9.0561825874e+01   6.6255667681e+01    0.1543752    0.1111725  33.71  0.000654822    1.687    0.407
       305  -9.5133    221.6935     29.5839   4.3179716016e+01   2.6040783901e+01    0.2194797    0.1625251 -21.07 0.0005544383    1.567    0.362
       306  -9.2274     99.5442     30.3286   6.5825383478e+01   5.5969200530e+01    0.2339596    0.2047301  61.59 0.0009414557    1.353    0.261
       307  -9.5892     97.7353     26.5860   6.4831614580e+01   5.6844211518e+01    0.2280487    0.2086049  42.26  0.001368139    1.177    0.150
       308 -10.1853    230.6977     27.1772   4.1657941240e+01   2.4225858756e+01    0.3770134    0.1882987 -42.43  0.001281207    1.781    0.438
       309  -8.8940     41.0303     28.4688   8.6874574608e+01   6.6190426189e+01    0.3148074    0.1256853 -29.87  0.001320324    2.710    0.631
       310  -8.8654     65.4765     28.5300   7.6625154288e+01   6.2687409922e+01    0.1323593    0.1120316  -2.93 0.0004484797    1.027    0.027
       311  -9.6102    250.5379     26.4993   3.9665900382e+01   1.9867332011e+01    0.2557909    0.1121246 -33.24   0.00079788    2.103    0.525
       312  -9.6551    153.0773    207.8105   9.8518190226e+01   9.2074260565e+00    0.2119347    0.1724151  55.72 0.0009581503    1.262    0.207
       313  -8.5669    206.2505     25.6411   4.3907794674e+01   3.0266667731e+01    0.1443886   0.09116976 -58.35 0.0005065057    1.608    0.378
       314  -9.0434     44.9453     24.3854   8.3322122924e+01   6.6355357048e+01    0.1990598    0.1535295 -35.61 0.0005973902    1.343    0.256
       315  -9.5027    168.8404     23.8916   4.8449651482e+01   3.9947365992e+01     0.224207    0.1823923  37.62 0.0007908202    1.314    0.239
       316 -10.2302     86.0607     23.9237   6.7310123335e+01   5.9583967008e+01    0.1962748    0.1669587  13.58            0    1.019    0.019
       317  -9.7360     61.0292    206.9466   1.1780810067e+02   2.3847729962e+01    0.1890903    0.1491641  70.33 0.0004760734    1.038    0.036
       318  -9.9776    238.3609    204.4859   8.1144858814e+01  -4.8490777543e+00    0.2511908    0.1451577 -27.09  0.001359788    1.668    0.401
       319 -11.1809      4.7519    204.1788   1.2851778035e+02   3.0531593893e+01    0.6147747   0.08455444 -67.87  0.002322186    4.847    0.794
       320  -9.5822     59.4987     23.9881   7.6961357531e+01   6.4315067445e+01     0.196598     0.145338  -7.52 0.0003687436    1.212    0.175
       321  -9.9232     60.3969     20.0225   7.4779982372e+01   6.4729933745e+01    0.2780497    0.2139795 -46.35  0.001156097    1.774    0.436
       322 -12.2536      4.9185    184.4080   1.2736948314e+02   3.4622436893e+01    0.6433538    0.4076943  82.17  0.003040005    1.222    0.181
       323  -8.5578    207.3000    201.3173   8.6351675663e+01   7.2726784910e-01    0.1372827   0.09397662   5.42 0.0003677456    1.617    0.381
       324 -10.2891     16.7422    203.5807   1.2625937975e+02   2.9541827712e+01    0.2377707     0.102249 -66.45  0.001308992    2.179    0.541
       325 -10.3787    234.2155    196.9924   8.0470842054e+01  -3.1344704764e+00    0.3831371    0.2525257  20.87  0.001377528    1.423    0.297
       326  -8.6989    195.3253    199.6620   8.8406532725e+01   3.0872619329e+00    0.1277646    0.1093906  75.43 0.0007051408    1.724    0.420
       327 -10.6732    245.6658    200.8883   7.9173103169e+01  -5.4858035996e+00     0.219589    0.1488933  19.13 0.0006603171    1.328    0.247
       328  -9.1040    223.2120     22.3299   4.1230553732e+01   2.6561948794e+01    0.1846727    0.1138052  85.48 0.0009202984    1.637    0.389
       329  -8.6538     83.6757    195.7268   1.1180062160e+02   2.3092369016e+01    0.1163834    0.1042538 -13.73 0.0002798192    1.578    0.366
       330  -9.6520     74.1267     19.5284   6.9395423996e+01   6.2423513494e+01    0.2627319     0.180151  30.60 0.0007608809    1.337    0.252
       331  -9.8380    169.7144    191.4892   9.2193393531e+01   9.1745401627e+00    0.3626512    0.1767439  32.40  0.001170777    2.149    0.535
       332 -10.1638    239.9841    184.7270   7.7027502016e+01  -2.2838892742e+00    0.2518162    0.1878848   7.83 0.0005727613    1.236    0.191
       333 -10.2367    250.4278    179.1600   7.4082554736e+01  -3.1685421210e+00    0.3950718    0.1145811 -33.30  0.001452481    3.240    0.691
       334  -8.7227      1.5946     20.7413   1.0337890058e+02   7.0969952210e+01    0.1206586   0.06029474 -27.84  0.000695791    1.727    0.421
       335  -9.5603    211.2489     18.8461   4.1589473051e+01   2.9836037214e+01    0.1944835    0.1624189 -69.62 0.0004004977    1.091    0.084
       336 -10.0003    212.8463    180.9954   8.1326101710e+01   3.0107998665e+00    0.3188126    0.1690042  17.62  0.001222388    2.894    0.655
       337  -9.5223    191.3618     16.8790   4.3312518635e+01   3.4985359503e+01    0.2614623    0.1992012  30.24   0.00112384    1.631    0.387
       338 -10.9157    239.7018     32.1393   4.1944526583e+01   2.1551111315e+01    0.4457074    0.4018594 -60.74  0.002862301    1.078    0.073
       339  -9.7765     27.8921    176.4516   1.2200855250e+02   3.4269990428e+01    0.2777845    0.1505061 -68.31  0.001563073    1.620    0.383
       340 -10.1497     52.1037    173.7010   1.1630046683e+02   3.2240537246e+01    0.4665883    0.2023101 -88.33   0.00179341    3.235    0.691
       341  -9.0678    182.5127     12.4757   4.3157833794e+01   3.7688019889e+01    0.2423542    0.1255307  70.11 0.0005869726    1.761    0.432
       342 -10.0359    247.3893    173.9472   7.3540259407e+01  -1.9030443899e+00    0.4653317    0.1613575  31.13  0.001577035    4.123    0.757
       343  -9.7430    231.5116    175.3895   7.6656832925e+01   5.8168709477e-01    0.3761034    0.1227637  41.38  0.001397794    3.062    0.673
       344  -9.1119    174.2055     15.7968   4.5212566976e+01   3.9459558700e+01    0.1868501    0.1468722  48.83 0.0005057184    1.281    0.220
       345  -9.6037     39.5010    173.4965   1.1915728825e+02   3.3730456839e+01    0.2572838    0.1695463  76.48  0.001153977    1.398    0.285
       346 -11.0067     35.6333    169.4760   1.1963322451e+02   3.5061690563e+01    0.4004944    0.2233949 -78.23  0.001847799    1.556    0.357
       347 -10.3625      8.7025    157.1995   1.2466176011e+02   4.0319931724e+01      0.33203    0.1772483 -72.97  0.001014595    1.492    0.330
       348 -11.7660      9.5403    166.9487   1.2523125979e+02   3.8055773783e+01    0.5141309    0.3548875  81.35  0.002312055    1.169    0.145
       349 -11.3515     13.6452    159.3977   1.2371990959e+02   3.9424274651e+01    0.4366354    0.2294122 -71.94   0.00143778    1.538    0.350
       350  -9.1263    197.8785    167.8815   8.1589069740e+01   8.1046868297e+00    0.1859267    0.1761575 -61.05 0.0008235007    1.290    0.225
       351  -9.6833    188.9290    164.0290   8.2623713148e+01   1.0587466182e+01    0.3084279    0.1910537 -23.14 0.0009018184    1.937    0.484
       352  -8.8006    156.4947    166.4661   9.0279936309e+01   1.6616635340e+01    0.1481649    0.1412772  32.21 0.0005111261    1.005    0.005
       353  -8.6843    152.4132    166.5256   9.1230257671e+01   1.7413205540e+01    0.1462111    0.1410901  22.28 0.0001119706    1.026    0.025
       354 -10.2312     18.7794    164.9890   1.2303458431e+02   3.7712540038e+01     0.274294    0.2265336 -57.97  0.001472205    1.399    0.285
       355  -9.1108    209.2959    164.4372   7.8559281077e+01   6.4982171561e+00    0.2416476    0.1647727 -39.16  0.001192397    1.481    0.325
       356 -10.0372    205.7174    162.5630   7.8863083782e+01   7.5259239348e+00     0.486914    0.2672741  23.50  0.001402587    2.446    0.591
       357  -9.4933     40.1808    163.1573   1.1791247266e+02   3.6040538345e+01    0.3832313     0.136325 -81.91  0.001249179    3.629    0.724
       358 -10.5693     28.2877    161.7613   1.2056324340e+02   3.7575330734e+01    0.4092481    0.1896708 -67.77  0.002089964    1.801    0.445
       359  -9.4906     79.1792    160.1977   1.0795789080e+02   3.1793886392e+01    0.2000227    0.1520562  78.58 0.0007373102    1.353    0.261
       360  -9.4822    215.2641    158.3241   7.6065460043e+01   6.4116800673e+00    0.2756151    0.1643122 -25.54  0.001156943    1.752    0.429
       361  -9.4024    223.9595    157.2252   7.4178843456e+01   4.9311568285e+00    0.2822437    0.1701475 -55.78  0.001181135    2.558    0.609
       362 -10.2128     22.1636    155.3918   1.2138040885e+02   3.9617653786e+01    0.2897579     0.223086  14.75  0.001856623    1.805    0.446
       363 -12.0936     22.7700    149.2759   1.2062424783e+02   4.0991697259e+01    0.5686291    0.3117691 -39.46  0.002424221    2.581    0.613
       364 -10.5790     15.5732    147.8404   1.2223170259e+02   4.1931413799e+01    0.2917682    0.2263599  62.09   0.00100619    1.290    0.225
       365 -11.9620     12.8107    139.6579   1.2211490821e+02   4.4057177262e+01    0.8053237    0.4240482 -85.86  0.004350638    1.657    0.396
       366 -10.5136    104.5117    153.9576   1.0045269011e+02   2.9223510604e+01    0.3536121    0.3383563 -70.48  0.001961766    1.059    0.056
       367 -10.7980     31.6338    153.3098   1.1888706324e+02   3.9224759071e+01    0.4333639    0.2881087  83.42  0.002516184    1.394    0.282
       368  -9.9305     70.9433    151.4948   1.0869978389e+02   3.5046548349e+01     0.307067     0.135277  34.59  0.001281391    2.417    0.586
       369 -11.7670      4.0497    147.7598   1.2496956126e+02   4.2817170873e+01    0.6801407    0.3727751 -76.73  0.003391714    1.410    0.291
       370 -12.3887      3.6406    138.5107   1.2428079794e+02   4.4972935494e+01    0.6107184    0.2534487 -76.60  0.003103829    1.870    0.465
       371 -11.2755     63.2386    150.3691   1.1052447967e+02   3.6350948730e+01    0.4516108     0.398655 -28.09  0.002317313    1.424    0.298
       372  -8.8535     41.9976    148.7849   1.1576769040e+02   3.9243317264e+01    0.2802835    0.1809261  39.98 0.0008812769    1.660    0.397
       373  -9.8799     46.0935    151.9054   1.1512765440e+02   3.8050197572e+01    0.2972847    0.2638406  21.24  0.001292154    1.427    0.299
       374 -11.1250     47.3147    146.9810   1.1416703897e+02   3.9094435482e+01    0.5233265    0.3084566 -71.08    0.0022754    1.485    0.326
