#   1 NUMBER                 Running object number                                     
#   2 MAG_AUTO               Kron-like elliptical aperture magnitude                    [mag]
#   3 X_IMAGE                Object position along x                                    [pixel]
#   4 Y_IMAGE                Object position along y                                    [pixel]
#   5 X_WORLD                Barycenter position along world x axis                     [deg]
#   6 Y_WORLD                Barycenter position along world y axis                     [deg]
#   7 A_WORLD                Profile RMS along major axis (world units)                 [deg]
#   8 B_WORLD                Profile RMS along minor axis (world units)                 [deg]
#   9 THETA_WORLD            Position angle (CCW/world-x)                               [deg]
#  10 FWHM_WORLD             FWHM assuming a gaussian core                              [deg]
#  11 ELONGATION             A_IMAGE/B_IMAGE                                           
#  12 ELLIPTICITY            1 - B_IMAGE/A_IMAGE                                       
         1 -12.5940    105.6908     19.9610   1.7019472374e+01   5.4440645103e+01    0.3610108    0.2730048 -75.99 0.0003514985    1.335    0.251
         2 -12.3755     58.1166     29.8332   3.3771257034e+01   6.4258559384e+01     0.555648     0.363147 -17.84  0.001230665    2.014    0.504
         3 -10.2200    240.5344     31.5047   6.4846729666e+00   2.5910021008e+01    0.1032337   0.07250003 -56.33 8.019592e-05    1.010    0.010
         4 -11.4463     20.4532     22.0781   4.9496477496e+01   7.2478334447e+01    0.5051295    0.3354286 -21.79  0.001967309    1.701    0.412
         5 -11.6139     35.6071     17.4702   3.7843578750e+01   7.0514734428e+01    0.4790868    0.3515383 -11.42  0.002776965    1.605    0.377
         6 -10.7541     13.0614      9.0047   4.7232150233e+01   7.5589117764e+01    0.4581609    0.2988551  19.92  0.002653129    1.423    0.297
         7 -11.8327     22.6024     11.1682   4.1807387802e+01   7.3733199993e+01    0.5163891    0.3089449  21.20  0.002324033    1.844    0.458
         8 -10.7408     15.1408     15.8467   4.9817960290e+01   7.4260213499e+01    0.2817129    0.2032807  -5.48 0.0007303445    1.462    0.316
         9 -11.1919     17.1444     10.8575   4.5351487631e+01   7.4688206843e+01    0.3203241    0.2359435 -35.65  0.001203265    1.556    0.357
        10 -11.8876    165.0805     17.7364   8.8857648567e+00   4.1213821239e+01    0.4287883    0.2569095  46.73  0.002405453    2.318    0.569
        11 -11.8220     86.3410     13.4945   1.8455940541e+01   5.9696778445e+01    0.7207428    0.4870807  19.25  0.003846842    2.099    0.524
        12 -10.9685     89.2439      8.4693   1.5903624933e+01   5.9473321624e+01    0.2876361    0.2503459  -2.09  0.001150352    1.457    0.314
        13 -11.9585    128.5112     12.4816   1.1249728496e+01   4.9833034245e+01    0.3513411    0.1951329 -66.38  0.001521762    1.858    0.462
        14 -12.5403    134.8432     14.7936   1.1170798947e+01   4.8155755286e+01    0.6318488    0.2179779  65.28  0.002813351    2.444    0.591
        15 -10.4394    225.5202     13.5246   4.0225032540e+00   3.0224817030e+01    0.1852242    0.1280512 -59.60 0.0005906215    1.036    0.035
        16 -12.3112    104.7833     12.6216   1.4650091246e+01   5.5389517162e+01    0.4354733    0.3180978 -26.12  0.001470385    1.642    0.391
        17 -12.2704     48.9323     12.9865   2.9306828203e+01   6.8329829094e+01    0.6589699    0.2384821  55.02   0.00275446    2.320    0.569
        18 -11.2797    191.9201      9.2614   4.9973260302e+00   3.6670561264e+01    0.3983274    0.2347322  -8.95  0.002111162    3.450    0.710
        19 -11.5870    212.1411      9.7381   3.9733016137e+00   3.2902909731e+01    0.4006227    0.2419342 -26.38  0.002668076    2.025    0.506
        20 -11.5941     64.0696      9.1464   2.2201566902e+01   6.5338067155e+01    0.3935333    0.2836136 -50.06 0.0008660915    1.669    0.401
        21 -11.1734    168.7370      9.4968   6.6080260061e+00   4.1272437039e+01    0.2794673    0.1768518  62.81  0.001583557    1.694    0.410
        22 -10.4293      5.7539      9.3482   5.3503294788e+01   7.6567881600e+01    0.2046673    0.1653366 -25.88 0.0007326238    1.292    0.226
        23  -9.9818      1.0000      8.5622   5.7374060241e+01   7.7269709457e+01    0.2397266   0.06751921 -49.53  0.000932974    3.920    0.745
        24 -11.8060    156.1872      7.5654   7.1225313735e+00   4.4110411641e+01    0.3216943    0.1602592  81.43  0.001204309    1.783    0.439
        25  -9.9657     77.8870      7.3361   1.7826093652e+01   6.2272465376e+01    0.2041145    0.1403794  84.23 0.0007031137    1.445    0.308
        26 -10.5669    231.9457      6.2650   2.4180128941e+00   2.9882470776e+01    0.1414611   0.09709175 -66.72  0.001141574    1.105    0.095
        27 -11.8279    113.0109      2.2357   9.9722952735e+00   5.4355836873e+01    0.4202306    0.1771828  83.37  0.001782134    2.277    0.561
        28 -10.6758    176.2922      5.6107   5.1757644876e+00   4.0094789480e+01    0.2081269   0.09176957  86.57  0.000976343    2.110    0.526
        29 -11.9744    137.8355      4.1455   7.8404574871e+00   4.8467792272e+01    0.4938549    0.1976852  68.00 0.0004123096    2.123    0.529
        30 -11.9894    133.1526      2.5974   7.8543211375e+00   4.9661534878e+01    0.3142929     0.261077  74.92  0.001552378    1.180    0.153
        31  -9.6005    122.2879      5.3115   9.8244872121e+00   5.1927980433e+01    0.1171577   0.08452339  48.82 0.0002936528    1.580    0.367
        32 -10.8049     41.6732      3.7968   2.7277925269e+01   7.0836730136e+01    0.3679901    0.1867063  35.11  0.001793108    2.077    0.519
        33 -10.2690    218.5641      3.6838   2.5143812619e+00   3.2369722377e+01    0.1561409    0.1051965  78.42 0.0005744543    1.572    0.364
        34 -10.2597     72.5356      3.3058   1.7320200552e+01   6.3879238852e+01     0.281045    0.1268272  39.84  0.001252882    2.567    0.610
        35 -10.4613    223.8436      2.6763   2.1034415273e+00   3.1566977281e+01    0.1805385    0.1044754 -48.78 0.0003437403    1.289    0.224
        36 -10.7632    233.4164      2.2046   1.6400390052e+00   3.0032219155e+01    0.1499717   0.09197742 -76.09 0.0005462527    1.359    0.264
        37 -10.8319    184.8634      6.5693   4.8466837432e+00   3.8297657879e+01     0.263258    0.1142881 -60.00  0.001459636    1.968    0.492
        38 -10.8673    105.1409      1.8557   1.0879395807e+01   5.6244554042e+01    0.3075109    0.1509756  86.49  0.001496449    1.975    0.494
        39 -10.2833      2.0910      1.7688   5.1808383622e+01   7.8179697658e+01    0.2183862    0.1389425  11.69 0.0009740825    1.487    0.327
        40 -10.3039    245.8994      1.4003   1.0524502535e+00   2.8142256258e+01    0.1229432   0.07554319 -85.19 0.0003970415    1.518    0.341
        41  -9.7119    152.1625      1.3581   5.8632272648e+00   4.5540334341e+01    0.1641143   0.08920815 -87.24 0.0006210294    1.615    0.381
        42  -9.6103     82.0324      1.1654   1.4392816111e+01   6.1799887733e+01     0.177356   0.07709177  69.02 0.0005053198    1.874    0.466
        43  -9.5138     64.4176      2.2010   1.8833076349e+01   6.5870801710e+01    0.1450856    0.1175574 -46.43 0.0004549861    1.459    0.315
        44 -10.3403      7.5084    114.5037   8.3050628085e+01   5.2242150003e+01    0.2562972    0.2483443 -33.50 0.0008165581    1.026    0.025
        45 -12.1143      2.3814    111.5124   8.4955447189e+01   5.3356964018e+01     0.548583    0.3594214 -87.17  0.001769389    1.590    0.371
        46 -11.8561      5.0706    107.4477   8.3244265283e+01   5.4312150860e+01     0.569685    0.3860881 -89.95  0.002308188    1.591    0.371
        47  -9.7759     48.8181    111.8696   6.4813843022e+01   4.8779511964e+01     0.216573     0.177929  54.65 0.0007550879    1.332    0.249
        48 -10.7841     12.5302    111.5230   8.0428804044e+01   5.2716670081e+01    0.2742487    0.1432635 -78.50 0.0005810059    2.023    0.506
        49 -11.5963     16.4632    109.7625   7.8403047730e+01   5.2895336897e+01    0.3768488    0.2428971  33.47 0.0002980431    1.569    0.363
        50 -11.0539    104.4575    122.4802   4.7907829035e+01   3.6865525337e+01    0.3086636    0.2963476 -44.56 0.0008158199    1.046    0.044
        51 -11.5493     79.8879    108.1084   5.2158328869e+01   4.4719184589e+01    0.3749397    0.3127321  10.91  0.000753824    1.317    0.240
        52  -9.8371    174.3004    108.1743   2.8903541539e+01   2.6586917689e+01    0.1748466    0.1704974  42.82   0.00115545    1.162    0.139
        53  -9.5850     85.5612    103.4766   4.9038487030e+01   4.4746541045e+01    0.1500418    0.1468759  18.69 0.0001787291    1.014    0.014
        54 -10.9734     51.0034    100.5504   6.1283331994e+01   5.1353579028e+01    0.5053561    0.3087765 -25.79  0.002039909    2.143    0.533
        55 -12.4847    247.9122     96.2107   1.7347595325e+01   1.6874827809e+01    0.3904511    0.2501338 -20.93  0.002525416    2.087    0.521
        56 -11.7837      9.1309     97.0564   7.9826081874e+01   5.6850182587e+01    0.4626138    0.3728313  20.72 0.0006244424    1.263    0.209
        57 -10.4224    210.2811     98.1793   2.1693136618e+01   2.2097342082e+01    0.1598398    0.1541346 -39.80 0.0003744565    1.215    0.177
        58 -12.1604     67.2513     94.8229   5.3247367386e+01   5.0095098362e+01    0.4378382    0.3237939  35.95  0.001070994    1.303    0.233
        59 -10.7699     30.4022     96.3502   6.9462791917e+01   5.5120096097e+01    0.2846963    0.2149988 -60.88 0.0007246344    1.337    0.252
        60 -10.9902     79.1310     91.7367   4.8023535419e+01   4.8606103398e+01    0.5540575    0.4353588 -68.32  0.002714511    1.490    0.329
        61 -11.2838     16.2535     95.1240   7.6006976609e+01   5.6825106582e+01    0.2793793    0.1811186 -74.37   0.00130322    1.637    0.389
        62 -12.0204    125.9892     94.5070   3.5216813348e+01   3.8487916984e+01    0.2454684    0.2266501 -54.94 -2.665109e-05    1.064    0.061
        63  -9.6771    121.7090     93.3209   3.5931004066e+01   3.9605613718e+01    0.2009031     0.178618 -68.76 0.0005218188    1.153    0.133
        64 -10.0918     42.9067     94.8161   6.3370358326e+01   5.3944892115e+01    0.2412968    0.1997515 -19.49 0.0008853541    1.262    0.208
        65 -11.9013     23.2716     94.3245   7.2429034244e+01   5.6396939966e+01    0.3543918    0.2916105 -18.44   0.00172624    1.212    0.175
        66  -9.9103     39.3460     90.2759   6.3849445056e+01   5.5557775573e+01    0.3069347    0.1892184  -1.49 0.0009291997    2.113    0.527
        67 -11.4079    240.5091     91.5264   1.7210983949e+01   1.8519287386e+01     0.261331    0.1038625 -55.42   0.00127088    2.889    0.654
        68 -10.2811     35.4018     92.2322   6.6170673944e+01   5.5578468740e+01    0.2598832     0.191005 -71.63  0.001249229    1.532    0.347
        69  -9.9151     98.1394     90.9161   4.1634352394e+01   4.4988658274e+01    0.2142701    0.1930666  73.89 0.0003443192    1.175    0.149
        70 -10.6381     43.2219     90.9331   6.2244179738e+01   5.4863634211e+01    0.2340443    0.2060444  21.21 0.0003764551    1.097    0.088
        71 -11.6167      6.1189     87.9916   7.9844476788e+01   5.9433374506e+01    0.7155655    0.3862325   0.04  0.003145782    1.969    0.492
        72 -10.8850      3.3912     82.4315   8.0331620026e+01   6.1037494357e+01    0.2885517    0.2490481  67.70  0.001058589    1.332    0.249
        73 -11.1719     27.4815     84.8989   6.8230107147e+01   5.8357040085e+01    0.5898553     0.342651   9.08  0.001989166    1.887    0.470
        74 -11.0724     18.3326     86.6674   7.3279846550e+01   5.8838828798e+01    0.4824588    0.2824264 -16.81  0.002088275    1.971    0.493
        75  -9.5802    111.4334     88.4772   3.7223313901e+01   4.2701821837e+01    0.1423884    0.1399255  78.43 0.0008063377    1.022    0.022
        76 -10.0759     89.8986     85.5471   4.2630042859e+01   4.7787376731e+01    0.3665604     0.189861 -58.28  0.001396013    2.482    0.597
        77 -10.7640     52.0747     87.0716   5.7276323967e+01   5.4464718233e+01    0.2191291    0.2106224   4.48  0.000354329    1.017    0.017
        78 -11.2849     45.1807     84.2734   5.9558112885e+01   5.6189658971e+01    0.3989511    0.2829114 -38.75   0.00101069    1.463    0.316
        79 -10.1438     37.0153     85.5877   6.3733982923e+01   5.7021283076e+01    0.2301873    0.1387308  26.14  0.001020407    1.603    0.376
        80 -12.9750    247.3300     76.0079   1.3870036653e+01   1.9600010736e+01    0.4345377    0.2695076 -56.66  0.003128236    1.367    0.268
        81 -12.3333     75.7902     79.3923   4.5549956358e+01   5.1906180522e+01    0.7653674    0.5278245  67.96  0.003387856    1.968    0.492
        82  -9.2463    113.6532     83.3101   3.5206572001e+01   4.3216946458e+01    0.1495347    0.1122014 -88.51 0.0005467925    1.707    0.414
        83 -10.2006     67.4361     80.8884   4.9133366300e+01   5.3195929537e+01    0.3080142    0.2006366  18.73  0.001318302    1.939    0.484
        84  -9.3235    118.7464     78.3141   3.2546174075e+01   4.3032560351e+01    0.1396732     0.107051 -75.76 0.0001822309    1.526    0.345
        85 -10.6445     89.2351     77.5386   4.0436298307e+01   4.9534908040e+01    0.3262239    0.2129047  51.05  0.001017705    1.495    0.331
        86 -10.3453     94.1819     76.2062   3.8503203659e+01   4.8744759416e+01    0.3221911    0.1987285  43.01  0.001268335    1.586    0.370
        87  -9.8577     58.0871     77.6573   5.1913321755e+01   5.5598617532e+01    0.2093436    0.1841919  26.84  0.000534279    1.082    0.076
        88 -10.7602     53.4148     76.3156   5.3502814126e+01   5.6702347923e+01    0.3433807    0.3106623 -49.11  0.001713717    1.174    0.148
        89 -10.1114     46.5611     75.5799   5.6366501828e+01   5.7990794140e+01     0.275724    0.1347737 -47.20  0.001115265    2.089    0.521
        90 -11.3081     13.9569     74.6069   7.2920148484e+01   6.2256488021e+01    0.3639698    0.3010108 -86.54  0.001990422    1.429    0.300
        91 -10.6107     34.6048     71.4111   6.0922301075e+01   6.0707212735e+01    0.4020469    0.1992985  39.77     0.001667    2.040    0.510
        92 -10.9303     39.5051     73.2885   5.9033993477e+01   5.9584125735e+01    0.4448656     0.241163  18.80 0.0009540147    2.064    0.516
        93 -11.7798     40.6978     68.9975   5.7099434022e+01   6.0370368831e+01    0.3293868    0.2648411  33.20 0.0005547963    1.193    0.162
        94 -10.0028     25.4466     74.5074   6.6610455705e+01   6.1130623071e+01    0.2913461    0.2431951 -31.97 0.0007418279    1.160    0.138
        95 -10.7043     28.3484     72.3218   6.4456042206e+01   6.1307048180e+01    0.2983837    0.2134214 -17.22  0.001352002    1.513    0.339
        96 -10.8361      2.0149     71.5448   7.9089000900e+01   6.3872465890e+01    0.4132978    0.2135167 -60.04  0.001906647    1.763    0.433
        97 -10.2959    143.1202     84.1548   2.8864857156e+01   3.6799338769e+01    0.2019114    0.1817104 -67.52 0.0005093545    1.056    0.053
        98 -10.2668    122.2969     68.7450   2.9011834023e+01   4.3905254009e+01    0.3452837    0.1490927  47.16  0.001371204    2.414    0.586
        99 -10.0775     12.3297     67.2768   7.2059180897e+01   6.4179527693e+01    0.2250225    0.1376071   9.76 0.0004709301    1.614    0.380
       100 -11.8468     93.4700     62.8516   3.4490928976e+01   5.1333702601e+01    0.4628219    0.3107642  79.36  0.001964353    2.062    0.515
       101 -10.4248     13.8954     56.3698   6.8057828900e+01   6.6577392230e+01    0.3224189    0.1819034 -20.69 0.0008405034    2.024    0.506
       102 -12.4876      5.8211     61.8906   7.4647243357e+01   6.5978645602e+01    0.7448161    0.4273233  -3.19  0.002488653    1.793    0.442
       103 -10.6390      9.5474     56.5162   7.0855433856e+01   6.6941678191e+01    0.2625921    0.2301542  63.94  0.000618206    1.428    0.300
       104  -9.7645    201.6733     64.3374   1.5814281357e+01   2.8395318209e+01    0.1256726   0.07295493 -63.27 -0.0001227229    1.725    0.420
       105  -9.9012    158.8844     62.8859   2.0797578355e+01   3.6887790030e+01    0.1768403    0.1670961  54.51 0.0003828932    1.251    0.201
       106  -9.9943    105.0422     63.4869   3.1537537049e+01   4.8642408655e+01    0.2117145    0.1330716  56.32 0.0004609876    1.513    0.339
       107  -9.6870     84.5302     62.4855   3.7090143089e+01   5.3357836274e+01    0.2460253    0.1410072 -29.36  0.001032946    2.280    0.561
       108 -11.2739     43.1844     61.0597   5.3193133406e+01   6.1679621821e+01    0.3920828     0.262123 -52.37 0.0007857081    1.640    0.390
       109 -12.0516     46.4088     59.2239   5.0971279809e+01   6.1514544692e+01    0.7708273     0.312381  48.94  0.002668194    3.144    0.682
       110  -9.8555    113.5019     60.9400   2.8692701646e+01   4.7152792303e+01    0.2038315    0.1377287 -39.40 0.0008061664    1.563    0.360
       111 -10.9157     25.5022     55.6567   6.0788153248e+01   6.5418577769e+01    0.3724204    0.2363273 -29.45 0.0007993652    1.713    0.416
       112 -10.0155     29.6423     59.7841   5.9845663398e+01   6.3980225114e+01    0.3549863    0.2763349 -80.91  0.001833976    1.771    0.435
       113 -10.0989     26.0172     59.4957   6.1790880017e+01   6.4518124563e+01    0.3337068    0.1976344  18.25  0.001557343    1.675    0.403
       114 -11.7767     76.2590     52.8936   3.6456957663e+01   5.6808967559e+01    0.5399153    0.3763672 -31.41  0.001348621    1.656    0.396
       115 -10.8769     72.7762     47.2412   3.5550555592e+01   5.8492152875e+01    0.6068584    0.2779541 -51.51  0.001943563    2.915    0.657
       116 -10.7838     40.5627     56.8445   5.2988990682e+01   6.2971202408e+01    0.3322938    0.1802508  38.11 0.0008816743    1.723    0.420
       117  -9.4649    124.5259     56.4945   2.4994490052e+01   4.5346858696e+01    0.1353783    0.1245984  84.91 0.0006899011    1.020    0.020
       118 -10.2197    118.5265     56.4805   2.6228889647e+01   4.6710747505e+01    0.2476262    0.1282382  70.91  0.001027477    2.300    0.565
       119 -11.1501    246.0424     54.9594   1.0275243574e+01   2.2388640885e+01    0.1419708    0.1221398 -13.26  0.001146182    1.734    0.423
       120 -10.6032    122.6787     44.9154   2.1913265658e+01   4.7431743725e+01    0.2655451    0.2041692  88.60 0.0008480392    1.287    0.223
       121 -12.3531    117.1633     45.4425   2.3141312006e+01   4.8632037446e+01    0.7914503    0.5795099 -10.26  0.004125379    1.989    0.497
       122 -11.2932    120.1967     40.6055   2.1064062011e+01   4.8582771649e+01    0.3458057    0.2047129  55.30 0.0007566252    1.608    0.378
       123 -12.0879    119.1058     36.8976   2.0118625138e+01   4.9315125073e+01    0.3764444    0.2925964 -77.30  0.001312573    1.285    0.222
       124 -10.8239     60.0314     50.9030   4.1774206860e+01   6.0543565565e+01    0.5172901    0.2520064 -55.13  0.002004427    2.949    0.661
       125 -10.6099     61.6207     46.3553   3.9351492052e+01   6.0999863332e+01      0.37183    0.2128989 -26.59  0.001589904    2.341    0.573
       126 -10.7291     31.5288     53.0532   5.6408973470e+01   6.5137512004e+01    0.4494266     0.187589  29.79   0.00179323    2.265    0.558
       127 -11.1242    110.5020     40.9635   2.3083850025e+01   5.0791030787e+01    0.7236336    0.5557836 -22.94  0.004055234    1.606    0.377
       128  -9.7292     10.7857     51.5919   6.8567357458e+01   6.7942327223e+01     0.175294    0.1179015  26.49 0.0002971612    1.443    0.307
       129 -11.4237    155.0058     48.7983   1.7801174628e+01   3.9686695564e+01    0.2353964    0.1741759 -38.02 0.0004104219    1.399    0.285
       130  -9.5701    144.5908     50.4870   1.9766860720e+01   4.1722285988e+01    0.1273482    0.1158083 -79.95 6.772715e-05    1.051    0.049
       131  -9.2065     55.4513     50.4597   4.3532776981e+01   6.1526071683e+01    0.1421905    0.1273791  27.10 0.0001484967    1.045    0.043
       132 -11.9780     42.9397     44.5804   4.6987319135e+01   6.4914008136e+01    0.6069835     0.457101  39.14  0.001428452    1.220    0.180
       133  -9.5106    189.1879     49.4465   1.3916709984e+01   3.2660366938e+01    0.1466729    0.1006788 -85.21 0.0003108317    1.452    0.312
       134 -11.1033     20.8031     46.0350   6.0140735540e+01   6.8033989279e+01    0.2966249    0.2586621 -24.71 0.0009355108    1.127    0.113
       135 -10.4232     13.1545     46.2328   6.5197691657e+01   6.8873246255e+01    0.2633189    0.1804512 -20.49  0.001176655    1.467    0.318
       136 -10.5389     24.3365     37.8081   5.4544258310e+01   6.9167176790e+01    0.4232838    0.2670989  51.57  0.001989452    2.103    0.525
       137 -10.9408     30.9659     44.4951   5.3389102286e+01   6.6919011003e+01    0.3014969    0.1895619  26.16  0.001506939    1.489    0.328
       138 -10.7796     26.4682     43.0303   5.5440571239e+01   6.7868295433e+01    0.2459975    0.1747066  39.96 0.0005156719    1.433    0.302
       139 -10.2534    156.0466     42.1740   1.5968433661e+01   4.0328367332e+01    0.2161576    0.1694477 -47.12  0.001106871    1.239    0.193
       140 -10.8215    235.5075     42.4820   8.7531768959e+00   2.5459386523e+01    0.1049856   0.07734635 -55.44 0.0002275662    1.020    0.019
       141  -9.7408    145.2938     42.6843   1.7562857560e+01   4.2610362898e+01     0.133569   0.08638342 -68.56 0.0002990744    1.601    0.375
       142 -10.0132     57.0355     42.0809   3.9485217284e+01   6.2641556563e+01    0.2558491    0.1719557  50.67  0.001301032    1.400    0.286
       143 -10.0316     98.4624     41.4806   2.5963882049e+01   5.3528931187e+01    0.2322265    0.1254599  70.76 0.0007227473    2.041    0.510
       144 -11.4014     78.8782     35.5396   2.9062675361e+01   5.8870595084e+01    0.7086704    0.4777195 -30.93  0.003722518    1.717    0.417
       145  -9.8847      2.0087     48.7784   7.3667096305e+01   6.9281248777e+01    0.1780042    0.1010486  12.31 0.0008720824    1.665    0.399
       146 -11.2083      3.9824     36.0002   6.8032772889e+01   7.1888965051e+01    0.3579073    0.3171512 -11.04  0.002300397    1.068    0.064
       147 -10.7486     60.9369     36.7852   3.5697015750e+01   6.2656878898e+01    0.3252653    0.2478093 -18.42  0.001227877    1.582    0.368
       148 -10.6191    153.2842     35.9099   1.4703368143e+01   4.1704845322e+01    0.2228682     0.163186  70.56 0.0006466429    1.308    0.235
       149 -10.7058    175.1497     34.2301   1.1876912331e+01   3.7301554931e+01    0.2290594     0.111252 -57.33 0.0005800753    1.931    0.482
       150 -10.7002    131.7446    240.9812   6.1656152141e+01   7.6714287174e+00    0.1760869    0.1453504  -4.83 0.0006443221    1.063    0.059
       151 -12.5985    104.5678     32.5726   2.1540402213e+01   5.3264988853e+01    0.6847166     0.303266  53.49 1.386373e-05    2.053    0.513
       152 -12.7725    113.8135     25.2268   1.7349777156e+01   5.1948392197e+01     1.280677    0.2676451  60.19  0.004385284    3.567    0.720
       153 -10.0374    217.1174     32.1127   8.0224723344e+00   2.9669630637e+01    0.1478431    0.1239648 -56.09 0.0003130635    1.186    0.157
       154  -9.5834     67.5216     31.9971   3.1270538021e+01   6.1911110150e+01    0.1777228    0.1176231   4.89 0.0008084156    2.426    0.588
       155 -10.1595     67.4039    240.8086   7.7038603625e+01   1.4584114208e+01    0.1683354    0.1150407 -45.93 0.0008023944    1.650    0.394
       156 -11.6832     49.0183     30.1141   3.7698378557e+01   6.6112377014e+01    0.6075003    0.2526621  43.93  0.001934819    2.108    0.526
       157 -11.1708    147.1820    238.5859   5.7968803053e+01   6.4442510836e+00    0.2963956    0.2424622  83.52  0.001756245    2.377    0.579
       158 -11.7199    164.2981     27.6331   1.1379057139e+01   4.0309985419e+01    0.3672644    0.2161303 -60.91 0.0004720085    1.557    0.358
       159 -11.6542     26.5543     28.0181   4.8586606443e+01   7.0551892212e+01    0.4313495    0.2946674 -51.64  0.002111186    1.850    0.459
       160 -10.5928     10.8474     30.2693   6.0461007491e+01   7.2333865199e+01    0.3554275    0.2264501  10.90  0.001908918    1.490    0.329
       161  -9.6792    135.5864     30.2619   1.5500607499e+01   4.6321117162e+01    0.1600168    0.1254252 -18.52 0.0009491575    1.660    0.398
       162 -12.1163    125.6280     27.9106   1.6272733375e+01   4.8881759716e+01      0.45082    0.3198022  84.27  0.002239071    1.298    0.229
       163 -10.4344    188.6936     27.1348   9.0728303283e+00   3.5425552733e+01    0.2507986    0.1601645  59.79 0.0009547307    1.819    0.450
       164 -11.1170    230.8767     26.8022   6.1789069353e+00   2.7954239937e+01    0.1735822    0.1492123 -60.54  0.000668849    1.254    0.202
       165 -11.8875    144.9273     25.9365   1.3079111699e+01   4.4708059324e+01    0.4828244    0.2044533  88.04  0.001957305    3.096    0.677
       166 -10.5171    183.0967     25.6070   9.1887634610e+00   3.6690492683e+01    0.2116103    0.1273636 -52.24  0.001319824    1.387    0.279
       167 -10.3008    248.6123    224.1827   3.7976751916e+01  -8.5531445353e-01    0.1512779   0.06572665 -30.65 0.0009489689    1.705    0.414
       168 -11.4968    155.0072     22.7851   1.1114971981e+01   4.2834481977e+01    0.3679335    0.1977911 -36.60  0.002032625    1.840    0.457
       169 -11.5266    134.1635     22.6356   1.3507418577e+01   4.7501238495e+01    0.3124723    0.2067612  77.44  0.001812374    1.342    0.255
       170 -10.5271     38.7247     22.0031   3.8633933911e+01   6.9300354088e+01    0.2249653    0.1853049  27.55 0.0003487044    1.099    0.090
       171  -9.3461    164.4866    211.5162   5.0367984617e+01   9.2056007644e+00    0.1273857    0.1041401  -9.86 0.0007198584    1.004    0.004
       172  -9.8522    224.1457     22.1710   5.6996664906e+00   2.9560754352e+01    0.1465219   0.08737395 -61.58 0.0003526887    1.299    0.230
       173 -10.6420    178.7672     20.8189   8.4596222639e+00   3.8072936442e+01    0.3020548    0.1746071  45.68  0.001657203    2.637    0.621
       174 -10.0778    170.5930     23.4645   9.7716691216e+00   3.9455644233e+01    0.2185617    0.1029272  74.24 0.0005489858    2.002    0.500
       175  -9.7422     13.8163     22.6374   5.4537560631e+01   7.3340159908e+01    0.1742638    0.1042078  36.06 0.0002448552    1.585    0.369
       176  -9.9082      5.3294     22.0649   6.0959061696e+01   7.4468619965e+01    0.2040077    0.1432272  17.45  0.001118077    1.244    0.196
       177 -10.6905      9.4519     19.6173   5.6329144448e+01   7.4421298130e+01    0.4122111    0.1971345  10.59  0.001131117    2.900    0.655
       178 -10.0425     79.1495    205.5619   7.0129613807e+01   2.0917592322e+01    0.2994105    0.1754023 -86.72  0.001241797    2.731    0.634
       179  -9.6078    229.5094    199.4886   3.7015722976e+01   4.1708303306e+00    0.1121786   0.08070283 -22.24 5.650312e-05    1.032    0.031
       180 -11.6166      5.2133    185.2223   8.9977193043e+01   3.3240005486e+01    0.4919869    0.3034455  39.57  0.002475479    1.485    0.327
       181  -9.5996    190.3185    170.6740   3.8515199980e+01   1.3148753448e+01    0.1135108   0.09760115 -70.74 0.0007045838    1.677    0.404
       182 -11.1288     68.3133     19.5966   2.5670265172e+01   6.3277953337e+01    0.3343257    0.2875897 -88.66  0.002012389    1.286    0.222
       183  -9.8141    216.5100     19.9638   5.7127934983e+00   3.1095658607e+01    0.1537291   0.08351175 -40.93 0.0004982402    1.532    0.347
       184 -11.1063      9.3008    166.9299   8.7458271782e+01   3.7759435043e+01    0.2561449    0.1830097  33.87 0.0009465413    1.341    0.254
       185  -9.7861     46.4098     20.2114   3.4066727770e+01   6.8001380417e+01    0.1612025    0.1252217 -45.57 0.0005733975    1.570    0.363
       186  -9.9304     74.7703     19.2455   2.3637919811e+01   6.1827330355e+01    0.1819567    0.1380355  38.79 0.0008189419    1.360    0.265
       187 -10.5108    205.1919    163.5130   3.4746959601e+01   1.2428086126e+01    0.2277026    0.1423319 -39.44 0.0007937576    1.328    0.247
       188 -11.4097     14.0648    159.3144   8.5215790792e+01   3.9468813384e+01    0.3806491    0.1992363 -77.26   0.00119166    1.907    0.476
       189 -10.0858    227.0000    156.9927   3.0375963603e+01   1.0767408322e+01    0.1904104   0.05142799 -41.40 0.0007961877    2.899    0.655
       190 -11.1891    127.1990     16.6231   1.2651337676e+01   4.9730086502e+01    0.2569849    0.1878133  56.26 0.0006034584    1.420    0.296
       191 -12.3741     21.9914    149.4472   8.1408136333e+01   4.1531786791e+01    0.7158801     0.328517 -39.33  0.002682579    2.520    0.603
       192 -11.0800    228.7962     15.8097   4.2813104379e+00   2.9449480254e+01    0.1942686    0.1219271 -61.22  0.000504765    1.180    0.153
       193 -10.0504     55.4942    152.8893   6.9943950925e+01   3.7020510415e+01    0.2232595    0.1505965 -63.39 0.0006777114    1.518    0.341
       194  -9.8559    211.2135     16.0444   5.2534776534e+00   3.2431837875e+01     0.144669    0.1036764 -56.24  0.001086853    1.080    0.074
       195  -9.9788    186.6958     15.0616   6.5829762774e+00   3.7101192169e+01    0.1547541    0.1196842 -59.71  0.000541939    1.086    0.080
       196 -10.1407    240.5339    152.5259   2.7840929629e+01   9.8560991668e+00    0.1103953    0.0825868 -35.70 0.0002166196    1.046    0.044
       197 -11.1510     47.5187    148.5060   7.2047513156e+01   3.9173987535e+01    0.6391151    0.3688941 -12.39  0.002431152    2.446    0.591
       198 -10.0090     46.6839    145.3244   7.1851472022e+01   4.0131187613e+01     0.478014    0.1799243  24.06  0.001637569    2.576    0.612
       199 -10.3563     16.6558    147.9217   8.3194859624e+01   4.2385919586e+01    0.2096315    0.1804483 -79.60 0.0005427268    1.153    0.133
       200 -11.2187    120.9215     11.6155   1.1945240659e+01   5.1677392702e+01    0.2857291    0.1033877  71.72  0.001234606    2.375    0.579
       201  -9.7688    104.0103    147.2774   5.3476386049e+01   3.1186317329e+01    0.2072059     0.186801  23.57  0.001099635    1.091    0.083
       202 -10.6525     33.2188    144.4046   7.6647583485e+01   4.1869032351e+01    0.2830161    0.2661435 -76.50 0.0009058075    1.078    0.072
       203 -11.7368      3.5719    142.1178   8.7497671888e+01   4.4878308751e+01    0.6004335    0.2975104  34.45  0.002141115    1.962    0.490
       204 -10.4486     40.6882    139.2010   7.3095035412e+01   4.2488313441e+01    0.4772304    0.1911012 -64.24   0.00170912    2.422    0.587
       205 -11.2441     80.4759    138.5149   5.8891329040e+01   3.7168113494e+01    0.2775239    0.2616217   9.17   0.00147521    1.044    0.042
       206  -9.8435     20.5592    134.2160   8.0130137957e+01   4.5850857735e+01     0.269072    0.2278198  59.96 0.0009731202    1.236    0.191
       207 -11.3348     12.3762    135.5357   8.3494499420e+01   4.6121813955e+01    0.5433504    0.2186074 -40.54  0.001934785    2.771    0.639
       208 -10.9800     30.2083    132.5039   7.6095733486e+01   4.5436465217e+01    0.3646724    0.2685308 -30.54  0.001114682    1.449    0.310
       209 -10.5962     25.9900    131.5040   7.7617655997e+01   4.6117604617e+01    0.2269105    0.1967668 -66.56 0.0003958931    1.144    0.126
       210 -11.5072     22.9936    137.6853   7.9624585381e+01   4.4684432979e+01     0.470587     0.298294 -24.83  0.002080183    1.811    0.448
       211 -10.7649     10.7174    126.5704   8.3147273962e+01   4.8714218171e+01    0.2514689    0.1674355  69.66  0.001163282    1.687    0.407
       212  -9.5626     33.6384    126.2989   7.3757555342e+01   4.6780312585e+01    0.1633806    0.1073883  53.80  0.000703459    1.717    0.417
       213 -10.2453     23.1393    126.6491   7.8071890828e+01   4.7713256530e+01    0.2032951    0.1369856  -1.24 0.0003761447    1.630    0.387
       214 -12.9141    246.1623    120.9155   2.1800002497e+01   1.3708839086e+01    0.6480748    0.2441507 -48.41  0.003361355    2.368    0.578
       215  -9.4715     13.4607    122.5065   8.1513452599e+01   4.9640249043e+01    0.1462764    0.1376488 -44.66 0.0008091298    1.032    0.031
       216 -10.1869     44.5044    119.9979   6.8242046338e+01   4.7211500966e+01    0.2310749    0.1514992 -64.30 0.0004627114    1.562    0.360
       217 -10.1160     43.1985    116.1697   6.8014824664e+01   4.8393365657e+01    0.2688152    0.2058225 -83.58 0.0008137327    1.510    0.338
       218 -10.2117    218.4916    116.4855   2.4198926934e+01   1.8084532272e+01    0.1172035   0.09341745 -42.79 3.368825e-05    1.008    0.008
       219 -10.5516     35.5668    102.8671   6.8517341448e+01   5.2830752059e+01    0.6097563    0.2945474  -3.82  0.001897358    3.735    0.732
       220 -11.6727    158.8391     29.4370   1.2400510727e+01   4.1267033140e+01    0.4438993    0.2017591  75.23  0.002192708    2.134    0.531
       221 -11.6146     17.2154    100.8629   7.6581093620e+01   5.5226002463e+01    0.4633498    0.2672271  37.31  0.001612173    1.789    0.441
       222 -12.2554     25.7808    106.3315   7.3611691100e+01   5.2984821931e+01    0.7556809    0.5119721 -40.32  0.003147515    1.475    0.322
       223 -11.6606     22.2851    114.1690   7.6526874965e+01   5.1203683270e+01    0.6123414    0.3037768  -1.14  0.002096785    2.554    0.608
       224 -11.3967     28.3434    112.9157   7.3675926152e+01   5.0961629268e+01    0.4724713    0.2830608  31.52  0.001483455    1.635    0.388
