#   1 NUMBER                 Running object number                                     
#   2 MAG_AUTO               Kron-like elliptical aperture magnitude                    [mag]
#   3 X_IMAGE                Object position along x                                    [pixel]
#   4 Y_IMAGE                Object position along y                                    [pixel]
#   5 X_WORLD                Barycenter position along world x axis                     [deg]
#   6 Y_WORLD                Barycenter position along world y axis                     [deg]
#   7 A_WORLD                Profile RMS along major axis (world units)                 [deg]
#   8 B_WORLD                Profile RMS along minor axis (world units)                 [deg]
#   9 THETA_WORLD            Position angle (CCW/world-x)                               [deg]
#  10 FWHM_WORLD             FWHM assuming a gaussian core                              [deg]
#  11 ELONGATION             A_IMAGE/B_IMAGE                                           
#  12 ELLIPTICITY            1 - B_IMAGE/A_IMAGE                                       
         1 -14.6623    209.9281     16.1186   4.1128500344e+01   3.0595769238e+01     3.237993     2.845812  82.43   0.02011697    1.089    0.082
         2 -13.2654    192.3633     27.0972   4.6108528951e+01   3.3678258504e+01    0.9243835    0.6755271 -55.79  0.004458112    1.372    0.271
         3 -14.2816    187.3719     59.8934   5.6192887072e+01   3.0420213647e+01     2.102255     1.422578  36.74   0.00920087    1.750    0.429
         4 -16.2399    196.7819    125.6835   7.2122478906e+01   1.6454473294e+01     3.120132     2.456841 -58.55   0.01223611    1.466    0.318
         5 -15.1905    181.3613     80.6258   6.3224526227e+01   2.8470566923e+01     2.658127     1.372429 -51.62  0.008816266    2.262    0.558
         6 -16.1521    142.5837    106.7318   7.9339633580e+01   3.2592177462e+01     4.229228     1.760185 -47.34   0.01444002    2.456    0.593
         7 -13.7519    115.3192     77.9716   7.8176138611e+01   4.4545255166e+01     2.119538     1.586322  87.97  0.009326319    2.086    0.521
         8 -12.7611      2.8462     31.9579   1.0570827062e+02   6.8854701261e+01      2.95158   0.01986153 -58.29  0.007200304    9.250    0.892
         9 -13.9061     11.7648     44.3252   1.0533762780e+02   6.5911879833e+01     1.308137    0.8574709 -85.49  0.007198065    2.487    0.598
        10 -14.2072     10.8245     64.4910   1.1089159581e+02   6.1735083917e+01     1.565863    0.2786182 -56.53   0.00542893    3.076    0.675
        11 -15.1540     27.4566     17.6577   8.7827731747e+01   6.9442646604e+01     1.862835    0.9529835 -34.09  0.007574266    1.618    0.382
        12 -13.2597     73.5656     10.5336   6.5108327405e+01   6.3528371350e+01    0.9424241    0.5177123 -14.64  0.003202482    1.883    0.469
        13 -14.1658     61.0841      6.5086   6.7566381058e+01   6.6209541126e+01     1.041552    0.7223043  32.87  0.003533652    1.297    0.229
        14 -14.3211     60.3812     33.4341   8.0290514570e+01   6.2694485454e+01     1.252829    0.8614851 -20.33  0.003939922    1.345    0.256
        15 -13.5895     47.2125     11.9828   7.5893023120e+01   6.7767723205e+01     1.242701    0.7289684 -49.84  0.005953723    3.003    0.667
        16 -14.4120    135.4504      6.5493   4.8233618228e+01   5.0187441675e+01     1.747411    0.7494656  67.25  0.005329474    2.196    0.545
        17 -13.7290    162.8139      4.7717   4.3455839613e+01   4.3502250794e+01     1.179541     0.616904  74.69  0.003679912    1.816    0.449
        18 -13.0221     93.5973      4.1917   5.6268159046e+01   6.0106743864e+01    0.9186774    0.7298378 -68.31  0.003836701    1.849    0.459
        19 -11.6524    101.7469      1.8122   5.3232272218e+01   5.8524678277e+01    0.5196354    0.2858012  52.72  0.001839044    1.556    0.357
        20 -10.4226     71.3100    244.6664   1.1874780218e+02   1.5510281305e+01     0.286664    0.1629531  51.16 0.0009329403    1.376    0.273
        21 -13.4730    216.5575    244.2675   9.1867963332e+01  -6.4197666443e+00     0.912405    0.5669893  29.99  0.003555589    1.292    0.226
        22 -11.2860    195.6581    249.9093   9.6461223467e+01  -3.9966213966e+00    0.4243658    0.1833476  32.88  0.001729657    1.970    0.492
        23 -12.9398    200.7112    244.3242   9.4725632371e+01  -4.0479590918e+00    0.9107928    0.4967309  20.67  0.004840548    1.980    0.495
        24 -12.9038    167.4949    246.8877   1.0120653437e+02   7.6916375066e-01    0.7027192    0.4273041  16.57  0.002512463    2.168    0.539
        25 -15.5567    132.5852    243.7296   1.0735096829e+02   6.7397366250e+00     1.401605    0.9647804  37.07  0.005312182    1.268    0.212
        26 -14.6712    104.4542    245.7379   1.1282341379e+02   1.0681861274e+01    0.8784763    0.6304703  54.19  0.003157511    1.119    0.106
        27 -15.6006    112.7441    223.7048   1.0879997616e+02   1.3292814582e+01     2.371176    0.7812954 -55.74  0.007388161    3.380    0.704
        28 -14.4847    111.3500    202.8440   1.0639648405e+02   1.7529496999e+01     1.268512    0.7347503  65.31   0.00501167    2.117    0.528
        29  -9.2001     83.4665    250.5389   1.1706950069e+02   1.2858221276e+01    0.1155534   0.08708306  59.12 0.0001024235    1.014    0.014
        30 -16.5049     68.4063    169.4897   1.1153385397e+02   3.1311522943e+01     4.708338     3.989779 -25.43   0.02780994    1.640    0.390
        31 -15.6235     61.8929    129.6292   1.0706088908e+02   4.1698119250e+01     4.149466     2.289236  73.59   0.01641394    2.958    0.662
        32 -14.1450     49.8878    223.3587   1.2097214852e+02   2.2183258666e+01    0.8952846    0.4768273  79.61   0.00337006    1.866    0.464
        33 -15.8928      6.0012    117.9270   1.2103629306e+02   4.9792069554e+01     3.785339     1.149468 -80.10   0.01443075    3.343    0.701
        34 -15.3413     20.6843    109.8199   1.1576935786e+02   5.0687811772e+01     1.501399     1.008433  82.82   0.00518854    1.597    0.374
        35 -15.4621     13.6652    206.8559   1.2656235425e+02   2.9407084150e+01    0.9852091     0.761179 -87.47  0.005504313    1.201    0.167
        36 -17.3933     27.3038    197.9381   1.2337763892e+02   2.9884093750e+01     4.117409     1.464233  88.03    0.0165716    3.613    0.723
        37 -16.4013     41.5204    203.5643   1.2100616283e+02   2.7153946297e+01     1.674354    0.8306203  78.78  0.007849045    2.095    0.523
        38 -11.6747      2.3929    241.7979   1.3017191988e+02   2.3867830098e+01    0.3238436     0.151225 -86.40  0.002163487    1.792    0.442
        39 -14.4846    104.4822    186.2887   1.0554154351e+02   2.2102588324e+01     1.833408    0.7823985 -60.02  0.007633609    2.463    0.594
        40 -13.8588    204.4648     87.5997   6.0882065682e+01   2.1655190672e+01      1.61131    0.9424387 -36.60  0.005044381    1.616    0.381
        41  -9.0875     63.5403    238.5523   1.1965452209e+02   1.7617727683e+01    0.1178254   0.08516747  64.63 0.0001766175    1.075    0.070
        42 -14.4160    201.8976    103.4076   6.5491558796e+01   1.9448728420e+01     2.337492     1.186154  62.42  0.008747724    2.530    0.605
        43 -12.2338    172.7680    230.7813   9.7928939356e+01   2.2956920082e+00    0.4042045    0.3126036 -14.02  0.001599094    1.547    0.354
        44 -12.8298      3.7000    248.2086   1.3022117864e+02   2.2620737019e+01    0.7757344    0.2980126  48.57  0.004895519    1.888    0.470
        45 -11.6184     86.6516    142.6146   1.0265733429e+02   3.5014567098e+01    0.2944065    0.2475625 -47.20 0.0004224051    1.240    0.193
        46 -15.7908     48.2283    240.8473   1.2253261595e+02   1.9111680169e+01     1.082388    0.7049516  79.82  0.005920523    1.319    0.242
        47 -14.0791    164.7438    224.9607   9.8619886352e+01   4.5388286337e+00    0.8155151    0.7113886  28.61  0.002381566    1.056    0.053
        48  -9.9946     11.7681    232.3976   1.2824884471e+02   2.4659315996e+01    0.1832155    0.1185612  67.20  0.001362841    1.113    0.102
        49 -10.3437    107.1604    131.4201   9.4864542226e+01   3.4216757347e+01    0.4854488    0.2447472  49.81  0.001903288    2.195    0.544
        50  -9.9778     96.9646    128.2692   9.6956794048e+01   3.6765384044e+01    0.2573997    0.1967383 -29.59  0.001250564    1.559    0.359
        51 -11.4065    172.9520    101.2956   7.0738197945e+01   2.6657887752e+01    0.5810756    0.3748252  80.75  0.002146778    2.642    0.622
        52 -10.8264     89.9448    229.8234   1.1395120314e+02   1.5604830941e+01    0.3449878    0.1946285  71.73  0.001486277    2.053    0.513
        53  -9.9550     23.1697    224.9260   1.2590974034e+02   2.4902489717e+01    0.1698129    0.1108903  71.05 0.0006743526    1.153    0.133
        54 -13.3009      2.7533     69.2174   1.1492460587e+02   6.1126589858e+01    0.7367801    0.3722637 -71.21  0.002299107    1.701    0.412
        55 -11.9117     88.4864    215.2375   1.1269607756e+02   1.8598381402e+01    0.6065555    0.4106222 -38.19   0.00312207    2.301    0.565
        56 -10.8313     25.3705     82.9469   1.0950971445e+02   5.6616639375e+01    0.2164632    0.1666046  49.72 0.0007280459    1.622    0.383
        57 -12.9573    127.2770     70.1163   7.2348453651e+01   4.3432989191e+01    0.7786831    0.6659085 -44.43  0.002546752    1.196    0.164
        58 -10.8203     58.4834     70.4783   9.4352666909e+01   5.5961134299e+01    0.2882933    0.2663301 -59.02 0.0009533711    1.207    0.171
        59 -12.7283    133.0995     58.8366   6.7110401891e+01   4.4074334067e+01    0.8798707    0.4494259 -35.80  0.003282073    1.954    0.488
        60 -11.2665    118.4951     60.6318   7.1545653019e+01   4.7119473090e+01    0.4430807    0.2782541  54.37  0.001831307    1.709    0.415
        61 -11.3366    147.9191     56.9413   6.2995211396e+01   4.0799722428e+01    0.3991952    0.3101215  -3.15  0.001915163    1.530    0.346
        62 -11.3144    125.4546     55.7747   6.8008836160e+01   4.6372159863e+01    0.4397229    0.2827466 -33.50  0.002010464    1.559    0.358
        63 -11.7028    230.7720     44.7886   4.6049581092e+01   2.2077611770e+01    0.5811105    0.5281354   5.52  0.002349147    1.372    0.271
        64 -10.3791    137.9520     44.1510   6.0953656040e+01   4.5203996102e+01    0.2218535    0.1978198 -80.67  0.000498252    1.290    0.225
        65 -13.1828     80.0149    209.1686   1.1375712219e+02   2.1036381745e+01    0.6417775    0.4065034  67.47  0.002024038    1.540    0.351
        66 -12.8925    238.0470    208.8049   8.2036341893e+01  -5.1042174650e+00    0.7222527    0.5981302  11.31  0.003601972    1.085    0.079
        67 -12.8026    245.5200    205.1826   8.0062021785e+01  -5.7610727787e+00    0.7030392    0.5433919   7.64  0.004393607    1.066    0.062
        68 -11.0294    227.6968    197.7539   8.1831559569e+01  -1.9015128817e+00    0.3722918    0.2264142 -37.31  0.001633462    1.729    0.422
        69 -13.4164     48.8976     36.9021   8.6387185160e+01   6.3743465212e+01    0.6740716    0.5335493  16.92  0.002537051    1.284    0.221
        70 -10.6731    175.8202     39.5667   5.2156118498e+01   3.6299133451e+01    0.3878855    0.3180298 -32.20  0.002013558    1.262    0.208
        71 -11.3554     24.4578     38.8182   9.7837620009e+01   6.6045023824e+01     0.303247    0.1931542 -38.14  0.001108008    1.241    0.194
        72 -12.7082    236.5396    186.9879   7.8149945877e+01  -1.7792902172e+00    0.9830788     0.630194  13.49  0.004564467    1.676    0.403
        73 -10.9520    135.0387     22.9824   5.4156024603e+01   4.8645407168e+01    0.3858122    0.2088581  59.80  0.001744416    1.711    0.415
        74 -11.2512    154.4338    181.4869   9.3510058182e+01   1.4194536856e+01    0.4925787    0.4506181  83.90  0.002821303    1.232    0.189
        75 -10.6799     89.0901    185.7366   1.0894256557e+02   2.4654964578e+01    0.2851211    0.2319035  27.03  0.001203363    1.478    0.323
        76  -9.9655     75.7631    246.7376   1.1812244039e+02   1.4554931107e+01    0.2299592    0.1535696 -75.35  0.001114565    1.607    0.378
