#   1 NUMBER                 Running object number                                     
#   2 MAG_AUTO               Kron-like elliptical aperture magnitude                    [mag]
#   3 X_IMAGE                Object position along x                                    [pixel]
#   4 Y_IMAGE                Object position along y                                    [pixel]
#   5 X_WORLD                Barycenter position along world x axis                     [deg]
#   6 Y_WORLD                Barycenter position along world y axis                     [deg]
#   7 A_WORLD                Profile RMS along major axis (world units)                 [deg]
#   8 B_WORLD                Profile RMS along minor axis (world units)                 [deg]
#   9 THETA_WORLD            Position angle (CCW/world-x)                               [deg]
#  10 FWHM_WORLD             FWHM assuming a gaussian core                              [deg]
#  11 ELONGATION             A_IMAGE/B_IMAGE                                           
#  12 ELLIPTICITY            1 - B_IMAGE/A_IMAGE                                       
         1 -10.9445     39.6597      7.9259   4.6923751081e+01   7.2066080263e+01    0.6013974    0.2201684 -38.61  0.002560927    2.774    0.640
         2 -11.6769     49.7327     36.5774   5.7203937907e+01   6.5760510632e+01    0.9455789    0.6339324 -85.20  0.003662038    3.907    0.744
         3 -13.1131     45.1497     23.8140   5.3240157987e+01   6.8755544315e+01     1.124284    0.7921954 -53.72  0.006083121    1.775    0.437
         4 -10.0670    129.4013     13.4550   2.2391800244e+01   5.0997938792e+01      0.32406    0.2199458  43.22  0.001611119    1.542    0.351
         5 -10.4457    116.7272     17.2904   2.6234942677e+01   5.3885762643e+01    0.3748921    0.2035421 -43.36  0.001658922    1.971    0.493
         6 -11.0634    227.1617     16.0316   1.2649760504e+01   2.6309510277e+01    0.4413587      0.29201 -89.50  0.002557714    1.494    0.331
         7 -11.8165    143.8452      3.8250   1.6770280500e+01   4.8110068863e+01    0.7370093    0.4233817 -89.61  0.003428311    1.791    0.442
         8 -12.3308    156.1898     11.8959   1.8009073711e+01   4.4114448621e+01    0.6356874    0.5287907  89.31    0.0036059    1.107    0.097
         9 -12.8560    164.8079     11.8432   1.6982866743e+01   4.1873012145e+01    0.7700128    0.4188301  78.61  0.003553605    1.761    0.432
        10 -13.6180    164.6555      3.4876   1.4358217533e+01   4.2710091346e+01     2.271803    0.7666568  79.80   0.00819124    3.005    0.667
        11 -12.3055     78.0210     13.7454   3.4429418679e+01   6.3700896534e+01    0.4939713    0.3563143  -9.47  0.002652872    1.499    0.333
        12 -10.6300    223.6118      5.4797   1.0340227147e+01   2.8201223102e+01    0.2871859    0.1216903 -60.73  0.001313111    2.228    0.551
        13 -10.9416    231.9870      9.3809   1.0758552839e+01   2.5962887344e+01    0.4211955     0.245353 -66.90  0.002350656    1.560    0.359
        14 -11.2709    131.1252      3.9104   1.8489638838e+01   5.1440914731e+01    0.7421051      0.23625  57.35  0.002765151    2.626    0.619
        15 -11.1641    121.3962      4.3478   2.0135389726e+01   5.3942562463e+01    0.5303467    0.3821758  76.85  0.002824783    1.305    0.234
        16 -10.6277    106.2657      4.9190   2.3069247480e+01   5.7778854696e+01    0.4396385     0.233911 -75.93  0.001725494    2.921    0.658
        17 -11.9608     83.7670      3.7144   2.7615931621e+01   6.3409325562e+01    0.8555551    0.3473817  63.45  0.003512631    2.318    0.569
        18 -11.0245     71.2075      5.8638   3.2436000162e+01   6.6082671103e+01    0.4234674    0.2153484  59.38  0.001981986    1.914    0.478
        19 -11.2993    206.4153      4.5025   1.1206682225e+01   3.2242916988e+01    0.5040423    0.1764587  70.98  0.002122596    2.666    0.625
        20 -10.6731    112.0311      5.4971   2.2223409904e+01   5.6259296593e+01    0.2213071    0.1275185  69.86  0.001039382    1.615    0.381
        21  -9.2647    217.6609      2.2879   9.9242460446e+00   2.9856608452e+01     0.137937   0.07399859 -60.10 0.0007020243    1.639    0.390
        22 -10.7366     61.3934      2.1994   3.3707599533e+01   6.8576012069e+01    0.4278322    0.1757499  44.05  0.001878014    2.212    0.548
        23 -11.2220     85.3773     47.7071   4.7536665318e+01   5.7012978521e+01    0.6012132    0.3984657  50.91  0.002857069    1.540    0.351
        24 -11.1862    195.7699    185.3010   5.6290038466e+01   7.3006719924e+00    0.3223163    0.2801749 -61.99  0.001999387    1.639    0.390
        25  -9.9771     37.3654    185.3459   9.2101946209e+01   3.1907721357e+01    0.1754825    0.1449589 -42.16  0.001098958    1.654    0.395
        26  -9.8684     26.5127    180.4883   9.4356940246e+01   3.4151384906e+01    0.1268129    0.1001934  68.71 0.0001072399    1.017    0.016
        27 -10.2209    173.3820    158.7913   5.5605538677e+01   1.5661748101e+01    0.1982383    0.1279179 -29.90 0.0009494506    1.678    0.404
        28 -10.6970    219.9618    156.1200   4.6367025150e+01   7.7384116736e+00    0.3381399    0.2500231  69.12  0.001789242    2.275    0.560
        29  -9.8268     20.5317    155.4934   9.4014522059e+01   4.0543950879e+01    0.1290087    0.1060116  78.18 9.827667e-05    1.005    0.005
        30  -9.9216    163.0146    152.2435   5.6446416324e+01   1.8857669547e+01    0.1988472    0.1174291  41.97 0.0008970408    1.646    0.392
        31  -9.9490     53.6244    143.4663   8.3339744663e+01   3.9862456166e+01    0.2662007    0.2050552 -85.14  0.001463786    1.218    0.179
        32 -12.0073     11.1473    140.0832   9.5413898171e+01   4.5078503378e+01    0.5189418    0.2436982  67.62  0.002443049    2.113    0.527
        33 -13.4391    241.0924    125.2083   3.6624539949e+01   8.7182800807e+00     1.185013     1.019123  59.00  0.007632189    1.467    0.319
        34 -13.3774    244.5323    110.2460   3.2915423806e+01   1.0280131991e+01     1.278948    0.7771916 -41.19  0.006444464    1.470    0.320
        35 -10.9242      4.7915    124.6393   9.6086601534e+01   4.9340511913e+01    0.2668891    0.1518294  60.00  0.001424216    1.689    0.408
        36  -9.1209    208.6922    123.3089   4.1189265466e+01   1.4995366268e+01    0.1348824    0.1068072 -65.33  0.000603146    1.615    0.381
        37 -11.4743     10.3126    121.5787   9.4074350782e+01   4.9718225867e+01    0.3017568    0.2018148  49.73   0.00173187    1.488    0.328
        38 -10.3172    154.4908    120.9731   5.1254068316e+01   2.6780187628e+01    0.2362083    0.1480991 -41.60  0.001032505    1.591    0.372
        39 -11.3267    189.2304    115.9083   4.2875975905e+01   2.0235900659e+01    0.6924843    0.4103228 -10.79  0.002607055    2.927    0.658
        40 -10.8737    212.6817    112.9190   3.8129010678e+01   1.5897784747e+01    0.5453866    0.2795042 -37.30  0.002467248    1.759    0.432
        41 -10.3699    220.4904    107.9934   3.5771072627e+01   1.5128339550e+01    0.2995664    0.2356532 -59.06  0.001668811    1.447    0.309
        42 -10.0967    224.5111    111.4980   3.5981716679e+01   1.3799453149e+01    0.3645745    0.1613777 -45.04  0.001531092    2.264    0.558
        43 -10.4768    223.9859    106.6956   3.4953110401e+01   1.4643264296e+01    0.2650675    0.2464831 -14.03   0.00140189    1.083    0.076
        44 -10.3016    148.7350    110.4967   4.9930135212e+01   3.0172021882e+01    0.4274576    0.2064823 -36.20  0.001582405    2.257    0.557
        45  -9.2266    164.9975    134.4986   5.2139098262e+01   2.1878717162e+01    0.1949648    0.1308112  71.95 0.0008059023    2.297    0.565
        46 -10.6034     16.9404    104.0059   8.9850226667e+01   5.3649344865e+01    0.3512479    0.2120518  37.34   0.00186274    1.760    0.432
        47 -10.0462     30.6711    102.0021   8.4547313889e+01   5.2964324844e+01    0.2451021    0.1793388 -34.25  0.001094864    1.594    0.373
        48  -9.5847    208.9743     94.2891   3.4226256759e+01   1.9666366113e+01    0.1916762     0.183653 -35.94 0.0007474204    1.053    0.050
        49 -10.4167     18.0546    127.6972   9.2224583793e+01   4.7585925759e+01     0.181252     0.160798  75.37 0.0007960875    1.088    0.081
        50  -9.7455    178.6586     92.5374   3.8885423119e+01   2.6729125806e+01    0.3073609    0.1826442 -39.99  0.001348739    1.595    0.373
        51 -10.9860     12.7853     89.8912   8.9451928925e+01   5.7505743782e+01    0.2283875    0.1869004  57.01 0.0008660025    1.310    0.236
        52 -12.5136      4.5448     75.4523   9.0696717458e+01   6.1586756527e+01    0.8476369    0.4762147  81.07  0.004260241    1.982    0.495
        53 -13.0396     15.0033     73.2139   8.5702570821e+01   6.1488011741e+01    0.8172599     0.684728  41.13  0.005135672    1.356    0.263
        54 -10.7811      2.8399     88.7460   9.3211564538e+01   5.8394600046e+01    0.3212082    0.2277552  68.95  0.001852067    1.445    0.308
        55 -11.1343      2.5742     83.6940   9.2684722066e+01   5.9660124069e+01    0.4239544    0.1994107 -73.69  0.002027728    1.741    0.426
        56 -10.4034    192.3671     86.9390   3.4994033750e+01   2.4533820297e+01    0.5136534    0.2186977  59.41  0.001944169    2.611    0.617
        57 -12.7189     42.6277     80.6311   7.5492011338e+01   5.7027057792e+01     1.068098    0.8010174 -19.86  0.005069882    1.618    0.382
        58  -9.6164    100.6074     83.7612   5.5280238635e+01   4.6517316384e+01    0.2198017    0.1439361 -55.89 0.0009481823    1.612    0.380
        59  -9.3337    145.4831     81.4918   4.2568954968e+01   3.6660848321e+01    0.1527572    0.1511522 -65.38 0.0008101974    1.031    0.030
        60  -9.6511    215.2338     80.1638   2.9814853777e+01   2.0524367419e+01    0.2036757    0.1514219 -57.57  0.001081346    1.377    0.274
        61  -9.8760    221.3361     78.2566   2.8532364430e+01   1.9505788072e+01    0.3130786    0.1808844 -69.26  0.001332594    2.587    0.613
        62 -10.1263    169.6389     76.4427   3.6101365368e+01   3.1679321027e+01    0.3026677    0.2560731 -82.42  0.001550955    1.279    0.218
        63  -9.7377    227.0281     71.8233   2.6256337433e+01   1.9242857800e+01     0.231444    0.1428678 -68.90  0.001098576    2.077    0.518
        64  -9.8953    207.8344     72.8099   2.8968679173e+01   2.3267529064e+01    0.2021434    0.1570197 -63.12  0.001078784    1.329    0.247
        65 -10.6146     75.3933     69.0583   5.9088745249e+01   5.4729726866e+01    0.4559494    0.3387595   7.53  0.002141114    1.809    0.447
        66 -11.6899    214.4752     67.0781   2.6625570151e+01   2.2635361451e+01    0.3494726    0.2816817 -24.09  0.001963679    1.279    0.218
        67 -10.9697     25.5283     65.0702   7.9056669148e+01   6.2603490804e+01    0.4297785     0.226579 -60.79  0.001953671    1.637    0.389
        68  -9.7585    179.5094     66.5041   3.1520488494e+01   3.0907172611e+01      0.30391    0.1465402  61.82  0.001208917    2.161    0.537
        69 -10.7032    233.5443     63.9918   2.3632334754e+01   1.8982888194e+01    0.2414531    0.1802389  46.50  0.001380982    1.624    0.384
        70 -10.2118    218.6905     61.8145   2.4780779837e+01   2.2457553617e+01    0.2140799    0.1700785 -16.29  0.001190729    1.416    0.294
        71 -11.2705    210.0314     59.9764   2.5363033604e+01   2.4656932023e+01    0.3995056    0.2320335 -42.77  0.001925667    1.525    0.344
        72  -9.2807    132.4937     63.5252   3.9907658908e+01   4.3146641340e+01    0.1520538    0.1492066  86.47  0.000659486    1.014    0.013
        73  -9.4430     76.4009     59.2160   5.5235957698e+01   5.6620606837e+01    0.2109612    0.1359366 -54.21 0.0009535808    1.669    0.401
        74 -10.1237    220.4938     53.5259   2.2495884809e+01   2.3205135923e+01    0.2597289    0.1332142  68.82  0.001084506    2.145    0.534
        75 -10.8347    198.9214     51.5527   2.4525194524e+01   2.8436225503e+01    0.4247998    0.2190519 -25.75  0.001815679    2.080    0.519
        76  -9.8852    164.6990     53.8519   3.0251012147e+01   3.6575652727e+01    0.2331446    0.1939635  -4.28  0.001180129    1.464    0.317
        77 -11.4744    215.4361     51.1483   2.2453004641e+01   2.4657183518e+01    0.3580277    0.3179024 -10.29  0.001971547    1.320    0.242
        78  -9.8365     35.1653     52.8690   7.0798209732e+01   6.4417922599e+01    0.1981899    0.1852092 -82.56  0.001112251    1.218    0.179
        79 -11.7441     81.6360     39.9003   4.5571120495e+01   5.9169997592e+01    0.8187611     0.429134 -45.54  0.003487942    2.048    0.512
        80 -11.4397      3.3646     41.4334   8.4429444151e+01   6.9691179909e+01    0.4189643    0.3669438  65.59  0.002854749    1.388    0.279
        81 -11.6964    184.9935     40.1818   2.3122554615e+01   3.3385651230e+01    0.4558947    0.3199184 -74.87  0.002281263    1.504    0.335
        82 -10.8611      3.7505    230.4603   1.0164296053e+02   2.6104983278e+01    0.2346516     0.123964  38.34  0.001536685    1.578    0.366
        83 -11.7658    240.4435    229.1471   5.5944206915e+01  -4.6980645890e+00     0.367757    0.2201753  40.28  0.002396568    1.978    0.494
        84 -11.7776     40.0649     29.3716   5.8676593719e+01   6.8570211038e+01    0.5119538    0.3250354 -45.81  0.002026232    1.539    0.350
        85  -9.5115    111.3200    229.3348   7.9845785353e+01   1.3341139723e+01    0.1158288    0.0906335   3.12 0.0007049502    1.702    0.412
        86 -11.1608    191.1898     37.3844   2.1554549792e+01   3.2215036526e+01    0.4036662    0.1591178 -49.72  0.001522592    2.566    0.610
        87  -9.7241     97.3088     36.6579   3.9143840544e+01   5.6168883919e+01    0.1486268    0.1129909 -69.52 0.0005178307    1.693    0.409
        88 -10.7552      6.0024     35.2100   8.1042095491e+01   7.0921168708e+01    0.2786764    0.1767445  36.60  0.001419838    1.904    0.475
        89  -9.9220     90.1682     28.4344   3.7699614465e+01   5.9039381381e+01    0.3119963    0.2628481  14.25  0.001640763    1.261    0.207
        90 -10.4508     67.0382     29.1981   4.6130667661e+01   6.3921443301e+01    0.2858605     0.169743  -9.22  0.001185166    2.580    0.612
        91 -10.3394    145.7338     27.9669   2.4972087026e+01   4.5077012059e+01    0.4765576    0.2357049 -78.78  0.001581164    3.509    0.715
        92 -11.5950     75.7203     25.8828   4.1255818230e+01   6.2627424590e+01    0.5241131    0.3495969  -1.03  0.002479748    1.955    0.489
        93 -11.5180    178.5580     23.5535   1.9022005632e+01   3.7070314625e+01    0.4099182    0.3782499  25.04  0.002428328    1.308    0.235
        94 -11.7678    173.7375     20.9656   1.8798210331e+01   3.8595918820e+01    0.5203112    0.3184366  73.90  0.001964964    1.565    0.361
        95  -9.4232    103.1030     25.8679   3.2951518598e+01   5.6295526605e+01    0.2063261    0.1618884  33.55   0.00107254    1.324    0.245
        96  -9.9835    224.5057     22.6571   1.4452007781e+01   2.6161714677e+01    0.2300029    0.2000028 -80.98  0.001487392    1.139    0.122
        97  -9.9518    187.4230     19.7682   1.6961639928e+01   3.5264957148e+01     0.257299    0.1826718  81.13 0.0009245978    1.353    0.261
        98 -10.4193    128.5881     18.1300   2.4320693668e+01   5.0718141782e+01    0.3735113     0.257589  66.98  0.001474419    1.351    0.260
        99 -11.5872    248.5003    224.6787   5.3997654572e+01  -5.1838118011e+00    0.4128585    0.2596578 -19.86  0.002920945    1.418    0.295
       100  -9.8840     31.7921    227.3990   9.6037359752e+01   2.3880520131e+01    0.1462299    0.0983548  28.44 0.0008642681    1.639    0.390
       101  -9.9620     94.5718     17.1612   3.1296549055e+01   5.9438478207e+01    0.2948763    0.2132568 -79.88  0.001310151    1.836    0.455
       102 -12.7071    203.3806    220.8810   6.0854487070e+01   1.1197549067e+00    0.7115508    0.4174323  -4.57  0.003913366    2.131    0.531
       103  -9.8165    247.8160     16.0078   1.1320167814e+01   2.1939695470e+01    0.2220651   0.08942337 -50.01  0.001080945    1.983    0.496
       104  -9.5712     79.6734    224.6817   8.5958275590e+01   1.8575797140e+01    0.1099105   0.09330151  -2.21  0.000704599    1.678    0.404
       105 -11.3822    158.7762    225.4941   6.9839946530e+01   6.9592615707e+00    0.2036577    0.1748786 -33.00  0.001333343    1.371    0.271
       106 -13.2221    183.8746    217.8395   6.3933554922e+01   4.3419653114e+00    0.6814197    0.4258437  21.37  0.003975454    1.505    0.335
       107 -11.2364     50.5717    218.0774   9.1578938568e+01   2.3534884542e+01    0.3376457    0.2062236  44.65   0.00206028    1.310    0.237
       108  -8.7792    220.2866     11.3276   1.1978073390e+01   2.8346156079e+01    0.1156279   0.09760648  31.99 0.0003437176    1.611    0.379
       109 -10.2982     67.0497    217.0529   8.7971731651e+01   2.1680709853e+01    0.2140129    0.1160094  60.15  0.001146659    1.749    0.428
       110  -9.8701    141.2995    206.1530   7.0646152178e+01   1.2769230473e+01    0.2400348    0.1094509 -42.58  0.001087813    2.622    0.619
       111  -9.7113     20.4092     15.3750   6.3070444791e+01   7.3643188857e+01    0.2271494    0.1053872  13.68 0.0009164681    3.284    0.695
       112 -12.4527    247.6154    184.5558   4.7379548600e+01  -4.0675202829e-01     1.054955    0.4008978 -38.80  0.005040972    2.706    0.630
       113 -12.4024    243.8482    200.7628   5.0804810309e+01  -1.8897548371e+00    0.7332056    0.5530316 -10.96  0.004788161    1.113    0.102
       114 -11.2942    247.0768    192.5615   4.8885117749e+01  -1.3243725462e+00    0.3946696    0.2969818  24.58  0.002593051    1.304    0.233
       115  -9.5851    123.8377    205.9862   7.4354274597e+01   1.5566796171e+01    0.1616979    0.1457572  43.85  0.001041109    1.058    0.054
       116  -9.4804    146.4745    202.4916   6.9015795276e+01   1.2570659370e+01    0.1305959    0.1129094  31.25 0.0001949267    1.006    0.006
       117 -10.1309     93.4717    199.5157   8.0295699013e+01   2.1474839801e+01     0.130904    0.1129101  50.57 0.0001091207    1.026    0.026
       118  -9.8882     80.3143    199.6820   8.3332797195e+01   2.3349753916e+01    0.1374966   0.08390228  62.00 0.0007037602    1.649    0.394
       119  -9.5510     86.3129    198.3220   8.1798974175e+01   2.2768786215e+01    0.1209163    0.1021877 -12.44 0.0007039362    1.655    0.396
       120  -9.7564    202.5198    197.0440   5.7120788045e+01   4.4926982707e+00    0.1756012    0.1152773 -33.20  0.001022794    1.565    0.361
       121 -10.6070    204.5969    192.3231   5.5924371260e+01   4.8518182267e+00    0.3191403    0.1583876  27.40  0.001542351    2.099    0.524
