#   1 NUMBER                 Running object number                                     
#   2 MAG_AUTO               Kron-like elliptical aperture magnitude                    [mag]
#   3 X_IMAGE                Object position along x                                    [pixel]
#   4 Y_IMAGE                Object position along y                                    [pixel]
#   5 X_WORLD                Barycenter position along world x axis                     [deg]
#   6 Y_WORLD                Barycenter position along world y axis                     [deg]
#   7 A_WORLD                Profile RMS along major axis (world units)                 [deg]
#   8 B_WORLD                Profile RMS along minor axis (world units)                 [deg]
#   9 THETA_WORLD            Position angle (CCW/world-x)                               [deg]
#  10 FWHM_WORLD             FWHM assuming a gaussian core                              [deg]
#  11 ELONGATION             A_IMAGE/B_IMAGE                                           
#  12 ELLIPTICITY            1 - B_IMAGE/A_IMAGE                                       
         1 -14.5397    191.5511     41.5660   4.6647300132e+01   3.2620724800e+01     1.229818    0.9183559  26.71  0.004439908    1.697    0.411
         2 -13.7958    215.2572     12.6359   3.6521526952e+01   3.0491749403e+01    0.7544736    0.4363197 -61.70  0.004035718    1.719    0.418
         3 -13.7050    219.1998      8.6166   3.5234600440e+01   3.0027421744e+01    0.8125959    0.4416767 -61.55  0.004071144    1.822    0.451
         4 -13.6722     56.9792      4.1914   6.2813129222e+01   6.6609569512e+01    0.6562993    0.2486281  32.74  0.002871124    2.694    0.629
         5 -11.8718     89.7128    211.9459   1.0902059871e+02   1.8722197371e+01    0.2809105    0.2121761 -79.06 0.0007199937    1.366    0.268
         6 -17.4728     71.5702    146.7565   1.0382214065e+02   3.6194610882e+01     13.30526     6.860817  83.09   0.03851959    5.358    0.813
         7 -18.1603     33.5532    234.8324   1.2214395262e+02   2.1097472696e+01     6.682076     3.981425  41.77   0.03108488    1.565    0.361
         8 -12.0737    150.7461    192.8701   9.2801250215e+01   1.2912864817e+01    0.3759407    0.2474825 -65.61  0.001751619    2.083    0.520
         9 -12.4016    147.3384    187.4534   9.2570814972e+01   1.4594878645e+01    0.3806937    0.2516238 -42.56  0.001351946    1.556    0.357
        10 -19.0718     12.8768     99.2145   1.1294413929e+02   5.3736111509e+01     16.08985    0.7595468 -67.45   0.02676118   15.171    0.934
        11 -10.3058      1.1625    187.3728   1.2517675360e+02   3.3898634415e+01    0.1094741   0.06161739 -68.07 0.0002380143    1.566    0.362
        12 -12.3492     54.4838    199.9420   1.1516059310e+02   2.5886097735e+01     0.332883    0.2517456 -36.94  0.001642988    1.835    0.455
        13 -13.2876     58.4397    192.8680   1.1354685315e+02   2.6972119976e+01    0.5974994    0.2792858 -49.75  0.002746597    2.482    0.597
        14 -11.8176    186.9371    175.2002   8.1566981054e+01   9.8595497809e+00    0.3455826    0.3006717 -39.68  0.001025592    1.212    0.175
        15 -10.3869     39.0585    177.0507   1.1617165005e+02   3.2782275992e+01    0.1859235    0.1582544  76.91 0.0006361231    1.086    0.079
        16 -11.9848    147.2453    173.2426   8.9874350356e+01   1.7562879643e+01    0.5524577    0.3307802 -73.41   0.00198436    3.342    0.701
        17 -11.8715    192.8815    194.4063   8.4201349195e+01   5.3241543280e+00     0.750708    0.3804992 -60.72  0.002140355    6.511    0.846
        18 -11.6576     44.8000    173.0655   1.1439784395e+02   3.3097385087e+01    0.4775651    0.1960621  40.95  0.001649276    2.409    0.585
        19 -11.4407     58.2642    176.1535   1.1159958110e+02   3.0818958439e+01    0.2618094    0.2007657  54.38 0.0005729212    1.299    0.230
        20 -10.4789     42.4513    208.3009   1.1844402052e+02   2.5470536234e+01    0.5855322     0.259397 -85.08  0.002767313    2.471    0.595
        21 -11.6526     75.6295    247.2083   1.1545640524e+02   1.3834319229e+01    0.4105907    0.1359965 -58.37  0.001931089    3.247    0.692
        22 -10.8022     69.9248    197.6517   1.1157041139e+02   2.4462891127e+01    0.3705103    0.1626935 -53.26  0.001675506    2.380    0.580
        23 -12.2331     89.9164    156.8624   1.0078356165e+02   3.1096307170e+01    0.2900483    0.2559834 -55.35 0.0003956791    1.090    0.083
        24 -13.6642     95.8203    150.4293   9.8037938974e+01   3.1722713253e+01    0.6264561    0.4712822 -26.41  0.003081637    1.625    0.385
        25 -12.5157    133.8377    145.2596   8.7142383230e+01   2.6231079157e+01      1.13079    0.2610836 -53.01  0.002487836    6.392    0.844
        26 -12.3973     66.1473    207.1396   1.1344580013e+02   2.2898236081e+01    0.2989095    0.2681481 -44.14 0.0004275865    1.398    0.285
        27 -11.9257    109.1660    147.4977   9.3944285935e+01   3.0208464937e+01    0.2379602    0.2038218 -83.42 0.0004289839    1.299    0.230
        28 -11.6293     35.1498    197.5488   1.1900275149e+02   2.8570924758e+01     0.187376    0.1366024  65.85 0.0004535404    1.220    0.180
        29 -12.8089    107.5271    136.9013   9.2084338979e+01   3.3009047272e+01    0.5197329    0.3133826 -30.29  0.002107409    2.135    0.532
        30 -12.3026    105.9410    130.7008   9.1101553303e+01   3.4760590763e+01     0.424412    0.3390223 -57.43  0.001213854    1.225    0.184
        31 -12.6443     95.6234    136.4716   9.5233103539e+01   3.5122272227e+01    0.3103589    0.2694414 -49.40 0.0002704998    1.078    0.072
        32 -12.1946    114.5380    128.5291   8.8242757478e+01   3.3726113061e+01    0.3164706    0.2638141 -16.58 0.0007733173    1.342    0.255
        33 -11.4302    102.2940    124.0908   9.0552763645e+01   3.6966970227e+01    0.3076234    0.2345158 -27.74 0.0007844443    1.438    0.305
        34 -10.9492    120.6436    122.6761   8.5149390828e+01   3.3932094938e+01    0.1632373    0.1209265  -9.34 0.0007045506    1.769    0.435
        35 -10.6626    110.0058    117.9759   8.6870151201e+01   3.7020196496e+01    0.2299313    0.2132804 -39.00 0.0003340493    1.007    0.007
        36 -10.8328    231.1773    113.9366   5.9235600782e+01   1.2531618201e+01    0.2204418    0.2130112  31.51 0.0007403286    1.183    0.154
        37 -12.1257     64.5974    203.5007   1.1338226975e+02   2.3873588468e+01    0.2102602    0.1780533 -81.32 9.266057e-05    1.119    0.107
        38 -12.7257    118.6176    110.4418   8.2494746590e+01   3.7100626700e+01    0.5206676    0.3785504  73.34  0.002234851    2.069    0.517
        39 -10.5343    205.7740    110.2207   6.2630826159e+01   1.8402280352e+01    0.2029847    0.1699118  -1.94 0.0005336151    1.313    0.238
        40 -13.1432    176.1829     55.0529   5.2856517105e+01   3.4439763199e+01    0.4145061    0.3936575  15.30 0.0007537397    1.117    0.105
        41 -11.6608     71.8300    243.6157   1.1584307345e+02   1.4966636519e+01    0.2612939    0.1619213 -84.12 0.0008478235    1.736    0.424
        42 -13.2320    196.3936     36.0313   4.4497049573e+01   3.2178318119e+01    0.4881458    0.4094543  67.96  0.001212617    1.185    0.156
        43 -12.8239     32.8113    207.1415   1.2027784261e+02   2.6751784098e+01    0.3606816     0.244506  70.90  0.001959585    1.280    0.218
        44 -12.4734     93.7552    205.4198   1.0733248825e+02   1.9500626253e+01    0.2761601    0.2178085  21.39  0.001123639    1.510    0.338
