#   1 NUMBER                 Running object number                                     
#   2 MAG_AUTO               Kron-like elliptical aperture magnitude                    [mag]
#   3 X_IMAGE                Object position along x                                    [pixel]
#   4 Y_IMAGE                Object position along y                                    [pixel]
#   5 X_WORLD                Barycenter position along world x axis                     [deg]
#   6 Y_WORLD                Barycenter position along world y axis                     [deg]
#   7 A_WORLD                Profile RMS along major axis (world units)                 [deg]
#   8 B_WORLD                Profile RMS along minor axis (world units)                 [deg]
#   9 THETA_WORLD            Position angle (CCW/world-x)                               [deg]
#  10 FWHM_WORLD             FWHM assuming a gaussian core                              [deg]
#  11 ELONGATION             A_IMAGE/B_IMAGE                                           
#  12 ELLIPTICITY            1 - B_IMAGE/A_IMAGE                                       
         1 -14.5281     68.4881    144.4125   1.1041307600e+02   3.7155235619e+01     5.098481     2.438725  71.94  0.003670596    3.636    0.725
         2 -12.4755      2.1859     82.5918   1.2069890598e+02   5.8335805478e+01    0.9051085    0.1303426 -70.40  0.003003964    4.154    0.759
         3 -14.5129    211.4785     19.9265   4.4987756332e+01   2.9356759335e+01     1.756176      1.23018  19.62  0.008589921    1.932    0.482
         4 -14.6560    198.9555     33.9224   5.0515428855e+01   3.0864374847e+01     2.594286     1.629807  27.96  0.008835711    2.194    0.544
         5 -12.6496      2.3262     32.3333   1.1048100834e+02   6.9668803290e+01    0.9858429    0.1507298 -60.72  0.003571127    3.727    0.732
         6 -13.5302      3.9704      9.7950   1.0107881827e+02   7.4053295020e+01     1.746941    0.5127612 -50.25  0.008223728    2.377    0.579
         7 -10.1767     60.4259      7.8792   7.0854150252e+01   6.7313186361e+01    0.1995019    0.1734048  40.74 0.0004958637    1.333    0.250
         8  -9.7069     49.6796      7.3210   7.4992510681e+01   6.9202956228e+01    0.1151279   0.09806482 -51.61 0.0007044306    1.670    0.401
         9  -9.8630    170.6283     20.2008   4.9987698890e+01   3.9932124265e+01    0.1954297    0.1401533  -8.55 0.0004177942    1.580    0.367
        10 -15.8161     79.9140    245.3940   1.1867139533e+02   1.5744193004e+01     7.934987     2.368716  34.30    0.0159182    4.283    0.767
        11  -9.1117     96.1727    201.1872   1.1156858586e+02   2.1102474791e+01    0.1686289    0.1194229  65.38 0.0002660181    1.299    0.230
        12 -10.2301    204.2020    199.1899   9.0327429735e+01   3.5596675456e+00    0.1626833    0.1442776  46.13 0.0006415889    1.338    0.253
        13 -13.8700     43.8023    208.6975   1.2243503996e+02   2.6572835763e+01    0.6467601    0.4862399  66.31  0.001253253    1.040    0.039
        14 -16.4930     11.3630    242.4658   1.2968320258e+02   2.4036414077e+01     2.673472     1.860116  29.57   0.01885341    2.052    0.513
        15  -9.8938     96.4265    192.4408   1.1048678430e+02   2.2739413408e+01    0.2474747    0.1990653  -2.23  0.001148354    2.049    0.512
        16 -10.7190    207.3701    180.2426   8.6324815591e+01   5.7067450969e+00    0.4917488    0.3296425  13.85  0.002624015    1.644    0.392
        17  -9.6088    150.4343    182.1655   9.7753055147e+01   1.5683804861e+01    0.1734674    0.1286758 -66.40 0.0008020407    1.673    0.402
        18 -12.1763     68.8179    180.3718   1.1492085937e+02   2.9132067323e+01    0.3832307    0.2709417 -42.26  0.001590401    2.042    0.510
        19 -11.9999     73.4268    174.7736   1.1327775671e+02   2.9689482025e+01    0.2891061    0.2457816 -44.97 0.0007880043    1.544    0.352
        20  -9.7473     99.5234    180.7593   1.0833115239e+02   2.4590290192e+01    0.2223931    0.1624259  45.82 0.0006002223    1.271    0.213
        21 -16.5353      7.1937    205.0989   1.2889665270e+02   3.1028551767e+01     6.296773     1.394069 -74.93   0.01269612    3.666    0.727
        22  -8.6715    168.3555    176.7207   9.3148082976e+01   1.3376321932e+01    0.1334815    0.1040001  70.00 0.0004573781    1.657    0.396
        23  -9.8762    174.2812    248.6245   1.0283679129e+02   1.8725541396e+00    0.1951685    0.1531362  57.16 0.0007365585    1.501    0.334
        24 -12.6513     88.4343    157.9910   1.0758011692e+02   3.1160233402e+01     1.157413    0.6386577 -63.83  0.001542255    1.780    0.438
        25 -10.5258    125.4824    172.9898   1.0151674111e+02   2.1855276648e+01    0.2783174     0.176514  56.71  0.001387899    1.613    0.380
        26 -10.8351    137.6257    171.1414   9.8568354431e+01   2.0056578421e+01    0.2992808    0.2054671  67.64  0.001480167    1.786    0.440
        27 -10.4359     44.3456    169.9830   1.1918671940e+02   3.4393368107e+01    0.3237843    0.2462336  28.91  0.001898167    1.678    0.404
        28 -10.9684    195.0933    168.4917   8.6325224649e+01   9.7529749497e+00    0.3191498    0.2951096  25.96 0.0007986194    1.092    0.084
        29  -9.9484    145.8257    168.7704   9.6384064708e+01   1.9009831842e+01    0.1903909    0.1591281  71.90 0.0006439579    1.330    0.248
        30 -10.5451    230.1619    166.1975   7.9530448726e+01   3.6984616283e+00    0.1668071    0.1574067 -31.66 0.0006249911    1.343    0.255
        31  -9.6612    161.0531    165.4759   9.2542305012e+01   1.6758366990e+01    0.2050668    0.1826119 -42.03 0.0003672376    1.196    0.164
        32 -10.1256     32.3630    165.0607   1.2138560056e+02   3.6770372824e+01     0.173143    0.1239549 -85.38 0.0007740341    1.160    0.138
        33  -9.3565    190.3818    161.1982   8.5757128384e+01   1.1849467723e+01    0.1895703    0.1283125 -47.88 0.0009409958    1.694    0.410
        34  -9.6075    108.0753    203.2275   1.0942972862e+02   1.8925542654e+01    0.1742767    0.1558222  40.68 0.0005660173    1.222    0.181
        35 -10.3932    235.8190    158.0083   7.6881858810e+01   3.8524230128e+00    0.2083581    0.1512898 -53.91  0.001084586    2.048    0.512
        36 -10.1125    190.2892    155.4502   8.4576036974e+01   1.2840195840e+01    0.2740639    0.1292372  40.95  0.001140698    2.064    0.515
        37 -11.0650    133.7642    144.1560   9.4329164543e+01   2.6266787594e+01     1.028108    0.2607387 -53.73  0.002699529    5.213    0.808
        38 -11.1753     53.9931    147.9769   1.1451524345e+02   3.8200035135e+01    0.3661325    0.2540314 -80.43   0.00211811    1.269    0.212
        39 -10.4515    174.5760    148.4405   8.6236692416e+01   1.7233992447e+01    0.3174696    0.2596903 -63.00  0.001021781    1.481    0.325
        40  -8.7004    109.4438    147.5464   1.0078589477e+02   3.0027125443e+01    0.1427869    0.1282814  80.63 0.0008053105    1.064    0.060
        41 -11.7871    193.4211    194.0045   9.1391682241e+01   6.1253211457e+00    0.7498308    0.4532975 -55.31  0.003696569    2.580    0.612
        42 -13.6388     70.2051    160.7664   1.1226856533e+02   3.3190853959e+01    0.6406083    0.5328913 -19.92  0.001670121    1.838    0.456
        43 -10.2730    101.4970    143.4845   1.0198430818e+02   3.2304907401e+01    0.2896928    0.2480987  69.94 0.0008050711    1.135    0.119
        44 -10.0746    104.0076    140.2317   1.0075104285e+02   3.2610850088e+01    0.3287516    0.2676895 -24.33  0.001720932    1.627    0.385
        45 -12.4453     89.8684    142.3192   1.0468236362e+02   3.4480642192e+01    0.3155906    0.2897741   0.99 0.0003969497    1.412    0.292
        46  -9.1180     39.0401    141.5062   1.1744505420e+02   4.1407371718e+01    0.1726992    0.1159648  43.68   0.00100365    1.555    0.357
        47 -10.2282    111.6404    131.6286   9.7101769373e+01   3.3199780010e+01    0.2998017    0.2488066  10.56 0.0008636774    1.581    0.367
        48 -10.1976    106.1039    130.7662   9.8335592230e+01   3.4397838289e+01    0.3284627    0.2835995 -87.76  0.001173706    1.170    0.145
        49  -9.9806    158.7454    130.9739   8.5690050095e+01   2.3893509866e+01    0.1951657    0.1281412 -41.72 0.0005062688    1.528    0.346
        50 -10.2742     32.5025    130.8448   1.1786683040e+02   4.4577633853e+01    0.2310527    0.1768865 -51.01 0.0007033134    1.476    0.322
        51 -10.8943    136.0000    129.0205   9.0497864341e+01   2.9048658141e+01    0.3770042    0.1805446 -54.39  0.001419976    2.306    0.566
        52  -9.8017    136.0000    124.0443   8.9332681702e+01   3.0117593733e+01    0.3590799    0.1772062 -36.88  0.001336123    2.366    0.577
        53  -9.7887    135.0000    120.0174   8.8605294462e+01   3.1192728230e+01    0.5140531   0.08525305 -46.06  0.001156611    5.937    0.832
        54 -11.3466    118.5658    125.4693   9.3996902232e+01   3.3286663887e+01    0.8198884    0.4325487 -35.47  0.003122432    2.517    0.603
        55 -11.2942     45.3015    129.6632   1.1431306085e+02   4.3520533794e+01    0.3277424    0.2403677  17.64  0.001874662    1.878    0.468
        56 -11.1716     98.7919    128.0171   9.9668656229e+01   3.6313577848e+01    0.3282723    0.2771551   5.14  0.001116113    1.585    0.369
        57 -10.2455    125.5738    127.2351   9.2636471075e+01   3.1528313873e+01    0.2944649    0.2086568 -76.10 0.0008852956    1.799    0.444
        58 -10.1265    160.7732    127.5748   8.4431244928e+01   2.4138186530e+01    0.2139322    0.1444074  58.10 0.0006505613    1.664    0.399
        59  -9.9424    107.9892    120.0551   9.5511953142e+01   3.6511408129e+01    0.2120551    0.2008214 -81.58  0.001181262    1.015    0.015
        60 -11.2967     23.5005    116.6567   1.1858288543e+02   4.8773261630e+01    0.2656629    0.1720347 -71.34 0.0007293432    1.242    0.195
        61 -10.1655    167.9417    112.7092   7.9129747844e+01   2.5486365771e+01    0.3707005    0.2826128 -76.13  0.001280011    1.784    0.439
        62 -10.0611    134.7030    112.3370   8.6754039626e+01   3.2912513428e+01    0.4362393    0.1352979 -46.63  0.001326789    3.177    0.685
        63 -11.4502    119.1482    109.6546   9.0046376516e+01   3.6719739340e+01    0.5839316    0.3893521  80.88  0.002330735    2.412    0.585
        64 -10.2095    205.3914    110.2255   7.1075187250e+01   1.7459738579e+01    0.3466982    0.2212094  36.25  0.001106532    1.727    0.421
        65 -11.4909     43.5601    109.1857   1.1166104533e+02   4.8642511342e+01    0.3003627     0.246157 -54.12  0.001402525    1.226    0.184
        66 -11.9535    242.1061    101.8721   6.3027484541e+01   1.0903732944e+01    0.3123208    0.2752206 -66.92   0.00171333    1.385    0.278
        67 -11.9041    244.6166     93.8144   6.0689754598e+01   1.1578164770e+01    0.3260584    0.1933623 -38.21  0.001575896    1.502    0.334
        68 -10.3311    134.6869    103.4409   8.4403684188e+01   3.4824941157e+01    0.5169486     0.194572 -43.34  0.001726927    2.584    0.613
        69  -9.9738    121.4698     98.5201   8.6467324680e+01   3.8709925861e+01    0.3055374    0.1535001  46.37 0.0008136397    2.078    0.519
        70  -8.6685     94.5951     97.2941   9.3674997665e+01   4.4209185184e+01     0.155131    0.1139114  80.30 0.0002608847    1.820    0.450
        71  -8.7738    196.3062    245.2924   9.8713512570e+01  -9.6371661493e-01    0.1104988   0.07035574  17.84 0.0002190426    1.578    0.366
        72  -9.4680     89.4684    101.1646   9.6176931513e+01   4.4202403057e+01    0.1981533    0.1888406  76.71 0.0003306212    1.098    0.089
        73  -9.8305    157.5021     80.0815   7.2167892431e+01   3.4232258589e+01    0.2425625    0.1523437 -36.11 0.0005402118    1.542    0.352
        74  -9.4592    183.5864     77.7803   6.6167993493e+01   2.8202170379e+01    0.3078668    0.1697734  35.15   0.00114714    2.362    0.577
        75 -12.2220     82.3265    164.8516   1.0999867765e+02   3.0565971599e+01    0.4298586    0.3538668  71.67 0.0004262101    1.087    0.080
        76 -10.5674     13.4887     59.9454   1.1253542022e+02   6.2945305693e+01    0.2167255    0.1794737 -67.97 0.0004037578    1.105    0.095
        77 -10.2726     77.0149    235.4464   1.1841198375e+02   1.7719497557e+01    0.1843948       0.1453 -88.24 0.0006959366    1.323    0.244
        78 -12.0261    190.3562     39.7056   5.3449161866e+01   3.2329848064e+01    0.5102111    0.4461285  46.97 0.0009592015    1.212    0.175
        79 -12.5381    166.7260    233.5486   1.0224059768e+02   4.9233730108e+00    0.5984438    0.2077556  40.00  0.002809224    2.300    0.565
        80 -10.9743    151.3964     46.9333   6.2568560573e+01   4.1449379663e+01    0.3648199    0.2989186 -77.53 0.0008605371    1.427    0.299
        81 -15.0508     53.7672    197.9953   1.1971162217e+02   2.7463710844e+01     1.978875     1.221515  70.45   0.01233601    1.412    0.292
        82 -10.0793     71.6714    230.1436   1.1894165954e+02   1.9300051402e+01    0.2286284    0.1361067  51.82 0.0006501621    1.293    0.227
        83 -11.1537    149.6429     53.4353   6.5195673109e+01   4.0872210782e+01    0.5455076    0.3465647 -73.78  0.001406608    2.522    0.603
        84 -10.5276    189.7275     14.9884   4.5869340542e+01   3.5470723969e+01      0.24442    0.2034684  76.24 0.0006071428    1.176    0.150
        85 -10.1563    163.2791    214.4681   1.0025981088e+02   8.1695786661e+00    0.3223116    0.2264423 -87.36  0.001708981    2.634    0.620
        86  -9.1617    164.0739    205.3615   9.8764931370e+01   9.4246342057e+00    0.1732297    0.1405411  38.60 0.0009543382    1.052    0.049
