#   1 NUMBER                 Running object number                                     
#   2 MAG_AUTO               Kron-like elliptical aperture magnitude                    [mag]
#   3 X_IMAGE                Object position along x                                    [pixel]
#   4 Y_IMAGE                Object position along y                                    [pixel]
#   5 X_WORLD                Barycenter position along world x axis                     [deg]
#   6 Y_WORLD                Barycenter position along world y axis                     [deg]
#   7 A_WORLD                Profile RMS along major axis (world units)                 [deg]
#   8 B_WORLD                Profile RMS along minor axis (world units)                 [deg]
#   9 THETA_WORLD            Position angle (CCW/world-x)                               [deg]
#  10 FWHM_WORLD             FWHM assuming a gaussian core                              [deg]
#  11 ELONGATION             A_IMAGE/B_IMAGE                                           
#  12 ELLIPTICITY            1 - B_IMAGE/A_IMAGE                                       
         1 -13.9153    176.4500     41.7230   6.7270831945e+01   3.5906639557e+01     1.079703    0.8309095 -17.85 0.0009392847    1.332    0.249
         2 -14.1940    186.9622     32.6914   6.2569392228e+01   3.4326783867e+01     1.368934     1.069262 -16.71  0.002939062    1.309    0.236
         3 -15.0360    194.3398     21.8118   5.7989683265e+01   3.3653967029e+01     2.646116     1.641752  18.25   0.00142556    2.083    0.520
         4 -10.6798     82.7166      6.0110   7.5119555164e+01   6.2773715382e+01    0.1898684    0.1549639 -15.26 0.0004661629    1.104    0.094
         5 -10.6236     40.5004      2.5054   8.9693245425e+01   7.0093196739e+01     0.121883   0.09708847 -21.75 0.0008106385    1.013    0.013
         6 -11.9911    182.4136    233.4999   1.0774249048e+02   5.9459737181e+00    0.3669898    0.1687087  48.94  0.002125934    1.822    0.451
         7 -16.0877    120.2917    236.3273   1.1800945205e+02   1.4831095972e+01     6.115771     2.395775  42.01   0.03477772    1.998    0.500
         8 -12.2175     65.2982    210.8562   1.2497516795e+02   2.5883236301e+01     0.431437    0.2413087 -82.22  0.001283782    1.820    0.450
         9 -11.9812     60.6627    214.9811   1.2604344529e+02   2.5775224474e+01    0.2555107    0.1247092  58.92  0.001675904    1.623    0.384
        10 -13.7094     60.0444    209.0963   1.2573806556e+02   2.6797255893e+01    0.5808647    0.3981485  64.68  0.001448128    1.089    0.082
        11 -19.3595     14.6690    132.1367   1.2872717891e+02   4.5785291016e+01     15.91659     1.496237 -75.74   0.03758292   11.118    0.910
        12 -14.4975     53.3784    230.9767   1.2821166334e+02   2.4145875521e+01     0.865908    0.7529215  82.17  0.007991557    1.418    0.295
        13 -10.9781     40.7134    213.4279   1.2922483534e+02   2.8268731970e+01    0.2958905   0.08639153  53.31  0.001443719    2.524    0.604
        14 -12.3014    116.1967    211.8217   1.1630725852e+02   1.8884158059e+01    0.3347842    0.1969509  72.94 0.0009341566    2.092    0.522
        15  -9.3912     50.5670    213.2473   1.2759967119e+02   2.7216627275e+01    0.1122033   0.08331558 -84.97 0.0006410242    1.357    0.263
        16 -15.9853     71.5435    148.4897   1.1776124856e+02   3.6446815425e+01     4.471575     2.155861  81.41    0.0185096    3.471    0.712
        17 -10.9252     44.5392    210.5125   1.2842707177e+02   2.8328092025e+01     0.245613    0.1042452  56.42  0.001160064    1.809    0.447
        18 -11.1995     39.9732    207.7342   1.2901899547e+02   2.9276288974e+01    0.2287207     0.109269  46.01 0.0006198216    1.690    0.408
        19 -12.5365    106.2454    202.0153   1.1703548650e+02   2.1859225945e+01    0.3999961    0.1895003  44.68  0.001675998    1.728    0.421
        20 -13.3981     69.1812    194.9599   1.2304176230e+02   2.8056477866e+01    0.5996516    0.4684694  79.12  0.004608107    1.112    0.101
        21  -9.5061     42.4183    221.2735   1.2938714030e+02   2.6839957488e+01     0.146511    0.1038399  18.78 0.0006920547    2.809    0.644
        22  -9.4814     66.8122    233.1521   1.2625153454e+02   2.2264584411e+01    0.1393002   0.08816215  63.53            0    1.173    0.147
        23 -10.3451     25.9434    195.4794   1.3068992976e+02   3.2776761283e+01    0.1390679    0.0765563  48.28 0.0009983437    1.518    0.341
        24 -12.9320    195.2566    194.7467   1.0024081481e+02   8.4217876702e+00    0.6890197    0.5282164  69.89  0.003997417    1.853    0.460
        25  -9.6993    180.6306    193.3121   1.0255823123e+02   1.1131629681e+01    0.1200594   0.08817817  67.63 0.0007035929    1.772    0.436
        26  -9.8226     58.8094    188.0270   1.2435294386e+02   3.0531525019e+01    0.1795707    0.1395943 -61.47  0.001333742    1.611    0.379
        27 -11.4779    207.6814    183.9479   9.6345341477e+01   7.6018619616e+00    0.2712506     0.252919   0.84  0.001147474    1.217    0.178
        28 -11.6106    211.0218    181.0214   9.5271535505e+01   7.3727631564e+00    0.3408788      0.22331  18.10   0.00118064    1.645    0.392
        29 -10.0802     75.0293    182.0319   1.2077399820e+02   2.9585478525e+01    0.2525626     0.156429  36.58 0.0006564462    1.758    0.431
        30 -12.2246     80.7563    179.7280   1.1944064314e+02   2.9242979678e+01    0.2882127    0.2215842 -40.20  0.001891815    2.000    0.500
        31 -12.5570     84.2241    174.2374   1.1816947086e+02   2.9771895352e+01    0.3706465    0.2881785 -64.69  0.001093694    1.412    0.292
        32 -10.9542     99.5259    180.4455   1.1588690085e+02   2.6470880064e+01     0.205603    0.1766651  56.32 0.0006418415    1.135    0.119
        33 -11.5335    197.7138    174.9505   9.6522126303e+01   1.0560040134e+01     0.359107    0.2936233 -45.46  0.001404999    1.520    0.342
        34 -11.6280    140.8845    176.1277   1.0728237411e+02   2.0595371729e+01    0.2079561     0.174214 -46.96 0.0008917144    1.407    0.289
        35 -10.1263     51.1498    174.3482   1.2465671991e+02   3.3910122577e+01    0.1623025    0.1296775 -83.42 0.0005110032    1.225    0.184
        36 -10.4346     47.9913    217.6272   1.2828768777e+02   2.6804556260e+01    0.2454468    0.1478258  29.27  0.001642657    2.423    0.587
        37 -10.8885    203.7073    167.6043   9.4137463008e+01   1.0441986529e+01    0.3344933     0.284906  36.98  0.001759278    1.085    0.078
        38 -10.3537     81.4113    194.6524   1.2079463200e+02   2.6534005929e+01    0.2122493    0.1721322  51.49  0.001588128    1.224    0.183
        39 -11.0555    145.6395    168.1392   1.0511846962e+02   2.1091646300e+01    0.2205295    0.1551769  53.28 0.0004893293    1.291    0.225
        40 -12.6170     96.7048    157.4834   1.1352624847e+02   3.1125859209e+01    0.4968256     0.393744 -30.13  0.003006803    1.899    0.474
        41 -10.0756    141.6096    158.1503   1.0427636993e+02   2.3523092221e+01    0.2082409     0.158113  56.86 0.0004018466    1.239    0.193
        42 -11.4359    133.7721    144.7543   1.0356245608e+02   2.7364589879e+01    0.9114329    0.2297633 -54.61  0.002589163    5.779    0.827
        43 -10.6202    174.7140    149.0674   9.5993430992e+01   1.8776878178e+01    0.2384105    0.1771721  54.71 0.0007208221    1.344    0.256
        44 -10.9759    144.0762    145.2894   1.0147717540e+02   2.5357094119e+01    0.3879189     0.216418 -74.35  0.001385864    4.068    0.754
        45 -11.9646    107.8362    141.4490   1.0866184979e+02   3.2504860603e+01     0.465714    0.2984271 -35.39  0.002317393    2.261    0.558
        46 -12.3290     96.0771    142.1674   1.1141316562e+02   3.4231209761e+01    0.2386398    0.2315978 -87.73 0.0003809055    1.193    0.162
        47  -9.5595     77.3228    232.5472   1.2455844933e+02   2.1073923836e+01    0.2438476   0.08279353  39.11  0.001295869    2.697    0.629
        48 -11.2364    115.1950    131.5408   1.0524411023e+02   3.3231411980e+01    0.2667122    0.2459477  19.65 0.0008553123    1.299    0.230
        49 -11.8764    119.5509    127.0492   1.0337994681e+02   3.3358342632e+01    0.5291849    0.3164881 -49.93   0.00224723    1.712    0.416
        50 -11.1533    102.9053    127.8746   1.0742731567e+02   3.6050960871e+01    0.2551266    0.2409825 -47.05 0.0007444036    1.215    0.177
        51 -10.7388    160.2598    128.0555   9.4583635237e+01   2.5266396761e+01     0.283916    0.2764087  42.12  0.001704493    1.030    0.030
        52 -10.7746    105.7571    130.9954   1.0732402706e+02   3.4943943404e+01     0.299331    0.2641028 -89.40  0.001145623    1.078    0.072
        53 -11.1064    136.8112    123.3904   9.8684045278e+01   3.0843104286e+01    0.3805692    0.2858677  79.39  0.001870363    1.666    0.400
        54 -10.1304    110.4290    120.0235   1.0413198629e+02   3.6392123509e+01    0.1942271    0.1743019  58.78 0.0002848905    1.093    0.085
        55 -12.1633     66.0972    115.1976   1.1428284990e+02   4.4124072796e+01    0.3797738    0.2289438  85.74  0.001918464    2.034    0.508
        56 -10.1259    205.5076    110.1754   8.1505248624e+01   1.8429545740e+01    0.2573376     0.193901  45.90 0.0005734837    1.291    0.225
        57  -9.7009    134.4881    103.0169   9.4550036318e+01   3.5275013763e+01    0.2201137    0.1405302 -45.30  0.001026642    1.572    0.364
        58 -10.2711    167.5806    112.5583   8.9490372708e+01   2.6466002674e+01    0.3141754    0.2211678 -82.79  0.001351898    2.341    0.573
        59 -10.4426     36.1741    223.0751   1.3046280857e+02   2.7221694117e+01    0.1387582   0.08791929  65.11  0.000279114    1.101    0.092
        60 -12.0713    170.3390     69.8692   7.7327985159e+01   3.3194928718e+01    0.5291544    0.3591207 -82.28  0.001351903    2.394    0.582
        61 -10.4926     37.1698    231.5551   1.3072653870e+02   2.5822911149e+01     0.201414    0.1634716 -62.32  0.001053328    1.904    0.475
        62 -10.4052    168.1467    248.1012   1.1164189412e+02   6.4907534631e+00    0.1494265    0.1090995  35.68 0.0002729941    1.178    0.151
        63 -11.1871     71.3277    210.1991   1.2390109310e+02   2.5249469727e+01    0.4920133    0.1694059  54.55  0.002566295    2.468    0.595
        64 -10.8063     86.1442    238.2709   1.2357705293e+02   1.9146678667e+01    0.1625889    0.1166921  76.81 0.0004172326    1.294    0.227
        65  -9.9564    158.1522     28.1462   6.5974244888e+01   4.2481001447e+01    0.2127056    0.1772439 -61.73  0.000592804    1.368    0.269
        66  -9.5679     65.9608    236.9773   1.2662325225e+02   2.1808620096e+01    0.1120762   0.07728676  60.67            0    1.008    0.008
