#   1 NUMBER                 Running object number                                     
#   2 MAG_AUTO               Kron-like elliptical aperture magnitude                    [mag]
#   3 X_IMAGE                Object position along x                                    [pixel]
#   4 Y_IMAGE                Object position along y                                    [pixel]
#   5 X_WORLD                Barycenter position along world x axis                     [deg]
#   6 Y_WORLD                Barycenter position along world y axis                     [deg]
#   7 A_WORLD                Profile RMS along major axis (world units)                 [deg]
#   8 B_WORLD                Profile RMS along minor axis (world units)                 [deg]
#   9 THETA_WORLD            Position angle (CCW/world-x)                               [deg]
#  10 FWHM_WORLD             FWHM assuming a gaussian core                              [deg]
#  11 ELONGATION             A_IMAGE/B_IMAGE                                           
#  12 ELLIPTICITY            1 - B_IMAGE/A_IMAGE                                       
         1 -12.9765    243.0759    113.2920   8.4352341238e+01   1.0589558350e+01     3.776223     0.624107 -29.89   0.01050156    5.077    0.803
         2 -10.0031    225.9922      9.2751   5.8652637663e+01   2.6873709688e+01    0.4416975    0.2356673 -44.82 0.0006457935    1.844    0.458
         3 -11.7497    232.7285     17.1901   6.0240665701e+01   2.4478417176e+01    0.5744005    0.5085953 -29.94  0.002006478    1.054    0.051
         4 -11.8366    219.6862     10.9402   5.9736082456e+01   2.8281458392e+01     1.923457    0.4194934 -46.34    0.0046589    6.583    0.848
         5 -12.5562    220.1504     34.7802   6.6652886758e+01   2.5689436565e+01     3.033801    0.8355039 -46.17  0.007926583    5.389    0.814
         6 -12.1683    234.5217      6.8959   5.7232669831e+01   2.5020784112e+01    0.9910685    0.3359014 -48.25  0.003542468    3.231    0.691
         7 -13.0001    223.9521     25.6410   6.3550568698e+01   2.5753424046e+01     4.530488     2.065516 -81.20   0.01364947    4.915    0.797
         8 -11.8350    168.7260     56.8143   8.1834310956e+01   3.5768576871e+01     3.203529     1.767059 -78.11  0.006446901   10.082    0.901
         9 -11.0226    206.3681     59.4449   7.5883773838e+01   2.6021385267e+01     1.384275     0.628108 -58.98  0.003361183    6.733    0.851
        10 -12.1728    178.8136     69.9847   8.3966717575e+01   3.1247437644e+01     1.795364    0.8225142 -46.02  0.005192915    2.618    0.618
        11  -9.5234    171.1375     16.6445   6.7615649627e+01   4.0352887893e+01    0.2950858    0.2239593 -38.62 0.0005403815    1.363    0.266
        12 -10.3724    120.3017      9.1790   7.4257646836e+01   5.4203941074e+01    0.4523424    0.3645735  -5.53  0.001317888    1.186    0.157
        13 -10.4948    173.7804      4.9358   6.3102951314e+01   4.0781532128e+01    0.9812436    0.3296622 -42.82  0.003205684    3.397    0.706
        14 -10.1649     15.3360     10.4920   1.1583508045e+02   7.1672186571e+01    0.2460837    0.1230402 -53.87  0.001362265    1.634    0.388
        15  -8.5278    150.5297     10.0039   6.8537303445e+01   4.6464980574e+01    0.2263349    0.1388062 -24.47  0.001019912    1.614    0.381
        16  -9.3105    203.6793      3.3639   5.9078152874e+01   3.3041189867e+01    0.2787616    0.2172467 -62.16 0.0009722202    1.359    0.264
        17  -9.1080    249.5900      2.3281   5.4841761951e+01   2.1904905135e+01    0.2884268    0.1774529 -46.48  0.001528758    1.514    0.340
        18  -8.9286    112.6202      3.1636   7.3321402912e+01   5.6670714929e+01    0.2076577    0.1264521  -2.17 0.0007824048    1.722    0.419
        19  -9.2617      3.1346      2.4110   1.1943716319e+02   7.4027123753e+01    0.1926105    0.1429951  84.60  0.001211759    2.287    0.563
        20  -8.2127    191.5106      1.4296   5.9760454950e+01   3.6383000180e+01    0.1384936    0.1361447  73.69 0.0001421984    1.017    0.017
        21 -12.1435    239.8567     81.4332   7.6892498138e+01   1.5356014385e+01      1.62359     1.036985 -45.71  0.007810089    1.804    0.446
        22  -8.7060     53.0715    250.6424   1.3910525512e+02   2.0788958871e+01    0.1292267    0.0648904  43.29            0    1.516    0.341
        23  -8.1983    120.8222    240.3832   1.2774048714e+02   1.4058035376e+01    0.1428716   0.07775021  35.73 0.0003420591    1.613    0.380
        24 -11.4679      2.7475    231.7652   1.4583947031e+02   2.8280832760e+01    0.5016368    0.1915803 -83.46  0.003541243    2.388    0.581
        25  -8.3933     31.2539    229.0077   1.4141863847e+02   2.6130115177e+01     0.125503   0.09076002  69.03 0.0001850866    1.082    0.076
        26 -12.8034     22.6169    210.8916   1.4199429012e+02   2.9800589162e+01    0.6741533     0.396862  64.56  0.002750249    1.260    0.206
        27 -12.0536    179.2239     47.8642   7.6901875117e+01   3.4419249115e+01    0.7605556    0.5067202  -4.63  0.002062494    1.717    0.417
        28 -11.8129    186.6916     92.3794   8.8884419043e+01   2.5807630914e+01     2.006984    0.2388649 -36.50   0.00440468    6.645    0.850
        29 -11.7604    139.9386     33.2866   7.9684055363e+01   4.6395811481e+01     1.092411    0.8363358   6.24 0.0001934822    1.386    0.278
        30  -9.6873    167.9311    113.5780   9.8319872208e+01   2.6379812610e+01    0.3063412    0.2764741 -61.92 0.0006259155    1.314    0.239
        31  -9.6271    250.4839    113.0671   8.3165782790e+01   9.1698130752e+00     0.258612     0.150912 -17.57 0.0003657406    1.580    0.367
        32 -10.3048    205.1567    110.4297   9.0087778743e+01   1.8864973339e+01    0.4311481    0.2819158  44.81  0.002086092    1.506    0.336
        33  -8.0680    135.3420    107.3077   1.0424479544e+02   3.4289608721e+01    0.1489098    0.1140484   3.56 0.0007043352    1.690    0.408
        34  -8.2338    168.8267     96.2204   9.3626400796e+01   2.9227741782e+01    0.2403585    0.1649467 -76.40 0.0005954483    2.735    0.634
        35  -8.8200    150.4778     92.8529   9.6828941153e+01   3.3903045380e+01    0.2982594    0.2281663  13.62 0.0008428323    1.539    0.350
        36  -8.4617    135.9853     91.3371   9.9914487407e+01   3.7289219425e+01    0.2513763    0.2062566 -70.36  0.000849505    1.510    0.338
        37 -10.0366    175.9570    202.0850   1.1371755608e+02   1.0977198205e+01    0.1794643    0.1468524  33.53 0.0002754132    1.030    0.029
        38  -9.7614    159.8366     84.1868   9.2219148728e+01   3.3377291409e+01    0.3389727    0.2604796 -13.37 0.0006493218    1.402    0.287
        39 -10.4067    163.5253     80.8635   9.0426351868e+01   3.3104639687e+01    0.3803264    0.3442276  37.17 0.0009881649    1.106    0.096
        40  -9.7436    144.5817     81.1930   9.4890712747e+01   3.7362098333e+01     0.355644    0.2674791 -39.13 0.0008624239    1.311    0.237
        41 -11.8827     52.3471    183.0776   1.3498405382e+02   3.1635644779e+01    0.6848596    0.4318486 -57.01  0.004565722    1.884    0.469
        42  -8.1256    222.8059     73.7999   7.7391770437e+01   2.0170203498e+01    0.1922357     0.165656 -49.79 0.0002685378    1.324    0.245
        43  -8.2352    225.1719    122.1622   8.9379194228e+01   1.2995567287e+01    0.1754076     0.169841 -50.25 0.0006377173    1.364    0.267
        44 -11.0983    160.0725     70.2021   8.7946181799e+01   3.5733527250e+01    0.3940391     0.281142 -17.30 0.0007806846    1.487    0.328
        45  -8.5238    151.1344     71.8570   9.0488124467e+01   3.7553205436e+01    0.2203122    0.2089652 -55.13 0.0002811554    1.169    0.144
        46  -8.4352     95.0308     71.5321   1.0548795112e+02   4.9214162474e+01    0.2723294    0.1711386 -78.35  0.001003175    3.331    0.700
        47  -8.5444    188.5065     68.9750   8.1806411126e+01   2.9038773985e+01    0.2175013    0.1948307  38.02 -9.989813e-05    1.119    0.106
        48 -12.2396     43.3120    190.4409   1.3723499638e+02   3.1269515629e+01    0.8482954    0.4289416  56.30  0.004101155    1.639    0.390
        49 -10.3987    189.2183     43.1631   7.3657640696e+01   3.2491914208e+01      1.09304    0.5072071 -52.86  0.003617565    3.268    0.694
        50 -10.4410    203.4820     44.5284   7.1848176940e+01   2.8688683403e+01    0.4415573    0.2744992  33.79   0.00111996    1.791    0.442
        51  -9.7151    206.8005     65.4944   7.7585780474e+01   2.5087806765e+01    0.5063252    0.3106237 -62.11  0.001998988    2.567    0.610
        52 -10.1480    201.3997     60.1637   7.6904481337e+01   2.7143331274e+01    0.9411362    0.5193517 -72.54  0.002749682    4.903    0.796
        53 -12.4825     36.9512    197.9512   1.3886758479e+02   3.0600686518e+01    0.6167164    0.4491993  43.14  0.001900499    1.380    0.276
        54  -9.9833    186.3324     60.0207   7.9476981479e+01   3.0899273420e+01    0.2941796    0.2544966  -1.43 0.0003555035    1.136    0.119
        55  -9.4521    144.3504     59.3263   8.8019509669e+01   4.1296385368e+01    0.3465551    0.2657764 -56.20 0.0006486789    1.568    0.362
        56  -8.3879    141.5489     55.4770   8.7378593053e+01   4.2601586285e+01    0.2630314    0.2152809 -41.32 0.0006391065    1.259    0.206
        57  -8.3579     87.4667     59.3855   1.0404599696e+02   5.3017412522e+01    0.2484521    0.1272829 -54.67  0.001015986    2.193    0.544
        58  -9.7531    244.0098     56.7993   6.9832538524e+01   1.7492144829e+01    0.2858696    0.2387946 -15.02 0.0005175836    1.077    0.072
        59  -7.7870     72.5858     58.4504   1.0872696667e+02   5.5570720541e+01     0.137107    0.1205307 -44.76 0.0001652566    1.045    0.043
        60  -8.1620    129.7303     56.4267   9.0658240835e+01   4.5165081190e+01    0.2001154    0.1409874  36.63 0.0003992932    1.474    0.321
        61  -7.8118    248.4155     52.4936   6.8157865054e+01   1.7016183984e+01    0.1392791    0.1218116 -14.51 0.0001157039    1.024    0.024
        62  -9.0400    200.4398    116.2044   9.2396625071e+01   1.8996322916e+01    0.1989767    0.1308318 -41.55 0.0005143553    1.669    0.401
        63  -8.8437     78.9450     43.4561   1.0130064025e+02   5.7600058080e+01     0.268717    0.1697063 -71.52  0.001018981    3.483    0.713
        64  -8.6259    243.3829     40.0133   6.5398659182e+01   1.9568529898e+01    0.2432789     0.190102 -75.07 0.0007214705    1.547    0.354
        65  -9.0797    246.6427     36.8081   6.4186017835e+01   1.9177464070e+01    0.2436875    0.1790979  41.26  0.000887844    1.477    0.323
        66 -10.9400    197.0741     50.1123   7.4561622213e+01   2.9582632906e+01    0.4293619    0.3801904 -11.11 0.0005897275    1.079    0.074
        67 -11.4352    186.6577    112.0255   9.4043372870e+01   2.2619060290e+01     0.606499     0.556793 -23.41  0.003238859    1.122    0.108
        68  -8.5530    235.9369    174.4474   9.8598823826e+01   4.4160125592e+00    0.1572562     0.108188  62.00 0.0008081996    2.635    0.621
        69 -10.2104    233.4083    131.5647   9.0154451325e+01   1.0118455576e+01    0.2580602    0.2143944  14.42 0.0002317052    1.050    0.047
        70  -7.9563    119.8082    132.2026   1.1347476417e+02   3.2210120997e+01    0.1672141    0.1519056   7.92 0.0002624302    1.253    0.202
        71  -8.1797     23.7774     32.9943   1.1989313713e+02   6.6476526493e+01    0.1665654   0.08097187 -57.01 0.0003753694    1.626    0.385
        72  -8.0919    250.0611     31.4758   6.2421809951e+01   1.8974588769e+01    0.1850645    0.1351571  67.72 0.0005466528    1.522    0.343
        73  -9.2218    194.9415     26.1387   6.7321753996e+01   3.3063023962e+01     0.402261    0.2514167 -58.87  0.001617302    1.987    0.497
        74  -9.5724    178.6930     24.3137   6.9108172561e+01   3.7523721134e+01    0.5037957    0.3368421  49.22  0.002354645    1.456    0.313
        75  -8.4388     20.2063     25.1005   1.1894883815e+02   6.8393791313e+01    0.1533803    0.1262531 -65.74 0.0005508494    1.306    0.234
        76  -9.1742     36.2342     21.9327   1.1005167707e+02   6.7576098451e+01    0.2197693    0.1118762 -31.82  0.001084764    1.931    0.482
        77 -11.2147    230.0588     62.2475   7.3146811546e+01   2.0000876204e+01      1.09811    0.7741875 -43.05  0.004833366    1.480    0.324
        78  -7.6697    138.3147     20.6523   7.5099412335e+01   4.8440503744e+01    0.1540827    0.1126806 -56.39 0.0007047318    1.721    0.419
        79  -8.1083    212.7596    166.9699   1.0114900937e+02   9.3288630927e+00    0.1724753    0.1320319  54.60 0.0004219937    1.655    0.396
        80  -8.6027    201.8535    125.8327   9.4430235498e+01   1.7232368989e+01    0.1799432    0.1730908 -67.37 0.0004313199    1.344    0.256
        81  -8.1163    115.4927     12.5594   7.6909763298e+01   5.4975865354e+01     0.201251    0.1421126  68.03 0.0005841357    1.692    0.409
        82  -8.7002      4.0744    154.7107   1.4264879159e+02   4.1446862768e+01    0.1422198    0.1104074  70.68 0.0009834963    1.111    0.100
        83  -9.5080    183.0709    123.8591   9.7634702236e+01   2.1442292572e+01    0.3881604     0.288873  89.55  0.001750668    2.404    0.584
        84  -8.9766    121.9903    147.2372   1.1574370192e+02   2.8895641988e+01     0.189424    0.1784013 -66.67 0.0002889857    1.112    0.100
        85  -8.4036      6.7112    148.6920   1.4177428085e+02   4.2441153402e+01    0.0965246   0.06924758 -60.54 0.0002108529    1.575    0.365
        86 -10.4137     67.5436    144.2636   1.2781180761e+02   3.7465584295e+01      0.52904    0.2826354  55.93  0.001832132    1.928    0.481
        87  -8.3085    234.2767    145.6394   9.3096636725e+01   8.1557524570e+00    0.1193762     0.103033 -48.42 0.0007008489    1.663    0.399
        88  -7.7838    192.4450    144.4066   1.0036349849e+02   1.6298881672e+01      0.13573    0.1213307  22.98 0.0001048021    1.053    0.050
        89  -8.9495    187.0720    138.9747   1.0024722982e+02   1.8195506005e+01      0.20751    0.1810263  17.71 0.0002924381    1.040    0.039
        90  -8.6739     75.3305    248.9944   1.3563536800e+02   1.8562061432e+01    0.1437727   0.06067824  80.35 0.0007052105    4.386    0.772
