#   1 NUMBER                 Running object number                                     
#   2 MAG_AUTO               Kron-like elliptical aperture magnitude                    [mag]
#   3 X_IMAGE                Object position along x                                    [pixel]
#   4 Y_IMAGE                Object position along y                                    [pixel]
#   5 X_WORLD                Barycenter position along world x axis                     [deg]
#   6 Y_WORLD                Barycenter position along world y axis                     [deg]
#   7 A_WORLD                Profile RMS along major axis (world units)                 [deg]
#   8 B_WORLD                Profile RMS along minor axis (world units)                 [deg]
#   9 THETA_WORLD            Position angle (CCW/world-x)                               [deg]
#  10 FWHM_WORLD             FWHM assuming a gaussian core                              [deg]
#  11 ELONGATION             A_IMAGE/B_IMAGE                                           
#  12 ELLIPTICITY            1 - B_IMAGE/A_IMAGE                                       
         1 -13.0284     43.5301     22.9003   4.4339005538e+01   7.1047285584e+01     1.336605    0.8983672 -42.21  0.006855222    1.579    0.367
         2 -10.9480     39.5999      8.3470   3.6632709008e+01   7.4015404833e+01    0.3821436    0.2396355 -19.16  0.001920217    1.920    0.479
         3 -12.8908    178.7991     23.7087   1.4336172024e+01   3.7840857591e+01    0.6399146    0.3450772 -47.32  0.003373822    1.499    0.333
         4 -12.1067    173.4732     20.5121   1.3891290271e+01   3.9412094737e+01    0.4110666    0.3012817  54.18  0.002395603    1.711    0.416
         5 -11.8571    226.3742     15.5614   9.4049366624e+00   2.9061566344e+01    0.4972781    0.3076877 -51.69  0.003310611    1.160    0.138
         6 -13.8057    168.1512      8.4838   1.0886159950e+01   4.1933810183e+01     1.353612    0.8641629  65.40  0.007636848    1.710    0.415
         7 -12.3651    156.4546     11.8574   1.2768263981e+01   4.4347355015e+01    0.5014018    0.4225293 -68.47  0.002306257    1.048    0.046
         8 -12.3534    158.7215      4.0162   1.0214956799e+01   4.4588884174e+01    0.7600265    0.3956091  66.74  0.003860933    1.959    0.490
         9 -10.9865    231.8045      9.2862   7.8207761017e+00   2.8731662504e+01    0.4143595    0.1905975 -54.00  0.002489961    1.568    0.362
        10 -11.9368    193.5107      6.3350   8.8225904529e+00   3.6527462191e+01    0.5139882    0.1700981 -58.86  0.002267518    2.559    0.609
        11 -11.3537    223.3761      4.6345   7.1328531731e+00   3.0749186259e+01    0.4531913    0.1357208 -49.70  0.002267083    2.170    0.539
        12 -10.7348    217.7022      1.9357   6.7407373173e+00   3.2090362052e+01    0.2376966    0.1356833 -78.24  0.001320824    1.598    0.374
        13 -12.6408    206.1604      4.4549   7.7765723709e+00   3.4106430717e+01    0.6954927    0.2702892  84.77  0.003471435    2.618    0.618
        14 -11.3963    145.8175      4.8975   1.1446162710e+01   4.7630759149e+01    0.4592746      0.21558  82.98  0.002141069    1.971    0.493
        15 -10.7167    131.9974      3.7394   1.2250912307e+01   5.1193600120e+01    0.6213045    0.1595812  63.61  0.002217682    3.364    0.703
        16 -10.1781     85.8901      3.6981   1.8363039499e+01   6.3158222122e+01    0.3015679    0.2045069  80.00 0.0009911342    1.332    0.249
        17 -10.0195      1.7254      2.8695   6.6761512752e+01   8.1277713774e+01    0.3040985    0.1556914 -51.15  0.001570505    1.914    0.478
        18 -10.4214     17.8549      2.0547   4.6969417900e+01   7.9156673568e+01    0.2222453    0.1710759 -23.85  0.001128804    1.364    0.267
        19 -11.8668    241.0200    130.0196   3.1825401217e+01   1.1727178643e+01     0.385482    0.2920806  -3.34  0.002035164    1.524    0.344
        20 -13.2693    235.3083    124.2073   3.1407696434e+01   1.3314798000e+01     1.167332    0.6038927  55.29  0.006605094    2.779    0.640
        21 -13.0093    242.1373    108.2970   2.7565051090e+01   1.4608231697e+01     1.050743    0.6834596 -76.82  0.006062995    2.707    0.631
        22 -10.7444    212.7155    113.3099   3.2087787290e+01   1.8289263770e+01     0.429061    0.1646924 -40.42  0.001963237    2.082    0.520
        23 -10.4422    224.5159    112.0240   3.0316751997e+01   1.6649938527e+01    0.2853051     0.120191 -40.74  0.001337474    1.851    0.460
        24 -11.5216    222.3002    107.3274   2.9628699351e+01   1.7688876449e+01    0.3853697    0.3037673  26.34    0.0025451    1.677    0.404
        25 -10.2148    148.4293    110.8020   4.2385097130e+01   3.0417852352e+01    0.2883024    0.1317985 -47.56  0.001135578    2.072    0.517
        26  -9.9737     30.7778    101.8129   7.9314202517e+01   5.3884287464e+01    0.2756007    0.1328841 -36.13 0.0009562571    2.836    0.647
        27 -10.1791    112.7579    100.9866   4.8514269043e+01   3.9931794736e+01    0.2150133    0.1281713 -48.70 0.0008929473    1.638    0.389
        28 -11.7905    242.8609     92.8933   2.4469497416e+01   1.6623795165e+01    0.3288615    0.2058049 -30.39  0.002102457    1.370    0.270
        29 -10.9790    240.4751     88.9856   2.3920615856e+01   1.7513141674e+01     0.344009    0.2036651 -24.39  0.002026716    1.767    0.434
        30  -9.4746    179.0032     92.4971   3.2274520521e+01   2.7695020110e+01    0.1826653    0.1160447 -87.66 0.0008098792    2.482    0.597
        31 -11.0671     13.1615     89.8949   8.5943473407e+01   5.8866513337e+01    0.2668373    0.2251844 -24.31  0.001177926    1.301    0.231
        32 -12.4006      4.3894     75.0029   8.8662680679e+01   6.3576754381e+01    0.9020811    0.4357489  77.92  0.003606332    2.363    0.577
        33 -13.0068     15.0083     73.4742   8.2243769480e+01   6.3304635923e+01    0.9668639     0.627132  31.94  0.004662032    1.563    0.360
        34 -11.2073      2.9899     83.0212   9.0420102900e+01   6.1417672038e+01    0.4931793    0.2294486 -74.24  0.001790027    1.928    0.481
        35 -10.8764      2.5943     88.6191   9.1212648814e+01   5.9866002225e+01    0.3801486    0.2590139  72.96  0.001880604    1.454    0.312
        36 -10.8694    189.5848    115.6524   3.5954631783e+01   2.1768035409e+01     0.528802    0.2667364 -20.82  0.001926215    3.735    0.732
        37 -10.2438    100.8438     83.4254   4.6895199623e+01   4.6459526275e+01     0.264408    0.1885056 -44.17 0.0008021615    1.429    0.300
        38 -11.7052     41.9898     83.4950   7.0123448903e+01   5.7581948698e+01      0.98615    0.2936753  41.95  0.003007815    3.351    0.702
        39 -11.4867     45.9956     80.9908   6.7521258107e+01   5.7667963416e+01    0.3323837    0.2835422 -26.88  0.001675924    1.327    0.246
        40  -9.4271    144.9808     81.2526   3.5333267226e+01   3.6893954452e+01     0.189608    0.1260483  58.91 0.0008913939    1.587    0.370
        41  -9.9383    215.1510     79.2825   2.4461504978e+01   2.3017057262e+01    0.2807817    0.1334929 -43.08  0.001440655    1.640    0.390
        42 -11.3304    220.8064     77.7593   2.3530169989e+01   2.2252523781e+01    0.3741508    0.1744238 -57.69  0.001764145    2.483    0.597
        43  -9.2566    169.2187     75.6144   2.9530907910e+01   3.2558960163e+01    0.1845206    0.1279115  49.84 0.0009459895    1.683    0.406
        44 -10.0768    226.9367     71.6649   2.1611675078e+01   2.2055941976e+01    0.3029144    0.1422099 -50.21   0.00159485    1.818    0.450
        45  -9.7394    218.5226     71.4968   2.2387249825e+01   2.3534237779e+01    0.1886132    0.1138914  87.56  0.001030683    2.244    0.554
        46  -9.5210     74.4691     69.5341   5.1361125954e+01   5.5315250942e+01    0.1549981    0.1477686  82.51 9.931021e-05    1.007    0.007
        47 -11.3399    214.3854     66.8500   2.1759727586e+01   2.4926542603e+01    0.3338949    0.1606047 -31.36  0.001658816    1.927    0.481
        48 -10.4969    233.4717     64.0086   1.9404066926e+01   2.1983614456e+01    0.1912359    0.1641074  43.09  0.001380163    1.648    0.393
        49  -9.0650    250.2998     63.6241   1.8009257104e+01   1.9337134779e+01    0.1227483   0.05939714 -52.50 0.0007027091    1.756    0.430
        50 -10.7309    218.8697     61.8445   2.0208666132e+01   2.4804741160e+01    0.1814362    0.1520552 -31.99  0.001143002    1.265    0.209
        51 -10.5728    229.4768     60.4761   1.8984168606e+01   2.3123497645e+01     0.171591    0.1152976  75.14  0.001053672    1.811    0.448
        52 -10.3154    226.5223     57.9618   1.8685871882e+01   2.3964917070e+01    0.1991447    0.1780609  74.01  0.001086924    1.414    0.293
        53 -11.6880    215.4608     56.4830   1.9309041700e+01   2.6149569020e+01    0.3000632    0.2539907 -76.76  0.002085038    1.236    0.191
        54  -9.3136    164.6870     53.6720   2.4208965957e+01   3.7044172732e+01    0.1291459    0.1099347  19.07 0.0007043045    1.669    0.401
        55  -9.9602    198.8487     51.5173   1.9690146399e+01   3.0023199502e+01    0.2677699    0.1015849 -49.94  0.001162905    2.263    0.558
        56 -10.6050    215.5388     50.5703   1.7955595617e+01   2.6917698132e+01    0.2707607    0.1999756  54.70  0.001730315    1.781    0.438
        57 -10.6033     85.6402     48.3738   3.9208630172e+01   5.7139454268e+01    0.4560829    0.3131687  61.70  0.002134559    1.437    0.304
        58 -11.4412      3.2542     41.6377   8.3235703322e+01   7.2464069208e+01    0.4457478    0.3806967  38.27  0.002652565    1.264    0.209
        59  -9.8021    180.7495     39.7505   1.8483384337e+01   3.5409248900e+01    0.2363267    0.1130178 -60.49   0.00106511    2.096    0.523
        60 -11.5103    190.6719     36.5063   1.6699467375e+01   3.3691177094e+01    0.3652866    0.1496504 -51.54  0.001667165    2.066    0.516
        61 -10.0918     80.8604     37.5742   3.6116784429e+01   6.0166433377e+01    0.3242612    0.1871936 -18.85  0.001245041    2.775    0.640
        62 -10.9368      5.9444     35.3571   7.9105679110e+01   7.3840619763e+01    0.4255511    0.1871817  29.22  0.001865221    2.230    0.551
        63 -11.8609    240.8263    228.4875   4.7986146063e+01  -1.0237314195e+00    0.3495645    0.1684687  28.53  0.002410502    2.188    0.543
        64 -10.9019    248.5864    224.2909   4.6313450374e+01  -1.1953548306e+00    0.3710637    0.1526673 -35.04  0.002401168    2.003    0.501
        65 -13.1996    209.3902    215.7704   5.0912441253e+01   3.4399005321e+00    0.7339369    0.4586031   1.18  0.004961223    1.485    0.327
        66 -13.3362    182.2868    217.5751   5.5818442316e+01   6.0567397169e+00    0.6171657    0.3541188 -24.48  0.003718111    1.685    0.407
        67 -10.5890     11.8783     24.5062   6.9130638672e+01   7.5822287946e+01    0.2110238    0.1883785  74.08  0.001283444    1.361    0.265
        68 -10.1502    224.5791     22.4102   1.0999546874e+01   2.8644362131e+01    0.2167444    0.1752565 -52.48   0.00147899    1.136    0.120
        69 -10.5654    187.3626     19.3779   1.2534724670e+01   3.6453925503e+01    0.2566078    0.1799766 -61.62  0.001119466    1.151    0.131
        70 -10.4253     50.7947    218.4050   8.5315992223e+01   2.1384543605e+01    0.1859955    0.1133861  14.79 0.0009585641    1.705    0.413
        71 -10.2901     20.0464     15.1654   5.5816735339e+01   7.6639770590e+01    0.3553926    0.2013924  12.97   0.00150903    2.704    0.630
        72  -9.7179     67.3295    217.3334   8.1067337704e+01   1.9792225242e+01    0.1287091   0.09522469 -17.70 0.0007051997    1.722    0.419
        73 -12.5054    248.4405    185.6337   4.0513354223e+01   3.4282676251e+00    0.7681175    0.2116399 -35.39  0.003730274    2.817    0.645
        74 -11.8623    245.1229    178.1630   3.9743077271e+01   4.7173329537e+00    0.7003306    0.2405919 -33.44  0.003664334    2.302    0.566
        75 -12.1534    243.3195    200.2357   4.3487427626e+01   2.1038632971e+00    0.6070122    0.3884884 -28.70  0.003880414    1.238    0.192
        76  -9.5485    128.9637     18.4811   1.7865975112e+01   5.0463190632e+01    0.2143112    0.1255558  76.20  0.001031644    1.588    0.370
        77 -11.4383    246.4140    192.5838   4.1880686322e+01   2.7564410025e+00    0.4341717    0.2925754   9.46  0.003315426    1.476    0.323
        78 -10.5282    202.8456    196.9047   4.9087084859e+01   6.7583243030e+00    0.1837282    0.1288559 -12.58  0.001184963    1.242    0.195
        79 -10.6426    205.0574    192.6793   4.8041947289e+01   7.1180931553e+00    0.2830409    0.1267425  24.30   0.00145579    2.530    0.605
        80 -11.2470    196.2151    186.0022   4.8423803242e+01   9.1666252870e+00    0.2141888    0.1761654 -17.60  0.001104513    1.049    0.047
        81  -9.8565     37.5038    185.4924   8.6468336677e+01   3.0322675221e+01    0.1388301    0.1235263  49.06 0.0008103362    1.038    0.037
        82  -9.9023    220.6635    156.3359   3.9359473527e+01   1.0571548421e+01    0.1092951   0.08618918 -57.97 0.0007051813    1.747    0.428
        83  -9.2898     53.6862    143.6713   7.6843978681e+01   3.9346834052e+01    0.1554476    0.1145915 -32.68 0.0004460208    1.673    0.402
        84 -11.6382     10.7295    139.6765   9.1820485824e+01   4.4901813242e+01    0.4947935    0.2226755  62.71  0.001960303    2.201    0.546
