#   1 NUMBER                 Running object number                                     
#   2 MAG_AUTO               Kron-like elliptical aperture magnitude                    [mag]
#   3 X_IMAGE                Object position along x                                    [pixel]
#   4 Y_IMAGE                Object position along y                                    [pixel]
#   5 X_WORLD                Barycenter position along world x axis                     [deg]
#   6 Y_WORLD                Barycenter position along world y axis                     [deg]
#   7 A_WORLD                Profile RMS along major axis (world units)                 [deg]
#   8 B_WORLD                Profile RMS along minor axis (world units)                 [deg]
#   9 THETA_WORLD            Position angle (CCW/world-x)                               [deg]
#  10 FWHM_WORLD             FWHM assuming a gaussian core                              [deg]
#  11 ELONGATION             A_IMAGE/B_IMAGE                                           
#  12 ELLIPTICITY            1 - B_IMAGE/A_IMAGE                                       
         1 -12.6390    199.3519     33.5698   6.0311249890e+01   3.1054078809e+01     1.001427    0.7477512  32.63  0.004902563    1.449    0.310
         2 -13.4190    215.4148     15.2468   5.2736371579e+01   2.8908666032e+01     1.267405    0.9361361  24.21  0.006419802    1.564    0.361
         3 -12.3455      2.1046      5.2071   1.1061164958e+02   7.3299493889e+01    0.7377052    0.3566992 -55.34  0.004488146    1.551    0.355
         4 -11.0165    205.3307    245.3218   1.0512468735e+02   1.2959706872e+00    0.2364438    0.1525004  20.25  0.001690033    1.551    0.355
         5 -10.6673    183.7807    249.9502   1.0898653332e+02   4.0003636655e+00    0.2296083    0.1520282  47.04  0.001082467    1.244    0.196
         6 -10.8900    169.2715    249.1167   1.1114186771e+02   6.2069630866e+00    0.2788051    0.2037204 -27.84 0.0004928309    1.984    0.496
         7 -10.8719    168.2334    242.9697   1.1063546955e+02   7.0353928314e+00    0.1857864    0.1571136  60.89 0.0008345536    1.346    0.257
         8 -10.2994    164.7089    242.0157   1.1108917172e+02   7.6659795101e+00    0.1738706    0.1223301  42.72  0.000674027    1.032    0.031
         9 -10.4532    162.7997    250.1865   1.1226093735e+02   7.0314120486e+00     0.296437    0.1001093  46.16  0.001171629    2.169    0.539
        10 -11.3679    149.2352    247.4111   1.1409806461e+02   9.3074458407e+00    0.2321285    0.2175299 -15.07  0.001828025    1.506    0.336
        11  -9.6862    132.1687    224.2684   1.1450529208e+02   1.4750072661e+01     0.182947    0.1507701  36.51  0.001046624    1.280    0.219
        12 -12.2752    142.6983    242.9133   1.1468530108e+02   1.0787934938e+01    0.4760514    0.3821516  83.90  0.003847915    1.548    0.354
        13 -10.5632    135.9808    225.2626   1.1396897419e+02   1.4046320809e+01     0.272226    0.1815901 -44.29   0.00125631    2.070    0.517
        14 -11.0806    135.7063    241.0089   1.1561514040e+02   1.2031002859e+01    0.2652224    0.1994218  23.87  0.001410135    1.695    0.410
        15 -11.8964    135.3745    236.1944   1.1519628022e+02   1.2691333023e+01    0.4058235    0.3112285 -23.66  0.002954485    2.188    0.543
        16 -11.2315    134.5803    231.6278   1.1486635035e+02   1.3402461127e+01    0.3373274    0.2400912 -29.53   0.00168156    2.370    0.578
        17 -11.6803    116.7247    238.3652   1.1841729513e+02   1.5056664303e+01    0.6626264    0.2809521 -50.95  0.003897511    3.287    0.696
        18 -12.0383    125.4086    233.9000   1.1659688118e+02   1.4429472953e+01    0.7105479    0.2081491  48.21  0.002848703    2.627    0.619
        19 -12.3036    133.8351    248.8227   1.1664603337e+02   1.1330861867e+01     1.245635    0.1913001  41.59   0.00438547    5.228    0.809
        20 -10.4257    121.8672    245.1392   1.1819522531e+02   1.3458820973e+01    0.2606183    0.1814011  71.01   0.00107082    1.502    0.334
        21 -11.8141    125.2338    241.7349   1.1735717050e+02   1.3426160012e+01    0.4402009    0.3772846  78.91  0.001778024    1.319    0.242
        22 -10.7797    115.0036    250.4866   1.1971861546e+02   1.3715831923e+01    0.5991617     0.194999  39.89  0.002781314    2.559    0.609
        23 -11.3641    109.4246    246.8101   1.2028770810e+02   1.4937219451e+01    0.3970367    0.2765621  79.00  0.002821861    1.557    0.358
        24 -11.0024     99.2190    248.2870   1.2198648627e+02   1.6089514746e+01    0.3744015    0.2208195  62.78  0.002315923    1.456    0.313
        25 -10.0057    102.8061    247.3894   1.2136329948e+02   1.5739268474e+01    0.2232065    0.1267516  57.94  0.001072115    1.398    0.285
        26  -9.5405     81.3068    247.0173   1.2465035570e+02   1.8528275764e+01    0.2365005    0.1140944 -85.53    0.0015183    2.711    0.631
        27  -9.4996     90.7642    250.5652   1.2344696206e+02   1.6870656750e+01    0.2278913    0.1147516  39.73  0.001133342    1.748    0.428
        28 -11.0150     86.8088    248.0611   1.2387864328e+02   1.7703052779e+01    0.2728253    0.2048295  39.38 0.0007248124    1.489    0.329
        29  -8.5275     63.2639    250.3256   1.2757045130e+02   2.0224029392e+01   0.07508767   0.06859732  56.72 0.0002982503    1.564    0.361
        30 -11.6225     15.9931    218.4492   1.3321698792e+02   2.9934865714e+01      0.73252    0.2344509  43.72  0.003730074    2.263    0.558
        31 -12.7308     11.4298    208.6393   1.3354094065e+02   3.1934585033e+01     1.032066    0.8777509  10.41  0.008931361    2.198    0.545
        32 -12.4868      5.9842    226.7652   1.3503524062e+02   2.9550318499e+01    0.9579398    0.5110788  62.92  0.007927589    1.254    0.203
        33 -12.3232     43.8498    208.1711   1.2818752883e+02   2.8799957809e+01     1.135093    0.4677499  75.53   0.00628242    2.674    0.626
        34 -12.9413     28.5976    246.7063   1.3246177952e+02   2.4462902897e+01    0.9975748    0.4787497  40.61  0.007209201    1.870    0.465
        35 -11.6673     19.7073    237.1518   1.3338170071e+02   2.6719556986e+01    0.3662081    0.1957823  67.15 0.0008640395    1.312    0.238
        36 -13.1287      4.7772    244.6842   1.3575301886e+02   2.7006134768e+01    0.8463089    0.3331527  64.25            0    1.730    0.422
        37 -12.1319     13.9496    239.2585   1.3429031494e+02   2.6954170982e+01    0.4787686    0.2426196  70.03  0.001463326    1.417    0.294
        38 -10.6196     51.5237    219.0423   1.2757712263e+02   2.6190555635e+01    0.1859661    0.1295913  63.57 0.0003647438    1.025    0.024
        39 -12.4182     29.2090    226.5628   1.3152013151e+02   2.7385669888e+01    0.2865615    0.2035209 -85.47 0.0007402948    1.426    0.299
        40 -13.6761     35.6970    218.4602   1.3010761393e+02   2.7992969971e+01     0.830147    0.6473296  86.79  0.007322558    1.293    0.226
        41  -9.1342     66.9028    243.8638   1.2665098921e+02   2.0700791789e+01    0.2026165    0.1128719  37.57  0.000890153    1.845    0.458
        42 -10.2510     73.7181    243.7810   1.2560364586e+02   1.9901188251e+01    0.2665779     0.185409 -66.59  0.002201673    1.837    0.456
        43 -11.9400    177.7343    243.7291   1.0922252388e+02   5.5413235230e+00    0.4374835    0.2376949  46.92  0.002716226    1.426    0.299
        44 -10.8315    159.3240    244.2420   1.1218266003e+02   8.2065024538e+00    0.2216833     0.152922  78.78  0.001061605    2.263    0.558
        45 -11.0490     97.1050    239.1985   1.2162515563e+02   1.7594578785e+01    0.2717784     0.215505 -42.70   0.00215449    2.080    0.519
        46  -9.8684     85.5105    235.3624   1.2318197242e+02   1.9634284730e+01    0.3253781    0.1544766  63.92  0.002024962    2.038    0.509
        47 -10.5856     84.5889    229.7979   1.2291574136e+02   2.0560372576e+01    0.2081166    0.1688655 -68.84  0.000966718    1.573    0.364
        48 -10.8590     91.9037    241.2364   1.2260223420e+02   1.7988806220e+01    0.2680573    0.2087186  68.93  0.001809507    1.169    0.144
        49 -10.1873     89.9626    238.0515   1.2267217811e+02   1.8682797232e+01    0.2136206    0.1664297  75.41 0.0009763941    1.227    0.185
        50 -10.1466     84.3144    240.5545   1.2374442125e+02   1.9049153417e+01    0.3638826    0.1639042  61.96  0.002263564    2.064    0.516
        51  -9.4681     54.2047    240.9488   1.2841522210e+02   2.2574914934e+01    0.1669281    0.1006246  51.51 0.0006663533    1.224    0.183
        52 -10.9602    104.6393    238.6091   1.2037685100e+02   1.6674872894e+01    0.1984374    0.1766662  82.91   0.00169655    1.335    0.251
        53  -9.5153    106.5247    235.0189   1.1977316186e+02   1.6914603025e+01     0.181328    0.1003391 -63.76 0.0007919866    2.246    0.555
        54  -9.0233     66.9915    239.9436   1.2640004350e+02   2.1248028164e+01    0.1514238    0.1017856  61.18 0.0004919929    1.050    0.048
        55  -8.7892     61.1295    239.1555   1.2725649322e+02   2.2046213908e+01    0.1385396    0.0771169  58.93  0.001039216    1.296    0.229
        56  -8.9447    172.9757    236.0344   1.0908953195e+02   7.1064940737e+00     0.125039   0.09896769  40.24 0.0002996447    1.077    0.071
        57  -9.2849     54.4563    235.4084   1.2807079963e+02   2.3355566411e+01    0.1690158    0.1150537  56.84 0.0007074804    1.096    0.087
        58  -8.6562     70.6262    235.2095   1.2553330657e+02   2.1499850681e+01    0.1108103   0.08492925 -75.22 0.0004891836    1.560    0.359
        59 -10.3046     98.4322    231.2045   1.2076965325e+02   1.8544419503e+01    0.2106279    0.1497326  31.94  0.001511285    1.720    0.419
        60 -10.6370     98.2942    223.4366   1.2013342491e+02   1.9696203107e+01    0.3266666    0.1961544  39.82  0.001714635    1.539    0.350
        61  -9.4717     94.3499    219.3638   1.2044489170e+02   2.0841612651e+01    0.2288565    0.1257628  60.89 0.0009336686    1.604    0.376
        62 -11.0425    113.3475    231.0713   1.1831145742e+02   1.6522413524e+01    0.2527988     0.214662 -75.39  0.002091402    1.447    0.309
        63 -10.8711    109.0747    231.6946   1.1906928316e+02   1.7028718422e+01    0.2960038    0.1858266 -84.97  0.002040294    2.017    0.504
        64 -11.6908    105.1814    228.0276   1.1938724245e+02   1.8085208160e+01    0.3776622    0.2648256  55.40  0.002851984    1.067    0.063
        65  -9.5004    169.7203    232.9498   1.0925330238e+02   7.9576608207e+00    0.1426107    0.1178362  40.71 0.0003832801    1.114    0.102
        66 -10.2618    156.6255    232.1485   1.1129757962e+02   1.0046087311e+01    0.1867502    0.1654273  25.78 0.0006718618    1.294    0.227
        67 -10.2936     93.4636    232.9744   1.2172103606e+02   1.8949040632e+01    0.2534433   0.08135901  52.24  0.001303035    2.524    0.604
        68  -9.9582     79.3503    225.8083   1.2347229736e+02   2.1820214039e+01    0.2974617    0.1886097 -84.46  0.001465305    1.676    0.403
        69  -9.0701     77.1770    220.7723   1.2345316561e+02   2.2862872107e+01    0.1540698    0.1050958  64.16 0.0004097137    1.141    0.124
        70  -9.5963     92.8326    226.2296   1.2128053880e+02   2.0014111075e+01    0.1986865    0.1239479  58.26 0.0009362419    1.249    0.200
        71 -10.4292    117.1060    224.6263   1.1708009333e+02   1.6898731329e+01    0.2359167    0.1919705  43.40 0.0009032224    1.234    0.190
        72  -9.2837     64.9600    224.5553   1.2573745186e+02   2.3774988079e+01    0.1611246    0.1287549 -66.79 0.0009381523    1.647    0.393
        73 -10.9881     60.1215    246.0124   1.2780017298e+02   2.1184066585e+01    0.3359402    0.2028936  54.85  0.001837755    1.146    0.128
        74  -9.7737     16.1870    224.4595   1.3342407255e+02   2.8974652042e+01    0.2205407    0.1039289  57.78  0.001013879    1.467    0.318
        75  -8.6976    164.4596    224.4469   1.0910209189e+02   9.7947045744e+00    0.1128897    0.0855269  43.37 6.335755e-05    1.008    0.008
        76  -8.9440     87.8374    223.8455   1.2191602314e+02   2.1026870054e+01      0.15331   0.09428756  63.01 0.0008559462    1.355    0.262
        77 -10.6229    142.0637    220.7224   1.1244054123e+02   1.3743537083e+01    0.2517782    0.2235537 -69.45  0.001151678    1.416    0.294
        78 -10.0334     70.4077    218.8563   1.2444152011e+02   2.4001875123e+01    0.3270402    0.1983855  83.25  0.002323965    1.618    0.382
        79  -9.0247    109.8005    217.9266   1.1767185170e+02   1.8918416064e+01    0.1793085    0.1058547  74.80  0.001084087    2.059    0.514
        80  -8.5688     80.7978    216.7950   1.2253273676e+02   2.3021608227e+01    0.1464172   0.09149942  64.05 0.0002231168    1.324    0.245
        81  -9.2501     88.1322    212.8164   1.2094118472e+02   2.2689401690e+01    0.1931051    0.1251976  86.34 0.0007756135    1.623    0.384
        82 -11.1497     55.4283    208.1543   1.2621836337e+02   2.7508828673e+01    0.6341596     0.288707  74.92  0.003027613    2.387    0.581
        83  -9.6900     63.4311    208.8648   1.2489436117e+02   2.6451741578e+01    0.3176531    0.2800089 -51.49  0.002586976    1.744    0.427
        84  -8.7513    131.0104    211.3061   1.1328315899e+02   1.6766019946e+01    0.1578569     0.115495  50.55 0.0003781091    1.075    0.070
        85  -9.8795    156.2051    208.1245   1.0846397996e+02   1.3246669048e+01    0.1820711    0.1441726  44.22 0.0003117239    1.016    0.016
        86  -9.3150    125.8655    207.3053   1.1373765123e+02   1.8147633929e+01    0.1756398    0.1408973  87.49 0.0005867925    1.390    0.281
        87  -8.6867     74.3753    208.2605   1.2295012504e+02   2.5205147537e+01    0.1355166   0.08553784  87.41 0.0003798238    1.579    0.367
        88  -9.2018     69.9443    208.0452   1.2370477740e+02   2.5793771915e+01    0.1543422    0.1143668  63.92  0.001179503    1.011    0.011
        89  -8.9516    106.4467    209.7740   1.1745022347e+02   2.0639417852e+01    0.1304975    0.1041292 -54.34 0.0005697166    1.630    0.386
        90  -8.7165     32.9347    206.9831   1.2995013060e+02   3.0145274825e+01    0.1242947    0.1083764 -72.71  0.000521183    1.584    0.369
        91  -9.6390    246.3125    206.6617   9.3255571885e+01  -1.2351906048e+00   0.09535645     0.088562  53.69 0.0005272638    1.692    0.409
        92  -9.2224     92.0120    204.6753   1.1951767940e+02   2.3472200702e+01    0.1558393    0.1165891  55.47 0.0003551006    1.074    0.069
        93  -9.5689    112.2096    207.9299   1.1623882912e+02   2.0092722737e+01    0.1940482    0.1352173  82.23  0.001078753    1.603    0.376
        94  -8.4601    103.3395    203.3292   1.1734853085e+02   2.2104631011e+01    0.1008433    0.0873239  12.15 0.0007051738    1.738    0.424
        95  -9.8023      1.9363    202.0486   1.3481089064e+02   3.3850067522e+01    0.1928302    0.1207714  85.78 0.0009346924    1.257    0.204
        96  -9.8538      1.6130    192.4161   1.3450332377e+02   3.5506696050e+01    0.2625176     0.087382 -80.00   0.00156843    2.514    0.602
        97 -11.4806      4.3955    186.6668   1.3379872274e+02   3.6275071768e+01    0.3253238    0.2097973  77.87  0.001640487    1.115    0.103
        98 -10.2590      4.5881    194.8199   1.3410182587e+02   3.4846356784e+01    0.2298503    0.1154447  57.57  0.001700672    1.471    0.320
        99  -9.6405    250.4960    200.4930   9.1598933606e+01  -1.2972351758e+00    0.1877197   0.09691656 -10.47  0.000901192    2.274    0.560
       100 -13.0237     40.0280    243.8044   1.3067704789e+02   2.3704459809e+01    0.8635676    0.6456082  77.25   0.00573825    1.239    0.193
       101  -9.7732     84.2568    201.4250   1.2060697738e+02   2.5053541602e+01    0.2503932    0.1980097 -38.23  0.001310007    2.065    0.516
       102 -11.6486    102.7672    195.9974   1.1667842064e+02   2.3386776453e+01    0.2868194    0.2003551  40.28 0.0004123437    1.394    0.282
       103  -9.0216     52.8033    198.3947   1.2599055007e+02   2.9455332462e+01     0.212217   0.07873186  44.28  0.001194155    2.147    0.534
       104 -11.5649     57.4048    194.0480   1.2484076509e+02   2.9676903796e+01    0.2867116    0.2365981 -69.86 0.0009996797    1.466    0.318
       105 -10.6113     27.4555    195.3307   1.3024111966e+02   3.2672664024e+01    0.3534501    0.1875553  82.84  0.001045366    1.597    0.374
       106  -9.3728     21.0445    194.7911   1.3131777902e+02   3.3382329314e+01    0.2302591    0.1469857 -51.57  0.001616766    2.488    0.598
       107  -8.5238     20.0000    191.0006   1.3130278313e+02   3.4140162945e+01    0.1377972   0.09006028 -69.87  0.001048021    1.658    0.397
       108  -9.9496    249.8005    194.4557   9.0685918019e+01  -6.0218163440e-01    0.2388049     0.170556  27.37  0.001625715    1.101    0.092
       109  -9.4965    113.0341    192.7998   1.1440297861e+02   2.2396708842e+01    0.3998145    0.1559538 -50.95  0.001924675    3.119    0.679
       110  -9.2324    191.5263    191.3895   9.9812905270e+01   9.5479736862e+00     0.207517    0.1610828  42.25 0.0005565446    1.119    0.106
       111  -8.4269     72.5083    192.6065   1.2195282877e+02   2.8085649320e+01    0.1092121   0.08605973  64.35 7.823177e-05    1.044    0.042
       112  -8.6007     38.5968    192.1637   1.2809182357e+02   3.2095095593e+01     0.125525   0.08311738 -73.73 0.0003499218    1.526    0.345
       113 -10.1035     15.4938    191.8877   1.3212692654e+02   3.4398801697e+01    0.1736964    0.1195663  70.77 0.0003839029    1.028    0.028
       114  -8.9661     31.7688    189.9251   1.2916879276e+02   3.3191095291e+01    0.2736918   0.06353584  44.58  0.001367754    2.973    0.664
       115 -10.1370    250.1613    187.5376   8.9427726679e+01   3.1264065282e-02    0.2390282    0.1366322  -2.93  0.001339849    1.957    0.489
       116  -8.7530     76.9668    188.5017   1.2074023860e+02   2.8232308811e+01    0.1549203   0.09380221  45.92 2.400827e-05    1.443    0.307
       117 -10.6544     71.8469    186.8284   1.2154961370e+02   2.9188835006e+01     0.257665    0.2351615   8.59  0.001231923    1.709    0.415
       118 -11.2973     64.0060    186.4739   1.2299742151e+02   3.0228730072e+01    0.2127491     0.189397 -85.92 0.0005799483    1.301    0.231
       119  -9.0740     40.8523    188.3462   1.2743095909e+02   3.2533210083e+01    0.1791062    0.0935728  57.32  0.001172146    1.541    0.351
       120  -9.7033     83.4560    186.6394   1.1932563959e+02   2.7700437956e+01    0.1874407    0.1477574  70.87 0.0003814422    1.058    0.055
       121  -9.0886     24.1041    184.0272   1.3019259262e+02   3.4992215447e+01    0.1419599    0.1185964 -89.98  0.000684094    1.294    0.227
       122  -8.5375    127.6603    182.8099   1.1035099345e+02   2.1763803171e+01    0.1493875    0.1097841 -74.57 0.0003005784    1.602    0.376
       123  -8.8427     36.3730    182.7530   1.2787044516e+02   3.4008977607e+01    0.1377593   0.08193852 -71.15 0.0009435848    1.645    0.392
       124  -8.8153     30.2792    183.4779   1.2903818121e+02   3.4492722660e+01    0.1398194   0.07325803  53.25   0.00062905    1.544    0.352
       125 -10.1526      2.6606    197.3684   1.3451966586e+02   3.4574995101e+01    0.2303429    0.1322396  68.32  0.001408888    1.230    0.187
       126  -8.2871     65.6796    181.7465   1.2225598157e+02   3.0878275621e+01   0.09037592    0.0880364  13.09 0.0002374242    1.537    0.349
       127  -9.0526     86.1542    180.1798   1.1812357089e+02   2.8487826634e+01    0.1579378    0.1105166  66.86 0.0002520182    1.267    0.210
       128  -8.8631     27.2267    179.9553   1.2937796951e+02   3.5431190860e+01    0.1415385    0.1038828  81.95 0.0002609013    1.084    0.077
       129  -8.6299     47.9102    179.7865   1.2548782005e+02   3.3318707472e+01    0.1340442    0.0776145  40.76 0.0008621484    1.686    0.407
       130  -8.5361     12.4936    178.4962   1.3198765192e+02   3.7046428951e+01    0.1003256   0.07431478  77.71 -2.706613e-05    1.063    0.059
       131 -10.1461     64.9464    166.9935   1.2096878092e+02   3.3730301787e+01    0.1798884    0.1485976  55.62 0.0003175472    1.193    0.162
       132 -11.4500     60.5735    172.6624   1.2240819990e+02   3.3184905655e+01    0.2798116    0.2079298 -54.14 0.0008155768    1.709    0.415
       133  -9.1773    103.0108    176.0041   1.1430064743e+02   2.6811920498e+01    0.1771758    0.1480514  66.29            0    1.020    0.020
       134 -10.6134     74.7793    174.5250   1.1976600802e+02   3.1054373963e+01    0.2461821    0.1765337  59.54 0.0004589744    1.178    0.151
       135 -10.4779     19.4339    174.2995   1.3048124779e+02   3.7200279589e+01     0.311877    0.1428457  71.80 0.0006288079    1.918    0.478
       136 -11.4245    247.8817    172.5136   8.7048975990e+01   1.9893219187e+00     0.460525    0.2955334  30.40   0.00277278    1.319    0.242
       137  -9.8657     12.2343    172.8603   1.3173900442e+02   3.8100429665e+01    0.2621342    0.1069829 -68.47  0.001592102    2.260    0.558
       138 -11.9417      2.4228    170.7265   1.3344052135e+02   3.9300110986e+01    0.6375988    0.2004595 -88.70  0.001075037    2.831    0.647
       139 -10.7419     14.3408    167.4905   1.3104393439e+02   3.8920048621e+01    0.2765126    0.2116641  45.16  0.001463588    1.444    0.307
       140 -10.9394      7.5308    166.0004   1.3225451033e+02   3.9769071049e+01    0.3047506    0.2444963  13.57  0.002221884    2.014    0.504
       141 -10.0154     46.0413    172.5741   1.2526780257e+02   3.4868149035e+01    0.1884679     0.132956 -87.42 0.0003304104    1.228    0.186
       142  -9.1030     27.4868    171.7438   1.2879899056e+02   3.6926009307e+01    0.1950548    0.1223298 -66.20  0.001186972    1.668    0.401
       143 -11.3307     82.6012    166.1981   1.1724889608e+02   3.1575344442e+01    0.4386508    0.3537916  39.10  0.002960381    1.383    0.277
       144 -11.3548     43.7698    161.6715   1.2479709853e+02   3.7205140762e+01    0.3634318    0.2048999  84.30  0.002224043    1.661    0.398
       145 -12.0765    245.2365    162.3560   8.5519918556e+01   3.5827110239e+00    0.5106463    0.3335104 -35.60  0.002943318    1.777    0.437
       146 -11.2755    242.8024    154.6167   8.4369683508e+01   4.9218968848e+00    0.3456348     0.197476  48.52  0.001810194    1.788    0.441
       147 -10.6363    249.5000    161.0205   8.4583905134e+01   2.9833652216e+00    0.4120485    0.1992528 -31.96  0.002086906    2.149    0.535
       148 -10.9936    247.5030    157.4920   8.4198883359e+01   3.7385699198e+00    0.4224247    0.2173107  46.36  0.002160597    1.884    0.469
       149  -8.8371     60.9957    164.7286   1.2154793969e+02   3.4649672421e+01     0.154742    0.1206098  62.26 0.0003170004    1.117    0.105
       150 -11.3863     65.2691    175.4973   1.2174879973e+02   3.2081308322e+01    0.2719398    0.1861027  50.31 -0.0003173707    1.301    0.231
       151  -9.3092     31.3378    163.1536   1.2743558502e+02   3.8188271106e+01    0.1650695    0.1293338  29.84 0.0006825618    1.690    0.408
       152  -8.4782     37.2706    162.6719   1.2620455324e+02   3.7689571856e+01    0.1140166   0.06440894  71.35 0.0004533292    1.581    0.368
       153 -12.9794      5.7874    143.7085   1.3132201253e+02   4.4207645832e+01    0.6756521     0.479189  82.53  0.005213199    1.045    0.043
       154 -11.4759     11.4884    151.6943   1.3064764911e+02   4.2190175992e+01    0.4529219    0.1512294 -89.94  0.001587674    2.990    0.666
       155  -8.1768     51.6859    158.3318   1.2284560417e+02   3.6989345585e+01    0.1220531   0.06976084  69.99 0.0007045412    1.681    0.405
       156 -10.2168     84.7686    155.2761   1.1542563425e+02   3.3390834065e+01    0.1891836    0.1763848  79.88 0.0002395701    1.165    0.142
       157 -10.3264     26.2516    154.9629   1.2784867094e+02   4.0268744699e+01    0.2836291   0.07746612  50.85 0.0007706876    3.194    0.687
       158  -8.5897    228.3562    155.2577   8.6871607175e+01   7.5169234327e+00    0.1660295    0.1157856 -34.58  0.000549268    1.592    0.372
       159 -10.2540     32.2694    154.3615   1.2655314672e+02   3.9816766771e+01    0.2967975    0.1520654 -56.71  0.001365203    2.193    0.544
       160 -11.3164    243.8604    121.3248   7.7032306202e+01   8.8432474915e+00    0.6101838    0.4037284  63.71   0.00305239    2.051    0.513
       161 -10.7971    249.5996    150.9348   8.2543309726e+01   4.1213568438e+00    0.4223974    0.2553035 -28.69  0.002330014    1.665    0.399
       162 -10.3075    249.6927    117.9169   7.5356846417e+01   8.1122221599e+00    0.4310491    0.2643993  -7.07    0.0016958    1.756    0.431
       163 -11.6724    247.9863    112.9432   7.4464377505e+01   9.0821428888e+00    0.8151153    0.4818342  20.85  0.003821166    1.995    0.499
       164 -11.8959    247.5890    142.2040   8.1041176850e+01   5.5247733752e+00    0.6012501    0.4127916  32.16  0.003446105    1.326    0.246
       165 -12.6559    247.9163    134.9977   7.9444800447e+01   6.3384236828e+00     1.201714    0.6175351 -17.66  0.005648766    2.055    0.513
       166 -10.8247     21.8807    149.3329   1.2833228188e+02   4.1778468770e+01    0.2544727    0.1599745  51.05 0.0009612921    1.478    0.323
       167 -11.8214     68.4319    144.2866   1.1761218642e+02   3.7803100056e+01    0.5852838    0.3622906  76.93  0.002449121    1.728    0.421
       168  -9.3736     40.9516    147.4855   1.2408728941e+02   4.0324311614e+01    0.1537526    0.1020996  43.65 0.0006050232    1.528    0.345
       169  -9.6745    236.0072    145.9642   8.3692220000e+01   7.2439825652e+00    0.2121534    0.1377574  16.87 0.0004818407    1.613    0.380
       170  -8.7960     83.1682    149.8152   1.1504499592e+02   3.4701536976e+01    0.1494079    0.1448712 -52.01 0.0004532872    1.318    0.241
       171  -9.4632    133.1592    140.6403   1.0244515021e+02   2.8358536039e+01    0.3128371      0.19337 -58.85   0.00101969    1.818    0.450
       172 -10.7281     38.2673    141.3675   1.2408229166e+02   4.1847393018e+01    0.3302354    0.1611133  65.80 0.0009631749    2.140    0.533
       173 -11.0652     12.8995    137.1762   1.2935101280e+02   4.4973253743e+01    0.1845232    0.1472135  68.14 0.0003082631    1.176    0.150
       174 -10.0837     19.5197    141.5247   1.2823651626e+02   4.3550601594e+01    0.1895053    0.1214013  74.79  0.000621736    1.306    0.234
       175 -11.2913     16.3922    139.2004   1.2873836540e+02   4.4282304371e+01    0.2675592    0.1543531  78.97  0.001743871    1.476    0.322
       176  -9.6955     58.5481    147.4475   1.2021032379e+02   3.8376454508e+01    0.2453505    0.1506023 -41.40   0.00132878    2.495    0.599
       177 -11.1819     59.6653    136.3017   1.1860514376e+02   4.0544755027e+01    0.2643483    0.2089927  79.71 0.0003314629    1.114    0.102
       178  -9.4363    108.6237    135.8492   1.0709127416e+02   3.3608286466e+01    0.3085514    0.2185653 -24.04  0.001531927    2.279    0.561
       179 -12.0554      2.1039    123.7322   1.3079978500e+02   4.8505612055e+01    0.7264832    0.1342649 -76.41  0.002867495    4.000    0.750
       180 -10.0170     69.1578    132.1501   1.1579651031e+02   4.0233960358e+01    0.1714647    0.1272085  70.75 0.0005990321    1.298    0.230
       181 -10.0966     44.8723    130.3498   1.2136446822e+02   4.3465239283e+01    0.2753805    0.1445685  75.40 0.0009319313    2.187    0.543
       182 -10.2210     47.9004    135.8441   1.2129271714e+02   4.1985594280e+01    0.2585872    0.1834266 -76.35  0.001063579    1.224    0.183
       183 -12.2527     13.2509    127.6251   1.2852666465e+02   4.6904991946e+01    0.3440084    0.2675389  25.15  0.002580218    1.719    0.418
       184 -11.2264     11.0863    158.5232   1.3114836972e+02   4.0898314748e+01    0.5155287    0.1776687  81.33  0.001826384    3.156    0.683
       185  -9.5281     33.2022    128.1734   1.2389857977e+02   4.5089818341e+01    0.1687872    0.1111464  77.75  0.001015487    1.379    0.275
       186 -10.1467     95.9298    150.5233   1.1232660708e+02   3.2696199876e+01    0.2397493     0.199841 -86.84  0.000811347    1.143    0.125
       187  -9.0969    209.8579    125.8416   8.3773663809e+01   1.5255236984e+01    0.2131261    0.1763619  11.01 0.0005437488    1.191    0.160
       188  -8.6457     48.1776    126.3504   1.2007948604e+02   4.3960940322e+01    0.1605091   0.09510641  49.84 0.0004208319    1.678    0.404
       189 -11.7254     16.9834    117.0545   1.2669659874e+02   4.8833575417e+01    0.2625835    0.1996376  20.79  0.001882134    1.791    0.442
       190  -9.9144    231.8596    116.2278   7.7764538775e+01   1.1973504305e+01    0.2018016    0.1912688 -33.22 0.0007642556    1.226    0.185
       191  -9.6452    167.7479    113.0038   8.8950411997e+01   2.6476434326e+01    0.2966921    0.2464435 -74.10  0.001053875    1.503    0.335
       192 -11.5502      2.9660    103.1233   1.2893979809e+02   5.2760722586e+01    0.2876055    0.2497518 -37.18  0.002293458    1.533    0.348
       193 -11.5696      6.9000    108.2768   1.2839580295e+02   5.1417355003e+01    0.2371557    0.1896122 -38.07  0.001776485    1.663    0.399
       194  -8.6930    203.4921    111.4871   8.1531625144e+01   1.8800721707e+01    0.1464774    0.1327969  15.27 0.0008101954    1.039    0.037
       195 -10.1339     35.0951    107.0987   1.2090297505e+02   4.9439876496e+01    0.1848586    0.1640046  84.52 0.0004344926    1.128    0.113
       196 -12.5563    247.0675    100.0455   7.1535749516e+01   1.0922115546e+01    0.9812594    0.5840386  -5.09  0.004511102    1.966    0.491
       197 -11.8743      9.2709    112.6777   1.2819760989e+02   5.0325182069e+01    0.2759894    0.1927263  43.08   0.00104366    1.587    0.370
       198 -11.3203     14.3255    103.7157   1.2602049998e+02   5.1881051997e+01    0.3067981    0.1205802  50.20  0.001573212    2.733    0.634
       199  -8.3272     71.7360    100.0328   1.0969098123e+02   4.6826600269e+01    0.1559155     0.102739 -62.57 0.0002414932    1.375    0.273
       200 -10.4854     20.7842     93.7205   1.2306288222e+02   5.3572798522e+01    0.2064546    0.1491034 -47.08  0.000767835    1.519    0.342
       201 -10.4276    192.2980    248.6841   1.0753005057e+02   2.8816167951e+00    0.1827694     0.129792  47.36  0.001057939    1.279    0.218
       202 -10.8362     17.3791     25.8596   1.1023085841e+02   6.8336428837e+01    0.2579935    0.1671551  49.39  0.001430988    2.246    0.555
       203 -11.4851    199.4976    246.5915   1.0617502244e+02   2.0306297977e+00    0.3570953    0.1859739  44.78  0.002010227    1.476    0.322
