#   1 NUMBER                 Running object number                                     
#   2 MAG_AUTO               Kron-like elliptical aperture magnitude                    [mag]
#   3 X_IMAGE                Object position along x                                    [pixel]
#   4 Y_IMAGE                Object position along y                                    [pixel]
#   5 X_WORLD                Barycenter position along world x axis                     [deg]
#   6 Y_WORLD                Barycenter position along world y axis                     [deg]
#   7 A_WORLD                Profile RMS along major axis (world units)                 [deg]
#   8 B_WORLD                Profile RMS along minor axis (world units)                 [deg]
#   9 THETA_WORLD            Position angle (CCW/world-x)                               [deg]
#  10 FWHM_WORLD             FWHM assuming a gaussian core                              [deg]
#  11 ELONGATION             A_IMAGE/B_IMAGE                                           
#  12 ELLIPTICITY            1 - B_IMAGE/A_IMAGE                                       
         1 -14.7863     68.4770    144.2040   1.0717256272e+02   3.7192703347e+01     5.205564      2.27178  61.44  0.003518566    4.389    0.772
         2 -14.4538    199.2394     37.2008   4.7396086223e+01   3.0860132297e+01     2.025344     1.467864  25.28  0.007350745    1.873    0.466
         3 -14.5062    210.6371     25.3200   4.2866903027e+01   2.9572217263e+01     1.413823     1.063381   3.89  0.003869648    1.873    0.466
         4 -14.0273      3.1174      7.1797   9.5641732417e+01   7.3158552288e+01     3.210383     1.001508 -48.15   0.01574357    2.614    0.617
         5 -10.1352     60.5169      7.5292   6.7782604777e+01   6.6132207297e+01    0.1255187    0.1017381   9.71 4.686133e-05    1.014    0.014
         6 -11.8301     42.9894      6.6246   7.4536812318e+01   6.8993431101e+01    0.3261694     0.168411  16.18  0.001629417    2.284    0.562
         7 -12.4567    234.8865      2.5319   3.5201800800e+01   2.6490013788e+01     0.736102    0.2827999  75.70  0.003363438    2.474    0.596
         8 -11.1934     61.1524      1.8696   6.4713007582e+01   6.6614377555e+01    0.3905348    0.1017978  39.89  0.001468131    3.506    0.715
         9 -11.0531     24.7740      1.9799   8.0882852740e+01   7.1933667051e+01    0.2347794    0.1524667  44.22  0.001414214    2.409    0.585
        10 -10.3377    113.2903    207.5208   1.0596677058e+02   1.6150463920e+01    0.2525313    0.1927425  75.53 0.0005210727    1.415    0.294
        11 -13.4138     47.3905    222.2376   1.2087349405e+02   2.2446873980e+01     1.228564    0.7085059  73.29  0.001270201    1.586    0.370
        12 -13.3992     14.7118    192.4274   1.2505326758e+02   3.2036978294e+01    0.8224389    0.2542101 -62.55  0.002102687    2.962    0.662
        13 -14.4580     85.4785    229.4780   1.1420742517e+02   1.6094044715e+01     1.592506     1.226314  87.16  0.003877775    1.284    0.221
        14 -14.8448     45.1486    202.4530   1.1970769477e+02   2.6738509036e+01      3.51787     1.398913  65.25   0.01030127    3.090    0.676
        15 -12.0128    194.4933    197.0542   8.7204334237e+01   4.0015646554e+00     1.236821    0.6665921 -63.32  0.003779452    6.117    0.837
        16 -13.9840     54.2999    192.7530   1.1689401036e+02   2.7727203259e+01    0.9632417    0.7981502 -66.87  0.004296552    1.299    0.230
        17 -10.9023    208.7838    196.5953   8.4313828367e+01   1.5927399065e+00    0.2380665    0.1765745 -30.22 0.0006535928    1.362    0.266
        18  -9.1522    159.9677    197.0114   9.4328423743e+01   1.0178780344e+01    0.2019361    0.1641355  75.68 0.0003754086    1.599    0.374
        19  -9.5330     82.0745    194.8361   1.1108642348e+02   2.3566401270e+01    0.2380117    0.1694618  40.64  0.001353102    1.383    0.277
        20  -9.8113     24.6687    193.9069   1.2316753180e+02   3.0767101338e+01    0.3149684    0.1213643  50.46  0.001584488    2.290    0.563
        21  -8.9527     97.4727    190.4953   1.0708871358e+02   2.2192845227e+01    0.1334241    0.1217896  69.31 0.0001660045    1.034    0.033
        22  -9.3469     75.7978    190.5700   1.1195290410e+02   2.5385143248e+01    0.1805039    0.1044087  52.11 0.0005249736    1.622    0.383
        23 -10.1456     71.9129    186.2155   1.1229301361e+02   2.6884812619e+01    0.2230202    0.1652597  88.71 0.0003488041    1.288    0.224
        24 -16.5910      6.9519    203.6528   1.2722130389e+02   3.0404445742e+01     8.875936    0.9509351 -74.00   0.02098489    5.883    0.830
        25  -8.4191     94.2916    186.6561   1.0727176171e+02   2.3522512326e+01    0.1415858   0.09594944  73.59   0.00070273    1.657    0.397
        26 -16.0578     60.0078    247.2304   1.2043674116e+02   1.6245443333e+01     9.484694     2.953249  29.22  0.008020556   10.476    0.905
        27 -10.6601    146.6356    182.7013   9.4703893045e+01   1.5392040914e+01    0.2749911      0.24399  60.77 0.0009942529    1.171    0.146
        28 -11.4854    141.6403    174.8125   9.4385786026e+01   1.7948430921e+01     0.716976     0.453575 -79.97  0.002844115    2.795    0.642
        29 -10.0817     99.4268    180.8617   1.0524276507e+02   2.3995336851e+01    0.2435871    0.1929819  35.63 0.0005645879    1.322    0.244
        30 -12.1053     68.9750    176.7525   1.1178571256e+02   2.9420003852e+01    0.3656855    0.2749252 -34.06  0.002006008    1.858    0.462
        31 -12.0606     73.4471    171.7420   1.1006499570e+02   2.9960917421e+01    0.3590364    0.2713963 -38.11 0.0009236545    1.704    0.413
        32 -10.1948     40.0966    177.6635   1.1849484504e+02   3.2733531126e+01    0.2642508     0.154602  61.15 0.0005677786    1.643    0.391
        33  -9.8632     84.1234    174.1873   1.0786194826e+02   2.7862715005e+01    0.2425149    0.1776234 -41.83 0.0008376335    1.661    0.398
        34 -13.4268     55.5173    147.0409   1.1104573905e+02   3.8159517810e+01     1.262696     0.937867 -76.12  0.007172272    1.204    0.169
        35 -13.4945     49.3475    107.8243   1.0611742629e+02   4.8411545664e+01     1.917863     1.135294 -79.20  0.008956915    1.985    0.496
        36  -9.2549     47.3552    172.2917   1.1628189692e+02   3.3146360852e+01    0.1206288   0.09435772 -39.88 0.0007029059    1.684    0.406
        37  -9.9121     36.8549    167.6195   1.1821358783e+02   3.5377345814e+01    0.2361704    0.1436375  55.71 0.0009044837    1.603    0.376
        38 -10.9432     33.0746    165.0971   1.1883266264e+02   3.6348756776e+01    0.3239762    0.1903533  48.56  0.001244867    1.685    0.407
        39 -10.2468    159.5085    163.0026   8.7959722142e+01   1.6969728604e+01    0.2900801    0.2405425 -81.16 0.0009076938    1.538    0.350
        40  -9.9368     37.3080    161.5990   1.1746373281e+02   3.6729677329e+01    0.2199752    0.1100777  38.09 0.0006504024    2.062    0.515
        41  -9.3303     48.1142    160.4714   1.1472275613e+02   3.5816587900e+01    0.1723629    0.1255836  38.44 0.0004046658    1.495    0.331
        42 -12.3562     88.9536    155.3354   1.0369242391e+02   3.1533953414e+01    0.6262327      0.45035 -27.35  0.003020822    1.951    0.487
        43  -8.7721    112.5090    150.5450   9.6767726089e+01   2.8717271551e+01    0.1478069    0.1400973  84.82 9.524409e-05    1.034    0.033
        44 -11.1402    133.6154    143.9062   9.0032570007e+01   2.6261475999e+01     1.172094    0.2843724 -54.00  0.002691709    6.019    0.834
        45 -10.4862    174.2739    148.6937   8.1532504493e+01   1.6898976415e+01    0.3502148    0.2842161 -70.51  0.001367438    1.568    0.362
        46 -11.5764     39.5685    145.9709   1.1504623719e+02   4.0201127314e+01    0.3748348    0.3353961  -2.49  0.001942337    1.482    0.325
        47 -10.1854     83.9467    143.4182   1.0289093616e+02   3.5161942232e+01    0.2759687    0.2080166  70.92 0.0008606207    1.480    0.324
        48 -10.3596    101.5146    141.5207   9.7826346729e+01   3.2772814522e+01    0.3057104    0.2906592 -38.55 0.0009287991    1.122    0.108
        49  -9.9108    104.3745    138.3256   9.6405046846e+01   3.3037513072e+01    0.3346168    0.2518567  -9.67 0.0008008965    1.918    0.479
        50 -12.4175     90.0431    140.3701   1.0067577458e+02   3.4947432137e+01    0.2914704     0.253963 -47.99 0.0004075886    1.167    0.143
        51 -12.8666     44.4911    129.7924   1.1143221510e+02   4.3600762609e+01    0.5377155      0.45036 -75.87  0.002546362    1.034    0.033
        52 -10.4667    105.9466    130.5172   9.4293193436e+01   3.4613585179e+01    0.4086376    0.2881348 -54.62  0.001938771    1.367    0.269
        53 -11.1550    135.6273    128.6090   8.5988610514e+01   2.9306067436e+01    0.5526404    0.1476729 -49.24  0.001508349    3.901    0.744
        54 -10.6601    160.3826    127.9963   7.9784397705e+01   2.4162812769e+01    0.3910307    0.2860934 -37.03  0.001801143    1.367    0.268
        55 -11.1430     98.9903    126.7366   9.5373240772e+01   3.6738454818e+01    0.3046292    0.2567417  -5.79 0.0007010031    1.462    0.316
        56 -11.1114    120.5094    121.9844   8.8335592196e+01   3.3868215320e+01    0.4076227     0.205036 -32.83  0.001400733    2.759    0.638
        57 -10.2997    111.7783    130.5287   9.2711329115e+01   3.3547738048e+01    0.3385271     0.261542   3.21 0.0009104894    1.758    0.431
        58  -9.9982    108.0052    119.2869   9.1113276562e+01   3.6887709041e+01    0.2314416    0.2055898 -48.80 0.0003279661    1.079    0.073
        59 -12.9974     82.2681    162.4698   1.0655085783e+02   3.0861238427e+01     1.230959    0.4549542  52.40 0.0003874421    3.485    0.713
        60 -13.7178     70.1988    157.7562   1.0885753415e+02   3.3696608106e+01    0.5995016    0.4542972 -42.35  0.001937907    1.541    0.351
        61  -9.7658    168.4693    113.2904   7.4169947189e+01   2.5411750288e+01    0.3134331    0.2419304  88.18  0.001097908    1.799    0.444
        62 -16.5781      8.8674    242.3678   1.2878663745e+02   2.2810161075e+01     1.731923     1.310133 -77.83   0.01408892    1.484    0.326
        63 -11.1247    118.2478    109.5499   8.5788741000e+01   3.7156963581e+01    0.4474472    0.2969607  78.72  0.001682328    2.691    0.628
        64 -10.4621    134.6020    105.8306   8.0382071433e+01   3.4569199998e+01    0.3853872    0.1508324 -46.01  0.001282505    2.526    0.604
        65 -10.2029    205.4061    110.2093   6.5804406079e+01   1.7612277688e+01    0.3071879    0.2465412  44.60 0.0007717895    1.315    0.239
        66 -11.3652     31.7570    108.2499   1.1168208462e+02   5.0055357467e+01    0.2340664     0.227264  73.99  0.001594406    1.199    0.166
        67 -11.2617    132.1579    172.0893   9.6081454075e+01   2.0286490053e+01    0.4444989    0.1937179  35.76   0.00167841    2.410    0.585
        68  -9.5880    111.7952    217.3623   1.0756806715e+02   1.4471928914e+01    0.1991094    0.1649006  87.30 0.0005995909    1.275    0.215
        69 -10.5918     52.8229     91.6616   1.0145815674e+02   5.1856078796e+01    0.4228379    0.1596265 -51.09  0.001708794    2.187    0.543
        70 -10.1365     41.7045     91.9174   1.0528726663e+02   5.3004549588e+01    0.1992996    0.1880016 -11.47 0.0005514338    1.197    0.164
        71  -9.8701     75.0638     84.9218   9.2179702653e+01   5.0407451646e+01    0.2085146    0.1918244 -39.06 0.0003300305    1.034    0.033
        72  -9.9532    158.1484     81.1402   6.7511553420e+01   3.4140887348e+01    0.2373423    0.2129211   7.59 0.0005265334    1.210    0.174
        73  -8.9119    184.3635     77.2936   6.0982319774e+01   2.8448805503e+01    0.1577928    0.1178065  22.14 0.0007029589    1.708    0.415
        74  -8.6227     56.3118     66.6282   9.3382663498e+01   5.7008102983e+01    0.1308994    0.1071583 -88.18 0.0002507526    1.777    0.437
        75 -11.3183      1.7252     61.0585   1.1330255102e+02   6.2874833259e+01    0.3595473     0.103106 -64.06  0.001567514    2.540    0.606
        76 -10.0366    234.0000     60.9810   4.8990222005e+01   1.9340206920e+01    0.2329272   0.07223513 -33.32 0.0008052926    2.962    0.662
        77 -10.6253     13.4665     59.8054   1.0831756237e+02   6.2518733981e+01    0.2294956    0.1863288 -62.77 0.0004009523    1.198    0.166
        78 -13.2750    189.7244     44.1976   5.0692074388e+01   3.2277361740e+01     1.015246    0.6417121  50.39  0.001049462    1.625    0.384
        79 -10.1519    172.0099    240.1807   9.8681521417e+01   9.4958409225e-01    0.3275317    0.2356197 -82.95  0.001754821    2.731    0.634
        80  -8.9251    182.5098    241.5065   9.6885383444e+01  -8.8717066944e-01    0.1230977   0.09970597  28.93 0.0003040352    1.026    0.025
        81  -9.0534     68.8253     52.5745   8.3964028043e+01   5.8024025107e+01     0.174744     0.129091  46.11 0.0006952503    1.640    0.390
        82  -9.7129     43.2459    236.7191   1.2266431702e+02   2.0172504155e+01    0.1396086    0.1296321 -47.00  0.001078005    1.672    0.402
        83 -11.7172    145.8341     50.2767   6.0602539232e+01   4.2379803562e+01    0.5624384    0.3653778 -82.28  0.002233211    2.580    0.612
        84  -9.5005    189.5141     14.9820   4.2552287386e+01   3.5899049797e+01     0.191248    0.1320178 -29.37 0.0005247747    1.545    0.353
        85 -10.6849    147.6416     43.8776   5.8107442067e+01   4.2874517509e+01     0.262711    0.2376933  69.51 0.0003841433    1.126    0.112
        86  -9.9734     72.7313    230.0217   1.1671223710e+02   1.7741658591e+01    0.2505929    0.1860106 -49.62  0.001542508    1.821    0.451
        87  -8.7470    131.2495    214.3258   1.0312623058e+02   1.1907866580e+01    0.1196411    0.1007219  -7.57 0.0002395053    1.541    0.351
        88 -10.1095     34.3311    227.9623   1.2368122199e+02   2.2834204367e+01    0.1821137    0.1378711  48.95 0.0006078483    1.305    0.234
        89 -14.4831     30.2599    247.4820   1.2554007634e+02   1.9688397423e+01    0.7553446    0.7026976 -16.35  0.006147186    1.919    0.479
