#   1 NUMBER                 Running object number                                     
#   2 MAG_AUTO               Kron-like elliptical aperture magnitude                    [mag]
#   3 X_IMAGE                Object position along x                                    [pixel]
#   4 Y_IMAGE                Object position along y                                    [pixel]
#   5 X_WORLD                Barycenter position along world x axis                     [deg]
#   6 Y_WORLD                Barycenter position along world y axis                     [deg]
#   7 A_WORLD                Profile RMS along major axis (world units)                 [deg]
#   8 B_WORLD                Profile RMS along minor axis (world units)                 [deg]
#   9 THETA_WORLD            Position angle (CCW/world-x)                               [deg]
#  10 FWHM_WORLD             FWHM assuming a gaussian core                              [deg]
#  11 ELONGATION             A_IMAGE/B_IMAGE                                           
#  12 ELLIPTICITY            1 - B_IMAGE/A_IMAGE                                       
         1 -14.8755      8.9779    147.9673   1.4373078763e+02   4.3164195485e+01     11.61177     4.867385  77.16   0.04828237    3.597    0.722
         2 -13.3587    195.7628     29.1328   6.8938297272e+01   3.2841199947e+01     1.380536     1.319029  75.62  0.007187886    1.140    0.123
         3 -13.4224    211.5285      9.6645   6.2287589383e+01   3.1260583150e+01     1.207902    0.9246649  42.21   0.00499297    1.646    0.392
         4 -12.1668      2.3655     12.9971   1.1782433808e+02   7.0461720893e+01     1.015719    0.1677655 -47.87  0.003939155    4.815    0.792
         5 -10.8321     97.8497    248.4767   1.3643941607e+02   1.0778010423e+01    0.3454493    0.1965353  52.59  0.001407944    1.419    0.295
         6 -11.8950    246.6357    248.5683   1.0908433746e+02  -1.3703086129e+01    0.6695998    0.3108446  43.28  0.003517055    2.181    0.542
         7 -10.7306    127.0898    250.1906   1.3129905885e+02   5.7532468831e+00    0.2947308     0.147165  48.22  0.001250011    1.626    0.385
         8 -10.5002    112.2264    250.5152   1.3405790056e+02   8.1358720066e+00    0.3608103    0.1046231  41.43 0.0009369071    3.042    0.671
         9 -10.3821     29.1301    248.9679   1.4812881291e+02   2.0104989644e+01    0.3388608    0.1826502 -68.80   0.00191084    1.883    0.469
        10 -10.7560     32.7023    249.4324   1.4759349369e+02   1.9598414007e+01    0.3071853    0.1917682  53.82  0.002166522    1.367    0.269
        11 -11.2925     34.4181    244.3475   1.4698230633e+02   2.0332800916e+01    0.4286933    0.2778159  69.69  0.003035877    1.139    0.122
        12 -10.4473     13.0628    249.2056   1.5062433832e+02   2.1864538284e+01    0.1948421    0.1378937  82.39  0.001538678    1.124    0.111
        13 -10.2176      2.7544    249.4232   1.5217359655e+02   2.2903500143e+01    0.2190349    0.1366916  63.48  0.001692592    1.215    0.177
        14 -10.7433    101.2531    245.9946   1.3556264885e+02   1.0690962596e+01    0.3221512    0.1797789 -68.95 0.0004398228    1.990    0.498
        15  -9.4735     82.1989    249.0132   1.3927317578e+02   1.3057884799e+01    0.2032137    0.1097105  76.88  0.001079956    2.045    0.511
        16  -9.6738     46.9246    249.5098   1.4530523558e+02   1.7830104566e+01    0.1588674   0.09076168  48.59 0.0004615726    1.538    0.350
        17 -10.7204    198.9571    246.8480   1.1741127799e+02  -5.9734447320e+00    0.2355798    0.1887895 -56.80  0.001491007    1.716    0.417
        18 -10.2448     19.8238    242.9237   1.4922379480e+02   2.2279647263e+01    0.2569955    0.1047542  64.43 0.0008282079    2.061    0.515
        19 -10.8332     12.1888    240.7229   1.5029030955e+02   2.3515467445e+01    0.2173163    0.1648103  39.03  0.001662636    1.824    0.452
        20 -10.5446      5.6776    241.0344   1.5131068815e+02   2.4133892852e+01    0.1675126    0.1276143  60.90 0.0004268147    1.351    0.260
        21 -11.2946    139.0943    248.6013   1.2887600243e+02   4.0006988169e+00    0.3896452    0.2652779 -55.98  0.002333815    1.756    0.431
        22  -9.4653    183.0205    238.7630   1.1915541833e+02  -2.0422252416e+00    0.1773773   0.09298538  41.98 0.0004187855    1.612    0.380
        23 -10.6049    162.2542    249.3955   1.2464730966e+02  -9.4622148365e-02    0.2472437     0.139026  48.73  0.001320252    1.523    0.343
        24  -8.6712     60.4422    227.2532   1.4114015202e+02   2.0312955467e+01    0.1673041   0.09543566 -89.80 0.0009359323    1.690    0.408
        25  -9.9017    173.6925    222.6446   1.1840466427e+02   2.2756647561e+00    0.3081132     0.151198  47.70  0.001392264    1.869    0.465
        26 -12.5661     33.7177    232.8529   1.4629534563e+02   2.2603302832e+01    0.2846239    0.2216334 -78.12 0.0007665796    1.370    0.270
        27 -12.3388      9.5372    207.0910   1.4864133894e+02   3.0361563883e+01    0.6436903     0.476621  34.67  0.003880373    1.827    0.453
        28 -11.4611     60.5199    198.8333   1.3824033324e+02   2.6245306836e+01    0.2730637      0.23244 -58.34  0.000551493    1.438    0.305
        29 -11.4010     15.4400    197.1968   1.4685862166e+02   3.1838319342e+01    0.2880139    0.1694994  64.59  0.001100854    1.490    0.329
        30  -9.4356    191.7694    192.6948   1.0938912683e+02   4.1932038301e+00    0.3724866    0.2247156 -69.13  0.001401224    3.301    0.697
        31 -11.7264     66.8269    190.4581   1.3594946974e+02   2.7229199268e+01    0.2810259    0.2265254 -64.73 0.0004373089    1.295    0.228
        32 -13.7323     39.0521    225.4921   1.4482028235e+02   2.3413123641e+01    0.7889898    0.6085583  69.25  0.002515358    1.130    0.115
        33 -11.0591      2.1320    191.5304   1.4888607985e+02   3.4263531206e+01     0.292614    0.1457476 -65.02  0.001541329    1.802    0.445
        34  -8.5491    152.4767    212.9812   1.2112326484e+02   7.9763686793e+00    0.1794039    0.1378508 -55.09 0.0003835897    1.447    0.309
        35 -13.0326     63.7525    175.7931   1.3473526452e+02   3.0976220942e+01    0.5020723    0.2714473 -47.14  0.001535914    2.272    0.560
        36 -10.6163     77.0607    177.6190   1.3199982944e+02   2.8667747754e+01    0.2389043    0.2090087  87.89 0.0003644564    1.036    0.035
        37  -9.7489     97.8984    174.6519   1.2677954057e+02   2.6056371982e+01    0.2713544    0.1878953 -68.34 0.0003197178    1.403    0.287
        38 -11.5473     84.5490    168.5338   1.2890001803e+02   2.9634968909e+01    0.5918736      0.55581 -54.78  0.003604458    1.241    0.194
        39  -9.9404     54.4595    229.4101   1.4241452126e+02   2.0685454740e+01    0.2661386    0.1564725  71.13  0.001343821    1.480    0.324
        40  -9.8461     97.3529    152.4565   1.2300182363e+02   3.1333804269e+01    0.2814079     0.261829 -54.04 0.0007618401    1.150    0.130
        41 -11.8736     85.9870    151.6345   1.2568230450e+02   3.3387532923e+01    0.3027793     0.247819 -48.75 0.0004933764    1.283    0.220
        42  -8.8398    100.3356    148.1974   1.2143361108e+02   3.1827552724e+01    0.2186777    0.1694201 -44.56 0.0004171518    1.369    0.269
        43 -12.0864     67.3964    143.6523   1.2896182038e+02   3.8011852506e+01    0.6699266    0.4463136  71.23  0.003042047    1.791    0.441
        44  -9.5592    109.3722    137.2835   1.1686764504e+02   3.2776726012e+01    0.4337903    0.2660865 -27.09  0.001675911    2.639    0.621
        45 -10.2565     96.4055    134.6756   1.1968402265e+02   3.5691611376e+01     0.262491    0.2297888 -29.45  0.000367772    1.310    0.237
        46 -10.4468     32.2134    132.2881   1.3615034290e+02   4.4733586409e+01    0.3251437    0.1728681  51.57  0.001674404    2.230    0.552
        47  -9.2895     88.4649    129.6240   1.2072243032e+02   3.8196315738e+01    0.2610497    0.1869644  66.00 0.0007418541    1.674    0.403
        48 -10.0667     55.1683    129.7072   1.2970178634e+02   4.2866400028e+01    0.2714117    0.1296162 -52.64  0.001250515    1.835    0.455
        49 -11.4777     22.3457    126.5097   1.3784848259e+02   4.6933458029e+01    0.4036667    0.2212654  55.61  0.001636417    2.256    0.557
        50  -8.7291    106.3732    123.9891   1.1465454421e+02   3.6417616434e+01    0.1983773    0.1727475 -53.00 0.0004382875    1.094    0.086
        51  -9.6092    167.6952    112.8511   9.6582935095e+01   2.5739713695e+01    0.2997819    0.2480778  85.49 0.0009786856    1.400    0.286
        52  -9.1880    203.2137    111.5691   8.8892761895e+01   1.7567742076e+01    0.2099537    0.1436654  40.53 0.0005487183    1.615    0.381
        53  -8.1522     38.3448     94.7157   1.2767771198e+02   5.2627200373e+01    0.1187808   0.09347194  77.68 0.0007017282    1.644    0.392
        54  -9.7664    157.8084     76.8075   8.8942819067e+01   3.5113388341e+01    0.2133178    0.1821601 -78.67 0.0007543379    1.317    0.241
        55  -9.2178     43.6266     67.8470   1.1931876679e+02   5.7663917683e+01     0.287193    0.1461033  46.05  0.001357307    2.913    0.657
        56 -11.0342      2.0644     62.0328   1.3248554403e+02   6.2028355586e+01    0.3424735    0.1628354 -71.54   0.00179827    2.420    0.587
        57  -8.8705     32.2008     62.3916   1.2181659750e+02   5.9837770106e+01     0.146442    0.1088913  35.03 0.0007434188    1.673    0.402
        58 -11.0634     14.1546     55.1136   1.2642107889e+02   6.2637265224e+01    0.2543334    0.1924755  44.27  0.001131448    1.893    0.472
        59 -11.6340      2.4842     47.3010   1.2877330015e+02   6.4786021136e+01    0.4680032    0.1327748 -56.54   0.00222073    2.629    0.620
        60 -11.3107    150.2871    248.4534   1.2676263111e+02   2.1124454716e+00    0.3520803    0.2771451  60.14  0.002240967    1.201    0.167
        61 -10.4065    106.7411    247.8230   1.3476043254e+02   9.4910765141e+00    0.3569976    0.1870349  86.70  0.001586317    3.141    0.682
