#   1 NUMBER                 Running object number                                     
#   2 MAG_AUTO               Kron-like elliptical aperture magnitude                    [mag]
#   3 X_IMAGE                Object position along x                                    [pixel]
#   4 Y_IMAGE                Object position along y                                    [pixel]
#   5 X_WORLD                Barycenter position along world x axis                     [deg]
#   6 Y_WORLD                Barycenter position along world y axis                     [deg]
#   7 A_WORLD                Profile RMS along major axis (world units)                 [deg]
#   8 B_WORLD                Profile RMS along minor axis (world units)                 [deg]
#   9 THETA_WORLD            Position angle (CCW/world-x)                               [deg]
#  10 FWHM_WORLD             FWHM assuming a gaussian core                              [deg]
#  11 ELONGATION             A_IMAGE/B_IMAGE                                           
#  12 ELLIPTICITY            1 - B_IMAGE/A_IMAGE                                       
         1 -15.1530      7.2902    154.7858   1.4686184268e+02   4.2123385836e+01     6.500163     2.443637  89.21   0.03050442    2.640    0.621
         2 -11.7876      2.4872     46.1114   1.3398985471e+02   6.6160505242e+01     0.519303    0.1559736 -67.52  0.002223659    3.092    0.677
         3 -13.4300    194.0171     29.1909   6.9335740426e+01   3.2641182897e+01     1.454597     1.339288 -39.44  0.007333493    1.154    0.133
         4 -13.6108    209.0104      9.3590   6.2134815720e+01   3.0935405602e+01     1.422644    0.9881794  42.31  0.007505321    1.695    0.410
         5 -12.2947      2.5547      9.1758   1.2228520753e+02   7.3096316239e+01     1.017085    0.1890259 -53.55  0.003914174    4.298    0.767
         6 -10.3406     13.7921     11.6145   1.1699207935e+02   7.1924508328e+01    0.1401817   0.09690959  25.58 0.0007313035    1.714    0.416
         7 -11.8207    247.5451    248.5821   1.0983960781e+02  -1.0202207963e+01    0.5838587    0.2255536  39.73    0.0030912    2.168    0.539
         8 -12.1408    139.8359    248.9510   1.2904806926e+02   6.5592474727e+00    0.5210829    0.3176627  48.23  0.003213696    1.280    0.219
         9 -10.9088    126.2857    250.2278   1.3166012700e+02   8.5064300859e+00     0.316096    0.1316772  47.50  0.001380327    1.841    0.457
        10 -11.4468    107.9910    248.8035   1.3483039612e+02   1.1522182951e+01    0.5364869    0.2322065  63.54  0.002355549    3.329    0.700
        11  -9.7289     46.9872    249.5132   1.4549179609e+02   1.9674327228e+01    0.1556024    0.1114652  72.53 0.0004094334    1.122    0.109
        12 -10.1594     29.6786    249.4525   1.4830815181e+02   2.1670090109e+01    0.2810121    0.1690471 -85.86  0.001797884    1.556    0.357
        13 -11.2031     35.2691    244.9968   1.4717275571e+02   2.1792111388e+01    0.4243004    0.2795778 -59.50  0.003052773    2.138    0.532
        14 -10.3484      2.1176    248.3435   1.5254908511e+02   2.4673976882e+01    0.2615287    0.1263398 -89.97  0.001888051    1.736    0.424
        15  -9.1148     22.8925    245.3832   1.4920048224e+02   2.3081472289e+01    0.1645645    0.0843024  56.06 0.0007334537    1.384    0.278
        16  -9.7503    183.2351    238.6066   1.1969097433e+02   8.9865267480e-01    0.1789274   0.09233078  33.93 0.0005505122    1.617    0.382
        17  -9.2424    156.3326    250.3210   1.2619295259e+02   3.7210498271e+00    0.1172299   0.08137115  20.33 0.0007049493    1.699    0.411
        18 -14.4078     98.9021    228.4200   1.3450113557e+02   1.6262684704e+01      6.52606          nan  44.94   0.01434785    9.855    0.899
        19 -12.8949      9.0542    207.2067   1.4970002506e+02   3.1304493288e+01    0.6791866    0.5779465  35.37  0.003970196    1.612    0.380
        20  -8.9231    152.4932    212.9708   1.2191764793e+02   1.0033873002e+01    0.1613843    0.1334916 -52.02 0.0003507116    1.464    0.317
        21 -11.6114     62.6485    198.9063   1.3876471327e+02   2.6997043204e+01    0.2834359    0.2380434 -44.98  0.001297897    1.688    0.407
        22 -10.9712     19.1465    199.3401   1.4741058753e+02   3.1866998802e+01     0.217128    0.1520943  61.90 0.0004275161    1.162    0.139
        23 -10.7554     15.5403    197.0677   1.4795632250e+02   3.2660721294e+01    0.1935159    0.1487343 -89.30 0.0003243505    1.181    0.153
        24  -8.9275     51.2955    197.2024   1.4093255416e+02   2.8775052598e+01    0.2280853    0.1063515  58.64 0.0008778991    1.976    0.494
        25  -9.5480    192.0726    193.2652   1.1063857929e+02   5.9463993439e+00      0.31697    0.1940783 -60.69  0.001363416    2.918    0.657
        26 -14.2445     42.0674    225.5208   1.4485030994e+02   2.4429726569e+01     1.155979       1.0887 -55.95    0.0059767    1.659    0.397
        27 -11.9023     68.6117    190.8283   1.3669148914e+02   2.7849871640e+01     0.255019    0.2370455 -75.33 0.0004953778    1.295    0.228
        28  -9.0250     68.9833    235.2016   1.4070021244e+02   1.9333357202e+01    0.1830992    0.1412202 -62.35  0.001302934    1.666    0.400
        29  -9.6964    249.5060    234.5021   1.0726845804e+02  -9.0534037884e+00    0.1181127   0.08614052  16.51  0.000810661    1.004    0.004
        30 -10.9537     78.4961    177.9471   1.3299759420e+02   2.9175669177e+01    0.2344375    0.2134058 -84.07 0.0004131864    1.157    0.135
        31 -13.1441     65.3396    176.0450   1.3575760630e+02   3.1416071966e+01     0.458261    0.2717315 -46.73  0.001449469    2.210    0.548
        32  -8.9871    100.1801    176.9009   1.2787402596e+02   2.6041434318e+01    0.2066367    0.1587003  70.58 0.0004846121    1.280    0.219
        33 -11.8051     85.9998    168.5585   1.2997773431e+02   3.0093229649e+01    0.6131964    0.5830111  57.62    0.0039143    1.171    0.146
        34  -8.9861    230.6564    167.3331   9.8126627968e+01   2.6202596544e+00     0.127363    0.1120195 -80.47 0.0007050494    1.759    0.431
        35  -9.9570     98.2869    152.5159   1.2441146940e+02   3.1686030464e+01    0.2643203     0.244081  89.98 0.0006965049    1.041    0.039
        36 -12.0854     86.9593    151.7637   1.2715063394e+02   3.3693042799e+01     0.282818    0.2525622 -47.07 0.0005155947    1.271    0.213
        37 -12.4944     67.2239    143.9723   1.3098717957e+02   3.8351410897e+01    0.7340127    0.4888599  72.88  0.003811644    1.670    0.401
        38  -9.0191    101.0686    148.4813   1.2298353348e+02   3.2120524017e+01     0.202808    0.1368469  39.62 0.0004033587    1.480    0.324
        39  -9.8437     81.8017    248.8453   1.3949895610e+02   1.5293490150e+01    0.1676182   0.09983169  60.79  0.001084085    1.364    0.267
        40  -8.6680    181.5394    144.7719   1.0292232791e+02   1.6548476747e+01    0.1933569    0.1456825 -53.86 0.0006251282    1.547    0.354
        41 -10.3249      6.1784    227.0172   1.5110044386e+02   2.7933374223e+01    0.1978199    0.1671256  -6.17  0.001541486    2.406    0.584
        42  -8.4078    192.2146    144.0119   1.0049060675e+02   1.4345114419e+01    0.1829501    0.1215635 -36.35 0.0003575461    1.559    0.359
        43  -9.6704    109.7155    137.4276   1.1859259384e+02   3.3075027948e+01    0.3879153    0.2527457 -22.50  0.001570204    2.596    0.615
        44 -10.4940     97.0346    134.6925   1.2140898800e+02   3.5947512183e+01    0.2478524    0.2186364 -37.30 0.0003880152    1.267    0.211
        45 -10.7699     57.6529    132.9751   1.3182661400e+02   4.2134160312e+01    0.2963187    0.1901685  89.22  0.001507415    1.743    0.426
        46  -9.9314     81.3878    133.0592   1.2534321939e+02   3.8851506252e+01    0.2425522    0.1877386  54.15 0.0003121948    1.309    0.236
        47 -10.3809     34.7645    133.4436   1.3805372207e+02   4.4531571906e+01    0.2548119    0.1366509  38.59  0.001007173    1.968    0.492
        48  -8.3398     91.9700    132.0000   1.2224587776e+02   3.7417239837e+01    0.2108382   0.08037671  37.97 0.0003341885    2.676    0.626
        49 -12.7283     36.4135    233.2876   1.4632432121e+02   2.3685085505e+01    0.2654784     0.225068  87.56 0.0007497313    1.346    0.257
        50  -8.9423    106.9467    124.0611   1.1645682153e+02   3.6610053081e+01    0.2037684    0.2002598  73.35 0.0003037633    1.031    0.030
        51 -10.3907    173.6211    222.4936   1.1915515245e+02   4.8026188997e+00    0.3807895     0.252718  58.04  0.002082894    1.770    0.435
        52  -9.1548    203.4699    111.5194   9.0369012687e+01   1.7596672765e+01     0.153063    0.1440669   9.87 4.766239e-05    1.054    0.052
        53 -10.0065    167.6601    112.8007   9.8203397797e+01   2.5891627289e+01    0.3103155    0.2678764 -77.34 0.0008251162    1.374    0.272
        54 -10.8104    242.8403     83.7134   7.6895752052e+01   1.3014329648e+01     0.226092    0.1783704  34.85  0.001212521    1.440    0.305
        55  -8.6789     69.2253     84.1570   1.1813738108e+02   5.1856776304e+01    0.1785243    0.1568802  82.25 0.0004617425    1.365    0.267
        56  -8.8581    184.5394     77.4829   8.4868467756e+01   2.8155603023e+01    0.1549168    0.1494291  32.53 1.721536e-05    1.050    0.048
        57  -9.2014    157.3019     76.3274   9.0278189330e+01   3.5308433163e+01    0.1620519    0.1224558  16.69 0.0005625515    1.643    0.391
        58  -9.6400     34.0021     62.9121   1.2525137493e+02   6.0552704464e+01    0.2078347    0.1751067  36.55 0.0005994606    1.433    0.302
        59 -10.7438     24.0088     59.0041   1.2819287886e+02   6.2204477464e+01    0.5534534    0.1535819  39.78  0.001983878    5.339    0.813
        60 -10.1303     17.4192     56.2899   1.3017799190e+02   6.3237830385e+01    0.2006359    0.1707084  28.46 0.0009256334    1.452    0.311
        61  -9.9247    152.4784    248.4768   1.2667470560e+02   4.5980559988e+00     0.121869     0.091988  42.51 1.260615e-05    1.000    0.000
        62 -11.3957    197.8152    244.3870   1.1785250585e+02  -2.2168627419e+00    0.3041086    0.2466716 -72.33  0.001958211    2.233    0.552
        63 -10.5058      5.6639    241.0591   1.5174211498e+02   2.5549253637e+01    0.1595335     0.116766  52.10  0.000343932    1.353    0.261
        64 -10.3629     13.0904    240.1044   1.5053230759e+02   2.4984222813e+01    0.2034867    0.1353056  31.35  0.001301252    2.026    0.506
