#   1 NUMBER                 Running object number                                     
#   2 MAG_AUTO               Kron-like elliptical aperture magnitude                    [mag]
#   3 X_IMAGE                Object position along x                                    [pixel]
#   4 Y_IMAGE                Object position along y                                    [pixel]
#   5 X_WORLD                Barycenter position along world x axis                     [deg]
#   6 Y_WORLD                Barycenter position along world y axis                     [deg]
#   7 A_WORLD                Profile RMS along major axis (world units)                 [deg]
#   8 B_WORLD                Profile RMS along minor axis (world units)                 [deg]
#   9 THETA_WORLD            Position angle (CCW/world-x)                               [deg]
#  10 FWHM_WORLD             FWHM assuming a gaussian core                              [deg]
#  11 ELONGATION             A_IMAGE/B_IMAGE                                           
#  12 ELLIPTICITY            1 - B_IMAGE/A_IMAGE                                       
         1 -13.7844    218.7048      9.5127   3.0625780444e+01   3.0343641103e+01     2.282542    0.9606848 -79.35   0.01016311    2.925    0.658
         2 -11.3637    227.5632      2.6439   2.8585661994e+01   2.9220463751e+01    0.7505872    0.3226205 -87.09  0.003771328    2.404    0.584
         3 -13.4406    245.3091      4.6322   2.7822686507e+01   2.5501451597e+01     1.484704     1.114248  84.83   0.00726359    1.272    0.214
         4  -9.7918    167.6113      9.8571   3.5642315745e+01   4.1732608809e+01    0.3083178      0.14721 -44.59  0.001525187    2.151    0.535
         5  -9.8822    143.5036     10.0192   3.8896350407e+01   4.7396967953e+01      0.36486    0.2164626 -81.80  0.001625209    2.071    0.517
         6 -10.8316    185.0919     10.0600   3.3762078474e+01   3.7673030524e+01    0.2862677    0.1423326  63.98  0.001039768    1.784    0.440
         7  -9.3791    153.6198      7.7873   3.6835330875e+01   4.5209609191e+01    0.1714693    0.1070295 -43.56 0.0009475439    1.723    0.420
         8  -8.6363    114.4667      8.5174   4.3385431029e+01   5.4314275930e+01    0.1271201    0.1100416  60.79 0.0008089198    1.053    0.050
         9  -8.5307    108.6486      8.2819   4.4481148555e+01   5.5659905241e+01    0.1234987   0.09400165 -81.33 0.0003756857    1.653    0.395
        10 -11.0434    183.9888      2.1118   3.1963418099e+01   3.8680713956e+01     0.404986    0.2013418  80.11  0.002109695    1.796    0.443
        11  -9.5005    162.9971      1.4767   3.3974566786e+01   4.3564002106e+01    0.1932367    0.1044173  73.38 0.0008421895    1.569    0.363
        12 -11.1852    153.3774    159.8794   7.7616818311e+01   1.8931723068e+01    0.4148121    0.2336679 -67.83    0.0013896    3.296    0.697
        13 -11.1031    172.5353    144.8001   6.9801258027e+01   1.8413430264e+01    0.3201528     0.246562  86.62  0.001380176    1.941    0.485
        14  -9.7103    144.7564    145.0038   7.6426560794e+01   2.3970331081e+01    0.2145211    0.1304951 -46.57   0.00088983    1.620    0.383
        15 -11.8856    155.3362    137.8560   7.2161880477e+01   2.3414705201e+01    0.6870349    0.2516161  48.34   0.00219029    3.058    0.673
        16 -12.0824    148.0051    129.0849   7.1836092961e+01   2.6871551661e+01    0.7237505    0.3565538 -57.33  0.002489712    2.677    0.626
        17 -10.5485    194.8599    131.7204   6.2117641319e+01   1.6575689742e+01     0.283089    0.1875342 -64.05  0.001231021    2.043    0.510
        18 -10.2018    165.9811    131.8242   6.8236484629e+01   2.2502625908e+01    0.2561767    0.1870579  77.82  0.001094875    2.031    0.508
        19 -10.5456    203.1185    131.1087   6.0401511715e+01   1.5052590765e+01     0.320835     0.217159  63.97   0.00149481    1.955    0.489
        20 -11.4594    178.1568    129.6902   6.5048416177e+01   2.0401694644e+01    0.4030973    0.2754814 -75.43  0.001642438    2.367    0.578
        21 -13.1177    157.0369    105.1094   6.3565980248e+01   2.9987198257e+01    0.9541413     0.676569  76.90  0.002235709    1.970    0.492
        22 -12.4995    151.1940     98.1236   6.3053759900e+01   3.2692968008e+01    0.6229833    0.4761334  58.76  0.002526516    1.389    0.280
        23 -10.6193    169.4791    108.1715   6.1604398834e+01   2.6608967931e+01    0.2504448    0.2174897 -89.82  0.001012681    1.321    0.243
        24 -10.8044    181.1963     99.0180   5.6895541166e+01   2.5766378118e+01    0.2613451    0.2185641  59.01  0.000870114    1.249    0.199
        25 -12.2062    183.7589     94.4888   5.5266927597e+01   2.6029222205e+01    0.6473743    0.3220242  51.52   0.00267683    2.077    0.518
        26 -12.2185    151.9513     88.2096   6.0163185383e+01   3.4431712100e+01    0.7085282    0.2968209 -37.09  0.002544375    2.480    0.597
        27  -9.3202    126.2236     92.3462   6.7714051105e+01   3.9410192525e+01    0.3038768     0.189351  28.98  0.001244228    1.959    0.489
        28 -10.5368    171.4300     88.7152   5.6161537423e+01   2.9864330081e+01     0.299004    0.1363197 -42.82  0.001153492    2.128    0.530
        29 -10.8731    187.7208     81.8739   5.1376437514e+01   2.7360509122e+01    0.3113035    0.2359924  63.39  0.001158011    1.362    0.266
        30 -11.5502    183.0595     81.0052   5.1972613046e+01   2.8564553145e+01    0.4566184    0.2667573 -46.04  0.002077467    1.659    0.397
        31  -8.2788    220.6899     81.3121   4.6156150466e+01   2.0317985380e+01    0.1394992   0.09397163 -66.72 0.0006082318    1.627    0.385
        32 -10.4976    210.3429     79.8881   4.7296468637e+01   2.2717494678e+01     0.329284    0.1414484 -46.95  0.001359726    2.180    0.541
        33  -9.3112    106.5028     80.0018   6.9644276200e+01   4.6057231245e+01    0.2131998    0.1309377 -63.98 0.0007826614    2.622    0.619
        34 -10.0868    139.0673     78.4153   6.0380916630e+01   3.9200258627e+01    0.3093657    0.1930661 -57.81  0.001300311    2.015    0.504
        35 -11.5840    146.0397     75.7447   5.7977601965e+01   3.8063491438e+01    0.4958209    0.3247502 -73.79  0.002019044    2.401    0.584
        36 -10.5689    117.4962     77.1717   6.5590872090e+01   4.4267742126e+01    0.2923467    0.2430764  84.58  0.001112815    1.546    0.353
        37 -12.2226    165.5777     72.5629   5.2985937033e+01   3.4033942732e+01    0.6276848    0.3693674  75.67   0.00256981    2.316    0.568
        38  -9.8456    236.9137     76.1398   4.2940224764e+01   1.7877181270e+01    0.2134177    0.1539019 -64.09  0.001240764    1.334    0.250
        39  -8.8449     22.6695     75.3084   9.9283400297e+01   5.9384037319e+01    0.1205524   0.09962417  67.18 0.0007040406    1.664    0.399
        40  -9.2643    193.3321     73.6722   4.8397087563e+01   2.7456286714e+01    0.1491195    0.1017643 -70.60  0.000663512    1.715    0.417
        41  -8.7055    243.2103     72.1041   4.1362602687e+01   1.7273528084e+01    0.1792797     0.124046 -60.75 0.0005950971    1.330    0.248
        42  -9.5246    195.3918     65.2061   4.5989963726e+01   2.8325942374e+01    0.2775867    0.1845007 -65.75  0.001377211    1.654    0.395
        43  -9.5818    186.0704     64.7957   4.7326149685e+01   3.0511653017e+01    0.2407613    0.1956106 -45.00 0.0005960002    1.203    0.168
        44 -10.9612    161.3288     61.6218   5.0779850449e+01   3.6794955455e+01    0.3398256     0.232221  -6.78   0.00152188    2.226    0.551
        45 -10.1457    118.3965     62.4294   6.0699931515e+01   4.6670330733e+01    0.2533448    0.2377889  86.18 0.0009366149    1.198    0.165
        46 -10.7678    154.6791     54.4807   5.0022896947e+01   3.9453207171e+01     0.393298    0.2284783 -51.27  0.001772561    1.920    0.479
        47 -11.1098    179.1964     54.4951   4.5762330628e+01   3.3648553691e+01    0.6286869    0.3395939 -72.57  0.002415454    3.013    0.668
        48 -11.0533    175.4800     47.8053   4.4586730427e+01   3.5465244032e+01    0.3506911    0.2596109  70.44  0.001380854    1.289    0.224
        49 -12.0543    173.2429     40.1388   4.2895789862e+01   3.7015365561e+01    0.6999564    0.3212698 -46.63  0.003023645    2.240    0.554
        50  -9.1315    206.9465     54.2234   4.1756544206e+01   2.7374610057e+01    0.2107493     0.159359 -74.07 0.0007868151    1.290    0.225
        51  -9.0507    225.9793     52.0258   3.9010804533e+01   2.3615528700e+01    0.2143983    0.1290506 -64.79 0.0008972875    1.675    0.403
        52  -9.2292     23.0051     52.1855   9.2638516793e+01   6.4222257040e+01    0.1867582    0.1374949  47.91  0.001055373    1.999    0.500
        53 -10.0551    125.6842     48.9924   5.4526503821e+01   4.7090774660e+01    0.3255067    0.2075279 -54.45  0.001507872    1.970    0.492
        54  -9.1842    154.0160     47.7125   4.8197344458e+01   4.0577871816e+01    0.1947785    0.1708341  69.14 0.0004290591    1.068    0.064
        55 -10.3057    246.2426     45.2889   3.5591377882e+01   2.0478118957e+01    0.5164546    0.2431731  83.53  0.002496313    2.655    0.623
        56  -8.7888    161.0385     46.0000   4.6456507632e+01   3.9137002819e+01    0.2312774   0.07406159  61.16 0.0008011973    2.934    0.659
        57  -8.7154    234.7219     44.6061   3.6531795607e+01   2.2837797511e+01    0.1614361    0.1052548  89.47 0.0009331678    1.562    0.360
        58  -9.2615    186.7256     43.0029   4.1708085644e+01   3.3488524873e+01    0.1840708    0.1658118 -61.02 0.0006446614    1.095    0.086
        59  -9.4743    206.4978     41.4233   3.8832233339e+01   2.9223526915e+01    0.2231826    0.1945068 -67.58 0.0006684428    1.047    0.045
        60  -9.6289     30.5991     40.7514   8.5028107237e+01   6.5615239420e+01    0.2389998    0.1794208  58.52  0.001308793    2.484    0.598
        61 -10.0661    188.5625     38.7059   4.0388432678e+01   3.3624291568e+01    0.2272228    0.1966856  70.74 0.0006494684    1.139    0.122
        62  -8.5585    134.5484     38.0271   4.9068518928e+01   4.6497810267e+01    0.1893945    0.1367528 -30.75 0.0004370496    1.514    0.340
        63 -11.1573    216.0400     35.3940   3.6425621500e+01   2.7920992118e+01     0.431092    0.2103024 -59.06  0.002037714    2.096    0.523
        64  -9.2382    199.9811     35.2412   3.8144503451e+01   3.1466443890e+01    0.1663998    0.0999722  71.62 0.0005985577    1.580    0.367
        65  -9.7680     91.1049     34.2271   5.8577519854e+01   5.6741845657e+01    0.2352546    0.1721212 -59.64 0.0009134272    2.021    0.505
        66  -8.7545    190.3320     34.2844   3.9071492189e+01   3.3774334130e+01    0.1253831   0.09568421  41.89 0.0003535342    1.616    0.381
        67  -9.4282    164.3068     34.4279   4.2706640214e+01   3.9851633122e+01    0.2374119    0.1585877  78.52 0.0006584434    1.490    0.329
        68  -9.2928    182.4651     33.0252   3.9759247215e+01   3.5745666921e+01    0.2198044    0.1639872  52.67 0.0006178114    1.418    0.295
        69 -11.1360    174.8685     27.8467   3.9430637761e+01   3.8136073286e+01     0.410206    0.2967304 -43.46  0.002369835    1.416    0.294
        70  -9.7222     37.1664     33.8448   7.9166763145e+01   6.6006712314e+01    0.2622241    0.2183984 -80.91  0.001507204    2.426    0.588
        71  -8.5704     57.3161     28.6964   6.8146457868e+01   6.3821514331e+01    0.1106175    0.1047848  78.50 0.0007024484    1.622    0.383
        72 -11.1806    208.0364     26.9406   3.5357482727e+01   3.0690372551e+01      0.33021    0.2272483 -88.58 0.0006569572    1.350    0.259
        73 -10.4984    193.4368     26.2316   3.6752075058e+01   3.4031438600e+01    0.2394543    0.1884129 -77.35 0.0006237003    1.146    0.127
        74 -11.2324    241.1569    247.2870   7.5921857410e+01  -1.0347766420e+01     0.580151    0.2759418  39.23  0.003078617    2.614    0.617
        75 -10.0895    164.0041     25.2318   4.0230636659e+01   4.0997538061e+01    0.2195785    0.1892173 -41.06   0.00082943    1.263    0.208
        76 -10.4494    201.0600     24.3052   3.5473021381e+01   3.2539633422e+01    0.1778924    0.1415133  86.63 0.0004244099    1.113    0.102
        77  -9.4991     15.8648    233.9470   1.2062017008e+02   2.2204112987e+01    0.2956516   0.09782808  43.86  0.001448674    2.342    0.573
        78  -9.0969    216.3022     26.3084   3.4408984280e+01   2.8975668650e+01    0.1104994   0.09314287  42.15 0.0002785412    1.603    0.376
        79  -8.8418    144.9581     18.4650   4.1176258968e+01   4.6244730700e+01     0.200175     0.115023  67.22 0.0007337934    1.538    0.350
        80  -9.5978    183.7936     15.4508   3.5212036346e+01   3.7422401141e+01    0.2426912    0.1634789 -67.96 0.0007507959    1.452    0.311
        81  -8.8381    107.7940     14.7267   4.6971823248e+01   5.5276280345e+01    0.1679906    0.1442101  87.40 0.0006967842    1.341    0.254
        82  -9.3047     12.2827    227.0071   1.2092965537e+02   2.3996847945e+01     0.219883    0.1174356  57.97 0.0006708056    1.579    0.367
        83 -10.6190     35.2884    216.2816   1.1539732344e+02   2.3976924981e+01    0.4136475     0.264168 -42.43  0.001825198    2.191    0.544
        84  -9.1300     26.4037    207.8434   1.1668374647e+02   2.6805587953e+01    0.1728838   0.09925602 -64.66 0.0008921263    1.692    0.409
        85  -9.5686    145.7509    195.7456   8.6533531109e+01   1.2498260573e+01    0.2432038    0.1067911  45.86 0.0009042718    2.457    0.593
        86 -10.7789     54.3702    194.4234   1.0887014827e+02   2.6818107791e+01    0.3444164    0.2222205  78.43  0.001486691    1.669    0.401
        87 -11.6950    167.2814    188.2325   8.0162193885e+01   1.0305373469e+01    0.5406178    0.3621705  79.33  0.001993891    3.583    0.721
        88 -12.1156    190.5681    181.7473   7.3815547329e+01   7.5223138594e+00    0.4506281    0.3797857 -13.02  0.001743776    1.121    0.108
        89 -10.8132    171.0126    177.9851   7.7297915197e+01   1.1742164015e+01    0.2438728    0.1757391  -8.17  0.001137974    1.689    0.408
