#   1 NUMBER                 Running object number                                     
#   2 MAG_AUTO               Kron-like elliptical aperture magnitude                    [mag]
#   3 X_IMAGE                Object position along x                                    [pixel]
#   4 Y_IMAGE                Object position along y                                    [pixel]
#   5 X_WORLD                Barycenter position along world x axis                     [deg]
#   6 Y_WORLD                Barycenter position along world y axis                     [deg]
#   7 A_WORLD                Profile RMS along major axis (world units)                 [deg]
#   8 B_WORLD                Profile RMS along minor axis (world units)                 [deg]
#   9 THETA_WORLD            Position angle (CCW/world-x)                               [deg]
#  10 FWHM_WORLD             FWHM assuming a gaussian core                              [deg]
#  11 ELONGATION             A_IMAGE/B_IMAGE                                           
#  12 ELLIPTICITY            1 - B_IMAGE/A_IMAGE                                       
         1 -14.9738     91.1113     50.6070   9.1077740100e+01   5.4013913373e+01     2.258312     1.059489  33.11  0.008667769    2.808    0.644
         2 -14.8992    137.9798     45.1371   7.6336169653e+01   4.5091104271e+01     1.496955    0.7287417 -33.77  0.005772857    1.989    0.497
         3 -14.5250    140.3681     26.5647   6.8969058691e+01   4.7216503143e+01     1.091118    0.6972731 -13.22  0.004016472    1.715    0.417
         4 -14.0241     57.8268     23.4955   9.2279262023e+01   6.4309773001e+01     1.408694    0.4910252 -39.15   0.00578535    2.544    0.607
         5 -15.0454     76.3697     21.9562   8.4737944216e+01   6.1648514355e+01     1.360022     1.019423 -16.89  0.005240185    1.279    0.218
         6 -14.8097     70.7564     14.2840   8.3223933850e+01   6.3800811970e+01     1.157331    0.6544748 -23.73  0.003713691    1.740    0.425
         7 -13.0925     21.4782      2.6309   9.9173452620e+01   7.2176964849e+01    0.4722565    0.2773973  26.18  0.002342281    2.012    0.503
         8 -12.9270     35.4124      2.0504   9.1854441150e+01   7.0792453828e+01    0.6606085    0.2406998  36.58  0.003109157    3.180    0.686
         9 -15.7690     38.9986     18.0073   9.7785696358e+01   6.7681426120e+01     1.683816     1.002532 -18.23  0.006796632    2.068    0.516
        10 -14.1209     22.3877     26.5961   1.0848268680e+02   6.7655250737e+01     0.573409    0.4171437  10.12  0.003268553    1.683    0.406
        11 -12.8604    247.1790      2.0257   4.6769358699e+01   2.2167725060e+01    0.6495877    0.2445925  79.51  0.002524075    3.005    0.667
        12 -12.4493    196.5944      2.7640   5.1647649790e+01   3.4985244788e+01    0.4397597    0.1734516  61.82  0.001406729    2.277    0.561
        13 -11.4991    126.7453    111.7401   9.8452820786e+01   3.5081450180e+01    0.3256658    0.2315542 -62.04 0.0009653304    1.532    0.347
        14 -20.6660    200.7844    106.0035   8.1334265580e+01   2.0131059610e+01     14.96978     8.155655 -27.41   0.06432759    1.933    0.483
        15 -11.3431    135.1712    103.9662   9.4620984813e+01   3.4949890936e+01    0.3228066    0.1881021 -44.72  0.001231208    1.726    0.421
        16 -13.9147     41.6534    104.1639   1.1897561743e+02   4.9319409961e+01    0.8610393    0.6050534 -19.50  0.004977833    2.331    0.571
        17 -13.9036     52.4531    104.1396   1.1605904494e+02   4.8172911111e+01    0.4887708    0.3399406 -70.06  0.002285894    1.236    0.191
        18 -15.5066     60.1300     95.6801   1.1244611373e+02   4.9128680915e+01     1.368839    0.7175907 -56.13  0.005630715    1.674    0.403
        19 -15.5145     97.7039    247.7714   1.2248283573e+02   1.6369389851e+01     4.560833    0.2614653  42.76   0.01376944    7.857    0.873
        20 -14.0139    101.9015    227.3917   1.2019665741e+02   1.8618103799e+01     0.759794    0.4453164 -76.96  0.004479963    2.083    0.520
        21 -13.5389     17.5753     95.4542   1.2436357240e+02   5.3317166527e+01    0.8289755    0.3930227 -73.23  0.004028343    1.660    0.398
        22 -15.0169     71.0481    215.0842   1.2431976539e+02   2.4503918578e+01     1.375943    0.5242958 -66.61  0.007949377    2.825    0.646
        23 -16.0529     69.5974    233.0935   1.2581187958e+02   2.1939405060e+01     3.127441    0.6951928  42.39   0.01517568    3.206    0.688
        24 -11.9517    148.1243     88.6263   8.7600040036e+01   3.5121283481e+01    0.2676455    0.2247839 -21.73 0.0007464906    1.278    0.217
        25 -12.7967      2.9606    244.7164   1.3614757063e+02   2.7204959660e+01    0.4660574    0.2288798 -81.37  0.003884471    1.948    0.487
        26 -13.6358      3.1769    231.4044   1.3573235266e+02   2.9125264080e+01    0.5246888    0.2086208 -89.59  0.003777089    2.156    0.536
        27 -11.4510    105.9586     64.7682   9.1338527471e+01   4.8529805405e+01    0.4166826    0.1792595 -41.79  0.001314033    2.209    0.547
        28 -15.0437      3.7652    217.2683   1.3519506928e+02   3.1240150860e+01     1.601728    0.5778407 -87.67   0.01050291    2.395    0.583
        29 -13.0995     81.6767     56.0122   9.5859177546e+01   5.4566705510e+01    0.7109838    0.3265755  51.10  0.002910341    2.841    0.648
        30 -15.0380     58.6947    216.1192   1.2644541119e+02   2.5825299090e+01     1.015677    0.5899914  76.64  0.005652838    1.538    0.350
        31 -13.9112     55.6099    197.0266   1.2563081114e+02   2.9337519555e+01     1.047046    0.4476077  61.11  0.005991489    2.116    0.527
        32 -14.6043      8.3714    170.2660   1.3246377294e+02   3.8872516744e+01    0.9329997    0.5155468 -82.75  0.006711319    1.478    0.323
        33 -11.6322    116.6228     52.3374   8.4268904604e+01   4.8701115675e+01    0.3566979    0.2635451 -29.24  0.001335016    1.335    0.251
        34 -11.4618    127.8577    105.1029   9.6642349301e+01   3.6190176120e+01    0.4657193    0.2463247 -54.61  0.001975001    2.060    0.515
        35 -13.2571     18.6852     42.7648   1.1472148906e+02   6.4628381880e+01    0.4943699    0.3835263 -75.84  0.003226553    1.274    0.215
        36 -11.2362    234.5036     42.4379   5.8930232508e+01   2.0953494903e+01    0.1955152    0.1835306 -58.60  0.001128721    1.104    0.094
        37 -12.0476    147.9100     40.9627   7.2619607688e+01   4.3313374659e+01    0.3068674    0.2898042 -49.09 0.0006779338    1.123    0.109
        38 -12.3244     44.8378     40.5309   1.0378374808e+02   6.2719710596e+01    0.3534721    0.3296703  10.90  0.001710821    1.252    0.201
        39 -12.7834     51.0941     34.6939   9.9341322758e+01   6.3137461573e+01    0.6780422    0.2817761 -36.32  0.002883279    2.585    0.613
        40 -15.1553     14.6332    154.6667   1.3035794802e+02   4.1296307630e+01     1.690364    0.6995344 -86.68  0.009673717    2.080    0.519
        41 -13.8447     35.7582    158.6498   1.2639205794e+02   3.8560920209e+01    0.3283718    0.2736375  11.93  0.001180604    1.915    0.478
        42 -12.7121     68.0211    151.0099   1.1883809935e+02   3.6396062463e+01    0.2824615    0.2105672  65.43 0.0009838083    1.189    0.159
        43 -15.7235     64.1381    144.3401   1.1888302961e+02   3.8233290515e+01     1.252471     1.139278 -44.83  0.008150298    1.463    0.316
        44 -13.0056     75.5447    139.0831   1.1561472582e+02   3.7829899816e+01    0.3572702     0.325341 -69.51 0.0007906409    1.217    0.178
        45 -15.1498     84.8790    134.1230   1.1272144673e+02   3.7545732301e+01    0.8778495     0.796308  53.80  0.003363048    1.186    0.157
        46 -11.4290    230.4992    146.7404   8.5417239944e+01   8.0922812067e+00    0.1522878    0.1226998 -19.11 0.0002109778    1.250    0.200
        47 -12.0023    111.8901     29.3911   7.6964715607e+01   5.3509092835e+01    0.3173403    0.2765983  54.89  0.001018676    1.253    0.202
        48 -14.2521    142.8902    248.2613   1.1556262046e+02   1.0128198332e+01     1.384316       0.3062  43.64   0.00608247    3.214    0.689
        49 -11.8245    123.2263     25.5359   7.2496167750e+01   5.1499003288e+01    0.2790446    0.2696325  34.34  0.001051176    1.088    0.081
        50 -11.3413    152.2061     20.0623   6.4142325007e+01   4.5021071414e+01      0.23473    0.1898188  22.00 0.0006247087    1.281    0.219
        51 -11.6958    246.8019    132.0047   7.9639557233e+01   6.7965801523e+00    0.4261128    0.2718153  39.91  0.001803321    1.480    0.324
