#   1 NUMBER                 Running object number                                     
#   2 MAG_AUTO               Kron-like elliptical aperture magnitude                    [mag]
#   3 X_IMAGE                Object position along x                                    [pixel]
#   4 Y_IMAGE                Object position along y                                    [pixel]
#   5 X_WORLD                Barycenter position along world x axis                     [deg]
#   6 Y_WORLD                Barycenter position along world y axis                     [deg]
#   7 A_WORLD                Profile RMS along major axis (world units)                 [deg]
#   8 B_WORLD                Profile RMS along minor axis (world units)                 [deg]
#   9 THETA_WORLD            Position angle (CCW/world-x)                               [deg]
#  10 FWHM_WORLD             FWHM assuming a gaussian core                              [deg]
#  11 ELONGATION             A_IMAGE/B_IMAGE                                           
#  12 ELLIPTICITY            1 - B_IMAGE/A_IMAGE                                       
         1 -13.9457    185.9886     21.3772   7.2980305074e+01   3.5481437706e+01     2.197326     1.208694 -12.50  0.007186383    2.084    0.520
         2 -14.2993    193.0094     14.9394   7.0127009290e+01   3.4337658391e+01     2.072975     1.612275  50.69  0.008348037    1.328    0.247
         3 -13.2797    198.4977      7.6700   6.7336732069e+01   3.3636320700e+01     1.194023    0.6183147  46.88  0.001513313    2.114    0.527
         4 -10.9022     40.8515      3.2953   1.0388338774e+02   7.1782388869e+01    0.2614613    0.1359968 -28.52  0.001279326    1.872    0.466
         5 -11.7985     79.1838    189.0148   1.3598038903e+02   2.7298803540e+01    0.2479925    0.2141524 -49.70 0.0007355752    1.495    0.331
         6 -11.3387    163.3331    248.6326   1.2631214179e+02   7.0182794557e+00    0.2537069    0.2006638  19.02  0.001663102    1.244    0.196
         7 -12.2783    139.9941    248.7162   1.3026781850e+02   1.0118902314e+01    0.4144703    0.2694878  47.21  0.003061888    1.304    0.233
         8 -11.1749    124.9052    250.0099   1.3296453533e+02   1.1936810286e+01    0.4157467    0.1166096  34.79   0.00190463    3.035    0.671
         9 -12.1456    128.4658    245.8652   1.3197810619e+02   1.1990653512e+01    0.3548416    0.1831013  38.98  0.002330427    1.392    0.282
        10 -11.6691    111.0576    250.3643   1.3536420125e+02   1.3663722780e+01    0.3780922    0.1923179  42.59  0.001915619    1.384    0.277
        11 -11.1228     98.8814    249.3596   1.3737331752e+02   1.5315567690e+01    0.2770705    0.1734221  49.35  0.001263126    1.206    0.171
        12 -11.7308    102.8936    247.8321   1.3656659031e+02   1.5020888482e+01    0.2912001    0.1958762  42.14 0.0004160897    1.077    0.071
        13 -11.8694     95.6584    240.4547   1.3725786596e+02   1.6930950278e+01     0.473368    0.2908214 -36.88  0.002990828    2.998    0.666
        14 -12.8788     66.8502    247.2701   1.4271911124e+02   1.9389471279e+01     0.883547    0.4409772  34.44  0.005842314    1.716    0.417
        15  -9.8383     56.6299    250.2481   1.4460463816e+02   2.0094355522e+01    0.2013834    0.1062173  37.69 0.0006437046    1.496    0.332
        16 -10.5896     88.9240    249.1349   1.3906443851e+02   1.6558408587e+01    0.2501048    0.1541262  59.24   0.00100934    1.460    0.315
        17 -11.7311     81.2096    248.4098   1.4033660741e+02   1.7575751564e+01     0.491043     0.214973  49.56  0.002457825    1.696    0.410
        18 -11.3671     84.5335    245.2101   1.3955037965e+02   1.7625705150e+01    0.4174719    0.1816158  62.04  0.002337454    2.721    0.632
        19 -13.1614     52.7458    230.2332   1.4421995800e+02   2.3487661549e+01    0.4357788    0.3091768 -67.82 0.0009443287    1.765    0.433
        20 -15.5695     60.7026    217.0485   1.4195832272e+02   2.4706326549e+01     7.087705    0.9087476  39.17   0.02823678    3.900    0.744
        21  -9.5337     66.2010    193.9883   1.3915247418e+02   2.8028601358e+01    0.1549337    0.1498488  66.06  0.001208747    1.301    0.232
        22 -11.3082     87.0343    176.8793   1.3299256599e+02   2.8492989761e+01    0.2281764    0.2095879  67.20 0.0003709488    1.115    0.103
        23 -13.4085     75.0562    174.3395   1.3538802196e+02   3.0589061237e+01    0.4071178    0.2694187 -39.59  0.001789209    2.230    0.552
        24 -11.8888    118.8987    174.6031   1.2567890602e+02   2.4178281196e+01     1.504989    0.2324865  39.59  0.004309457    5.235    0.809
        25 -12.6577     56.0804    144.6636   1.3666205688e+02   3.9054532820e+01    0.7294112     0.370531 -65.24  0.003776882    1.904    0.475
        26 -13.8169     50.0620    129.8575   1.3649140714e+02   4.3015304483e+01     1.239756    0.4694752  38.63  0.002462494    2.417    0.586
        27  -9.2830    152.8168    212.8671   1.2399708824e+02   1.2911362426e+01    0.1636512    0.1283725  27.58 0.0003491778    1.129    0.114
        28 -10.3715    104.1280    151.1388   1.2555519204e+02   3.0972496759e+01    0.2794026    0.2515454  38.60  0.000785508    1.119    0.106
        29  -9.6301    106.4576    147.0498   1.2433333919e+02   3.1418365949e+01    0.2982107    0.2038044 -31.54   0.00098604    2.029    0.507
        30 -12.2958     93.2593    150.7195   1.2812865332e+02   3.2744400114e+01    0.2549148    0.2357609  25.37 0.0004646268    1.225    0.184
        31 -10.0924    134.0000    143.9978   1.1724824052e+02   2.7257291987e+01    0.6399862    0.1690657 -54.51  0.001701642    6.339    0.842
        32  -8.6597    192.3734    144.1402   1.0497523235e+02   1.6224783136e+01    0.1697079    0.1231136 -43.34 0.0004141074    1.601    0.375
        33 -13.8026     10.6841    206.8356   1.5082979707e+02   3.1477414868e+01     1.136528    0.5570304  21.28  0.005768442    2.807    0.644
        34 -10.2009    113.4574    136.4090   1.2075029530e+02   3.2398770024e+01    0.3108296    0.2539622  -3.33  0.001077344    1.617    0.381
        35 -10.8634    101.2360    133.7771   1.2336153615e+02   3.5007960638e+01    0.2708012    0.2340061 -15.89   0.00060227    1.461    0.315
        36 -13.4727     58.4908    131.9877   1.3445945567e+02   4.1548818101e+01     2.212538    0.7587618 -79.88  0.006384248    5.952    0.832
        37  -9.6206    118.8188    128.6951   1.1792074725e+02   3.3019375400e+01    0.2626843    0.1848512 -25.99   0.00125769    1.911    0.477
        38 -12.9926     91.0896    166.8770   1.3086635266e+02   2.9837832085e+01     2.109003    0.5979022  50.67  0.003224675    4.375    0.771
        39  -9.7014    109.5360    123.6865   1.1928500007e+02   3.5717693129e+01    0.2186807    0.2004602  37.61 0.0003381569    1.099    0.090
        40 -16.1656     10.4010    237.5555   1.5180441160e+02   2.6519830502e+01     7.829319     1.854496 -74.82    0.0296606    4.233    0.764
        41 -13.6408     67.6670    144.2398   1.3364238620e+02   3.7708751364e+01     1.330733    0.7740451  72.14  0.003762511    2.031    0.508
        42 -11.8781     32.0667    115.3706   1.3988308907e+02   4.8163974268e+01    0.3873827      0.22739  82.77  0.002080809    1.715    0.417
        43 -10.7157    168.3808    113.3253   1.0289817175e+02   2.6039319015e+01    0.3918087    0.3061243 -81.85  0.001464383    1.903    0.475
        44 -15.9440      1.8970    104.4789   1.4788380033e+02   5.2899866054e+01     14.22676    0.2721125 -77.80   0.02969008   11.908    0.916
        45  -9.4539    135.0000    112.9971   1.1045466135e+02   3.3068155651e+01    0.2388355   0.08322134 -44.87 0.0008065156    2.971    0.663
        46 -10.0128    229.4033    228.8734   1.1304816224e+02   1.2689956445e-01    0.2214792    0.1565349 -47.46  0.001482165    2.802    0.643
        47  -9.5049    153.5426     75.4866   9.5941873217e+01   3.6019846243e+01    0.1518079    0.1453178   9.99 0.0001254352    1.034    0.033
        48 -10.4580    248.8745    249.2382   1.1289299600e+02  -4.0282639915e+00    0.2028843   0.09587097  23.02  0.001376107    1.615    0.381
        49 -10.2657    238.4055    248.7783   1.1437695154e+02  -2.7336227445e+00    0.1301359   0.07686058  -4.80 0.0009592501    1.701    0.412
        50 -10.9646    193.4393    195.4423   1.1406636224e+02   8.9461607295e+00    0.6705738    0.3768413 -60.80  0.002414391    6.774    0.852
        51  -9.5242    127.9667     23.5130   8.3565078403e+01   5.0484721916e+01    0.2232568    0.1978214 -22.38 0.0004696236    1.139    0.122
        52 -11.6973     74.8020    196.1969   1.3756578793e+02   2.6571432841e+01    0.3181448    0.2119712 -46.78  0.001990363    2.088    0.521
        53 -10.1654     32.4927     32.4874   1.2248728350e+02   6.7314506198e+01    0.2087058   0.09792809 -46.83 0.0009905426    1.805    0.446
