#   1 NUMBER                 Running object number                                     
#   2 MAG_AUTO               Kron-like elliptical aperture magnitude                    [mag]
#   3 X_IMAGE                Object position along x                                    [pixel]
#   4 Y_IMAGE                Object position along y                                    [pixel]
#   5 X_WORLD                Barycenter position along world x axis                     [deg]
#   6 Y_WORLD                Barycenter position along world y axis                     [deg]
#   7 A_WORLD                Profile RMS along major axis (world units)                 [deg]
#   8 B_WORLD                Profile RMS along minor axis (world units)                 [deg]
#   9 THETA_WORLD            Position angle (CCW/world-x)                               [deg]
#  10 FWHM_WORLD             FWHM assuming a gaussian core                              [deg]
#  11 ELONGATION             A_IMAGE/B_IMAGE                                           
#  12 ELLIPTICITY            1 - B_IMAGE/A_IMAGE                                       
         1 -10.2593    244.7035      4.4763   3.5930679113e+01   2.4026617625e+01    0.6046284     0.268313  -5.53   0.00209604    3.853    0.740
         2 -12.4001    225.7855     71.2949   5.4626023141e+01   2.0263309507e+01     3.729424    0.5498261 -42.45  0.008495803    7.370    0.864
         3 -12.7832    212.6785     54.9958   5.1879353264e+01   2.5289313651e+01     3.528122     0.761323 -31.99   0.01111102    3.455    0.711
         4 -10.6141    248.8606     10.8864   3.7271812154e+01   2.2557570055e+01    0.8329591     0.224838 -31.71  0.003256144    2.510    0.602
         5 -12.4529    248.1512     57.8563   4.8822323523e+01   1.7493502269e+01     3.209251    0.6013546 -25.74  0.008652124    5.641    0.823
         6 -12.5044    245.4479     36.5853   4.3817503687e+01   2.0534496987e+01     1.280433    0.9662102 -15.58  0.004875073    1.340    0.254
         7 -13.2654    240.5923     72.6663   5.3236267609e+01   1.7103604521e+01     1.985979     1.287134 -75.12  0.009967102    2.332    0.571
         8 -13.0032    231.5125     54.1826   4.9558031907e+01   2.1308972864e+01     3.321017      1.03584 -40.76    0.0126833    2.634    0.620
         9 -10.2851    247.6065     23.0133   4.0306926165e+01   2.1578663183e+01    0.5226183    0.3101981  -3.17  0.001838848    2.266    0.559
        10 -11.8022    237.5545     53.2220   4.8699628205e+01   2.0176873290e+01    0.8300441    0.6036452 -47.28  0.002051402    1.262    0.208
        11  -9.0455    241.4053     16.2900   3.9040892324e+01   2.3553922142e+01    0.2936995    0.1427612 -19.04  0.001246044    2.055    0.513
        12  -8.9026    227.6356    100.7297   6.1709521037e+01   1.5794520985e+01    0.3474885      0.18372 -54.12  0.001448421    2.820    0.645
        13 -12.7012    218.6519    244.7400   8.9810895168e+01  -8.9879342966e-01    0.9993922    0.5126069   5.96  0.006004325    2.371    0.578
        14 -10.8706    231.5897    234.8361   8.6485175145e+01  -1.4691510410e+00    0.2765466    0.1504039   2.04  0.001309881    1.932    0.483
        15 -12.4843    241.3471    229.2607   8.4226531633e+01  -2.0804749186e+00    0.9271995     0.337547  25.11  0.004819149    2.785    0.641
        16 -13.1848    241.6414    245.9240   8.6521987834e+01  -3.6292488524e+00     1.494088    0.7556525  23.91   0.01060253    1.522    0.343
        17  -9.5452      3.3305    249.4561   1.2727878654e+02   2.3527568759e+01     0.253375    0.1471479  72.91  0.002012285    1.411    0.291
        18 -11.2712     11.9482    247.8901   1.2579294813e+02   2.3010441233e+01    0.5285198    0.1787295  41.22  0.003321092    1.902    0.474
        19 -10.9322      7.2103    244.5102   1.2650980725e+02   2.3971621479e+01    0.2316011     0.190915  70.90  0.001665754    1.291    0.225
        20 -10.2572      2.7783    242.9694   1.2722777168e+02   2.4606658876e+01    0.2281009    0.1412481  59.29   0.00132353    1.107    0.097
        21 -10.1003     70.4496    248.1062   1.1557763115e+02   1.6986101521e+01    0.2252742    0.1377068  21.63  0.001462946    2.038    0.509
        22 -10.0457    161.8005    242.0431   9.8777453315e+01   6.4686980978e+00    0.2454179    0.1242617  32.00  0.001155816    1.559    0.359
        23  -9.7133    117.9154    241.8674   1.0652778992e+02   1.2155343341e+01    0.2235619     0.130304  31.91  0.001455392    1.436    0.303
        24 -10.5079    142.6419    243.7762   1.0230726092e+02   8.7252808262e+00    0.2836119    0.1430294  25.29  0.001578468    1.994    0.498
        25  -8.6267    153.0297    241.0014   1.0018172262e+02   7.7351112451e+00    0.1951345   0.09763407  19.36  0.001009643    2.627    0.619
        26  -8.7318    112.3175    245.3017   1.0785132418e+02   1.2380266134e+01   0.09949299   0.07504883  12.38 0.0007023428    1.621    0.383
        27  -9.1334    100.3815    241.6012   1.0968901893e+02   1.4398012440e+01    0.2285405   0.05280486  44.40 0.0009619445    3.299    0.697
        28 -10.9633     16.5628    240.5413   1.2478218746e+02   2.3766833171e+01    0.2532538    0.1340126  33.00  0.001755486    1.723    0.419
        29 -10.9436    198.3419    249.9123   9.3656650263e+01   1.0102122287e+00    0.4608637    0.1006002  37.66   0.00202569    3.609    0.723
        30 -10.5285    167.9884    237.8267   9.7211942424e+01   6.1786901620e+00     0.346685    0.2056066  -2.80  0.001981769    2.608    0.617
        31 -10.0924     23.8862    239.0885   1.2344070225e+02   2.3313763567e+01    0.1873281     0.118411  36.58  0.001395256    1.423    0.297
        32 -10.3397    169.7779    249.9864   9.8333441882e+01   4.5187222347e+00    0.2331281    0.1115417  34.54  0.001467105    1.581    0.368
        33  -8.4505    155.3490    237.2997   9.9351701084e+01   7.9022338047e+00    0.1097399   0.07271544  12.22 0.0007037216    1.688    0.407
        34 -10.9114     30.4453    245.1278   1.2251277611e+02   2.1701044040e+01    0.2991573      0.16826  24.46  0.001980126    2.124    0.529
        35 -10.0512      5.6856    237.4357   1.2659491203e+02   2.5257000818e+01     0.189686   0.06297843  37.73  0.001132195    2.096    0.523
        36  -8.6144     44.9742    235.5020   1.1946738969e+02   2.1776197122e+01    0.1638889   0.08073183  37.65 0.0007571775    1.604    0.377
        37 -11.0147    177.4478    249.1477   9.6960504178e+01   3.6553793547e+00    0.3812704    0.1888594  28.38   0.00241572    1.633    0.388
        38  -9.0973    126.4627    239.8668   1.0478844348e+02   1.1337753250e+01    0.2278161    0.1204044  24.94  0.001313255    1.991    0.498
        39 -12.1146    177.6104    242.8215   9.6180157960e+01   4.3481067535e+00    0.5945283    0.2011041  31.50  0.002959254    2.558    0.609
        40 -11.1644    120.6466    247.9275   1.0660490477e+02   1.0975791543e+01    0.7885434    0.2736604  26.06  0.002939533    5.027    0.801
        41 -10.9078     42.8451    247.4505   1.2043575256e+02   2.0083332655e+01    0.2927761    0.1632587  58.78  0.002104542    1.407    0.289
        42 -10.9326     24.7799    249.7573   1.2366453700e+02   2.1522429985e+01     0.429045    0.1451144  32.98  0.002459884    2.418    0.586
        43  -9.3813    248.7365    119.6732   6.3164495920e+01   9.4725201364e+00     0.255635    0.1717387  -4.46  0.001252152    1.516    0.340
        44 -10.9511    246.8232    113.6219   6.2083861533e+01   1.0580291462e+01    0.5172436    0.2194221 -42.89  0.002279617    2.531    0.605
        45  -9.7597    243.2835    117.9649   6.3520588563e+01   1.0611064628e+01    0.3482498    0.1052716 -40.60   0.00128404    3.373    0.703
        46 -10.1544    185.9979    249.4583   9.5592073003e+01   2.5624705785e+00    0.2438131   0.09996886  27.55  0.001358343    2.170    0.539
        47 -11.2032    159.8224    248.9005   9.9890440520e+01   5.8969445771e+00    0.4672277    0.2552926  20.06  0.002886143    1.938    0.484
        48  -9.7250     80.7195    249.5183   1.1384099665e+02   1.5596339208e+01    0.2011767   0.08460209  32.12 0.0009612464    2.072    0.517
        49 -10.0443     64.3838    248.5964   1.1668735824e+02   1.7593545323e+01    0.1924767    0.1558396  42.13  0.001585359    1.202    0.168
        50 -12.8483    245.4311     84.9892   5.5660462935e+01   1.4580676035e+01     2.103654    0.6466695 -36.94  0.008352325    2.577    0.612
        51 -10.9847    224.8724     86.0160   5.8482308152e+01   1.8412944173e+01    0.4552977     0.237152 -35.47  0.002149661    1.633    0.387
        52 -10.4408    216.5525     87.7095   6.0057826074e+01   1.9860606568e+01    0.3172053    0.1753215 -48.62  0.001429978    1.977    0.494
        53 -10.4671    181.9953     86.9286   6.5356262326e+01   2.7448133776e+01    0.4829156    0.1966989 -51.13  0.001532798    3.495    0.714
        54 -10.4065    148.7235    245.8704   1.0146774877e+02   7.6781683459e+00    0.2586338    0.1152954  28.92  0.001446967    2.023    0.506
        55 -11.2684     53.1448    247.9287   1.1864265085e+02   1.8924074114e+01    0.7366219    0.0652937  44.15  0.003018159    3.952    0.747
        56  -9.7097    115.7821     79.5803   7.7907517894e+01   4.3907934230e+01    0.2172573    0.1487892  61.56  0.000952111    1.696    0.410
        57  -9.1934     88.9536    246.4829   1.1214928021e+02   1.5071594368e+01    0.1665331   0.08073715  36.91 0.0004867994    1.577    0.366
        58 -10.3700    201.3038     77.9658   5.9724828025e+01   2.4559111860e+01    0.2621688    0.1990986 -68.56  0.001330261    1.624    0.384
        59 -12.0516    175.4345     73.7426   6.2754341999e+01   3.1138800138e+01    0.5528079    0.4539558 -86.05  0.002817954    1.455    0.313
        60 -10.4760    144.2656     76.7289   6.9904514714e+01   3.7987947041e+01    0.2879025    0.1903094 -40.62  0.001284079    1.436    0.304
        61  -9.1922    108.4725     77.4549   7.9293439291e+01   4.5930243426e+01     0.152883     0.146005 -45.92 0.0002086431    1.020    0.019
        62 -11.2023    193.4648     72.5650   5.9425536275e+01   2.7139380005e+01    0.6073992    0.2361894 -39.91  0.002273951    2.299    0.565
        63 -12.0954    183.5541     70.2435   6.0339985781e+01   2.9791685960e+01    0.6971105    0.3956125 -38.31  0.003075461    1.598    0.374
        64 -12.5370    169.1016     68.4056   6.2287409728e+01   3.3518619820e+01    0.6898011    0.4900752 -31.31  0.003297429    1.334    0.251
        65 -12.2885    130.6014     68.9106   7.0586881354e+01   4.2671122750e+01    0.7471507    0.4798031 -59.55  0.003121862    1.895    0.472
        66 -12.6366    160.8394     67.3002   6.3489139923e+01   3.5695169262e+01     0.811291    0.4771658 -42.86   0.00349369    1.620    0.383
        67 -10.9525    204.8855     47.0643   5.0587053268e+01   2.8115089670e+01    0.7940408    0.2936096 -19.47  0.002591509    3.491    0.714
        68 -10.9930    205.0380     65.0436   5.5636802966e+01   2.5622228647e+01    0.4328606    0.1876626 -42.28  0.001422541    2.113    0.527
        69 -11.8259    200.7869     57.8908   5.4199527792e+01   2.7602050752e+01    0.7182865    0.3982925 -31.64  0.003266525    1.593    0.372
        70 -10.7010    195.6131     63.8083   5.6613309760e+01   2.7953456175e+01    0.3787968    0.2258174 -41.10  0.001582296    1.525    0.344
        71 -12.5954    173.0665     60.8093   5.9251486940e+01   3.3770954347e+01    0.8441557    0.5711852 -88.79  0.003722271    2.004    0.501
        72 -10.7936    203.7375     71.6110   5.7631090334e+01   2.4964468221e+01    0.3302024    0.2439021  31.10  0.001684007    1.611    0.379
        73 -10.7464    188.4839     54.6429   5.4959907311e+01   3.0959019392e+01    0.5293732    0.2940009  -9.83  0.002048255    2.550    0.608
        74 -10.8346    154.4310     53.8280   6.0332797245e+01   3.9471485321e+01    0.4225386    0.2589412  -9.59   0.00166628    2.278    0.561
        75 -10.5402    199.8341     66.4031   5.6742452781e+01   2.6605142385e+01    0.3295321    0.2291773 -12.99  0.001596474    1.588    0.370
        76 -12.3159    147.4111     62.3560   6.4588182108e+01   3.9806750981e+01    0.8521208     0.486229 -13.48  0.003079011    2.700    0.630
        77 -10.4805    167.9112     51.3539   5.7120253171e+01   3.6479459568e+01    0.3103409    0.2199471 -23.99  0.001469772    1.415    0.293
        78 -10.0768    180.3849     50.8895   5.5004691333e+01   3.3459414634e+01    0.2857311     0.222584  53.53  0.001462735    1.378    0.274
        79  -9.7011    193.2652     49.2677   5.2693916592e+01   3.0563239096e+01    0.3784176    0.2337442   1.20  0.001570223    2.392    0.582
        80  -9.8461    198.1625     47.4871   5.1533959061e+01   2.9637180049e+01    0.3602223    0.1809081 -36.70  0.001566156    1.722    0.419
        81 -10.6660    168.8722     45.9325   5.5198249212e+01   3.7027796347e+01    0.4405838    0.2661064  63.22  0.001968629    1.737    0.424
        82 -10.9826    147.6656     47.2838   5.9373266419e+01   4.2193936225e+01    0.5822648    0.2068561  56.94  0.001985794    2.771    0.639
        83  -9.0975    190.3580     42.8847   5.1158261280e+01   3.2120077584e+01    0.4411984    0.1081924 -30.74  0.001376377    3.293    0.696
        84  -9.0856    196.4809     40.1755   4.9583215221e+01   3.0991086772e+01    0.3359979    0.2413059  -1.29  0.001651976    1.699    0.411
        85  -9.3381     92.8543    243.2799   1.1119696107e+02   1.5074008549e+01    0.2065201    0.1477875 -15.29  0.001333114    2.515    0.602
        86 -10.6964     98.7445    249.2998   1.1061512391e+02   1.3487584423e+01    0.4566454      0.14448  30.88  0.002080631    3.170    0.685
        87 -10.4422     20.5635    245.1326   1.2423399851e+02   2.2652573134e+01    0.2459926   0.09377708  43.44  0.001565643    1.731    0.422
        88  -8.6497    235.8439     22.5265   4.0995487287e+01   2.4078841656e+01    0.2837138    0.1169762 -40.24  0.001301141    1.895    0.472
        89  -9.3353    129.4779    250.2344   1.0526718904e+02   9.5621441014e+00     0.233082    0.1043423  27.51  0.001277705    2.226    0.551
        90  -7.9352    227.4545     11.4975   3.8703073283e+01   2.7037999537e+01    0.1307102     0.109619 -44.17 3.322013e-05    1.015    0.015
