#   1 NUMBER                 Running object number                                     
#   2 MAG_AUTO               Kron-like elliptical aperture magnitude                    [mag]
#   3 X_IMAGE                Object position along x                                    [pixel]
#   4 Y_IMAGE                Object position along y                                    [pixel]
#   5 X_WORLD                Barycenter position along world x axis                     [deg]
#   6 Y_WORLD                Barycenter position along world y axis                     [deg]
#   7 A_WORLD                Profile RMS along major axis (world units)                 [deg]
#   8 B_WORLD                Profile RMS along minor axis (world units)                 [deg]
#   9 THETA_WORLD            Position angle (CCW/world-x)                               [deg]
#  10 FWHM_WORLD             FWHM assuming a gaussian core                              [deg]
#  11 ELONGATION             A_IMAGE/B_IMAGE                                           
#  12 ELLIPTICITY            1 - B_IMAGE/A_IMAGE                                       
         1 -11.7203    177.8037     29.4046   2.8989790651e+02   6.4270669078e+00   0.06281708   0.03432272 -52.81  0.005340238    1.874    0.466
         2 -10.7957    183.0060     22.9578   2.8979781846e+02   6.4720349876e+00   0.03747921   0.02009539 -64.50  0.001853311    1.982    0.496
         3  -9.3491    235.4397      4.5258   2.8904316348e+02   6.3844551881e+00   0.01864176   0.01288328 -66.37  0.001206639    1.557    0.358
         4 -10.3423    128.5451    249.9470   2.9170945300e+02   4.1451234839e+00    0.0621756   0.01818223  16.97  0.003321527    5.497    0.818
         5  -9.5553    109.1306    250.2864   2.9195316669e+02   4.2518895971e+00    0.0611492   0.01919097  14.22  0.003018409    6.585    0.848
         6 -10.7652    147.7746    245.4199   2.9144544505e+02   4.0880355430e+00   0.06757279   0.02088325  13.91  0.003073031    7.782    0.872
         7  -9.4858    120.3494    249.0326   2.9180661580e+02   4.2025070608e+00   0.01852996   0.01602507 -47.55  0.001132981    1.212    0.175
         8 -13.7405     72.6794    215.0493   2.9221730018e+02   4.8695384374e+00    0.3552926    0.1486132 -76.08   0.02565578    3.468    0.712
         9 -12.8413     19.7880    238.7891   2.9300480087e+02   4.8939348345e+00   0.06282457   0.03069752  11.03  0.001837581    2.522    0.603
        10 -13.7355     11.1580    247.1794   2.9315752085e+02   4.8452593900e+00   0.09382036   0.04472132  37.08   0.00582922    1.929    0.482
        11 -12.1345     53.1021    220.3865   2.9249024838e+02   4.9188255127e+00   0.05541703   0.01745025  36.85  0.001549146    2.774    0.639
        12 -14.9888     41.8525    244.4351   2.9276012035e+02   4.7029152975e+00    0.1865766    0.1234866 -56.11   0.01023907    1.562    0.360
        13 -11.4595     34.0187    236.1850   2.9281335549e+02   4.8434350451e+00   0.01527215   0.01512359 -46.13 0.0003261488    1.073    0.068
        14  -7.8143    178.2846    237.3337   2.9102171949e+02   4.0077784815e+00  0.007053425  0.004992411 -28.02 0.0005850512    1.620    0.383
        15  -8.7308    103.7075    238.3349   2.9195620816e+02   4.4218443119e+00   0.01202054   0.01076268   3.35  0.000359526    1.116    0.104
        16  -8.7594    118.7313    235.8528   2.9175556664e+02   4.3650566273e+00   0.01265522  0.009256043  79.38  0.001058571    1.684    0.406
        17  -9.9202     97.4241    228.2320   2.9197996062e+02   4.5751993665e+00   0.02511294    0.0166536  49.31  0.001782156    1.585    0.369
        18 -10.8896    108.2275    229.9431   2.9185454150e+02   4.4937082412e+00   0.05475748   0.01273571  24.24  0.003285911    4.127    0.758
        19  -9.3820    110.1473    224.6528   2.9180202283e+02   4.5443101408e+00   0.01653121   0.01550165  46.90  0.000879865    1.080    0.074
        20  -7.1486    124.4527    238.4204   2.9169814849e+02   4.3025516349e+00  0.006801461  0.006332903  21.25 0.0001866165    1.011    0.011
        21  -7.4151    158.6766    234.3168   2.9124958199e+02   4.1549061060e+00  0.007258545  0.004871955  55.12 0.0007043254    1.667    0.400
        22  -8.4646    129.7668    233.2286   2.9160386565e+02   4.3326248630e+00   0.01180483  0.008606005 -70.76  0.001248161    1.506    0.336
        23  -8.1514    137.9791    229.7578   2.9148276636e+02   4.3261261280e+00  0.009099281  0.005512111  23.87 0.0003471087    1.556    0.357
        24  -7.8477      7.5973    220.2328   2.9305695842e+02   5.1790719075e+00   0.01068415  0.009361996  45.56 0.0008973127    1.137    0.121
        25  -8.3169      9.8535    216.1227   2.9300669238e+02   5.2141095878e+00   0.01233176  0.009932391 -67.54 0.0007925466    1.334    0.250
        26  -7.4219    168.6466    212.3183   2.9100626380e+02   4.3537630443e+00  0.007441275  0.004792092  54.22 0.0007046728    1.745    0.427
        27 -11.9080     10.8912    207.4261   2.9294691869e+02   5.3094373959e+00   0.04919649   0.02332252  24.61   0.00324081    1.977    0.494
        28  -7.4936    112.1760    211.2136   2.9170407637e+02   4.6890923787e+00   0.01231757  0.006467816 -25.64 0.0009542083    2.873    0.652
        29  -8.5812     23.6929    203.8222   2.9276778695e+02   5.2787195510e+00   0.01223243  0.009126919   7.95  0.001238098    1.392    0.281
        30 -11.3620     80.1744    197.0467   2.9202657995e+02   5.0363387653e+00   0.03965345   0.03476779 -54.55  0.003202512    1.200    0.166
        31 -10.1162    179.2790    199.7143   2.9080549182e+02   4.4395289116e+00   0.01201134   0.01169566 -89.09 0.0003010696    1.101    0.092
        32  -8.3391     28.5990    200.3013   2.9268759552e+02   5.2918349000e+00   0.01216394   0.01071331  37.31 0.0008334233    1.091    0.083
        33  -7.6578     16.0682    200.4646   2.9284482474e+02   5.3610805773e+00   0.01054811  0.006452748  22.31  0.001017438    1.559    0.359
        34  -7.1991     30.7064    195.4219   2.9263498788e+02   5.3366500281e+00  0.009303764  0.006398645   9.82 0.0006910093    1.531    0.347
        35 -11.4527      6.8359    229.5977   2.9311684634e+02   5.0743977571e+00   0.03546408   0.02499367   8.04  0.003671349    1.504    0.335
        36  -8.1722    190.2205    188.6981   2.9060943742e+02   4.5050106526e+00   0.01210417  0.009996716 -56.04  0.001372754    1.271    0.213
        37  -8.3512     47.5281    189.1792   2.9239139614e+02   5.3136920986e+00   0.01327151  0.008866897  23.63 0.0008541659    1.410    0.291
        38  -7.0515     17.5252    188.4810   2.9276205180e+02   5.4922771201e+00  0.006813155  0.006411362  15.17 7.932037e-05    1.023    0.023
        39  -8.3618     40.0585    187.4627   2.9247534431e+02   5.3761334742e+00   0.01771514   0.00640537  24.44 0.0009911874    2.601    0.616
        40  -9.1581    199.3252    200.8287   2.9056185111e+02   4.3118669211e+00   0.01795335   0.01204782  16.09  0.001819121    1.492    0.330
        41  -7.8180    179.6872    184.9539   2.9072035418e+02   4.6088222564e+00  0.008991748  0.008659968 -84.05 -0.000275831    1.116    0.104
        42  -9.6589     89.3174    181.3724   2.9182777475e+02   5.1666197041e+00   0.02282059   0.01151044 -39.59  0.001318028    2.353    0.575
        43  -9.3609     92.1283    176.1287   2.9176433456e+02   5.2116055454e+00   0.01770658   0.01145928 -43.08 0.0007940032    1.662    0.398
        44  -7.6304    200.3270    181.6902   2.9044551296e+02   4.5286234068e+00  0.007252597  0.004862408  54.55 0.0002535273    1.659    0.397
        45  -7.0205      5.8858    179.0000   2.9285621723e+02   5.6686605128e+00   0.01144565  0.003699195  24.52 0.0007967913    2.903    0.656
        46  -8.4362     23.0590    173.4828   2.9261208144e+02   5.6354004217e+00   0.01079374  0.006417158  24.08  0.001029865    1.583    0.368
        47  -8.3292     27.3362    170.7264   2.9254380912e+02   5.6431848348e+00   0.01738235    0.0098019  37.12  0.001278302    1.651    0.394
        48  -9.0774     97.6476    166.6616   2.9164423012e+02   5.2902753055e+00   0.01420292   0.01134143 -41.79 0.0006115249    1.322    0.244
        49  -8.4629     18.4597    166.7320   2.9263307272e+02   5.7400735933e+00   0.01839126  0.006329917  17.84  0.001204983    3.544    0.718
        50 -10.7069     86.9405    161.8337   2.9175171417e+02   5.4074887630e+00   0.02237504   0.01501559 -31.53  0.001747202    1.718    0.418
        51  -7.4831     54.5088    164.4544   2.9217070942e+02   5.5616937018e+00  0.006857039  0.006356573  -0.02 5.347783e-05    1.079    0.073
        52  -7.8391      1.7172    164.0177   2.9282747894e+02   5.8666552725e+00  0.009242613  0.008934737 -35.70 0.0006278267    1.084    0.077
        53  -9.7287    101.5961    160.6488   2.9156240013e+02   5.3377025746e+00   0.04260103   0.01261907 -50.45  0.002775395    3.375    0.704
        54  -8.4040      9.1840    161.6498   2.9272146833e+02   5.8518563168e+00   0.01005051    0.0062224  10.51 0.0004525905    1.757    0.431
        55  -7.0031    166.6603    159.7148   2.9074576656e+02   4.9768295279e+00  0.007067508  0.005057366 -20.12 0.0007016372    1.634    0.388
        56 -12.6668     21.5394    226.7371   2.9291809121e+02   5.0242570259e+00    0.1068888   0.04776519  20.59  0.008791982    2.253    0.556
        57  -8.4394     22.4653    157.1463   2.9253131374e+02   5.8288742436e+00   0.01339568  0.009184082  30.30 0.0007415096    1.348    0.258
        58  -8.9182      8.5467    154.6098   2.9269143907e+02   5.9373925403e+00   0.01792899    0.0108142  18.18  0.001552501    1.651    0.394
        59  -7.4489    194.3579    148.8585   2.9034157201e+02   4.9444654730e+00  0.009044125  0.006052423 -50.96 0.0003328288    1.552    0.356
        60  -8.9514    133.9249    146.5202   2.9108243700e+02   5.3174523709e+00   0.02449368  0.009847407 -75.78  0.001695577    3.723    0.731
        61  -9.3636      9.3540    148.0153   2.9264576270e+02   6.0095434933e+00   0.01677642   0.01059596  89.62  0.001400688    2.118    0.528
        62  -8.7256    124.9784    145.5301   2.9118869321e+02   5.3800819429e+00   0.01114057   0.00978024 -60.80 0.0001664291    1.208    0.172
        63  -8.5511    100.7379    143.7132   2.9148136799e+02   5.5395984800e+00   0.01300561  0.009824811 -18.54 0.0006406488    1.499    0.333
        64  -8.5527    110.4779    144.4829   2.9136397060e+02   5.4750623906e+00   0.01026607  0.006110671 -50.54 3.821995e-05    1.740    0.425
        65 -10.5463     67.6257    134.7497   2.9184623961e+02   5.8326164441e+00   0.01956417   0.01437634  59.95  0.001501809    1.537    0.349
        66  -9.9518     60.3095    132.0641   2.9192307578e+02   5.9055168055e+00   0.02074343  0.009835612 -48.05  0.001782602    2.221    0.550
        67  -8.4286    122.1740    130.2063   2.9114057221e+02   5.5743100710e+00  0.009397952   0.00760537  52.52 0.0005474176    1.287    0.223
        68  -7.6547    160.0295    126.9176   2.9065037436e+02   5.3960922737e+00   0.01086088   0.00762503 -28.89 0.0006403099    1.634    0.388
        69 -10.3189    235.9859    128.5454   2.8971253107e+02   4.9418023351e+00   0.01386094   0.01175047  26.02 0.0004312182    1.103    0.094
        70  -8.0651    117.1060    133.1547   2.9121982140e+02   5.5689700115e+00   0.01062368  0.009038683 -19.91 0.0007095303    1.252    0.201
        71  -7.5412    164.5920    120.4781   2.9055847652e+02   5.4448331170e+00  0.006715624  0.006409321  13.34 -8.471666e-06    1.027    0.026
        72  -7.6027    182.4470    113.9558   2.9030033585e+02   5.4183764365e+00  0.009298752  0.006863191 -69.54  0.000336984    1.477    0.323
        73  -8.5188    239.6596    110.1547   2.8956666302e+02   5.1343274431e+00   0.01551557   0.01099604  84.20   0.00156985    1.775    0.437
        74  -7.9167    196.9200    107.5034   2.9008478107e+02   5.4103958264e+00   0.01033745  0.006376825  25.69 0.0005570734    1.511    0.338
        75  -8.0341    135.0000    106.0818   2.9084951582e+02   5.7814997242e+00   0.01075866   0.00394682 -65.03 0.0007973279    2.907    0.656
        76 -12.2952     34.1785    242.6075   2.9284594439e+02   4.7677837348e+00   0.04787139   0.02291908   7.43  0.003220568    2.921    0.658
        77  -7.4798    207.1391     87.9250   2.8985081280e+02   5.5792191666e+00  0.009082669  0.007629529 -11.96 0.0003039856    1.269    0.212
        78  -8.5910    190.6039     66.1297   2.8993830834e+02   5.9272371206e+00   0.01138133  0.009133199  16.75 0.0003358644    1.206    0.171
        79  -9.8314    245.8973     53.3949   2.8917960193e+02   5.7574268127e+00   0.01370542   0.01307089 -29.78 0.0004033292    1.092    0.085
        80  -8.2443    131.0983     54.6190   2.9061846715e+02   6.4018678233e+00  0.009785154  0.007916855  22.08 0.0004786924    1.167    0.143
        81 -11.2550    166.4677     43.2751   2.9011500998e+02   6.3310563717e+00   0.04508418   0.02625575 -42.48  0.004258681    1.886    0.470
        82  -7.2548    127.6649     51.2823   2.9064320436e+02   6.4602691547e+00  0.007187587  0.004812528  52.12 0.0003588207    1.618    0.382
        83  -8.5269    249.7351     49.1526   2.8910865116e+02   5.7845748436e+00   0.01243006   0.01085788  11.50 0.0006753455    1.120    0.107
        84  -7.7984    246.8342     42.1732   2.8910670233e+02   5.8822404719e+00  0.009635868  0.007749387 -17.78  0.000549012    1.364    0.267
        85  -7.5580    187.1195     39.8630   2.8983865190e+02   6.2522119644e+00  0.009091053  0.007669149 -17.75  0.001025232    1.268    0.211
        86  -7.1663    167.2798    248.7057   2.9122030549e+02   3.9384287882e+00  0.006878561  0.004943585  55.91 0.0002189158    1.532    0.347
        87  -7.4466    226.3502    246.2976   2.9047206666e+02   3.6286774740e+00  0.007181796  0.005036688 -21.06 0.0005869809    1.686    0.407
        88  -7.6018    229.7535     35.5742   2.8928353914e+02   6.0570548497e+00   0.01355095  0.006571223  20.02  0.001145025    2.085    0.520
        89  -7.3689    141.1917     31.4228   2.9036610799e+02   6.6134930264e+00  0.009475587  0.005881162  35.49 0.0003431231    1.494    0.331
        90  -8.7356    133.9628     29.9379   2.9044833797e+02   6.6721196329e+00  0.009587847  0.009037217  16.15 -0.001320134    1.020    0.020
