#   1 NUMBER                 Running object number                                     
#   2 MAG_AUTO               Kron-like elliptical aperture magnitude                    [mag]
#   3 X_IMAGE                Object position along x                                    [pixel]
#   4 Y_IMAGE                Object position along y                                    [pixel]
#   5 X_WORLD                Barycenter position along world x axis                     [deg]
#   6 Y_WORLD                Barycenter position along world y axis                     [deg]
#   7 A_WORLD                Profile RMS along major axis (world units)                 [deg]
#   8 B_WORLD                Profile RMS along minor axis (world units)                 [deg]
#   9 THETA_WORLD            Position angle (CCW/world-x)                               [deg]
#  10 FWHM_WORLD             FWHM assuming a gaussian core                              [deg]
#  11 ELONGATION             A_IMAGE/B_IMAGE                                           
#  12 ELLIPTICITY            1 - B_IMAGE/A_IMAGE                                       
         1 -13.9532    217.0468      2.2652   4.4256218761e+01   3.0162282504e+01     2.838007    0.8866625  60.98  0.007581671    2.749    0.636
         2 -13.8057    177.5941     45.0628   6.2793620140e+01   3.5373233496e+01     1.152794    0.9202248 -22.77  0.000836561    1.289    0.224
         3 -14.0762    188.8077     35.3368   5.7773180618e+01   3.3785634592e+01      1.24781     1.088086 -33.69   0.00316706    1.160    0.138
         4 -14.9350    196.0905     26.0400   5.3778377632e+01   3.3043638021e+01     2.301029     1.524591  36.08  0.001293849    1.712    0.416
         5 -12.2294     58.9336      3.2371   7.7241500340e+01   6.6392707875e+01    0.3593108    0.2300735  17.29  0.002131438    1.592    0.372
         6 -14.1947    114.0465    198.0312   1.1145021137e+02   1.9875496857e+01     1.137788    0.6460341  75.47  0.005766201    2.258    0.557
         7 -16.1731     71.6784    148.2639   1.1343238644e+02   3.6039797059e+01     5.899793     2.914235  84.26   0.01631151    3.343    0.701
         8 -16.4896     90.0024    242.4632   1.1997606479e+02   1.6133882146e+01      6.82739     2.196434  38.37   0.02956044    4.052    0.753
         9  -8.0232     32.4583    211.5637   1.2678376516e+02   2.8354031723e+01    0.1065772    0.0693082  73.11 0.0008038598    1.098    0.089
        10 -13.2058    127.2622    207.1304   1.1017148297e+02   1.6154799415e+01     0.545795    0.3056466  64.84  0.002905289    1.920    0.479
        11 -19.4180     12.2971    135.1833   1.2476686208e+02   4.5061691692e+01      16.6288     1.767295 -74.10   0.04123635    9.566    0.895
        12 -10.6840     36.3694    206.3553   1.2582362841e+02   2.8850360052e+01    0.2049816   0.08835851  52.98  0.001269903    1.864    0.464
        13 -10.9029    158.5119    204.2292   1.0413131765e+02   1.1259514193e+01    0.3931602    0.2134409  73.06   0.00152041    3.986    0.749
        14 -10.3746     95.1313    200.1255   1.1515071899e+02   2.2420608744e+01    0.3203107    0.1802073  89.08  0.001414107    2.134    0.531
        15 -12.3588    193.8929    193.4579   9.6006236780e+01   6.4071448669e+00    0.8891102    0.5030968 -56.16  0.003554916    2.678    0.627
        16  -9.7505     87.6124    202.1310   1.1671297179e+02   2.3154083922e+01    0.1899766    0.1374745 -69.55  0.001282629    1.445    0.308
        17  -9.8529      2.2866    201.9267   1.3096681888e+02   3.2997130893e+01    0.1220194   0.08269738  73.70 0.0003294844    1.076    0.071
        18 -10.0386    209.8537    199.8534   9.4254538194e+01   2.5604752622e+00    0.1608745    0.1431298  59.09 0.0003885619    1.323    0.244
        19 -11.5830     44.5057    210.5146   1.2478533644e+02   2.7201065830e+01    0.2175535     0.125393  62.14 0.0008559885    1.346    0.257
        20 -12.6462     35.5592    199.5941   1.2549869420e+02   3.0158193675e+01    0.1943162    0.1403493  70.16 0.0005879531    1.097    0.089
        21  -9.4775    163.4766    204.0889   1.0321188036e+02   1.0395967655e+01    0.1583762    0.1256724 -52.59 0.0004479037    1.500    0.333
        22 -11.4851    121.0749    197.8840   1.1013294745e+02   1.8759652681e+01    0.2224003    0.1704224 -80.16 0.0008951735    1.367    0.268
        23 -11.4092    154.8216    196.3144   1.0364579949e+02   1.3190020056e+01    0.4307611    0.2509724  74.64  0.001888407    2.949    0.661
        24 -11.7794    100.7909    197.1509   1.1378529599e+02   2.2107968809e+01    0.3598318     0.243797  22.91  0.001925521    2.643    0.622
        25 -12.7652     54.0091    210.1760   1.2320483160e+02   2.6142289372e+01    0.4383086    0.1690838  60.26  0.001556688    2.337    0.572
        26 -10.1969     82.1577    195.4162   1.1700058396e+02   2.5153882041e+01    0.2320676    0.2069729  61.27  0.001711541    1.308    0.235
        27 -13.2658     67.9281    191.4157   1.1918420437e+02   2.7827732197e+01    0.6994412    0.5752517  84.19  0.005176576    1.132    0.116
        28 -11.2773     96.6022    188.1773   1.1351056895e+02   2.4403682192e+01      0.37651    0.2745747  68.17  0.001419735    1.182    0.154
        29 -13.3918    122.8662    211.5318   1.1148876873e+02   1.6139195980e+01    0.6864879    0.3040372  40.20   0.00339158    2.216    0.549
        30  -9.7650    166.6624    188.7007   1.0024258327e+02   1.2262488360e+01     0.128749   0.09769385  19.76  0.000546929    1.660    0.398
        31 -11.7016     72.0302    211.3525   1.2028927037e+02   2.3656939365e+01    0.2265066    0.1701351  66.52 0.0004291142    1.070    0.066
        32 -13.6961     58.8860    205.3485   1.2200923193e+02   2.6406785434e+01    0.8437915    0.4673182  60.82  0.001547881    1.471    0.320
        33 -10.7865     76.4758    206.6963   1.1911326890e+02   2.3885646518e+01    0.3204542    0.1690979 -65.52 0.0009791513    1.938    0.484
        34 -11.3192     99.4610    180.7516   1.1203923600e+02   2.5382306781e+01    0.2307313    0.1910237  69.80 0.0006045689    1.035    0.034
        35 -10.8109    208.9400    178.4979   9.0592196030e+01   5.7276124049e+00    0.3078976    0.1964951  34.55  0.001609862    1.460    0.315
        36 -11.9319    145.4801    179.2885   1.0278943282e+02   1.7821098185e+01    0.3743769    0.2564022  30.76  0.001973141    1.750    0.429
        37  -9.7025     68.8633    177.7023   1.1761000527e+02   3.0355546257e+01    0.1644043    0.1253164  67.63 0.0005977761    1.121    0.108
        38  -9.6362    167.3049    175.2618   9.7841533820e+01   1.4396270266e+01    0.2611606    0.1633758 -71.67  0.001161906    2.601    0.616
        39  -9.6276    202.8380    171.1983   9.0315891822e+01   8.0287396112e+00    0.1877339    0.1499487  19.10 0.0005117804    1.293    0.226
        40 -11.4511    195.4060    168.8741   9.1256236129e+01   9.8834641984e+00    0.3362044    0.2896776  45.63 0.0005320568    1.089    0.082
        41 -10.9604    191.3287    161.8995   9.0660272756e+01   1.1851229155e+01    0.5736464     0.250948 -48.97  0.002245495    2.848    0.649
        42 -11.2375    189.1638    155.2620   8.9732517096e+01   1.3419194923e+01    0.4075533    0.3689563  41.62  0.001508113    1.029    0.029
        43 -10.8956    146.0952    168.3638   1.0084609792e+02   1.9707060638e+01    0.2206792    0.1892902 -40.64 0.0004802649    1.355    0.262
        44  -9.8754    111.0503    168.2970   1.0799071947e+02   2.5963982671e+01    0.1841525    0.1515403  66.70 0.0005084427    1.080    0.074
        45 -10.9045    230.0215    166.0170   8.4374938127e+01   3.4153357003e+00    0.1957678    0.1708271 -78.39 0.0007520786    1.681    0.405
        46  -8.0987     72.6935    218.3125   1.2076840010e+02   2.2365845810e+01    0.2875117    0.2312754  90.00  0.002243588    1.244    0.196
        47 -10.7035    141.2861    158.2822   1.0005018864e+02   2.2538436495e+01    0.2459198    0.2055482  80.23 0.0003930027    1.236    0.191
        48 -12.9213     96.1241    155.3120   1.0916223481e+02   3.1012174097e+01     0.593321    0.4851989 -28.38  0.003471717    1.824    0.452
        49 -11.6637    133.8062    144.7826   9.9119984996e+01   2.6649659424e+01     1.117298    0.3005134 -55.95  0.003039678    5.375    0.814
        50 -10.3177    113.1106    151.5444   1.0487909217e+02   2.9013157196e+01    0.2508679    0.1752503 -79.56 0.0007191759    1.567    0.362
        51 -10.3970    174.9370    148.8631   9.1238753622e+01   1.7536809734e+01     0.251237    0.2158272 -70.12 0.0008013733    1.338    0.252
        52 -11.4173    144.4708    147.3697   9.7311635635e+01   2.4060917353e+01    0.3613714    0.2521655  81.89  0.001699015    1.926    0.481
        53  -9.8302    115.7907    144.5818   1.0306431066e+02   2.9996103158e+01    0.1924395    0.1191574  57.25 0.0005256541    1.657    0.396
        54 -11.9829    107.5003    140.2594   1.0414513132e+02   3.2338269689e+01    0.5131919    0.3086784 -37.12    0.0023427    2.338    0.572
        55 -12.5893     95.5065    140.6490   1.0693906734e+02   3.4212505490e+01    0.2714362    0.2633765 -63.96 0.0005465294    1.231    0.188
        56 -12.0157    115.1887    130.3675   1.0048687932e+02   3.3110923356e+01    0.6616167    0.4828031  17.23  0.002169274    2.096    0.523
        57 -11.0882    119.6559    124.6549   9.8254880661e+01   3.3517859227e+01    0.4000772    0.2597526 -19.98  0.001601071    2.977    0.664
        58 -11.0945    106.0933    130.8373   1.0271050921e+02   3.4596048193e+01     0.380012    0.2873945 -86.64  0.001250341    1.429    0.300
        59 -11.2456    102.4354    126.7848   1.0278933995e+02   3.6088795635e+01     0.275267    0.2190733 -38.08 0.0007229625    1.479    0.324
        60 -11.0254    135.6793    128.6942   9.5398275175e+01   2.9591663343e+01    0.4156621     0.127786 -49.90  0.001343541    3.331    0.700
        61  -9.9005    161.1784    128.0004   8.9558010644e+01   2.4427278281e+01    0.2466389    0.1715467 -71.87  0.001082718    1.968    0.492
        62 -10.1072    126.1266    127.9723   9.7443397583e+01   3.1599640222e+01    0.2474302      0.16374 -80.70  0.001028554    2.095    0.523
        63 -10.2358    110.1250    119.4800   9.9437670852e+01   3.6354466774e+01    0.2323771    0.1839354 -55.64 0.0002758685    1.203    0.169
        64 -10.0697    167.8748    112.6245   8.4400824107e+01   2.5932651048e+01    0.3027241    0.1976625 -60.34  0.001144666    1.916    0.478
        65  -9.0067    145.2989    129.6355   9.3429060395e+01   2.7454741342e+01    0.1516844    0.1133106 -86.51  0.000703348    1.724    0.420
        66 -11.1735    120.7001    111.0589   9.4958229787e+01   3.6225231588e+01    0.3309166     0.246383  63.23  0.001662434    1.487    0.328
        67 -10.2492    205.6409    110.1097   7.6094982547e+01   1.7578922092e+01    0.2891644    0.2145915  42.17 0.0007274609    1.346    0.257
        68 -10.3374    104.3994    111.3578   9.9082205250e+01   3.9116422453e+01    0.2472954     0.213381  88.79 0.0004276135    1.197    0.165
        69 -11.0204     42.0233     91.8675   1.1171727322e+02   5.1837189582e+01    0.2017397    0.1671761 -66.35 0.0005319883    1.033    0.032
        70 -11.7236     52.7006     90.3764   1.0841733409e+02   5.1055813774e+01    0.2718686    0.2078833 -76.67   0.00168618    1.256    0.204
        71 -11.0158     39.3336    212.8436   1.2577400800e+02   2.7377715495e+01     0.174525   0.09703275  60.82 0.0003879798    1.385    0.278
        72  -9.5046     69.1429     71.8661   9.9176385157e+01   5.3043335569e+01     0.181769    0.1613081 -68.53 0.0003758902    1.179    0.152
        73 -11.4563    165.6354     66.0790   7.1803446687e+01   3.5087791275e+01    0.4429907    0.3191039 -80.28 0.0005833006    1.986    0.496
        74  -9.7822    104.7988     61.0790   8.5311539828e+01   4.9489254012e+01    0.2073601    0.1873141 -59.45 0.0003960844    1.215    0.177
        75 -12.7899     45.9044    214.8866   1.2486145906e+02   2.6275104264e+01    0.5121015    0.1814242  64.93  0.001429902    2.921    0.658
        76 -10.2963    171.7021    239.3899   1.0655252400e+02   4.0239070410e+00    0.2453891     0.162028  67.29  0.001524354    1.848    0.459
        77 -11.6003     48.5781    206.2494   1.2380987910e+02   2.7487000436e+01    0.2242047    0.1627288 -88.22 0.0009900715    1.201    0.168
        78  -9.2948     66.4715    225.2352   1.2232425828e+02   2.2007794942e+01    0.2623225   0.08753709  49.02  0.001406919    2.293    0.564
        79  -9.4043     43.1056    221.3682   1.2573072189e+02   2.5485540811e+01    0.1519322    0.1201468  31.44  0.001161469    2.059    0.514
