#   1 NUMBER                 Running object number                                     
#   2 MAG_AUTO               Kron-like elliptical aperture magnitude                    [mag]
#   3 X_IMAGE                Object position along x                                    [pixel]
#   4 Y_IMAGE                Object position along y                                    [pixel]
#   5 X_WORLD                Barycenter position along world x axis                     [deg]
#   6 Y_WORLD                Barycenter position along world y axis                     [deg]
#   7 A_WORLD                Profile RMS along major axis (world units)                 [deg]
#   8 B_WORLD                Profile RMS along minor axis (world units)                 [deg]
#   9 THETA_WORLD            Position angle (CCW/world-x)                               [deg]
#  10 FWHM_WORLD             FWHM assuming a gaussian core                              [deg]
#  11 ELONGATION             A_IMAGE/B_IMAGE                                           
#  12 ELLIPTICITY            1 - B_IMAGE/A_IMAGE                                       
         1 -11.2952      3.8708     36.5727   5.9365799685e+01   7.1648195070e+01    0.4516483    0.3272868 -69.33  0.001333175    1.256    0.204
         2 -11.3887     48.5998     29.9738   2.7985045910e+01   6.7905548188e+01    0.7304155    0.2316027  36.77  0.002416024    3.634    0.725
         3 -11.2379     20.6130     20.9430   4.0931471823e+01   7.3802497856e+01    0.4876988    0.2485509 -31.62  0.001822199    2.255    0.556
         4 -11.4371    178.7831     20.8850   3.5167404467e+02   3.7456751138e+01    0.5487496    0.2246104  45.71  0.002013304    3.473    0.712
         5 -11.6896     35.6086     18.5311   2.9145433124e+01   7.2197177949e+01    0.5991252    0.4566127 -45.77  0.003426912    1.352    0.261
         6 -12.0693     15.7660     12.2214   3.9884290234e+01   7.6090700796e+01     0.679237    0.3985642 -54.10  0.002748802    1.710    0.415
         7 -11.9967    164.4772     18.1850   3.5234806320e+02   4.1328814810e+01    0.4569544    0.3055785  37.88  0.002240303    1.911    0.477
         8 -11.1158    127.4962     11.4808   3.5477021964e+02   5.1694544490e+01    0.2630669    0.2262353 -49.80 0.0009942922    1.160    0.138
         9 -12.0227    127.5828     15.8998   3.5649519163e+02   5.1205410141e+01    0.6475751    0.2648937  62.56  0.002017361    2.194    0.544
        10 -11.5192    136.8812     14.3626   3.5449315621e+02   4.8911673799e+01    0.5675552    0.2237576  67.02  0.002211999    2.302    0.566
        11 -11.3733     85.8371     14.7174   4.9564820829e+00   6.2148598235e+01    0.4939231    0.4320034 -28.27  0.001943274    1.198    0.165
        12 -10.1186     84.7786     10.0079   2.8186985403e+00   6.2951188656e+01    0.2002961    0.1452045 -24.37 0.0003162689    1.458    0.314
        13 -10.6144    225.5750     13.4853   3.4606896590e+02   2.7600040959e+01    0.2121829    0.1545694 -41.48 7.328626e-05    1.137    0.120
        14 -10.9108    243.8514     14.2330   3.4523201093e+02   2.3861233410e+01    0.2100888    0.1488676   4.13  0.001252073    2.115    0.527
        15 -12.1612    104.5082     11.8699   3.5903353098e+02   5.7714214452e+01    0.5187628    0.3372391 -28.31  0.001749117    1.604    0.377
        16 -12.3927     48.3880     12.7639   1.8220007433e+01   7.0846800109e+01    0.7373994    0.2786865  48.33  0.002947667    2.572    0.611
        17 -11.7182     23.0574     10.6427   3.2947958963e+01   7.5478845994e+01    0.3690907    0.2619417  14.36  0.001309964    1.486    0.327
        18 -11.1648    212.0352      9.9754   3.4601887812e+02   3.0856609815e+01     0.269481    0.1758686 -20.42 0.0007498816    1.646    0.392
        19 -11.1694    169.0728      9.4075   3.4910633524e+02   4.1080110383e+01    0.3965726    0.2088429  63.12  0.001731144    1.881    0.468
        20 -11.5750     63.4560      9.1175   9.2178077812e+00   6.8135708884e+01     0.433096    0.3057372 -55.94  0.001014977    1.795    0.443
        21 -10.9465     88.6947      8.0027   7.6044734822e-01   6.2181995052e+01    0.3859843     0.294095  53.34  0.001230632    1.223    0.182
        22 -10.0630      5.4966      8.9489   4.7310994975e+01   7.7726922067e+01    0.1820443    0.1077613 -53.96 0.0005606947    1.524    0.344
        23  -9.9260      1.1471      7.4034   5.0823824401e+01   7.8360040751e+01    0.2254619   0.06883001 -59.30 0.0008741437    2.736    0.635
        24 -10.2460    185.5330      6.5323   3.4688524592e+02   3.7307511720e+01    0.1320335     0.114356 -63.75  0.000375281    1.024    0.023
        25 -10.3433    153.9917      6.5307   3.4963442312e+02   4.5210610171e+01    0.2046825    0.1269496  78.88 0.0003492661    1.522    0.343
        26 -10.9976    128.9380      4.0547   3.5164133114e+02   5.2021701555e+01    0.3788078    0.1952477 -21.10  0.001048796    2.094    0.523
        27 -11.7339    134.1690      2.6250   3.5043121976e+02   5.0762391771e+01    0.4152828    0.2712385  81.43  0.001251056    1.432    0.302
        28 -10.9479     40.9920      4.1361   1.6299354731e+01   7.3498913630e+01    0.3212468    0.2042917  23.69  0.001354293    1.783    0.439
        29  -9.4277     30.5176      4.5136   2.3086429609e+01   7.5346489407e+01    0.1270909    0.1144817   1.80 0.0001485731    1.027    0.027
        30 -10.0526    223.7922      2.7768   3.4358402417e+02   2.9032178464e+01    0.1793407    0.1086295 -53.21 0.0005102602    1.328    0.247
        31 -10.8268    218.5164      3.1819   3.4394841967e+02   3.0113251206e+01    0.2081777     0.158565 -83.00 0.0005629314    1.271    0.213
        32 -11.7056    113.9658      2.2761   3.5304871180e+02   5.6148073369e+01    0.4762033    0.2580104  81.68  0.001637899    1.845    0.458
        33 -11.0237    105.5318      2.1224   3.5436964070e+02   5.8385490319e+01    0.3128635    0.2000676 -60.52  0.001097562    1.738    0.425
        34 -10.0984    207.3068      2.3366   3.4433766847e+02   3.2649107903e+01    0.1166503   0.09440763  34.47 0.0005325353    1.675    0.403
        35  -9.9114    152.6936      1.4107   3.4802455938e+02   4.6012396548e+01    0.1833959    0.1177554  68.14 0.0006501026    1.485    0.327
        36  -9.6663     28.5896      1.4821   2.2077864328e+01   7.6117630593e+01    0.1256164     0.111166  -0.01 0.0001018082    1.018    0.018
        37  -9.9387     78.0604      7.4784   3.3539544558e+00   6.4881121197e+01    0.2090265    0.1301871  63.72 0.0006307673    1.537    0.349
        38  -9.7866     33.3060    125.6632   6.0626753300e+01   4.6434576212e+01    0.1514325   0.09183286  63.28 0.0004632018    1.673    0.402
        39 -11.2267    246.2242    247.7864   3.0022289753e+01  -4.3729822667e+00    0.1786925    0.1172036  37.13  0.001344947    2.192    0.544
        40 -10.1710    239.4905    250.4499   3.1371203186e+01  -3.9666719057e+00   0.09956676   0.06691057   5.89  0.000550779    1.008    0.008
        41 -11.0231    104.3362    122.4832   3.7067862227e+01   3.6701183405e+01     0.294559     0.276394  52.71 0.0008071624    1.040    0.039
        42 -11.9132    245.6910    118.7062   8.0870377068e+00   1.0704291654e+01    0.3538568    0.2085988 -57.39  0.001774133    2.749    0.636
        43 -10.2080    218.4868    116.4693   1.1307796137e+01   1.5513319709e+01    0.1295295    0.1113798 -22.82 8.835304e-05    1.007    0.007
        44 -11.5968      7.7483    114.7158   6.8543958054e+01   5.1417419445e+01    0.3078507    0.2376741 -77.61 0.0003478563    1.170    0.145
        45 -12.1308      2.5754    111.5858   7.0190573437e+01   5.2541218219e+01    0.4427217    0.2861048  87.88 0.0006923304    1.353    0.261
        46 -11.6057      3.7132    104.8773   6.9270586522e+01   5.4217587489e+01    0.4750702    0.3149016  57.68  0.002132819    1.449    0.310
        47  -9.7205     43.3034    115.6544   5.5733673320e+01   4.7951449440e+01     0.154591   0.09899821  66.30 0.0004747748    1.688    0.408
        48 -11.9474     26.3081    105.6765   6.0623305819e+01   5.2351783665e+01    0.6889783    0.5245422 -58.04  0.003780065    1.289    0.224
        49 -11.6212     22.2855    114.0576   6.3181045092e+01   5.0500265621e+01    0.4295383    0.2903695   2.06  0.001604456    1.901    0.474
        50 -11.3973     27.4971    112.3664   6.1052718849e+01   5.0478994116e+01    0.3795968    0.2772929  39.23  0.001433715    1.376    0.273
        51 -10.0236     48.9731    111.5309   5.2997344821e+01   4.8338124405e+01    0.2113677    0.1402346  32.81 0.0004901433    1.539    0.350
        52 -11.9517     15.1015    108.5580   6.5265454799e+01   5.2516269654e+01    0.4365295    0.3336676  24.65  0.002485603    1.436    0.304
        53 -11.1113     79.8693    107.8444   4.1354490102e+01   4.4644792702e+01    0.3588143    0.3181956  -1.34  0.001010757    1.352    0.260
        54  -9.4846    139.8438    106.4555   2.3729385108e+01   3.3000699146e+01    0.1914712    0.1435638  32.82 0.0009026913    1.469    0.319
        55 -10.5619     47.4965    102.5253   5.1902971079e+01   5.0877304385e+01     0.488278    0.2431304 -42.83  0.001926965    2.402    0.584
        56 -10.9206     50.4985    101.0420   5.0458795203e+01   5.0876021343e+01    0.4350037    0.2544815 -52.87  0.001955808    1.671    0.402
        57 -10.8733     35.2620    102.9530   5.6727683319e+01   5.2188214787e+01    0.2350271    0.2075491  -0.74 0.0003462748    1.335    0.251
        58 -11.2221     17.2086    100.4896   6.3541810319e+01   5.4481568763e+01     0.253887    0.1710287 -78.11 0.0007082373    1.328    0.247
        59 -11.3036      8.3348     95.9379   6.6632451760e+01   5.6285392494e+01    0.2558369    0.2146853  23.22  0.001541475    1.339    0.253
        60 -11.6588    210.3860     98.1293   8.3253052456e+00   1.9747395822e+01    0.2180191    0.2056894 -30.58  0.000257728    1.078    0.073
        61 -11.7530    248.6409     95.2544   2.8273167322e+00   1.3323484190e+01     0.377549    0.2239302  -8.84  0.001951274    2.233    0.552
        62  -9.4448     77.4896     96.5300   3.9422323294e+01   4.7852676565e+01    0.2213286    0.1395524 -45.64 1.130218e-05    1.644    0.392
        63 -10.9430     79.2166     93.1955   3.7942448921e+01   4.8360402683e+01    0.6341044    0.1993369 -55.99  0.001940068    3.279    0.695
        64 -11.8143     67.9627     95.1132   4.2511776491e+01   4.9819217586e+01    0.3276328    0.3107976  56.60 0.0008001469    1.064    0.060
        65 -11.5869     22.8810     94.4807   6.0415125748e+01   5.5611236593e+01    0.4370881    0.2491428 -34.53  0.001970635    2.179    0.541
        66 -10.0052     42.9884     94.6809   5.2146044064e+01   5.3485952426e+01    0.1978734    0.1925066  62.98 0.0007613572    1.080    0.074
        67  -9.2491    125.7301     93.7331   2.3821791863e+01   3.8707331513e+01    0.1441871    0.1219667   3.44            0    1.469    0.319
        68 -10.0294     35.7860     92.7887   5.4740330650e+01   5.4808498382e+01    0.2009738    0.1557395  72.56 0.0006268777    1.343    0.255
        69  -9.9666     98.1047     90.6627   3.0909615328e+01   4.5308540913e+01    0.2121848    0.1884026  45.33 0.0004094991    1.136    0.120
        70 -10.4206     43.8713     90.5502   5.0929464326e+01   5.4454792576e+01    0.2269702    0.1779808 -57.79 0.0003411625    1.213    0.176
        71 -12.1575     18.7280     87.5988   6.1168101419e+01   5.7763721282e+01    0.6030899    0.2872865 -88.08  0.002500336    2.272    0.560
        72  -9.6726     38.5373     90.4828   5.3142159644e+01   5.5106722523e+01    0.1433471    0.1317764 -65.40 7.028062e-05    1.052    0.049
        73 -11.8208      5.9316     88.2572   6.6842383372e+01   5.8436904435e+01    0.5472274    0.3574419  13.12  0.002340041    1.767    0.434
        74 -11.4996     27.7387     84.8636   5.6726423935e+01   5.7706802348e+01    0.4622902    0.3847821 -33.11  0.001667164    1.320    0.242
        75  -9.6346     52.3765     87.1865   4.6650849342e+01   5.4197889313e+01    0.2047448     0.135958 -74.94 0.0005224107    1.604    0.376
        76 -10.9473     45.2634     84.4016   4.8966006708e+01   5.5869517073e+01    0.3152411    0.2772196 -57.91  0.001361536    1.090    0.082
        77  -9.5977     36.7749     85.6044   5.2896569883e+01   5.6579123912e+01    0.2007381    0.1256541  40.04 0.0009490633    1.645    0.392
        78 -12.3987     60.8204     83.3832   4.2239583531e+01   5.3898405974e+01    0.3082933    0.2665074  55.33 0.0003897679    1.194    0.162
        79 -11.0406      2.5100     80.9466   6.7583614006e+01   6.0519282447e+01    0.4340701    0.1935176  74.03  0.001800407    2.504    0.601
        80 -12.6731    247.4735     76.7373   3.5894679206e+02   1.5912567511e+01    0.4122935    0.3013044 -52.91  0.002640628    1.358    0.263
        81  -9.6228    113.4582     82.4644   2.3853751412e+01   4.3809279425e+01    0.1553855    0.1478341 -83.56 7.004665e-05    1.050    0.048
        82  -9.6997    162.4518     81.4302   1.2015240612e+01   3.2670177584e+01    0.1461187    0.1392153 -53.56 9.716861e-05    1.007    0.007
        83 -11.1408     76.1718     79.5800   3.5180252077e+01   5.2185426219e+01    0.6267988    0.3445192  60.57  0.002303663    2.630    0.620
        84 -10.3555     77.2433     76.0065   3.3676283808e+01   5.2821467993e+01    0.2784617    0.2452993 -72.02 0.0005881736    1.172    0.147
        85  -9.3621    119.0000     78.0482   2.0946395844e+01   4.3460571047e+01    0.2419643    0.0873111 -41.99            0    2.754    0.637
        86  -9.5625     58.2356     77.9702   4.1799925274e+01   5.5645855249e+01    0.1944285    0.1202856 -58.65  0.000418652    1.561    0.360
        87 -10.3385     88.8013     77.0832   2.9876759184e+01   5.0294539865e+01    0.3305597    0.1923455  47.55    0.0011019    1.745    0.427
        88 -10.3801     53.2693     76.1304   4.3389102580e+01   5.6856564123e+01    0.2811409    0.2089567 -82.08  0.001362887    1.534    0.348
        89  -9.7927    158.9414     75.9689   1.1132274216e+01   3.4435077908e+01    0.1718113    0.1653859 -61.19 0.0003689638    1.015    0.015
        90 -10.4172     94.7312     75.3441   2.7326282602e+01   4.9440740665e+01    0.2484793    0.2376271 -89.70 0.0004460154    1.047    0.045
        91 -11.3849     14.1960     74.3935   6.1178938751e+01   6.1551137417e+01    0.3041475    0.2282451 -76.00  0.001701318    1.198    0.165
        92 -11.6131     27.6223     73.3330   5.4457768610e+01   6.0715904963e+01    0.2995842     0.251924 -12.59 0.0001950216    1.352    0.260
        93 -11.0564      2.1369     71.2271   6.6644438222e+01   6.3055021500e+01    0.4174068    0.1935712 -67.66  0.001953191    1.787    0.440
        94 -10.7054     35.0429     71.2946   5.0406156070e+01   6.0458566371e+01    0.3907643    0.1936876  44.80  0.001564617    2.227    0.551
        95 -10.2376     40.6842     72.8040   4.8129420904e+01   5.9405987050e+01     0.302938    0.2489036  -5.85  0.001072511    1.428    0.300
        96 -10.7102     40.1924     68.7784   4.7276492527e+01   6.0478247781e+01    0.3080832    0.2190972  36.67  0.001496415    1.472    0.321
        97 -11.1434    122.5871     68.3666   1.6879455092e+01   4.4516343726e+01    0.3928797    0.2520389  41.82 0.0009669757    1.693    0.409
        98  -9.9131    101.9825     66.7615   2.2134365788e+01   4.9653123922e+01    0.2076326    0.1946504  57.01 0.0003372956    1.065    0.061
        99 -11.6739      9.4698     55.5328   6.0196570173e+01   6.6682951214e+01    0.8372016     0.493407  29.96  0.004324983    1.837    0.456
       100 -11.8631      7.5336     63.4767   6.2745165440e+01   6.4779165012e+01    0.3809921     0.239234 -35.87 0.0008240599    1.669    0.401
       101 -12.8771      4.3048     61.1069   6.4096720114e+01   6.5550281824e+01    0.5176377    0.3149288 -43.86 0.0003490949    1.588    0.370
       102  -9.5022    105.5126     63.4955   1.9926670212e+01   4.9493774534e+01    0.1531551    0.1482201 -84.12 0.0008104721    1.019    0.018
       103 -10.8602     92.3949     62.5127   2.3703752077e+01   5.2665410417e+01    0.2963852     0.253122  83.82  0.000438951    1.324    0.245
       104 -11.5602     39.5084     56.5491   4.3919252834e+01   6.3556072412e+01    0.2929766    0.2403061  31.29 0.0005839765    1.285    0.222
       105 -11.3925     43.2980     60.3676   4.3252999387e+01   6.2133563051e+01    0.4306317    0.2532173 -58.05 0.0006658174    1.614    0.381
       106 -11.4764     46.4713     59.4756   4.1405032966e+01   6.1899568345e+01    0.6231766      0.25709  45.32  0.002305733    2.803    0.643
       107  -9.3705    150.7322     60.6642   8.0952342781e+00   3.8994066623e+01    0.1455383    0.1181892  11.91 0.0004343797    1.591    0.372
       108  -9.5928    113.4733     60.5073   1.6606476988e+01   4.8182560838e+01    0.1518397    0.1485532 -85.90 -1.136851e-06    1.011    0.011
       109 -10.3531     29.7138     60.0217   5.0099648530e+01   6.3872867256e+01    0.2144535    0.1925272  19.70  0.001258977    1.201    0.168
       110 -11.2625     25.3471     55.5485   5.1204320772e+01   6.5424200733e+01    0.3603308    0.1657211 -48.25 0.0009463637    2.004    0.501
       111 -11.2133     75.6428     55.2711   2.7028372273e+01   5.7718506014e+01    0.6576898    0.2651213 -51.20  0.002290755    2.717    0.632
       112 -11.4697     72.5591     46.0775   2.4515538710e+01   6.0206567795e+01    0.5471973    0.2906114 -56.55  0.002132844    2.413    0.586
       113 -10.7191    124.6254     56.6972   1.2403153574e+01   4.6144498658e+01    0.2552852    0.2325503  18.80 0.0005875128    1.254    0.202
       114  -9.6085    159.7657     62.4033   6.9553401481e+00   3.6500890359e+01    0.2058182    0.1329689  48.32  0.000936072    1.665    0.399
       115 -11.3775     31.3307     53.1185   4.7160566345e+01   6.5380955320e+01     0.420977    0.2629145  -5.56  0.001913131    2.217    0.549
       116 -10.3765    202.2549     63.6841   9.0914020726e-01   2.6487510804e+01    0.2565865    0.1506244 -36.44  0.001015033    1.486    0.327
       117 -10.2130    156.5093     53.5269   4.7909332019e+00   3.8695042500e+01    0.2554462    0.1439249  78.02 0.0009969523    2.217    0.549
       118 -10.6282     59.7932     50.3955   3.1761464315e+01   6.1790989696e+01    0.4731302    0.2635014 -66.64  0.001780871    2.809    0.644
       119 -12.0211    119.7678     37.4891   6.4703012706e+00   5.0475540056e+01    0.5521408    0.3028052 -48.77  0.001681964    1.943    0.485
       120 -10.2081    112.5704     50.2137   1.3097335582e+01   5.0250877661e+01    0.3299274     0.245425  25.35 0.0009905894    1.717    0.418
       121 -11.4727    116.9730     47.6984   1.1024238424e+01   4.9582027569e+01    0.4349775    0.3798181  33.81  0.001313928    1.259    0.206
       122 -11.2766    116.7889     43.2228   9.3749840668e+00   5.0354946950e+01    0.3186891    0.2710506  19.30  0.001155068    1.395    0.283
       123 -10.0006    155.3309     48.7891   3.4907342073e+00   3.9704128903e+01    0.2030345    0.1369938 -22.08 0.0004057478    1.674    0.403
       124  -9.8395      2.0113     48.3256   6.3206481421e+01   6.8868789812e+01    0.1745781    0.1630936 -51.00  0.001026426    1.086    0.079
       125 -12.1917     42.2495     44.1484   3.7911096312e+01   6.6027304410e+01    0.7421803    0.3369039  31.55  0.001916402    2.358    0.576
       126  -9.7504     83.2767     46.3939   2.0593586353e+01   5.7848545824e+01    0.1529546    0.1173878  -0.11 0.0005362639    1.742    0.426
       127 -11.1907    243.6871     51.1264   3.5358415422e+02   1.9778267162e+01    0.1899229    0.1492649 -64.92 0.0003160699    1.288    0.223
       128 -11.3525     26.2666     42.4570   4.6464984549e+01   6.8462882918e+01    0.3483238     0.255042  68.87  0.001268323    1.829    0.453
       129 -10.7264     20.6922     45.7495   5.0992703690e+01   6.8245327393e+01    0.2212435    0.2125826 -23.70 0.0004586338    1.081    0.075
       130 -10.2620     13.5530     45.9633   5.5474118823e+01   6.8781879032e+01    0.2583568     0.145494 -37.77  0.001003655    1.783    0.439
       131 -10.5648    110.3965     39.1658   9.3749128583e+00   5.2606397207e+01    0.4338118    0.1920548 -27.27  0.001557176    2.665    0.625
       132  -9.8483     56.8579     41.6384   2.9424226033e+01   6.4145644518e+01    0.2043534     0.130375  51.26 0.0009423611    1.746    0.427
       133 -10.3713     18.1658     40.4440   5.0862819697e+01   6.9731929148e+01    0.2530693    0.1503974 -46.23  0.001286279    1.522    0.343
       134 -10.6645    219.4849    248.0268   3.4119771550e+01  -1.6942659888e+00    0.1383048   0.08539367 -22.83  0.001029587    1.585    0.369
       135 -10.8329     78.7035     37.3419   1.8303347355e+01   6.0500905099e+01    0.3955511    0.2640424 -71.62  0.001662766    2.346    0.574
       136 -11.1332     78.5124     34.1108   1.6882994704e+01   6.1095412561e+01    0.5480525    0.3271426  27.80  0.002243944    2.328    0.571
       137 -10.1622     60.5710     36.7648   2.5465206404e+01   6.4401692118e+01    0.2869595    0.1387725 -43.43 0.0006823807    2.055    0.513
       138 -10.3717     62.9130     33.4649   2.2830798355e+01   6.4548263829e+01    0.2913811    0.1701678  41.49 0.0007194412    1.722    0.419
       139 -10.4924     23.7353     37.2154   4.6088579457e+01   6.9937389402e+01    0.3118503    0.1461541  39.69  0.001360969    2.384    0.580
       140 -10.3363    153.1052     35.6543   3.5956610008e+02   4.2121339425e+01    0.2360344    0.1839823 -50.26 0.0004025205    1.223    0.182
       141 -10.4966    175.4768     34.3495   3.5607255968e+02   3.6667525062e+01    0.3212318    0.1745258 -57.15 0.0008637044    1.913    0.477
       142 -11.5837    107.2463     31.2087   6.9000802946e+00   5.4592605317e+01    0.5034257     0.321585  17.38  0.001489732    2.442    0.590
       143 -10.5465    103.0348     32.7493   8.6339536165e+00   5.5432752857e+01     0.204445    0.1840187  67.55 0.0002134585    1.083    0.076
       144 -12.3697    112.7705     25.1238   3.0533346473e+00   5.4000274906e+01    0.7979322    0.3317542  56.02  0.003078214    2.205    0.547
       145 -12.7655    105.5826     19.9575   2.4347562518e+00   5.6511741049e+01    0.4074283    0.3147808 -73.36 0.0005239561    1.437    0.304
       146 -10.6015    240.2151     32.1981   3.4953259073e+02   2.2640818582e+01     0.193432    0.1219499  22.96 0.0009665065    2.886    0.654
       147  -9.9025    217.2201     32.0025   3.5122282447e+02   2.7339397861e+01    0.1672292    0.0918336 -31.34 0.0003197021    1.596    0.373
       148 -11.7385     58.1783     29.4018   2.2942732210e+01   6.6217105968e+01     0.393213    0.2858763  16.87  0.001130091    1.672    0.402
       149  -9.7855    202.3158    250.3359   3.7197795414e+01  -8.4084698662e-02    0.1084207   0.06237031   3.57 0.0007047623    1.695    0.410
       150 -10.7142    157.2350     29.0294   3.5677009335e+02   4.1914448445e+01    0.2763222    0.2286754 -86.02 0.0008517221    1.168    0.144
       151 -12.6355    164.8720     27.4001   3.5523969154e+02   4.0169284056e+01     0.385555     0.296713  70.24 0.0004894027    1.295    0.228
       152 -12.2106    127.3164     28.3800   1.3887271260e+00   4.9782028350e+01    0.6650622    0.3841484  78.61  0.001541032    1.909    0.476
       153 -11.7012     26.5936     27.4788   3.9956237580e+01   7.1736788024e+01    0.4781017    0.2817819 -59.11  0.001716804    1.804    0.446
       154 -10.1372    177.4904     29.4690   3.5437336936e+02   3.6776541649e+01    0.1382466    0.1255041 -63.08 7.828032e-05    1.029    0.028
       155 -10.6381    189.3603     26.9284   3.5237935664e+02   3.4215147679e+01    0.3113164     0.207718  28.00  0.001509702    2.227    0.551
       156 -10.9410    183.7211     26.8787   3.5293443050e+02   3.5569636712e+01    0.3523744    0.1599727 -42.78  0.001105474    1.914    0.478
       157 -11.5359    230.4143     26.5485   3.4889007979e+02   2.5211128466e+01    0.2145505    0.2084087  22.66  0.000879674    1.330    0.248
       158 -10.0685    197.6857    244.6401   3.7239143660e+01   1.0590665169e+00    0.1116141   0.06492662   2.19 0.0007042833    1.752    0.429
       159 -10.3792    249.9809     39.0075   3.5038940984e+02   2.0033723040e+01    0.1823196    0.1395968 -45.47 0.0003655695    1.032    0.031
       160 -10.7089     46.4008     24.0624   2.6011022082e+01   6.9378803727e+01    0.2926307    0.2266799   2.41 0.0008052688    1.479    0.324
       161 -10.3203     46.7986     20.0092   2.3486985015e+01   7.0007271340e+01    0.2214008    0.1931311  53.46 0.0008613872    1.282    0.220
       162 -10.6379    169.3768     23.0572   3.5333705561e+02   3.9545230788e+01    0.2494844    0.1898625  89.41 0.0005150387    1.280    0.219
       163 -11.8219    148.4879     22.4103   3.5574837167e+02   4.4970632349e+01    0.4719712    0.1832952  63.39  0.001822915    2.369    0.578
       164 -11.0014    134.7433     22.3501   3.5779750473e+02   4.8580102606e+01    0.2800564    0.1611741 -40.72  0.001145834    1.690    0.408
       165 -11.3342    248.7796     21.5389   3.4659425346e+02   2.2168455470e+01    0.2477818     0.177649 -77.50  0.001660117    1.429    0.300
       166  -9.8580    230.2746    243.2529   3.1797128865e+01  -2.3415165041e+00    0.1490532   0.06766549  37.39 0.0007148987    2.407    0.585
       167 -10.3117    131.5233    240.5043   4.8867594832e+01   9.6269332932e+00    0.1156496   0.08922851  27.39  0.000128114    1.011    0.011
       168 -11.6021      9.0479     19.5425   4.9454170775e+01   7.5218394523e+01    0.3720359    0.2174449 -21.09 0.0003671486    1.893    0.472
       169 -10.0482    239.2395    235.0067   2.9291294112e+01  -2.4443399339e+00    0.1229608   0.07016104 -24.05 0.0007187124    1.605    0.377
       170  -9.4236     53.6294     21.6903   2.0955177190e+01   6.8425319716e+01    0.1458231    0.1034097  12.52 0.0007034633    1.768    0.434
       171  -9.6572    218.6807    231.6569   3.2011918300e+01   1.2557943994e-01    0.1121583   0.06393959   1.58 0.0007049552    1.721    0.419
       172  -9.5719     74.5220     19.4507   1.1008938106e+01   6.4256241018e+01    0.1414933    0.1308711  31.75 0.0003045719    1.052    0.049
       173 -11.2653    247.7886    222.8517   2.6264610866e+01  -2.1039789278e+00    0.2647563    0.2172063 -13.84  0.002033597    1.468    0.319
       174  -9.5302    171.4941    208.4828   3.6929144566e+01   8.9917076860e+00    0.1214447   0.09806877  13.49 8.513142e-05    1.031    0.030
       175 -11.6834      5.9580    185.7301   7.2831407169e+01   3.4388179300e+01    0.3016304    0.1791749  40.62  0.001811064    1.396    0.284
       176  -9.6341     85.5264    185.4683   5.2721753828e+01   2.5556359617e+01    0.1334744    0.1158565  46.60 0.0001497335    1.001    0.001
       177 -10.5204     15.8428    173.8228   6.9801918007e+01   3.6220716873e+01     0.189698    0.1185289  59.87  0.001083895    1.340    0.254
       178 -10.7818    235.7041     16.4497   3.4618166021e+02   2.5229324466e+01    0.1471786    0.1092683  67.71 0.0009464928    1.591    0.371
       179 -10.9587    228.5294     15.5046   3.4637821903e+02   2.6780200226e+01    0.2241154    0.1563444 -47.06 0.0005658849    1.137    0.121
       180 -11.8078      8.9025    166.7561   7.1307159306e+01   3.8430591090e+01    0.2710794    0.1668692  22.72 0.0009283885    1.728    0.421
       181  -9.6624    157.0000    165.9787   3.2839835310e+01   1.8120408027e+01    0.2061133   0.07570493 -45.07 0.0006412987    2.857    0.650
       182 -10.8763     68.6763     20.4765   1.3719330587e+01   6.5442551962e+01    0.3888211    0.2455971 -49.01  0.001836468    1.832    0.454
       183  -9.3072     80.6404    164.7107   5.1316256403e+01   3.0787928582e+01    0.1359396    0.1082541 -12.39 0.0007025889    1.688    0.408
       184 -10.0698    205.1805    163.2052   2.3042226177e+01   1.0741590449e+01    0.1589457    0.1469653 -37.88  0.001068165    1.349    0.259
       185 -12.3103     13.1148    160.2820   6.9822353503e+01   3.9614105460e+01    0.4003095    0.2941532 -30.76  0.002311785    1.889    0.471
       186 -10.5657    104.5692    154.2392   4.3250126910e+01   2.9413093857e+01    0.2690758    0.1436167 -62.28  0.001145145    2.139    0.532
       187 -10.9295    120.9284     11.4876   3.5581695681e+02   5.3434266420e+01    0.2285758    0.1322617  70.60  0.001041962    1.618    0.382
       188 -11.9529     21.0429    150.4855   6.6906549768e+01   4.1308189081e+01    0.4338858    0.2862303 -36.06  0.000530811    2.069    0.517
       189 -11.2395     24.1632    147.8521   6.5768186402e+01   4.1676350857e+01    0.2943377    0.2242663 -54.61 0.0008001965    1.481    0.325
       190 -10.1320    240.6785    152.3687   1.5418279700e+01   7.0030418171e+00    0.1108669    0.0865207 -51.01 0.0007036101    1.796    0.443
       191 -10.3765     55.6195    152.2672   5.6774842877e+01   3.7142303963e+01    0.1922343    0.1206048 -59.61 0.0007530467    1.648    0.393
       192 -10.8637     45.3546    150.2328   5.9595019587e+01   3.8884613790e+01    0.3035389    0.2885919 -66.26  0.001879622    1.191    0.160
       193 -10.1485     16.5287    147.4747   6.8046009741e+01   4.2438903973e+01    0.1320138    0.1115076  71.15 0.0001063633    1.004    0.004
       194 -10.7272     33.0186    143.9362   6.2704371883e+01   4.1795485643e+01    0.2537608    0.1816958 -83.35 0.0007506408    1.314    0.239
       195 -11.9704      3.3774    141.9747   7.1704720414e+01   4.4790218530e+01     0.460222    0.2905381  31.40  0.002168433    1.571    0.364
       196  -9.2516    105.3271    142.7070   4.0954589930e+01   3.1870537421e+01    0.1503343    0.1099127  67.80 0.0004687614    1.623    0.384
       197  -9.6660     40.3325    141.3077   6.0141720462e+01   4.1679770476e+01    0.2007657    0.1284929 -57.76 0.0007705267    1.621    0.383
       198 -11.0323     40.3475    137.7341   5.9726171652e+01   4.2582702018e+01    0.2754586    0.2205754  88.43 0.0003547907    1.165    0.142
       199 -11.6795     23.1060    137.3360   6.5216627974e+01   4.4410316702e+01     0.410921    0.2561959 -44.70  0.002058698    1.947    0.486
       200 -10.4157     20.4854    134.0241   6.5775254173e+01   4.5482082564e+01    0.2536266    0.2121056  67.41  0.001233243    1.060    0.056
       201 -12.1780     12.5310    135.4714   6.8458055690e+01   4.5758304399e+01    0.5453859    0.2663245 -50.69  0.002492099    2.356    0.576
       202 -10.6911     30.2278    132.7192   6.2456724935e+01   4.4921310264e+01    0.2420045    0.2059747 -42.50 0.0007621801    1.380    0.275
       203  -9.9041     26.2783    131.3236   6.3619768232e+01   4.5656419207e+01    0.1341343   0.09658074 -47.33  0.000223869    1.586    0.370
       204  -9.3702     26.6788    127.2761   6.3070809976e+01   4.6662478774e+01    0.1446813   0.08870346  58.69 0.0001930682    1.577    0.366
       205 -11.1379     11.3020    125.2678   6.8116995077e+01   4.8449778169e+01    0.3989655    0.1932348 -59.70  0.001857204    2.017    0.504
