#   1 NUMBER                 Running object number                                     
#   2 MAG_AUTO               Kron-like elliptical aperture magnitude                    [mag]
#   3 X_IMAGE                Object position along x                                    [pixel]
#   4 Y_IMAGE                Object position along y                                    [pixel]
#   5 X_WORLD                Barycenter position along world x axis                     [deg]
#   6 Y_WORLD                Barycenter position along world y axis                     [deg]
#   7 A_WORLD                Profile RMS along major axis (world units)                 [deg]
#   8 B_WORLD                Profile RMS along minor axis (world units)                 [deg]
#   9 THETA_WORLD            Position angle (CCW/world-x)                               [deg]
#  10 FWHM_WORLD             FWHM assuming a gaussian core                              [deg]
#  11 ELONGATION             A_IMAGE/B_IMAGE                                           
#  12 ELLIPTICITY            1 - B_IMAGE/A_IMAGE                                       
         1 -15.2330    244.9663     87.9642   6.2646018079e+01   1.3531191920e+01      6.27607     1.010593 -40.60   0.01645347    5.604    0.822
         2 -13.6521     39.6247     64.9727   1.0577073638e+02   5.7729370011e+01       1.6896     1.101475  33.96   0.01040024    1.807    0.447
         3 -12.7346     77.9457     60.2127   9.1798184268e+01   5.3803254268e+01    0.9213127    0.5543777  20.80  0.004720082    1.894    0.472
         4 -13.0485     52.2755     39.5806   9.3752617283e+01   6.0548396538e+01    0.6154537    0.4106268  50.93   0.00352821    2.449    0.592
         5 -12.1501     21.3609     14.0778   9.6485128027e+01   6.7312842431e+01    0.5544969     0.371643 -47.88  0.003819554    2.136    0.532
         6 -11.2172     32.9000      6.6574   8.9069877830e+01   6.7046329015e+01    0.1923051    0.1168194 -16.12  0.001334209    1.409    0.290
         7 -11.1938     56.0111     16.6563   8.4424471422e+01   6.3076133105e+01    0.1840558    0.1608045 -35.31  0.001358918    1.595    0.373
         8 -13.9477    234.4368    243.5837   9.5677834146e+01  -1.1970837749e+01     1.889354     1.288299  -0.01    0.0110452    1.604    0.376
         9 -14.3902    247.3411    204.5070   8.6246989921e+01  -7.9279583022e+00     4.141146    0.8349003 -37.91   0.01203614    5.262    0.810
        10 -14.7979    124.5339    241.0912   1.1669961367e+02   6.9751049076e+00     3.134571     1.902062  51.42   0.01674791    1.442    0.307
        11 -13.2384     99.2502    167.5807   1.1105409458e+02   2.7346640461e+01     1.883708     1.044484  70.48  0.007078793    2.923    0.658
        12 -13.2606     90.5517    230.6029   1.2205851003e+02   1.4590686579e+01     2.108316    0.6669258  42.23  0.008451572    2.836    0.647
        13 -13.7608     98.5571    216.4803   1.1869329325e+02   1.6302311994e+01     2.536983     1.284808  30.53   0.01079243    2.710    0.631
        14 -14.6601     96.4546    195.6347   1.1622847093e+02   2.1264461619e+01     2.213706     2.012698 -37.92   0.01304649    1.390    0.280
        15 -10.4065     69.5084    250.2781   1.2801946180e+02   1.3769496581e+01    0.2808102    0.2001383  39.36  0.001214036    1.619    0.382
        16  -9.9299     70.5633    245.9921   1.2743040152e+02   1.4454205850e+01    0.2354414    0.1517152  51.03 0.0009435435    1.366    0.268
        17  -9.9754     75.9351    243.1965   1.2618535751e+02   1.4235052867e+01    0.3413894    0.2627515 -31.69  0.001979353    2.403    0.584
        18 -10.1887     16.0476    249.8284   1.3687415422e+02   2.0536630182e+01      0.24412    0.1769544  51.66  0.001747745    1.461    0.316
        19  99.0000     28.6170    240.7923   1.3424594169e+02   2.0876618212e+01    0.7193956    0.3371689 -80.53  0.004113084    1.851    0.460
        20  -7.5468     12.4125    226.9819   1.3596439340e+02   2.5395907846e+01     1.670508    0.3123908  55.87  0.005311351    6.754    0.852
        21  99.0000     46.9291    209.6479   1.2827689222e+02   2.5166166416e+01     3.149035    0.7156165  46.58   0.01186519    3.846    0.740
        22 -12.2657     70.2437    207.2728   1.2336124030e+02   2.2610498181e+01    0.8066814    0.5422182  73.04  0.003123014    1.430    0.301
        23  99.0000     28.6608    227.7974   1.3325658826e+02   2.3482986688e+01     3.220366    0.6771675  55.55   0.01019718    6.201    0.839
        24 -13.3481     33.3526    217.8556   1.3160083765e+02   2.5016623143e+01     1.616658     0.395878  46.53  0.006803118    3.436    0.709
        25  -9.3051     55.8562    232.6109   1.2882652055e+02   1.9158993196e+01    0.1766512   0.08719657  54.17 0.0009378341    1.788    0.441
        26  99.0000     59.2586    152.9935   1.1835541938e+02   3.6635106001e+01     1.243977     1.185432  35.81  0.008089757    1.252    0.202
        27 -11.6483     74.9627    159.6370   1.1558378667e+02   3.2975113190e+01     0.992273    0.4795564  35.74  0.004391816    2.283    0.562
        28 -12.3460     15.4135    132.3598   1.2615897149e+02   4.5733499743e+01     1.766856    0.8212254  55.33  0.008490527    3.036    0.671
        29 -12.4954     38.6949    160.2866   1.2432634957e+02   3.7286137582e+01     2.205008     1.566282  58.36   0.01330861    1.505    0.335
        30 -11.6494     13.6710    150.5600   1.2885752413e+02   4.1804618000e+01     0.875899    0.4537966  65.61  0.004028917    2.433    0.589
        31 -12.4539     49.4103    187.0765   1.2530261241e+02   2.9903537349e+01     1.772569    0.9415062  53.08  0.008214471    1.915    0.478
        32  99.0000     26.6518    185.2613   1.2983633846e+02   3.2840936625e+01     2.085169    0.9315497  55.17   0.01046369    2.378    0.579
        33 -12.4545     90.3911    176.1505   1.1459854818e+02   2.6753308789e+01     1.342201    0.6988391  63.54  0.005349228    2.631    0.620
        34 -12.2614     81.6263    178.7187   1.1703080027e+02   2.7493808186e+01    0.8489116    0.5928908 -87.18  0.003556184    1.485    0.327
        35 -11.6142     74.2263    178.9177   1.1875394768e+02   2.8526960898e+01    0.5844026    0.4559819 -66.16  0.002848785    1.181    0.153
        36 -10.0814      2.0775    181.0918   1.3432170345e+02   3.5993462964e+01    0.3430064    0.1660203 -89.89  0.001900264    1.850    0.459
        37  99.0000     70.9817    188.7632   1.2085819965e+02   2.6697109913e+01    0.8758097    0.5054988 -72.00  0.004398851    1.626    0.385
        38 -13.1514    114.1843    194.8099   1.1217114427e+02   1.8467935819e+01    0.8369191    0.6894979 -59.98  0.002869131    1.235    0.190
        39 -10.5581    102.1448    156.6715   1.0835261521e+02   2.9449893953e+01    0.2643505    0.1942225 -69.95  0.001015251    1.365    0.267
        40 -11.1004      3.8596    154.1251   1.3143128453e+02   4.1757723047e+01    0.4194918    0.3105515 -77.40  0.002588545    1.020    0.019
        41 -11.4543    121.1236    152.2442   1.0276939568e+02   2.7106763769e+01    0.5655743    0.4221863  78.29  0.002658288    1.634    0.388
        42 -10.7706     93.9686    150.6385   1.0925250312e+02   3.2235132053e+01    0.4653295    0.3404396  34.64  0.002373862    1.518    0.341
        43 -13.3272    116.7982    172.6856   1.0778285340e+02   2.3101843434e+01     1.600471    0.9838165 -40.17  0.007036986    1.952    0.488
        44 -10.6865     86.3370    138.5320   1.0886018674e+02   3.6296817750e+01    0.4770734     0.262695 -54.31  0.002164568    1.656    0.396
        45 -11.3325    101.2504    138.1890   1.0489091332e+02   3.3966812868e+01    0.5531904    0.3327624  66.62  0.002226254    2.495    0.599
        46 -11.1074     51.4936    133.9929   1.1718203398e+02   4.1990800571e+01    0.4985331    0.3278144  79.48  0.002535691    2.009    0.502
        47 -10.6089     53.6000    130.8026   1.1606445055e+02   4.2486073476e+01    0.3340933    0.2472218  76.00  0.001560637    1.633    0.388
        48 -11.4117     17.3802     99.0049   1.2041792755e+02   5.2827899414e+01    0.8966554    0.3331532 -75.11  0.003049881    5.050    0.802
        49 -12.7712     50.1731    116.1656   1.1426792305e+02   4.6188546825e+01     1.250479     0.713225 -84.28  0.005413848    2.846    0.649
        50 -13.4790     36.2798    120.0457   1.1882840688e+02   4.6728247016e+01      1.66601    0.9135067  56.10  0.008156694    2.608    0.617
        51  -9.7652     87.1509    122.8858   1.0537320645e+02   3.9796222273e+01      0.22206    0.1937828  87.20   0.00124163    1.281    0.219
        52 -11.4601    128.0074    117.2115   9.3130900442e+01   3.3783424353e+01    0.3944249    0.2101608 -55.35  0.001563032    2.038    0.509
        53 -10.4975     69.9726    116.0707   1.0866964483e+02   4.3811340095e+01    0.3117624     0.254817  47.43  0.001807524    1.383    0.277
        54 -11.6296     94.7742    130.1796   1.0489606596e+02   3.6909894442e+01     0.640838    0.3019175 -40.62   0.00248058    2.411    0.585
        55 -10.5295     78.2952    109.7544   1.0490013753e+02   4.4058618781e+01    0.2605986    0.2384075   2.82  0.001485422    1.185    0.156
        56 -12.3523     22.0957     82.9297   1.1584747947e+02   5.5783976533e+01     1.092662    0.4227653 -62.11  0.005123531    2.448    0.592
        57 -12.1135     27.5538     78.1107   1.1304505313e+02   5.6315627162e+01     1.148908    0.6565744 -75.79  0.005661202    2.822    0.646
        58 -13.1100     50.4167     94.1520   1.0954584272e+02   5.0920601473e+01     1.554692    0.9706581  79.47  0.006458903    3.812    0.738
        59 -13.1049     40.7656     88.7948   1.1129499706e+02   5.3013836069e+01     1.341995    0.7936803 -18.78   0.00702042    2.156    0.536
        60 -11.7070     35.0305    134.3471   1.2150755386e+02   4.3618976609e+01    0.7500323    0.5503651  78.75   0.00398269    1.542    0.352
        61 -11.9960    116.3599    101.3908   9.2208009260e+01   3.9447659820e+01    0.6770661    0.5287614  62.57  0.003416807    1.504    0.335
        62 -10.6634     85.9936    104.4979   1.0145052311e+02   4.4052073899e+01    0.3432491    0.2656782  60.38  0.001822086    1.606    0.377
        63 -11.2543    102.1535     91.2923   9.3458944507e+01   4.4121682116e+01    0.5145265    0.3260297 -47.33  0.002489636    1.551    0.355
        64 -11.7536     90.8331     86.9127   9.5535340685e+01   4.6911895852e+01    0.5771173     0.325683  51.51  0.002589284    2.253    0.556
        65 -11.0470     98.7549     84.6081   9.2612729199e+01   4.6029429694e+01    0.4200847    0.3705867  11.22  0.002445961    1.150    0.130
        66 -11.4897     32.3941     52.1786   1.0471920801e+02   6.0654714217e+01      0.45307    0.2034774 -45.22  0.002467132    1.856    0.461
        67 -12.5762     55.9100     79.3983   1.0423617417e+02   5.3274177528e+01     1.023439    0.7514441 -66.35  0.005909787    1.707    0.414
        68  -9.8540     46.0514    248.5274   1.3191698374e+02   1.7251348435e+01    0.2839378    0.1368841  59.75  0.001603132    1.772    0.436
        69 -11.4472     79.0101     77.5122   9.6497834710e+01   5.0565416846e+01    0.3932102    0.3250661 -52.95  0.002339203    1.323    0.244
        70 -11.4084     15.0413     76.8577   1.1679733546e+02   5.7472836035e+01    0.5399253    0.3566754 -43.96  0.003408909    1.180    0.152
        71 -12.4440    147.2795     63.5615   7.4165397783e+01   3.9974384741e+01     0.844986    0.6839057 -39.18  0.004622621    1.302    0.232
        72  -7.2223     40.2101    245.5622   1.3266783386e+02   1.8558817007e+01    0.4097785    0.1399468  50.83  0.002034003    2.429    0.588
        73 -12.7755     48.5307     49.2473   9.8149727802e+01   5.9494870018e+01    0.5646929    0.4823029  61.97  0.003743988    1.936    0.483
        74 -12.5879    160.7167     55.2497   6.9039986149e+01   3.8206198837e+01    0.6231995    0.3845065  43.40  0.002984037    1.650    0.394
        75 -12.1163    150.9885     50.7789   6.9812809263e+01   4.1087350955e+01    0.5800208    0.4065244  18.88  0.002839991    1.948    0.487
        76 -12.1844    168.0167     47.0225   6.5444017073e+01   3.7707283160e+01    0.7032894    0.5774975 -29.10  0.003988248    1.386    0.278
        77  -8.8707      3.0505    246.0652   1.3864922563e+02   2.2611646686e+01    0.1724976    0.0837803  71.91  0.001087679    1.655    0.396
        78 -12.6609     50.1188     56.7998   9.9886325567e+01   5.8062680585e+01    0.5627926    0.4878089 -61.18  0.003807756    1.564    0.361
        79 -11.3184     32.6686     35.5274   9.9514710713e+01   6.3289251442e+01    0.3982805    0.2726923 -34.37  0.002193874    1.271    0.213
        80 -11.8436     66.9356     34.3920   8.7032393432e+01   5.9333009275e+01    0.3706536    0.2137967 -12.18  0.001971261    2.046    0.511
        81 -10.4597     12.6421     24.6469   1.0371181368e+02   6.6583739828e+01    0.1992622    0.1603727 -20.32  0.001620154    1.183    0.155
        82  99.0000      8.0969    236.6433   1.3730283807e+02   2.3915713901e+01     1.009869    0.3259309  52.15  0.005344012    2.572    0.611
        83  99.0000      7.8467    201.4144   1.3488759729e+02   3.1136777854e+01    0.6005329    0.3100561  54.96  0.003656663    1.847    0.459
