#   1 NUMBER                 Running object number                                     
#   2 MAG_AUTO               Kron-like elliptical aperture magnitude                    [mag]
#   3 X_IMAGE                Object position along x                                    [pixel]
#   4 Y_IMAGE                Object position along y                                    [pixel]
#   5 X_WORLD                Barycenter position along world x axis                     [deg]
#   6 Y_WORLD                Barycenter position along world y axis                     [deg]
#   7 A_WORLD                Profile RMS along major axis (world units)                 [deg]
#   8 B_WORLD                Profile RMS along minor axis (world units)                 [deg]
#   9 THETA_WORLD            Position angle (CCW/world-x)                               [deg]
#  10 FWHM_WORLD             FWHM assuming a gaussian core                              [deg]
#  11 ELONGATION             A_IMAGE/B_IMAGE                                           
#  12 ELLIPTICITY            1 - B_IMAGE/A_IMAGE                                       
         1  -8.7864     91.8998     21.2791   9.0431433608e+01   5.9415115890e+01    0.4258227    0.2704888   3.86  0.002064189    1.929    0.482
         2 -10.6201     24.9671     16.7692   1.1511747610e+02   7.0153708780e+01    0.4312766    0.3606941  39.35 0.0008908703    1.682    0.405
         3  -9.0271     31.4715     11.0760   1.0928475888e+02   7.0390186080e+01    0.3263216    0.1758557 -23.64   0.00163378    1.794    0.442
         4 -10.1420      9.2603     19.6475   1.2418692800e+02   7.0905690753e+01    0.3894883    0.2244262   1.47 0.0005909035    2.020    0.505
         5  -9.6930     64.0578     14.3397   9.6755058338e+01   6.5434115214e+01    0.3858361    0.2255106  23.14 0.0008290131    1.878    0.468
         6  -9.2782     76.4049      7.3096   8.8960983477e+01   6.4111233953e+01    0.3092377    0.2033478  54.13  0.001624194    1.692    0.409
         7  -8.8907     80.2208     12.8012   9.0312648800e+01   6.2758988486e+01    0.2844364     0.209927 -46.18  0.001085712    1.728    0.421
         8  -9.0519     74.7254     13.3337   9.2409649571e+01   6.3716047563e+01    0.3347244    0.2531579  15.50  0.001480552    1.240    0.194
         9  -8.7576     96.9440     12.2861   8.5019131131e+01   5.9443678243e+01    0.2984281    0.1884197  30.79  0.000964791    1.570    0.363
        10  -8.7651     88.5877     13.1147   8.7820219284e+01   6.1082834972e+01    0.2840047    0.1419469  36.79  0.001311501    1.991    0.498
        11 -10.5673     20.0582      8.8205   1.1396519251e+02   7.1890202854e+01    0.2736244    0.1817525   3.32 0.0004360358    1.540    0.351
        12  -8.3208     39.0117      8.7812   1.0455360486e+02   6.9834038915e+01    0.1887017    0.1322363  -3.94   0.00121263    1.329    0.247
        13  -8.4709      2.1979      8.3715   1.2348458721e+02   7.3306005427e+01    0.2100621    0.1539108 -33.22  0.001602714    1.026    0.025
        14  -8.6377    136.8419      7.8329   7.4093856090e+01   5.0538771267e+01    0.1874398    0.1624505 -67.15 0.0005569459    1.311    0.237
        15  -9.1105    128.6104      7.1660   7.5411407143e+01   5.2650255880e+01    0.3597055    0.1950651  -7.85  0.001597821    2.230    0.552
        16  -8.4698    105.8754     10.8686   8.2027572844e+01   5.7644148037e+01     0.215338    0.1632297  26.59 0.0005654301    1.260    0.206
        17  -8.9295     68.7987      3.6034   8.9720858078e+01   6.5910668716e+01     0.402118    0.2052714 -10.59  0.001934312    2.234    0.552
        18  -9.1659     56.5791      4.6312   9.4820410318e+01   6.7862418537e+01    0.3411459    0.1958718  17.57  0.001390511    1.946    0.486
        19 -10.0119     49.0794      4.6311   9.7911259591e+01   6.9010840285e+01    0.2447198    0.1738835  -1.78 0.0003629017    1.268    0.212
        20  -7.9347     12.8467      5.3272   1.1616559978e+02   7.3059834700e+01      0.22476    0.1003452 -28.26  0.001208868    2.142    0.533
        21  -9.1515    110.8127      3.9657   7.7901588408e+01   5.7193704766e+01     0.375888     0.197501 -31.96  0.001789467    2.019    0.505
        22  -8.7029    125.2577      3.7283   7.4730436580e+01   5.3783551410e+01    0.2541765    0.1798019  35.15 0.0005100326    1.364    0.267
        23  -7.9624    153.7126      3.4076   6.9689480537e+01   4.6619100626e+01    0.1928744    0.1144506  57.23 0.0002367834    1.483    0.326
        24  -8.0567    182.1736      2.1888   6.5521340911e+01   3.9257498330e+01    0.2029341     0.170811  60.45 0.0004097738    1.142    0.125
        25  -8.1225    143.0671      1.9862   7.0862200984e+01   4.9484669018e+01    0.2055639    0.1822519  55.74 0.0003779234    1.014    0.014
        26  -7.7569      2.8987      1.3002   1.1991206203e+02   7.4425192222e+01    0.1304619   0.08139729  -3.12 0.0004018524    1.630    0.386
        27  -7.4510    138.2995    235.2913   1.2958760767e+02   9.2547203057e+00    0.1095473   0.08599452  24.58 0.0002619731    1.563    0.360
        28  -8.9376    212.6859    250.4196   1.1855290937e+02  -4.7301812620e+00    0.2321767   0.08649515  44.48  0.001154302    2.219    0.549
        29  -9.9461    200.7723    248.9391   1.2035152580e+02  -2.7153345993e+00      0.37355    0.2056406  26.13  0.001610277    1.826    0.452
        30  -9.0114    150.8237    249.4363   1.2900394279e+02   5.1870665450e+00    0.2433206    0.1619436  38.66  0.001169255    1.264    0.209
        31  -7.9949    123.7409    250.5258   1.3380006941e+02   9.2719426763e+00    0.2181389   0.09038585  39.60  0.001116622    2.081    0.519
        32  -8.5831    247.2946    225.3643   1.0899832301e+02  -7.3094959693e+00    0.2727378    0.1500842  -9.63  0.001519796    2.174    0.540
        33  -7.8869    248.3405    233.2923   1.1011064053e+02  -8.2999438085e+00    0.1605846    0.1032469 -16.76 0.0005879678    1.617    0.382
        34  -8.7406    246.6591    229.7967   1.0982366990e+02  -7.6862057900e+00    0.1830087    0.1470604  -1.48 0.0007651476    1.212    0.175
        35  -7.3892    153.2979    232.3549   1.2650861954e+02   7.2225080500e+00    0.1150322   0.08845944  16.05 0.0007035295    1.697    0.411
        36  -7.7507    100.5331    229.9431   1.3586152517e+02   1.6065450958e+01    0.1546886     0.110246 -71.53  0.001023907    1.576    0.365
        37  -8.2685    195.0142    229.0300   1.1852764205e+02   6.6026499423e-01    0.1873346    0.1258412  18.60 0.0006146385    1.639    0.390
        38  -7.5593    158.3165    229.3024   1.2519766895e+02   6.8324786798e+00    0.1175907   0.08710261  21.25 0.0007023283    1.620    0.383
        39  -8.6040    187.1921    227.1088   1.1964314677e+02   2.2363234080e+00    0.2504428    0.1681084  14.36  0.001423037    1.876    0.467
        40  -7.5506    174.7072    228.2929   1.2207047658e+02   4.1962927077e+00    0.1158561    0.0859521  62.73 0.0002041357    1.554    0.356
        41  -7.3979    133.6592    228.6989   1.2965623412e+02   1.1042422538e+01    0.1144962   0.08936009  22.11 0.0004748214    1.671    0.402
        42  -7.4699    207.6651    227.1560   1.1601191674e+02  -1.2103616852e+00    0.1361198     0.105048  -9.84            0    1.462    0.316
        43  -7.6465     92.9836    227.7432   1.3701924706e+02   1.7565704503e+01    0.1564286   0.08244298  45.14 0.0008889818    1.561    0.360
        44  -7.5878    229.5166    226.5000   1.1214232247e+02  -4.6802645761e+00     0.120328   0.09249359  22.98 3.705412e-05    1.022    0.021
        45  -7.9482    223.1961    224.8366   1.1295331037e+02  -3.4728811805e+00    0.1728336    0.1152537  22.35 0.0006186435    1.342    0.255
        46  -7.3418    200.3521    223.2896   1.1670967107e+02   5.1198874378e-01    0.1265901   0.08194028  20.16 0.0004202334    1.672    0.402
        47  -7.3557    206.5531    222.4740   1.1548062051e+02  -4.2975579411e-01    0.1252195   0.09709875  25.53  9.31414e-05    1.103    0.094
        48  -9.1371    239.1867    219.3773   1.0934822347e+02  -5.3922147226e+00    0.2956312    0.1685786 -10.48  0.001624004    2.126    0.530
        49  -7.3872     51.4726    221.5598   1.4395925432e+02   2.4296159292e+01      0.11169   0.08284605  68.94 0.0002143961    1.034    0.033
        50  -8.2300    182.4900    219.9062   1.1942952452e+02   4.0484156403e+00    0.2488855    0.1446716  32.02 0.0009456863    1.635    0.388
        51  -8.0232    130.2526    220.5659   1.2930647379e+02   1.2933227469e+01    0.1718883    0.1031929  37.60 0.0009424856    1.589    0.371
        52  -7.5718    227.5085    217.4428   1.1100722175e+02  -3.2863263875e+00    0.1242854   0.09543507  21.61 0.0001117237    1.071    0.066
        53  -9.0697    247.3608    215.1251   1.0726989464e+02  -6.1890082554e+00    0.2206443    0.1782651  -7.61 0.0007589587    1.220    0.180
        54  -8.5262    248.4118    211.2758   1.0643221838e+02  -5.9143001659e+00    0.2236236    0.1560907  23.74 0.0008361717    1.180    0.152
        55  -7.6265    203.7944    216.3791   1.1500453952e+02   8.4148987049e-01    0.1783549   0.09666396  34.21  0.000406733    1.614    0.380
        56  -8.4576    193.7289    215.4769   1.1668537814e+02   2.7134681306e+00    0.2644886    0.1639822  22.10 0.0008639151    1.843    0.457
        57  -7.5575    219.3087    215.2851   1.1207178059e+02  -1.6581054552e+00    0.1242471   0.08140411  17.27 0.0002951438    1.569    0.363
        58  -7.5380    210.5841    215.1969   1.1359808079e+02  -1.6727495011e-01    0.1520063     0.111703 -11.23 0.0003316982    1.544    0.352
        59  -7.9510    179.2958    214.9491   1.1926911509e+02   5.3303797439e+00    0.1657161    0.1519905  21.94 0.0005700432    1.148    0.129
        60  -8.3976    232.1949    212.3118   1.0933823336e+02  -3.4307496469e+00     0.342571    0.1757089  -9.90  0.001524124    3.158    0.683
        61  -7.3940     83.6268    214.7080   1.3749860210e+02   2.1260078035e+01    0.1037485   0.09435876  12.77 0.0007023849    1.728    0.421
        62  -8.1224    122.0606    213.1945   1.2996173377e+02   1.5557220554e+01    0.1885544    0.1514916  38.46 0.0006067697    1.303    0.232
        63  -7.8233    185.9230    210.6758   1.1736515330e+02   4.7840837289e+00    0.2101808    0.1360056  29.60  0.001151382    1.503    0.334
        64  -7.5433    133.0014    209.9791   1.2741937194e+02   1.4274814559e+01    0.1577279    0.1284511  53.81 0.0009929838    1.014    0.013
        65  -7.9482    162.9755    207.9538   1.2129944181e+02   9.3291654548e+00    0.1969002    0.1461574  18.83 0.0006125727    1.652    0.395
        66  -7.9305    246.5893    205.6267   1.0574139779e+02  -4.9650467228e+00      0.21586    0.1085778 -24.14  0.001127136    2.123    0.529
        67  -7.7084    205.0334    205.7149   1.1301768445e+02   2.0882722278e+00    0.2274096     0.129097   4.23 0.0009054267    3.553    0.719
        68  -9.3040    124.0154    205.9902   1.2865903021e+02   1.6513474102e+01    0.1834042    0.1515587  57.96  0.001163998    1.001    0.001
        69  -7.6294     11.6524    206.6951   1.5002951367e+02   3.1424213017e+01   0.09016253    0.0745557 -64.50 0.0003418144    1.696    0.411
        70  -7.7523    215.7973    205.3989   1.1101899107e+02   2.3527594764e-01    0.1842119   0.09969574  32.83 0.0007607543    1.677    0.404
        71  -8.2105    117.4710    205.0502   1.2983599346e+02   1.7782672784e+01    0.2304126    0.1651068  33.25 0.0007807837    1.571    0.364
        72  -8.0822    226.8479    203.6287   1.0875585347e+02  -1.4408962599e+00    0.2653773    0.1345173 -18.06   0.00121347    2.730    0.634
        73  -7.7931    176.2912    204.3394   1.1817249341e+02   7.4895710181e+00    0.1281583   0.09611171  12.29 0.0003706981    1.646    0.392
        74  -7.3496     86.3159    204.6971   1.3596240360e+02   2.2750427493e+01    0.1291878     0.076657  67.82 0.0003676926    1.620    0.383
        75  -8.2848    250.5186    199.4033   1.0397055133e+02  -4.8531941718e+00    0.2234212    0.1115542 -29.52  0.001174591    2.042    0.510
        76  -7.9957    196.2516    200.4199   1.1373656951e+02   4.4363082323e+00     0.254952    0.1089686  40.02  0.001122261    2.045    0.511
        77  -7.8587    243.5787    198.2480   1.0491702380e+02  -3.5770156003e+00     0.166802    0.1068871 -13.51 0.0009463983    1.628    0.386
        78  -8.5304    165.9432    197.2815   1.1904310531e+02   1.0543402634e+01    0.2508717    0.1623495  33.01 0.0007824286    1.541    0.351
        79  -7.5628    141.4633    197.4651   1.2396625595e+02   1.5002427006e+01     0.132468    0.1144817  49.43 4.227075e-05    1.052    0.049
        80  -8.4752    192.8666    194.4410   1.1333652884e+02   5.9675361580e+00    0.2977653    0.1869655 -29.59  0.001542351    1.891    0.471
        81  -7.6493    237.3306    193.9921   1.0519699020e+02  -1.9838430430e+00    0.2007783   0.09456653 -11.40 0.0007049721    4.316    0.768
        82  -7.4283     48.7547    205.2402   1.4323709099e+02   2.7691983811e+01    0.1568023   0.09362753  28.00 0.0008855577    2.436    0.589
        83  -7.5694     90.0133    192.2139   1.3381275153e+02   2.4640977985e+01    0.1684868   0.09097525  43.41  0.000656996    1.689    0.408
        84  -8.2409    246.1107    190.3284   1.0302411984e+02  -3.0031202976e+00    0.2063163    0.1314536  22.73  0.001157677    1.492    0.330
        85  -8.0099    161.4936    189.9948   1.1872822721e+02   1.2626419973e+01    0.1769423     0.118308 -17.34 0.0008098227    2.487    0.598
        86  -7.6873    224.7110    189.6305   1.0659056716e+02   8.1621350933e-01    0.1354086    0.0907002   8.36 0.0007022889    1.712    0.416
        87  -7.9937     64.8116    189.3926   1.3868117924e+02   2.8808405224e+01    0.1553106    0.1116731  34.18 0.0005394585    1.683    0.406
        88  -7.2761    191.3445    184.3105   1.1180375439e+02   7.8574147641e+00    0.1408982   0.09980088  15.23 0.0007045423    1.703    0.413
        89  -7.7666    249.7554    182.3981   1.0090263545e+02  -2.6009180817e+00    0.1696707    0.1042618  30.82 0.0004743834    1.508    0.337
        90  -7.5666    165.4984    182.4787   1.1662009121e+02   1.3185300794e+01    0.1389364    0.1232611  38.61 -6.180116e-06    1.057    0.054
        91  -7.5181    130.7117    182.6833   1.2392327110e+02   1.9718059819e+01    0.1251555    0.1083311   2.13 0.0004953761    1.592    0.372
        92  -7.9822    183.8125    180.4233   1.1255960533e+02   9.9642203582e+00    0.2016788    0.1186987  35.38 0.0006217072    1.654    0.395
        93  -7.8260    156.6824    180.6887   1.1812189014e+02   1.5215731453e+01    0.1355343    0.1073203  11.70  0.000703447    1.642    0.391
        94  -7.6047     96.2641    178.5669   1.3074407501e+02   2.6453694164e+01    0.1767447    0.1223015  34.11 0.0009492358    1.659    0.397
        95  -8.3871    148.1010    175.2795   1.1897989946e+02   1.7888804038e+01     0.360085    0.2292511  22.02  0.001576269    2.356    0.576
        96  -7.2881    138.3745    175.3067   1.2107108147e+02   1.9741552219e+01    0.1379695    0.1097925  10.32 0.0006867152    1.771    0.435
        97  -7.9455    184.5280    171.4559   1.1070899622e+02   1.1354246948e+01    0.1411866    0.1274031  33.25 0.0001998577    1.021    0.020
        98  -8.6532    176.5076    168.5462   1.1176782608e+02   1.3490534561e+01    0.4370489    0.2651717 -12.85  0.001658708    3.258    0.693
        99  -7.9755     14.2624    170.4039   1.4738560239e+02   3.8385323070e+01    0.1759646    0.1085349  28.57  0.001128884    2.112    0.526
       100  -7.5106    134.6768    167.6804   1.2055560601e+02   2.1962856867e+01    0.1359814    0.1132722   3.04 0.0007045061    1.673    0.402
       101  -7.5239    199.4713    166.5295   1.0677801707e+02   9.1725821816e+00    0.1419359    0.1267052  22.49 0.0001312574    1.051    0.048
       102  -7.3687    122.6480    162.6703   1.2237505853e+02   2.5251906262e+01    0.1375207    0.1140288  -2.54 0.0007047279    1.772    0.436
       103  -8.0551    159.9919    160.7110   1.1370079493e+02   1.8328322891e+01    0.2497721    0.1599999  -8.73 0.0009115852    3.381    0.704
       104  -8.1524    168.6666    163.8095   1.1246555548e+02   1.5959829294e+01    0.2807377    0.1848818  24.88  0.001268358    1.916    0.478
       105  -7.4913    138.5115    158.4730   1.1800987983e+02   2.3099641607e+01    0.1454573    0.1318671  66.70 0.0001420089    1.038    0.037
       106  -7.5044    151.6873    157.6173   1.1490089440e+02   2.0633191036e+01    0.1476105    0.1159158  -0.32 0.0007022139    1.811    0.448
       107  -7.7581     21.3351    157.3088   1.4488650128e+02   4.0524574235e+01    0.1083693   0.07882269 -53.32 0.0003329388    1.676    0.403
       108  -7.7667    205.3389    152.3195   1.0266068668e+02   1.0352137127e+01     0.150608    0.1079195  12.85 0.0007049713    1.711    0.416
       109  -7.5512    168.9664    151.7226   1.0992775936e+02   1.8187276996e+01     0.187774    0.1240997  45.14 0.0008696046    1.428    0.300
       110  -7.6359    107.2189    151.6169   1.2403071476e+02   3.0411364737e+01    0.1921752    0.1320246  33.70 0.0009448721    1.660    0.398
       111  -8.0375    133.6744    147.8085   1.1703742345e+02   2.6282794378e+01    0.2232688    0.1845859 -33.42    0.0010588    1.432    0.302
       112  -9.4009     66.9625    144.5496   1.3271056411e+02   3.8262568589e+01    0.4726864    0.2758618  71.82  0.002099088    2.012    0.503
       113  -7.8709    199.7943    144.2363   1.0195371289e+02   1.2924934960e+01    0.2305018    0.1150508 -28.27  0.000877587    2.453    0.592
       114  -7.5457     40.6564    140.2636   1.3863972136e+02   4.2399703590e+01    0.1264101   0.07918517  68.63 0.0003710244    1.600    0.375
       115  -7.7707    139.3637    138.1481   1.1368104357e+02   2.7179990373e+01    0.3658277    0.2357059   0.47  0.001184734    4.162    0.760
       116  -7.4885    107.3581    137.3147   1.2132428337e+02   3.3569890398e+01    0.1411205    0.1161299 -11.51 0.0007043883    1.748    0.428
       117  -7.5300     55.3047    135.3033   1.3429083262e+02   4.1870763526e+01    0.1227772   0.09345966 -43.17 0.0007010382    1.597    0.374
       118  -7.5636     68.9696    133.5289   1.3048421416e+02   4.0518853086e+01    0.1704754    0.1212252  -3.35 0.0008098962    2.571    0.611
       119  -8.3262     23.7006    130.2673   1.4169574824e+02   4.6291769965e+01    0.3116353    0.1644672 -36.10  0.001500519    3.164    0.684
       120  -7.1694    127.7630    125.9946   1.1379074986e+02   3.2180601643e+01    0.1815682    0.1243702 -50.69            0    1.464    0.317
       121  -7.5080    132.6743    124.7047   1.1227395766e+02   3.1451786635e+01     0.148054    0.1221968   2.41 0.0002478995    1.625    0.385
       122  -9.5152    241.1684    121.7461   8.9359442281e+01   7.7839561773e+00    0.2546583    0.2434629  42.59 0.0003747762    1.143    0.125
       123  -9.4186     13.2901    120.3978   1.4327560367e+02   4.9341450198e+01    0.4293953    0.1735236 -44.53  0.001953321    3.316    0.698
       124  -9.2341      2.8498    109.3345   1.4486462360e+02   5.2501648548e+01    0.4193112    0.1388066 -49.43    0.0019175    3.162    0.684
       125  -8.0722    123.3357    107.8197   1.1052840355e+02   3.7058218654e+01     0.296344    0.2043146  17.26  0.001233468    2.223    0.550
       126  -7.9720    133.8905    106.3035   1.0741443600e+02   3.5147392588e+01     0.289004    0.2040282 -16.12  0.001056186    2.088    0.521
       127  -9.1731     15.0693    104.9937   1.4096534388e+02   5.2673131923e+01    0.4366423    0.1899992 -38.11  0.001988363    3.343    0.701
       128  -7.4702    109.3555    106.3255   1.1389576369e+02   4.0165913864e+01    0.1508847    0.1188705  -8.61 0.0007045919    1.770    0.435
       129  -7.4230     77.6625    104.6519   1.2250413129e+02   4.5956784875e+01    0.1432762    0.1042017 -27.68 0.0007047125    1.783    0.439
       130  -7.9245     93.4784    103.5168   1.1765105569e+02   4.3674909400e+01    0.2424082    0.1426772  27.12  0.001027695    2.275    0.560
       131  -8.6286    243.8434    102.2051   8.4313108301e+01   1.0245409083e+01     0.194303    0.1616691  15.63 0.0004975219    1.340    0.254
       132  -8.4102      3.7749    101.5429   1.4375261565e+02   5.4172969022e+01       0.1729    0.1173477   6.71  0.001137073    2.100    0.524
       133  -7.6148    129.8409     97.3920   1.0605749319e+02   3.7909770130e+01    0.2213848    0.1422864  35.05 0.0007106693    1.773    0.436
       134  -9.6527      9.6690     95.9724   1.4134869769e+02   5.5054947151e+01    0.3027092    0.1901024  -2.54  0.001832666    2.381    0.580
       135  -8.4474     44.0738     91.8739   1.3002344852e+02   5.3144544974e+01    0.3455183    0.1974269 -30.10  0.001649634    2.470    0.595
       136  -8.8434     20.2962     92.1692   1.3756081267e+02   5.5182512960e+01    0.2447365     0.128259 -72.37  0.001336358    1.590    0.371
       137  -7.5695     53.2361     92.9684   1.2735502563e+02   5.1885179961e+01    0.1773793   0.09686823 -60.91 0.0004910915    1.589    0.371
       138  -7.6144     95.4211     90.8696   1.1383670774e+02   4.6150518470e+01    0.2012108    0.1289804 -39.49 0.0005324295    1.598    0.374
       139  -8.5975     67.4136     85.7963   1.2115585203e+02   5.1698671272e+01    0.4004033    0.1847213  26.98  0.001641431    2.911    0.656
       140  -9.5020     35.8051     81.9795   1.3067077063e+02   5.6185258392e+01    0.5281855    0.2721945 -29.21  0.002406361    2.876    0.652
       141  -9.6389      7.9979     77.0685   1.3908383584e+02   5.9333790311e+01    0.3932563    0.2084685 -34.90  0.001725852    2.164    0.538
       142  -7.9454    184.3427     78.0352   8.8068749443e+01   2.8481823463e+01    0.2197416    0.1944452 -36.82 0.0005623967    1.133    0.117
       143  -8.2078     89.9134     78.2128   1.1192691711e+02   4.9840830938e+01    0.3925411      0.16932  35.66  0.001502565    2.701    0.630
       144  -8.6420     48.7852     76.6673   1.2504921899e+02   5.6041274884e+01    0.2656054    0.2255738 -18.87  0.001554162    1.321    0.243
       145  -7.6288    105.3722     76.2874   1.0666425678e+02   4.7374406547e+01    0.1501348    0.1152478   3.27  0.000349241    1.715    0.417
       146  -9.0882     29.2907     68.9700   1.3006681874e+02   5.9620355132e+01    0.3495692    0.1934961 -23.23  0.001758035    2.519    0.603
       147  -9.6749     24.3885     72.8318   1.3266308184e+02   5.9172631901e+01    0.4911255    0.1440331 -50.17  0.001706899    2.651    0.623
       148  -8.2250     23.4968     69.5106   1.3227262223e+02   5.9963992397e+01    0.1845172    0.1730177 -27.27 0.0005621879    1.225    0.184
       149  -7.9766     75.1704     74.5840   1.1558057037e+02   5.3015332492e+01    0.1796845    0.1323964  17.84 0.0006106145    1.659    0.397
       150  -7.6820    129.3212     69.3329   9.7796656798e+01   4.3618934725e+01     0.157409    0.1197866   9.61 0.0007049633    1.700    0.412
       151  -8.2834     80.5035     68.0034   1.1183146222e+02   5.3546672903e+01    0.2551501    0.1959327 -28.57 0.0008142967    1.329    0.248
       152  -8.6808     83.9921     63.8645   1.0935547275e+02   5.3799886919e+01    0.4028272    0.2531728  13.70  0.001748246    2.454    0.592
       153  -8.3835     62.0934     66.8869   1.1775890879e+02   5.6512759661e+01    0.3015841    0.1608458 -46.45 0.0007882135    1.644    0.392
       154  -9.5108     65.1164     61.2976   1.1497651741e+02   5.7249515735e+01    0.3634022    0.2869438   1.71  0.002092744    1.469    0.319
       155  -8.9723     43.2608     67.8032   1.2473016085e+02   5.8561057287e+01    0.2254994    0.1738866  -2.36  0.001094871    1.574    0.364
       156  -7.6606    106.3447     67.2961   1.0351680535e+02   4.8965934898e+01    0.1493779     0.114107   4.70 0.0007032974    1.669    0.401
       157  -9.6940     17.6384     62.3421   1.3284847763e+02   6.1924603970e+01    0.4711646    0.2021881 -47.85  0.002134154    1.886    0.470
       158  -8.9774     51.4791     60.7344   1.1974000912e+02   5.9134361305e+01    0.3085457    0.2993424 -70.85  0.001730131    1.196    0.164
       159  -9.3380     33.4875     60.4969   1.2641483345e+02   6.1065661100e+01    0.3138521    0.2742657  64.95  0.002024311    1.447    0.309
       160 -10.5197     39.0371     57.1783   1.2337796302e+02   6.1229444600e+01     0.273397    0.2011657 -35.68            0    1.244    0.196
       161  -7.9649    194.2370     60.0506   8.1082728230e+01   2.8865680045e+01    0.2046344     0.187011 -45.52 0.0002962838    1.085    0.078
       162  -9.4483      2.9292     55.8253   1.3705405585e+02   6.4150090103e+01    0.4754536    0.2350684 -57.17  0.002856096    1.463    0.316
       163  -8.1022     99.2101     54.6971   1.0136232598e+02   5.2744923573e+01    0.2717893    0.1620713 -29.12  0.001220396    1.779    0.438
       164  -9.4247     75.1447     50.4326   1.0774223281e+02   5.7847504285e+01    0.3645561    0.2569689  -9.68 0.0003756976    1.726    0.421
       165  -7.7595    118.7607     51.3914   9.4523895040e+01   4.9193261721e+01      0.21152    0.1314844  40.27 0.0005321604    1.650    0.394
       166  -7.7648     81.0167     51.5068   1.0610278487e+02   5.6673596452e+01    0.1831182     0.122003  67.08 0.0008104958    2.573    0.611
       167 -10.3288     45.3560     49.0346   1.1839883936e+02   6.2202126523e+01    0.2414163    0.2040991 -16.76 0.0004602721    1.172    0.147
       168 -10.0853      9.9675     47.4566   1.3236972281e+02   6.5510633222e+01    0.5017564    0.2612467 -30.53  0.002889285    2.030    0.507
       169 -10.5352     26.9030     46.1394   1.2497155200e+02   6.4584677167e+01    0.8078433     0.366971  -1.13  0.003151406    4.776    0.791
       170  -9.5818    249.2963     45.7645   6.9797525292e+01   1.7237642085e+01    0.2732047    0.2404406  74.67 0.0004658667    1.197    0.165
       171  -9.1853      1.9490     45.5056   1.3522639719e+02   6.6326851964e+01    0.2704061    0.1402665 -47.58  0.001094163    1.481    0.325
       172  -8.1086     80.6173     44.7445   1.0373749825e+02   5.7955951268e+01    0.1875265    0.1206002 -45.65 0.0007801532    1.579    0.366
       173  -8.4446     93.6485     42.5013   9.8582880625e+01   5.5939782367e+01    0.4336894    0.1562279  40.16  0.001564181    3.027    0.670
       174  -8.0572    106.9151     48.1006   9.6663568789e+01   5.2321478240e+01    0.2085086    0.1894833  -1.02 0.0002899074    1.074    0.069
       175 -10.0827     83.3128     40.0142   1.0099145680e+02   5.8285944536e+01    0.2694221    0.2226544  13.16            0    1.218    0.179
       176  -7.2447    123.6564     40.6660   8.9340836376e+01   4.9770771517e+01    0.1571738    0.1083866  20.67 0.0007050335    1.761    0.432
       177  -9.5514     17.9868     38.1726   1.2635765202e+02   6.6848022824e+01    0.3717176    0.1586591 -29.78  0.001759248    2.800    0.643
       178  -9.2361     91.8959     37.0945   9.7020139257e+01   5.7150298987e+01    0.3842154    0.2358946  31.87  0.001068576    1.753    0.429
       179  -9.4761     96.1123     33.1921   9.4136027081e+01   5.6909010797e+01    0.3478727    0.2513809   1.90 0.0003477154    1.571    0.364
       180  -9.4185     54.6326     36.5940   1.1021003642e+02   6.3384354148e+01     0.305102     0.228363   3.25  0.001160551    1.435    0.303
       181  -8.2647    106.8785     36.5443   9.2291316250e+01   5.4159911620e+01    0.3422568    0.2009465  29.02  0.001499295    2.034    0.508
       182  -9.0659     36.9874     35.9247   1.1728308315e+02   6.5608346621e+01     0.341144    0.2121997  -1.70  0.001733675    2.040    0.510
       183  -7.5755    119.5719     36.0462   8.8659088952e+01   5.1396553066e+01    0.2124753    0.1382007 -30.76   0.00068668    1.552    0.356
       184  -9.2559     69.9593     35.9413   1.0406961124e+02   6.1236705507e+01    0.2536454    0.1758568  14.06  0.001364835    1.647    0.393
       185  -9.3293      7.4103     34.0165   1.2985178730e+02   6.8333153386e+01    0.3574516    0.2312262 -35.08  0.002430494    1.337    0.252
       186  -7.7868    190.2063     33.7363   7.3962128633e+01   3.3654432490e+01    0.1949132    0.1677137  26.40 0.0004866425    1.338    0.253
       187  -7.5702    143.7640     33.9628   8.2240946052e+01   4.5806134335e+01    0.1793387    0.1247575 -25.74 0.0002372828    1.510    0.338
       188  -8.4710     77.1731     34.1113   1.0073170878e+02   6.0331139818e+01    0.2329927    0.1847819  78.54  0.001199567    2.082    0.520
       189  -7.7337     81.9698     32.2883   9.8323696791e+01   5.9765117195e+01      0.18478    0.1595395  16.20 0.0004179651    1.107    0.097
       190  -7.5657    155.6166     31.1838   7.8911151519e+01   4.3122522473e+01    0.1931012    0.1429333  -7.91 0.0004141348    1.579    0.367
       191  -8.4518    127.8680     30.2045   8.4407253262e+01   5.0239198485e+01    0.2327498     0.200545  10.62 0.0003551393    1.198    0.165
       192  -7.7180    104.9875     31.3220   9.0763975201e+01   5.5325195166e+01    0.1981084    0.1736593  31.31 0.0006106358    1.087    0.080
       193  -7.9107     88.2949     31.3708   9.5848580768e+01   5.8721584622e+01    0.1433649   0.09856439   5.22 0.0007027513    1.730    0.422
       194  -9.1721      1.5814     29.9516   1.3136496490e+02   6.9423436820e+01      0.26076    0.1031037 -57.84  0.001434508    1.853    0.460
       195  -7.6062    113.2354     29.5784   8.7810595973e+01   5.3745152392e+01    0.2010961    0.1215465  42.36 0.0009370658    1.598    0.374
       196 -10.4839     71.5866     25.5257   9.9082650426e+01   6.2609380344e+01     0.774675    0.3088204  47.43  0.002093352    2.799    0.643
       197  -9.3241     83.8288     22.0022   9.3300043831e+01   6.0904363587e+01    0.5023995     0.220586  39.75  0.001496364    2.289    0.563
       198  -8.5863     61.9555     26.9881   1.0334460736e+02   6.3936418372e+01    0.2421317    0.1774608   1.57 0.0006130823    1.414    0.293
       199  -8.9097     57.6463     25.5924   1.0443680154e+02   6.4798443268e+01    0.2670391    0.2161773  31.73  0.001312459    1.345    0.257
       200  -7.6284    184.0512     27.5108   7.2984673245e+01   3.6064757798e+01    0.2098021    0.1378534  68.45 0.0002964697    1.445    0.308
       201  -7.8873    161.5717     27.4870   7.6582290636e+01   4.2025472287e+01    0.1450576    0.1383037  67.61 7.025387e-05    1.012    0.012
       202  -7.9678    153.4754     27.0167   7.7885841490e+01   4.4199900660e+01    0.2015948    0.1229068  13.37 0.0004797148    2.401    0.584
       203  -9.2785    143.8935     26.0238   7.9389355609e+01   4.6786926293e+01    0.2456823    0.2194444 -31.98 0.0003419668    1.180    0.153
       204  -7.5668    123.6437     27.1227   8.4236286797e+01   5.1650575804e+01    0.1994131     0.131814  -8.38 0.0005713844    1.768    0.434
       205 -10.5068     48.2967     25.5078   1.0825638744e+02   6.6102209194e+01     0.251497      0.20701   9.97 0.0004122175    1.211    0.174
       206  -8.0677    110.1461     25.0031   8.6799776872e+01   5.5042429762e+01    0.2194074    0.1356324  36.76 0.0007009237    1.617    0.382
       207  -8.5504    181.9956    250.4831   1.2375318698e+02   7.2335456029e-02    0.1837715   0.08798532  42.22  0.000533403    1.574    0.365
       208  -7.2081    150.6285     23.2519   7.7109464545e+01   4.5387822270e+01     0.146944    0.1087204 -77.29 0.0003468494    1.637    0.389
       209  -7.4436    130.9846     21.9769   8.0596239103e+01   5.0503605065e+01    0.1728778    0.1499999  51.09 0.0003132665    1.082    0.076
       210  -8.3549     64.5188    247.4023   1.4353049671e+02   1.8186286710e+01    0.2122207    0.1168832  38.53  0.001315977    1.884    0.469
       211  -7.8027     32.4873    247.4426   1.4865510141e+02   2.2041136171e+01    0.1033808   0.06922356  66.52 0.0001180382    1.011    0.011
       212  -7.3212    154.3503     21.2804   7.5750191467e+01   4.4648459520e+01    0.1544351    0.1003495  37.57 0.0002683679    1.647    0.393
       213  -8.4150     45.4107     20.1345   1.0711815051e+02   6.7332751573e+01    0.2457353    0.1429102 -33.27   0.00115316    1.486    0.327
       214  -7.5870     18.6391    247.7128   1.5079059359e+02   2.3496598003e+01   0.07906067   0.07262061  81.77 0.0003924058    1.687    0.407
       215  -8.7474    117.0980     19.8850   8.2972965580e+01   5.4078969763e+01     0.195537    0.1862819 -53.34 0.0003773323    1.202    0.168
       216  -7.4585    133.3485     19.2296   7.9055686452e+01   5.0235482944e+01    0.1910947    0.1254225 -35.90 0.0004911821    1.614    0.381
       217  -8.1972    127.8154     16.8715   7.9332808567e+01   5.1859556950e+01    0.2129115    0.1727377  34.05 0.0003644978    1.185    0.156
       218  -7.1471    189.3100     16.3220   6.8886681566e+01   3.5957599378e+01    0.1466305    0.1028136  37.74 0.0007036657    1.648    0.393
       219  -9.1008    249.5015    244.7392   1.1170611429e+02  -9.6079998313e+00    0.2504154    0.1010845 -26.39  0.001001363    2.846    0.649
       220  -8.6602     50.3440     15.2334   1.0270263656e+02   6.7404282653e+01    0.2431773     0.182184   2.10 0.0008194317    1.249    0.199
       221  -8.3334    146.7170     14.0923   7.4587565034e+01   4.7406402759e+01    0.2327178    0.1861141  58.55 0.0003767514    1.144    0.126
       222  -8.5057    243.4727    244.7061   1.1266761621e+02  -8.7396938335e+00    0.2312573    0.1024204 -26.14  0.001295745    2.622    0.619
       223  -8.1704    218.5083    245.4148   1.1687286713e+02  -5.0796427703e+00    0.1948081    0.1101761 -30.33  0.001201642    2.150    0.535
       224  -9.9272    192.3791    244.2201   1.2114419529e+02  -8.2309844456e-01    0.2589516    0.2215786 -26.11  0.001272307    1.467    0.318
       225  -8.7655    134.7370     13.0965   7.6466834402e+01   5.0549229849e+01    0.1919689    0.1755063  29.65 0.0003704893    1.072    0.067
       226  -8.2099    187.3260    245.3096   1.2216257659e+02  -1.4397101294e-01    0.1168195   0.07690569  21.26 0.0004201192    1.657    0.396
       227  -9.4852    157.6893    245.0195   1.2728958518e+02   4.6915297868e+00    0.2186874    0.1395412  29.65  0.001319941    1.649    0.394
       228  -8.3162    234.1335    243.2134   1.1396149090e+02  -7.2154718146e+00    0.2871723    0.1389142  34.07  0.001385715    1.617    0.381
       229  -9.0971    176.1632    243.8289   1.2390638864e+02   1.8503578209e+00    0.1640003    0.1200814  26.47  0.001084517    1.347    0.257
       230  -7.3605     95.5314    243.5033   1.3800466358e+02   1.4567970729e+01    0.1141378   0.08524138  58.71 3.607647e-05    1.029    0.028
       231  -7.8709     25.6732    240.9991   1.4940619862e+02   2.3863566572e+01    0.1430487     0.097766  74.43 0.0005308812    1.088    0.081
       232  -9.0909    170.5895    239.5393   1.2432938446e+02   3.3313792857e+00    0.2384605    0.1803102  17.98   0.00111567    1.538    0.350
       233  -8.2810    249.5060    238.4635   1.1073810356e+02  -8.9936905055e+00    0.2571149    0.1302702  13.95  0.001367414    2.378    0.580
       234  -7.3394    214.2980    239.3647   1.1670210785e+02  -3.7470440068e+00    0.1192543   0.07553093  14.96 0.0004537939    1.722    0.419
       235  -7.4869    121.5335    239.4714   1.3305850624e+02   1.1286293030e+01     0.118168   0.09101321  53.06 0.0002329071    1.034    0.033
       236  -7.8235     79.9341    238.4839   1.4027487808e+02   1.7599982699e+01    0.1706222   0.08618823  46.62  0.001020223    1.558    0.358
       237  -8.7755    241.9261    236.3353   1.1163381090e+02  -7.6643544120e+00    0.2299944    0.1966391  20.24  0.001254797    1.246    0.197
       238  -7.3926    148.1737    237.6209   1.2808630757e+02   7.2925997173e+00       0.1703   0.09232936  37.12 0.0005574656    1.654    0.395
       239  -8.1830    224.4581    238.4639   1.1485289837e+02  -5.2357898280e+00    0.1166836   0.08841895  26.51 0.0001271289    1.002    0.002
       240  -7.9648    195.8386    236.1421   1.1941707085e+02  -3.8615353918e-01    0.1786373    0.1381197  45.70 0.0008530233    1.222    0.182
       241  -9.8213    188.8373    234.3794   1.2039704290e+02   9.9437093783e-01     0.279649    0.2314769  64.72  0.001279272    1.512    0.338
       242  -8.3709    161.7813    234.2567   1.2521651321e+02   5.5283962588e+00    0.2152706     0.159859  30.19  0.000607507    1.336    0.252
