#   1 NUMBER                 Running object number                                     
#   2 MAG_AUTO               Kron-like elliptical aperture magnitude                    [mag]
#   3 X_IMAGE                Object position along x                                    [pixel]
#   4 Y_IMAGE                Object position along y                                    [pixel]
#   5 X_WORLD                Barycenter position along world x axis                     [deg]
#   6 Y_WORLD                Barycenter position along world y axis                     [deg]
#   7 A_WORLD                Profile RMS along major axis (world units)                 [deg]
#   8 B_WORLD                Profile RMS along minor axis (world units)                 [deg]
#   9 THETA_WORLD            Position angle (CCW/world-x)                               [deg]
#  10 FWHM_WORLD             FWHM assuming a gaussian core                              [deg]
#  11 ELONGATION             A_IMAGE/B_IMAGE                                           
#  12 ELLIPTICITY            1 - B_IMAGE/A_IMAGE                                       
         1 -14.6733     68.5452    144.3589   1.0741821103e+02   3.7344385699e+01     4.135142      2.08335  80.19  0.007067935    4.229    0.764
         2 -12.9531      3.3509     14.4204   9.8581909894e+01   7.2221641704e+01     2.526398     0.209343 -50.25  0.008342232    5.433    0.816
         3 -13.3961    205.3561     33.6262   4.6030141693e+01   2.9635616725e+01     1.142477     1.002082  60.87  0.006276411    1.198    0.165
         4 -13.1438    219.6561     18.2391   4.0526093928e+01   2.8037067490e+01     0.871279    0.8251299  47.46  0.003349871    1.285    0.222
         5 -10.1952     33.0000      5.0624   7.8221829089e+01   7.0750750620e+01    0.4394324   0.05723855 -35.74  0.001257575    6.989    0.857
         6  -9.8548     83.1827      4.3881   5.8743148393e+01   6.2336129166e+01    0.2324592   0.09519292 -17.97  0.001007223    2.640    0.621
         7  -9.5667     73.8118      2.3658   6.0614755280e+01   6.4384512692e+01    0.2279661   0.08673016 -25.04  0.001014248    2.607    0.616
         8 -10.7487     47.0643      2.4830   7.0459506797e+01   6.9056152547e+01    0.2704404   0.09318747  38.51  0.001217411    2.710    0.631
         9 -15.7821     41.9797    194.5641   1.1987655040e+02   2.9063504987e+01     7.637336     3.042259  69.26   0.03076019    3.366    0.703
        10 -13.3815     87.8175    227.5408   1.1381162947e+02   1.6292176889e+01     1.263295    0.7771255  53.28  0.001658861    1.357    0.263
        11 -14.8164     68.7093    248.6519   1.1923184871e+02   1.5108960374e+01     8.228559     2.362372  31.83   0.02387801    8.035    0.876
        12 -14.2260     11.3669    206.4292   1.2674197988e+02   2.9786953009e+01     1.219957    0.8193222  27.34  0.004612193    2.019    0.505
        13 -15.8057     10.9277    241.8769   1.2861223709e+02   2.3045290811e+01     2.392083     1.941476  76.87   0.02014392    1.275    0.216
        14 -14.9588      5.8429    183.4078   1.2641829012e+02   3.5103935855e+01     6.937382     0.918568 -78.54  0.002800542    7.919    0.874
        15  -8.7082     99.5073    180.5328   1.0546178582e+02   2.4170724404e+01    0.1394315    0.1238412  72.69 6.800304e-05    1.021    0.021
        16  -8.4702    126.0303    155.0246   9.4610964948e+01   2.5230019985e+01    0.1763163     0.167271 -70.41 0.0009638317    1.051    0.048
        17 -12.3723     78.9068    164.2645   1.0791568916e+02   3.1103672542e+01    0.6975859    0.5133928  56.37 0.0003889878    1.327    0.246
        18  -9.8868    134.3712    147.7175   9.1040223130e+01   2.5248746348e+01    0.5632153    0.1438586 -54.08  0.001380965    5.271    0.810
        19 -10.3203    133.4598    140.7068   8.9722944006e+01   2.7011743796e+01     0.436252    0.2113818 -55.88  0.001610653    2.293    0.564
        20 -11.4767     33.1374    146.7962   1.1699013533e+02   4.0938305137e+01    0.5962563    0.1710943 -76.15   0.00197647    3.976    0.748
        21 -12.1989     31.8972    137.6333   1.1617442387e+02   4.3250574060e+01    0.5084391     0.260885 -68.12  0.002592105    1.601    0.375
        22 -11.7770     86.9211    141.9658   1.0209160895e+02   3.5199475405e+01    0.5775019    0.3326198  35.31  0.002608277    1.884    0.469
        23 -11.3174     22.1739    136.6190   1.1860451193e+02   4.4374009862e+01    0.2702765    0.2218072 -61.39  0.001784689    1.218    0.179
        24  -9.5288    109.9877    131.5209   9.3732990694e+01   3.3716983540e+01    0.3140493     0.247938 -13.75 0.0009317598    1.696    0.410
        25  -9.5712    106.1290    130.8729   9.4628477983e+01   3.4581802051e+01     0.318829    0.2884858  76.17  0.001202623    1.142    0.124
        26 -11.5628     73.6836    126.8026   1.0282180481e+02   4.0894213991e+01    0.7588963    0.1502551 -59.29  0.002010722    4.825    0.793
        27 -11.8936     45.7142    129.2859   1.1121180901e+02   4.3849191379e+01    0.4053908    0.2379545  46.48  0.002069668    1.857    0.461
        28  -9.8810     97.5295    127.7433   9.6292776459e+01   3.6860543344e+01    0.2848154     0.239095 -15.53 0.0006887263    1.483    0.326
        29 -12.8649     85.0417    158.5332   1.0549023559e+02   3.1529059310e+01     1.165907    0.6909732 -65.93  0.002198109    1.643    0.392
        30 -10.9656    135.5831    124.4138   8.5339802263e+01   3.0246779468e+01    0.5362298    0.1983473 -50.80  0.001708366    2.867    0.651
        31 -10.5265    100.4072    141.6454   9.8441396214e+01   3.3035930818e+01    0.5144739    0.3377076 -20.38  0.002061878    2.670    0.626
        32 -10.0740     33.0000    124.9767   1.1413672784e+02   4.6194658488e+01    0.2247258   0.06269739 -67.61 0.0008070678    2.975    0.664
        33  -8.7127     91.6464    124.3180   9.7185377350e+01   3.8687338184e+01    0.2321209    0.1697179  79.24 0.0007207344    1.742    0.426
        34  -9.2698    107.0844    119.9442   9.1835874679e+01   3.6986484656e+01    0.2210556    0.2147869 -50.23 0.0003726278    1.039    0.038
        35 -11.1007     73.6213    106.4697   9.8447897543e+01   4.5814722181e+01    0.7013806   0.09841727 -53.49  0.001717162    5.448    0.816
        36  -9.1479    168.3501    113.3083   7.4630730105e+01   2.5316180277e+01    0.3182345    0.2284568 -79.34   0.00124983    2.069    0.517
        37  -9.0661    205.5368    110.1661   6.6257036520e+01   1.7345840358e+01    0.2389454    0.2057915  17.69 0.0006799589    1.296    0.229
        38  -9.0497    114.6659    110.6605   8.7396072311e+01   3.7674619747e+01    0.1602193    0.1227343 -10.17 0.0007051488    1.751    0.429
        39  -9.8855     83.3887    109.8011   9.6257656375e+01   4.3517900619e+01    0.2238553    0.1238715 -45.52 0.0008620413    1.735    0.424
        40 -11.2715     64.7832    179.4094   1.1332074508e+02   2.9587421385e+01    0.4023334    0.2868864 -37.69  0.001329658    2.016    0.504
        41 -11.9361     69.7191    174.0275   1.1149813919e+02   3.0145983558e+01    0.5049509    0.3904496 -31.06 0.0008707009    1.874    0.467
        42  -9.9310     41.7693    103.2666   1.0780215336e+02   5.0565692047e+01    0.1999058    0.1617656  63.83 0.0006991933    1.428    0.300
        43  -9.4960    128.9869     96.0000   7.9451747925e+01   3.7913105206e+01    0.2625738   0.08978184  46.33 1.976251e-05    2.995    0.666
        44 -10.5067    135.0000    112.9364   8.2551016671e+01   3.2926043805e+01    0.6190791   0.08835836 -44.96  0.001246017    6.864    0.854
        45  -8.7915     74.0000     77.0537   9.0441625159e+01   5.2470649703e+01    0.2366076   0.07483546 -49.19 0.0005364447    2.890    0.654
        46  -9.3933     83.5098     73.4869   8.6128595603e+01   5.1668135982e+01    0.1450879    0.1322331 -26.44 0.0008104561    1.008    0.008
        47  -9.7004     51.0297     63.9654   9.4691285229e+01   5.8448220950e+01    0.2821562    0.1872967  41.62  0.001297066    1.821    0.451
        48  -9.4764     13.3792     59.8951   1.0847267708e+02   6.2800445616e+01    0.1682718    0.1585679 -49.96  0.000393583    1.217    0.179
        49 -10.5241    140.9789     46.3147   6.0657981201e+01   4.4168658746e+01    0.3622952    0.2622032 -78.40   0.00104636    1.896    0.473
        50 -12.6257     46.8272    222.4530   1.2120356792e+02   2.2740660861e+01    0.8973894    0.4060338  72.42  0.001297102    2.393    0.582
        51 -12.6869     38.7253    207.3646   1.2159514178e+02   2.6733280816e+01    0.6617815     0.500127  38.00  0.001368943    1.522    0.343
        52 -11.5207    167.4030    223.2000   9.7466204143e+01   4.2694398016e+00    0.2999277    0.2576074 -68.10  0.001582113    1.510    0.338
        53  -9.5113    143.9593     40.8193   5.8159228200e+01   4.4216930256e+01    0.2443617    0.1701055 -83.38  0.001085386    1.987    0.497
        54 -10.2250     73.7359     27.4627   7.2218491808e+01   6.1489284551e+01    0.3473965    0.1104028 -28.54    0.0012116    3.564    0.719
        55 -11.7431    212.7919     25.7382   4.3110210582e+01   2.8799453277e+01    0.5076645    0.3904156  53.54  0.001053607    1.426    0.299
        56  -8.6274    134.3290     11.6938   4.9931073077e+01   5.0021612449e+01    0.1372288    0.1017033 -68.93 0.0004159833    1.656    0.396
        57 -12.7735    196.4999     39.7791   4.8856616131e+01   3.1031134491e+01    0.7176351    0.5764299  68.66  0.002087386    1.214    0.176
        58 -11.1627    164.7578    219.0170   9.7346280256e+01   5.4039372836e+00    0.3817877    0.1818034 -48.91  0.001783251    2.484    0.597
        59 -12.8295     66.5056    160.2448   1.1038522286e+02   3.3808591223e+01    0.5715234    0.5154406 -31.19  0.001344555    1.421    0.296
        60 -10.5379    192.8479    192.3964   8.7127625101e+01   4.9190445216e+00    0.6313923    0.3818067 -54.24   0.00294331    2.252    0.556
