#   1 NUMBER                 Running object number                                     
#   2 MAG_AUTO               Kron-like elliptical aperture magnitude                    [mag]
#   3 X_IMAGE                Object position along x                                    [pixel]
#   4 Y_IMAGE                Object position along y                                    [pixel]
#   5 X_WORLD                Barycenter position along world x axis                     [deg]
#   6 Y_WORLD                Barycenter position along world y axis                     [deg]
#   7 A_WORLD                Profile RMS along major axis (world units)                 [deg]
#   8 B_WORLD                Profile RMS along minor axis (world units)                 [deg]
#   9 THETA_WORLD            Position angle (CCW/world-x)                               [deg]
#  10 FWHM_WORLD             FWHM assuming a gaussian core                              [deg]
#  11 ELONGATION             A_IMAGE/B_IMAGE                                           
#  12 ELLIPTICITY            1 - B_IMAGE/A_IMAGE                                       
         1 -15.0637    140.0500     70.8351   9.3553447836e+01   4.0782607177e+01     2.509381     1.886281  19.12   0.01151495    1.690    0.408
         2 -14.9138     22.4200     77.6612   1.3220856958e+02   5.8410061723e+01     2.876165     1.692542 -67.63   0.01652167    1.427    0.299
         3 -12.1375    200.8199     65.1057   7.9735780461e+01   2.6529866468e+01    0.5644603    0.2828653 -49.51  0.002198579    2.127    0.530
         4 -15.1065     67.4393     47.8801   1.0711120440e+02   5.9528947627e+01     2.297553     1.789586  42.69   0.01343766    1.474    0.322
         5 -15.9660    141.3491    108.6350   1.0425228081e+02   3.2932978761e+01     4.898789     3.355551 -75.85   0.02025943    2.091    0.522
         6 -13.1898     84.5219     50.1305   1.0205321245e+02   5.6278633356e+01    0.9850057    0.6729577 -62.11  0.004724132    2.073    0.518
         7 -12.3938     14.5090      6.1711   1.1241848672e+02   7.2893832168e+01    0.6546767    0.2604099 -24.94  0.002936619    3.289    0.696
         8 -12.9289     59.9901      4.5294   9.0636040386e+01   6.7194470288e+01    0.8193009    0.4263469  13.49  0.003794756    2.636    0.621
         9 -10.8585     55.7369    226.9786   1.4219375087e+02   2.2253090597e+01    0.3230276    0.1743043  59.97  0.002014872    1.471    0.320
        10  -9.9684    121.1809    222.3573   1.2972176845e+02   1.3614726306e+01    0.1892621   0.09146217  50.17 0.0009547902    1.745    0.427
        11 -10.8172     38.7309    219.8089   1.4468428549e+02   2.5634876321e+01    0.3813671    0.1656795  83.89  0.002018295    2.373    0.579
        12 -10.7926    177.2842    215.9316   1.1824467964e+02   5.1576682737e+00    0.3015962    0.2311121  25.79  0.001849884    1.291    0.225
        13 -10.1559    140.2757    215.7530   1.2523820296e+02   1.1584046545e+01    0.2443689    0.1374987  46.62  0.001294919    1.495    0.331
        14 -11.3972    108.2274    212.7290   1.3105645263e+02   1.7408640707e+01    0.5657778    0.3275513 -63.68  0.003137032    1.904    0.475
        15  -9.9018    134.3040    215.3336   1.2633106826e+02   1.2666749828e+01    0.1173219   0.09792794   9.20 0.0004695142    1.661    0.398
        16 -15.6674     72.7983    193.4187   1.3592985980e+02   2.6512353627e+01     2.721426     1.763532  62.12    0.0161128    1.352    0.260
        17 -11.1751    180.5773    206.9881   1.1621033686e+02   5.9584396371e+00    0.4776985    0.2805913 -24.59  0.002304208    2.474    0.596
        18 -12.0806    178.4349    199.9361   1.1545169961e+02   7.4705742280e+00    0.7756177    0.3421896  40.62  0.003445746    2.028    0.507
        19 -14.1469     94.7888    190.7350   1.3105834966e+02   2.3812832320e+01     1.423644     1.007802  82.21  0.008197573    1.416    0.294
        20 -10.3931     21.7558    206.5358   1.4685926135e+02   3.0031581981e+01     0.245937    0.1081541  56.71  0.001446576    1.825    0.452
        21 -10.8458    218.1969    205.2155   1.0901182845e+02  -3.7113251434e-01    0.3038783    0.2191206  42.00  0.001831505    1.324    0.244
        22 -10.6369     29.3432    212.6531   1.4588190894e+02   2.8045354261e+01    0.2344049    0.1370367  79.56  0.001552477    1.368    0.269
        23 -10.4618    119.1064    200.8935   1.2739173700e+02   1.7852184044e+01    0.2238755    0.1790336 -59.41  0.001367236    1.398    0.285
        24  -9.9924    152.9871    198.8229   1.2026149910e+02   1.2296348354e+01    0.2154922    0.1478408  19.94  0.001078561    1.984    0.496
        25 -10.4642    191.4529    208.1397   1.1436249021e+02   3.8532560503e+00    0.2146028    0.1680501  52.40  0.001296692    1.335    0.251
        26 -10.0410    204.4101    195.7751   1.0982463308e+02   3.4028733678e+00    0.1787612    0.1200367 -21.75 0.0009543738    1.711    0.416
        27 -11.1266    113.8211    193.0242   1.2739175175e+02   2.0266564256e+01     0.457949     0.264303 -76.18  0.002195186    2.195    0.544
        28  -9.9892    248.3287    193.3157   1.0168754719e+02  -3.8040874383e+00    0.1300555   0.08301082   9.40 0.0007011706    1.677    0.404
        29 -11.2833    193.2698    191.0905   1.1106453766e+02   6.1682220880e+00    0.4912286    0.2347383  40.67   0.00223284    1.903    0.474
        30 -10.8928    145.6136    192.0162   1.2066766934e+02   1.4871209746e+01    0.2556333    0.2100584 -14.24  0.001440829    1.665    0.399
        31 -11.7290     37.2857    188.4375   1.4263773250e+02   3.2013042512e+01     0.500005    0.2170878 -67.47  0.002671974    2.081    0.519
        32 -12.1865    152.1648    211.1139   1.2229138701e+02   1.0319520043e+01    0.7192545    0.4613765  54.76  0.003954544    1.486    0.327
        33 -11.1668    139.9886    188.6115   1.2128032927e+02   1.6537502141e+01    0.4760995    0.2066895 -53.29  0.002019729    2.559    0.609
        34 -12.4623      8.4707    187.5050   1.4816512229e+02   3.5109743008e+01     0.512139    0.4214479  24.88  0.003915009    1.828    0.453
        35 -12.6473    206.1748    185.3406   1.0757138462e+02   4.6813864161e+00    0.8727837    0.4618552  30.18  0.003961537    2.079    0.519
        36 -10.6414    123.2502    187.7577   1.2465126488e+02   1.9695201313e+01      0.33862    0.1975376  66.11  0.001559185    2.087    0.521
        37 -10.4296    160.8454    185.1528   1.1639970696e+02   1.3299392007e+01    0.2134572    0.1825846  63.73 0.0008981038    1.199    0.166
        38 -10.7301    130.2544    184.4277   1.2265351383e+02   1.9113067053e+01    0.3921941    0.2314579  48.65  0.001937264    1.540    0.351
        39 -11.8490    167.3228    179.5771   1.1407722323e+02   1.3075823407e+01    0.6758763    0.4748851 -62.55   0.00343006    1.775    0.437
        40 -12.2789     19.2731    178.2489   1.4545193300e+02   3.6021880537e+01    0.4963531    0.2273398 -76.18  0.002809526    1.791    0.442
        41 -10.5069    131.2389    178.9167   1.2154822445e+02   2.0034317772e+01    0.2899028    0.2144123 -27.33  0.001469445    1.951    0.487
        42 -10.9646    101.0061    175.9857   1.2769478091e+02   2.5901930165e+01    0.2166795     0.184128  72.92  0.001301966    1.039    0.038
        43 -10.9892     97.3340    173.6766   1.2817019406e+02   2.6994620301e+01    0.3981569    0.2490534  45.93  0.002071837    1.514    0.339
        44 -11.3769    195.9279    173.1226   1.0714572209e+02   8.6226040494e+00    0.2933056    0.2547501 -13.76   0.00170137    1.196    0.164
        45 -11.1932    108.0608    171.3916   1.2542353190e+02   2.5704236614e+01    0.5097377    0.3500539  62.66    0.0026689    1.446    0.308
        46 -10.7491    121.6989    181.6366   1.2403993521e+02   2.1196514277e+01    0.3204728    0.2659378  33.68  0.001712064    1.346    0.257
        47 -10.2008    116.7246    171.5708   1.2351592982e+02   2.4161555297e+01     0.260808    0.1307269  37.56  0.001121754    2.108    0.526
        48 -10.6470    141.7858    169.3404   1.1759324823e+02   1.9990847893e+01    0.3700399    0.2280849  54.92  0.001737975    1.631    0.387
        49 -10.9124     27.0461    169.2421   1.4312970949e+02   3.7187335870e+01    0.2858538     0.228493 -71.22  0.002011015    1.312    0.238
        50 -10.5734    215.6115    168.6830   1.0254609586e+02   5.5307697132e+00    0.2731176    0.2515223 -89.53   0.00162627    1.426    0.299
        51 -11.1958    149.3120    166.7807   1.1548004921e+02   1.9043311560e+01    0.6971037    0.3068694  51.05  0.002715516    2.315    0.568
        52 -11.7452    151.3663    160.3762   1.1379226539e+02   1.9922173766e+01    0.6494617    0.4590453 -28.13  0.003092031    1.827    0.453
        53 -11.0136     48.8465    167.5809   1.3822665693e+02   3.5165349999e+01    0.3524386    0.2391979 -84.26     0.002135    1.260    0.206
        54 -10.4919     50.4875    163.4991   1.3740424573e+02   3.5877748250e+01    0.2560045    0.1572505  74.59  0.001413398    1.584    0.369
        55 -10.8749    125.6970    167.1600   1.2076133703e+02   2.3472551052e+01    0.3112912    0.2899516 -44.66  0.001366045    1.232    0.188
        56 -10.1484    100.3338    168.5813   1.2672666457e+02   2.7608631437e+01    0.2613295    0.1187055  45.61  0.001129603    2.072    0.517
        57 -11.5186    145.2070    208.8971   1.2332127115e+02   1.1913047640e+01    0.4483004    0.3693702 -69.78  0.002580911    1.400    0.286
        58 -10.7981    175.3221    167.3481   1.1009951548e+02   1.3743283558e+01    0.4596714    0.2764804  54.49  0.002099096    1.764    0.433
        59 -11.4376    175.9800    163.2799   1.0914560705e+02   1.4365142572e+01    0.3907978    0.2906438 -45.35  0.002012992    1.421    0.296
        60 -10.5672    162.6392    164.9892   1.1227572801e+02   1.6743902143e+01    0.2987356    0.2230408 -71.02  0.001225567    1.691    0.409
        61 -12.7752    198.7911    160.6870   1.0405087485e+02   1.0184777412e+01    0.8107277    0.6206709  41.62  0.004321993    1.259    0.205
        62 -10.9191     89.3705    163.5703   1.2847287805e+02   3.0478006621e+01     0.355417    0.2358063  69.36  0.001629511    1.580    0.367
        63 -11.7448     58.3040    161.0957   1.3533057613e+02   3.5450661879e+01     0.536572     0.390503 -87.66  0.003230193    1.200    0.167
        64 -10.9179    222.9371    161.5094   9.9732463701e+01   5.2617792975e+00    0.3359023    0.2486293  66.34  0.001719393    1.889    0.471
        65 -11.8811    102.7456    157.6436   1.2439237461e+02   2.9615883912e+01    0.6938931    0.2896288 -51.82  0.002800314    2.433    0.589
        66 -10.9977     91.6947    158.1049   1.2707810295e+02   3.1333980209e+01    0.3525167    0.2097615  51.71  0.001733741    1.640    0.390
        67 -10.1286     90.0529    154.4768   1.2688292486e+02   3.2415121792e+01    0.2406921    0.1818268  37.98  0.001313017    1.459    0.315
        68 -12.1989     20.3136    154.3033   1.4328512934e+02   4.1114544905e+01    0.6103858    0.3980634  78.99  0.003892242    1.302    0.232
        69 -11.3958    231.7175    150.5950   9.5854340114e+01   5.2862749552e+00    0.4082877    0.2835376 -45.93  0.002111367    1.594    0.373
        70  -9.6206    142.2867    157.3124   1.1519941775e+02   2.2361286505e+01    0.1388452    0.1166713  -3.33 0.0003086831    1.580    0.367
        71 -10.8698    209.5209    162.9777   1.0249192701e+02   7.6463789783e+00    0.3408394     0.262103   1.88  0.001805093    1.466    0.318
        72 -11.8894    187.6964    153.8023   1.0477170891e+02   1.3698733233e+01    0.4163528    0.3421013  86.79  0.002135206    1.597    0.374
        73 -11.4816    178.9700    152.8353   1.0634158804e+02   1.5708453940e+01    0.3648448    0.2257003 -38.43  0.001664351    1.691    0.409
        74 -12.8293    115.7990    146.6182   1.1926425205e+02   2.9765219243e+01     1.167727    0.8846835  87.04  0.005895798    1.498    0.332
        75 -11.8332    103.5474    146.5255   1.2222409695e+02   3.1980343311e+01    0.6792659    0.3140938 -65.29  0.002636262    2.505    0.601
        76 -12.5043    107.1334    142.1245   1.2050499853e+02   3.2349649208e+01    0.7964514    0.6098344  75.02  0.004113544    1.408    0.290
        77 -10.7874    126.6770    150.4292   1.1742379878e+02   2.6876316513e+01    0.3625183     0.332662 -59.06  0.002047329    1.124    0.110
        78 -10.8780    249.4875    146.0172   9.1915200808e+01   2.6078653968e+00    0.2081794    0.1946126 -48.06  0.001300431    1.285    0.222
        79 -11.7338    123.4940    207.0257   1.2733841174e+02   1.5968674403e+01    0.2727564    0.2235583 -12.11  0.001596083    1.924    0.480
        80 -10.0396     60.9669    150.5114   1.3330914390e+02   3.7520921907e+01    0.1908566    0.1224491  42.95  0.001039098    1.619    0.382
        81 -10.6552    161.8017    147.9638   1.0893486617e+02   2.0278769331e+01    0.3342675    0.2681355 -63.93  0.001567677    1.387    0.279
        82 -11.2961    138.5735    144.7142   1.1347499926e+02   2.5767303876e+01    0.5521973    0.4592115  -2.83  0.002781779    1.617    0.382
        83 -11.6464     12.5018    145.3743   1.4426667445e+02   4.3775809530e+01    0.4289362     0.406165  -3.34   0.00331156    1.549    0.354
        84 -11.0227    198.5901    143.0537   1.0023633168e+02   1.3348835192e+01    0.3570047    0.2303991 -45.45  0.001658587    1.613    0.380
        85 -10.1912     53.8658    143.1146   1.3402376574e+02   4.0122834597e+01    0.2098911     0.157143  81.97 0.0009422778    1.239    0.193
        86 -10.2029     82.4634    142.0468   1.2666488100e+02   3.6452859546e+01    0.3173954    0.2022477  11.03  0.001306194    3.199    0.687
        87 -10.0380    213.5607    152.2410   9.9447584747e+01   8.6298513280e+00    0.2750705    0.1305468 -41.76  0.001138748    2.150    0.535
        88  -9.9972     28.8427    140.1538   1.3984586480e+02   4.3515095271e+01    0.1938275    0.1393409  81.17  0.000972019    1.229    0.186
        89 -10.4525    204.6842    139.3417   9.8219010107e+01   1.2708010340e+01    0.2281111    0.1815096 -79.85  0.001113706    1.745    0.427
        90 -12.6986    152.7216     89.8093   9.6325248965e+01   3.4159805211e+01    0.9288384     0.717636 -79.89    0.0042418    1.639    0.390
        91 -12.7621    121.9006    237.7472   1.3134462165e+02   1.0937522383e+01    0.5507361    0.3619211 -41.86  0.003328685    2.241    0.554
        92 -10.5459     44.1534    131.3588   1.3484019100e+02   4.3986665013e+01    0.2626024    0.2072939  66.34  0.001340092    1.267    0.211
        93 -10.3093    112.0281    130.8085   1.1695721344e+02   3.4032491039e+01    0.2715299    0.2116502 -56.30  0.001058958    1.242    0.195
        94 -11.2744    245.4464    128.3569   8.8625661826e+01   6.0791775097e+00    0.3985892    0.3034939 -40.51  0.002193423    1.283    0.220
        95 -10.9689    233.3608    127.1994   9.0305313219e+01   8.7099701276e+00    0.3622693    0.2219037  66.75  0.001589946    2.338    0.572
        96 -10.3317    221.4577    126.3457   9.2125865292e+01   1.1359956938e+01    0.4123897    0.1931962 -20.80  0.001370265    3.387    0.705
        97 -10.3745    116.9968    126.2309   1.1468217661e+02   3.4127742487e+01    0.2743499    0.2136637 -55.19  0.001382593    1.246    0.198
        98  -9.6738     89.3020    127.3074   1.2213795165e+02   3.8812405300e+01    0.1370294    0.1102262 -28.58 0.0003900354    1.600    0.375
        99 -10.4476    210.5544    124.5062   9.3631453234e+01   1.4051183518e+01     0.279228    0.2252747  60.31  0.001431576    1.368    0.269
       100 -13.8398    185.4918    111.7229   9.5250126583e+01   2.2113808826e+01     1.537285     1.391863  -9.84  0.008035916    1.185    0.156
       101 -10.3970     97.5031    120.4963   1.1850378411e+02   3.9018526984e+01    0.2617344    0.2165915  47.43  0.001228036    1.266    0.210
       102 -11.7071     99.3141    116.3734   1.1708511388e+02   3.9652961297e+01    0.4763313    0.4476459 -31.48  0.002421524    1.192    0.161
       103 -11.5252    237.1573    117.9586   8.7523318557e+01   9.4151814767e+00     0.413027     0.266714  -1.08  0.001799327    2.256    0.557
       104 -10.9520     66.0844    117.4581   1.2654295895e+02   4.4585702658e+01     0.458227    0.2205346 -57.18  0.002074212    1.814    0.449
       105 -10.7234     86.8002    117.2937   1.2072218495e+02   4.1555094564e+01    0.2548861    0.1814878 -67.59 0.0008685105    1.367    0.268
       106 -13.9916     47.7860     84.0328   1.2500244301e+02   5.4593896368e+01     1.991703     1.042351 -65.54  0.009566964    1.842    0.457
       107  -9.9944    168.8519    236.8455   1.2278964485e+02   3.5122534956e+00     0.166148    0.1271934  57.26  0.001051352    1.340    0.254
       108 -11.1693    220.0036    110.2669   8.8483385401e+01   1.4409994134e+01    0.4588272    0.2453478 -23.75  0.001820499    2.213    0.548
       109 -10.6735    114.2915    113.1555   1.1229903208e+02   3.7600704447e+01    0.4380285     0.240688  57.11  0.001750682    2.197    0.545
       110 -11.0669     85.2264    109.3368   1.1938832917e+02   4.3659216754e+01    0.4074999    0.3202248 -46.96  0.002190621    1.247    0.198
       111 -10.4036    106.4476    109.7804   1.1357149807e+02   3.9860824195e+01    0.2755977    0.2540469  14.00  0.001485302    1.262    0.208
       112 -11.9226     63.7110    109.0953   1.2555946825e+02   4.6868938405e+01    0.7040408    0.3727558  44.59  0.003331763    2.079    0.519
       113 -11.1986    238.6155    103.1924   8.3763756829e+01   1.1476973156e+01    0.5621508    0.2192788  48.34  0.002141129    2.755    0.637
       114 -10.3371    225.4914    103.0081   8.5771336232e+01   1.4397955394e+01    0.2268706    0.2043779  56.82 0.0008162158    1.192    0.161
       115 -13.8047    134.8433    115.2814   1.0756532999e+02   3.2924721816e+01     1.913663    0.9017567 -50.55  0.007212406    2.156    0.536
       116 -10.7389    198.7420    121.8809   9.5202920120e+01   1.7165346017e+01    0.3871565    0.2470552 -24.83  0.001681525    1.778    0.438
       117 -11.7781    169.3992     96.7103   9.4576736292e+01   2.8818233243e+01    0.8046758     0.464401 -36.89  0.003301279    1.734    0.423
       118 -12.8526    210.5931     96.4631   8.6591197536e+01   1.8937774884e+01    0.7967912    0.6196163  82.80  0.003886106    1.563    0.360
       119 -10.0486     77.1996     94.3653   1.1814903176e+02   4.8356907093e+01    0.2026186    0.1708138 -46.61  0.001141126    1.117    0.105
       120 -10.1876     88.2623    134.1088   1.2374299969e+02   3.7393602939e+01    0.3163621    0.1997911 -27.36  0.001305118    2.826    0.646
       121 -13.4521    105.6010     81.1494   1.0595211233e+02   4.6283034352e+01     1.619632     1.314322  -7.33  0.008202967    1.507    0.336
       122 -13.2202    101.5873     70.1206   1.0366380978e+02   4.9309731981e+01     1.229835    0.9092556  37.48  0.006222252    1.438    0.305
       123 -11.1518     81.8528     86.3707   1.1460404179e+02   4.9416152685e+01    0.5783979     0.368646   5.20  0.002350755    2.943    0.660
       124 -10.0204    235.1976     87.3757   8.0381397646e+01   1.4746042312e+01    0.1978375    0.1392092  75.22 0.0009565111    1.722    0.419
       125 -10.5959    202.8178     84.3769   8.4723125644e+01   2.2872807689e+01      0.33145    0.2786056  42.54  0.001692343    1.272    0.214
       126 -10.3147    186.8070     80.3299   8.6476395214e+01   2.7531071714e+01    0.2732381    0.2324955 -31.85  0.001373995    1.179    0.152
       127 -10.8381    198.2816     78.9935   8.4034409592e+01   2.4900732989e+01    0.3379532    0.2226014  70.62  0.001484236    1.733    0.423
       128 -13.7543     36.9477    110.3845   1.3360668788e+02   4.9645605372e+01     1.732677     1.450746  -5.47   0.01111645    1.619    0.382
       129 -10.9190    246.5578     76.2085   7.6071222367e+01   1.3929689486e+01     0.361757    0.1318855 -30.12   0.00131387    2.682    0.627
       130 -10.7389    144.3516    235.4663   1.2702474505e+02   7.7173997005e+00    0.2560161    0.1759635  56.81  0.001601003    1.331    0.249
       131 -10.9247    114.5016    232.7712   1.3214408935e+02   1.2902555459e+01    0.2802793    0.1856818 -47.99  0.001715814    2.030    0.507
       132 -12.0947    129.0933     55.7802   9.1254409441e+01   4.6015749265e+01    0.6082788      0.39976  31.38  0.002702403    1.793    0.442
       133 -12.0299    249.8594     53.9258   7.0255217586e+01   1.6415350180e+01    0.8685949   0.07048518 -33.46  0.002099631    6.326    0.842
       134 -10.9379    232.5124     55.9951   7.2795250176e+01   2.0120287009e+01    0.2263909     0.131507 -32.79  0.001042151    1.619    0.382
       135 -12.1233      6.8077     48.7663   1.3159729285e+02   6.5642523023e+01    0.6876311    0.3220964 -26.86  0.003617687    2.557    0.609
       136 -11.6628    124.6700     49.2324   9.0069311399e+01   4.8120348432e+01    0.4911428    0.3018279  -5.22  0.001938953    2.532    0.605
       137 -11.7293    126.4955     41.9939   8.7006184021e+01   4.8813735108e+01     0.501275     0.293924 -37.88  0.002254775    1.714    0.417
       138 -11.2656    122.7144     40.8557   8.7518106997e+01   4.9866771516e+01    0.3477499    0.2780654 -17.96  0.001824739    1.290    0.225
       139 -13.1636    171.6746     63.1024   8.4282042611e+01   3.4278462900e+01     1.385364     0.673999  68.24  0.004975813    2.539    0.606
       140 -10.3900    120.3590     48.0671   9.0754332113e+01   4.9295694856e+01    0.2614079    0.1964155  39.57   0.00106877    1.343    0.255
       141 -10.6448     73.5121    233.4713   1.3957139525e+02   1.8761850016e+01    0.2110318    0.1023909 -70.98   0.00121371    2.175    0.540
       142 -11.1711     71.5033    133.9777   1.2808712879e+02   3.9947588822e+01    0.3915602    0.3031697  44.12  0.002233386    1.388    0.280
       143 -10.6262    113.4692     42.3204   9.0452734430e+01   5.1744738665e+01    0.2895473    0.2378406   1.58  0.001368583    1.302    0.232
       144 -11.3784    245.7411    112.9001   8.5003998952e+01   8.4379089073e+00     0.243942    0.1942981  32.85  0.001340968    1.383    0.277
       145 -10.1700    116.3307     36.3573   8.7442267955e+01   5.1987344430e+01    0.3095753    0.1849919  61.89  0.001393886    1.873    0.466
       146 -10.5499     52.7679    133.7308   1.3294078860e+02   4.2444593453e+01    0.3024241    0.1547426 -68.13  0.001476551    1.702    0.412
       147 -11.4294    101.4262     29.0703   8.8566505801e+01   5.6279915991e+01    0.4365537    0.2407082  38.88   0.00201369    1.841    0.457
       148 -12.7234     13.2782    228.1165   1.4945707572e+02   2.6852832929e+01     0.595063    0.3336344  57.52  0.004315798    1.331    0.249
       149 -12.1502    187.3050    131.9171   9.9888582333e+01   1.7869386070e+01    0.7309624    0.5068538  41.31  0.003432467    1.465    0.317
       150 -12.1790    205.2835    230.0038   1.1535457101e+02  -1.5188276488e+00    0.5373085    0.3248854  51.99  0.003043924    1.853    0.460
