#   1 NUMBER                 Running object number                                     
#   2 MAG_AUTO               Kron-like elliptical aperture magnitude                    [mag]
#   3 X_IMAGE                Object position along x                                    [pixel]
#   4 Y_IMAGE                Object position along y                                    [pixel]
#   5 X_WORLD                Barycenter position along world x axis                     [deg]
#   6 Y_WORLD                Barycenter position along world y axis                     [deg]
#   7 A_WORLD                Profile RMS along major axis (world units)                 [deg]
#   8 B_WORLD                Profile RMS along minor axis (world units)                 [deg]
#   9 THETA_WORLD            Position angle (CCW/world-x)                               [deg]
#  10 FWHM_WORLD             FWHM assuming a gaussian core                              [deg]
#  11 ELONGATION             A_IMAGE/B_IMAGE                                           
#  12 ELLIPTICITY            1 - B_IMAGE/A_IMAGE                                       
         1 -12.8790    220.7659      4.8046   3.0243499628e+01   3.0390080165e+01    0.9762896     0.543663 -46.61  0.006033578    1.499    0.333
         2 -13.8655    239.3548     30.8563   3.4335875301e+01   2.3926378443e+01     1.300966    0.7636923 -57.22  0.004003312    1.428    0.300
         3 -11.8636    234.0764      2.8904   2.9074947689e+01   2.7961552254e+01    0.9542261    0.3550288 -67.31  0.004430239    2.790    0.642
         4 -11.4099    241.7445      2.6428   2.8618142587e+01   2.6535927268e+01    0.4998022     0.254048 -69.28  0.002804172    1.723    0.420
         5 -11.8609    247.1363     23.9740   3.2427084580e+01   2.3273266730e+01    0.6841716    0.3395422 -65.66  0.002914392    1.914    0.478
         6 -13.8330    248.0218     16.8465   3.0993897590e+01   2.3899817270e+01     2.749907    0.5213096 -32.94   0.01052811    4.397    0.773
         7 -12.8895    231.5489     14.2762   3.1512051853e+01   2.7279558806e+01    0.8360004    0.5868604 -18.29   0.00535963    1.935    0.483
         8 -11.4327    249.4646      6.7541   2.8998019181e+01   2.4702137481e+01    0.5771268    0.1863886 -37.12  0.003015653    2.402    0.584
         9 -11.6010    238.4393     16.7039   3.1556970560e+01   2.5696050490e+01    0.6212137    0.2847342 -47.60  0.003574497    1.708    0.414
        10 -11.9096    223.7870     27.5281   3.4846442686e+01   2.7341796897e+01    0.4383392    0.2726996 -21.01  0.001819008    2.092    0.522
        11 -11.3335     16.3015     20.4184   8.5554723379e+01   7.1950655818e+01    0.3992461     0.267135 -56.81  0.002286577    2.034    0.508
        12 -10.6688     87.9782     16.4067   5.1731630766e+01   5.9864311294e+01    0.2849637    0.2652426  71.21  0.001044258    1.177    0.151
        13 -11.4738     22.9630     17.0920   7.9720024193e+01   7.1727199920e+01    0.6049699    0.2953653  35.72  0.002732207    2.088    0.521
        14  -9.8985    195.1630     16.9424   3.4885518219e+01   3.4548451809e+01    0.1894808    0.1374843 -65.03 0.0003985724    1.217    0.178
        15 -11.8353    204.4790     11.6569   3.2875152870e+01   3.3079813322e+01     0.388058    0.2327756 -60.21  0.001343502    1.476    0.322
        16 -11.9667    209.2250      9.5840   3.2052380412e+01   3.2286145775e+01    0.3477187    0.2146402 -85.05 2.478407e-05    1.485    0.327
        17 -10.1635    156.4972     16.5551   3.8916756150e+01   4.3501341528e+01    0.2297746   0.09854368 -41.21  0.001033886    2.289    0.563
        18 -10.7469    141.1074     12.2228   3.9684032858e+01   4.7628347018e+01    0.2652088    0.2439103   3.89 0.0004362708    1.309    0.236
        19 -11.1963      7.4949      9.5088   8.6024803803e+01   7.4623277089e+01    0.2392644    0.1923132  -1.96  0.001685079    1.107    0.097
        20 -10.5451    128.8813     11.4094   4.1256951182e+01   5.0665453618e+01    0.2516158    0.1525429 -54.97  0.000948993    1.887    0.470
        21 -10.8969     22.5861      2.3248   7.1609505621e+01   7.3851984645e+01    0.3989541    0.1329712  34.30  0.001754582    2.781    0.640
        22 -11.5775     26.7903      9.8671   7.3511796540e+01   7.2271950309e+01    0.4559469    0.3642868  54.63  0.002087614    1.990    0.498
        23 -10.8608     21.1790      6.7813   7.5164087925e+01   7.3463256698e+01    0.2605735    0.2289888  69.08  0.001527074    2.163    0.538
        24 -10.8050     13.4792     10.0578   8.2105469416e+01   7.3924449324e+01    0.3051874     0.106263 -43.86   0.00138573    2.824    0.646
        25 -11.6443    113.0641     12.4609   4.4400806758e+01   5.4385327540e+01    0.3055746    0.2324554 -35.68 0.0002730321    1.466    0.318
        26  -9.5165     42.0396     11.0568   6.5999127491e+01   6.9727122888e+01    0.1908354    0.1552286  18.39 0.0003654829    1.018    0.017
        27 -10.4169    182.9585      8.9557   3.4036142581e+01   3.8085733547e+01    0.1871247    0.1577321 -84.21 0.0003934394    1.029    0.028
        28  -9.5759    176.5083      7.5072   3.4263641845e+01   3.9694217237e+01    0.1246279    0.1045555 -81.53 -2.00231e-05    1.009    0.009
        29 -11.1713     65.5189      5.6433   5.3628594387e+01   6.5812393505e+01    0.4481591    0.2743592  42.06   0.00157878    1.381    0.276
        30  -9.8103    110.0007      3.4908   4.1682420125e+01   5.5896965492e+01    0.1777998    0.1678979  55.94 0.0004249551    1.105    0.095
        31 -11.3574    185.7078      3.0273   3.2338256365e+01   3.8028489540e+01    0.3983237    0.2324332 -89.55  0.001385893    1.567    0.362
        32  -9.2438     95.2346      5.3960   4.5378363931e+01   5.9229639479e+01    0.1826255    0.1138412  74.15 0.0009463515    1.642    0.391
        33 -11.7795    203.4112      3.2747   3.1059266866e+01   3.4137542094e+01     0.409281    0.1726413  86.23  0.001244195    2.350    0.574
        34 -10.1138    169.2010      4.6288   3.4209312916e+01   4.1647623127e+01    0.1784629   0.09679821  65.19 0.0006391839    1.664    0.399
        35 -10.9926    149.4438      2.5730   3.5712117593e+01   4.6485374795e+01    0.3565343    0.1959557  53.32  0.001680708    1.782    0.439
        36  -9.6810    121.0250      3.5431   3.9841295727e+01   5.3245915883e+01    0.2017669    0.1098806  67.73 0.0005449652    1.564    0.361
        37  -9.4369     40.2450      3.0313   6.2385683624e+01   7.0954908672e+01    0.2703395    0.1159515  28.82  0.001174943    2.678    0.627
        38 -11.3624      9.4564      2.3002   8.0466543901e+01   7.5513806459e+01    0.6625923    0.1798232  27.44  0.002650044    3.740    0.733
        39 -10.5952     32.3327      6.4733   6.8424662022e+01   7.1880801023e+01    0.2663918     0.171585  18.25 0.0008397159    1.444    0.308
        40  -9.3730    130.4668      2.4549   3.8073047372e+01   5.1055873878e+01    0.1282011    0.1096848  81.16  0.000194078    1.043    0.041
        41 -10.5163    101.4219     13.4117   4.7185374560e+01   5.7061547836e+01    0.2555861    0.2004602  44.20  0.001509398    1.170    0.146
        42  -9.0767     65.5334    131.5638   9.6286165435e+01   4.1117166093e+01    0.1461216    0.1420818 -58.09 0.0008062331    1.006    0.006
        43 -10.6097    248.9771    250.0262   7.4722390933e+01  -8.5814282450e+00    0.3120158    0.1498552  17.85  0.001731546    1.881    0.468
        44 -10.1838    249.1393    245.3090   7.3977908404e+01  -8.0394596684e+00     0.199781    0.1336266  -7.94 0.0008786055    1.088    0.081
        45 -10.5793    232.8719    250.2934   7.7438175519e+01  -6.9853566594e+00    0.2545164    0.1247996  27.33  0.001549866    1.847    0.459
        46  -9.6231    110.5176    249.4747   1.0142841739e+02   8.2384530128e+00    0.2767377    0.1544409  56.89  0.001371431    2.379    0.580
        47 -10.7583     65.2361    248.8347   1.1110194895e+02   1.4008366878e+01    0.4110046    0.1766253  44.49  0.002075595    1.903    0.475
        48 -10.3037     50.5385    250.0962   1.1429811007e+02   1.5450573761e+01     0.393169    0.1134397  36.60  0.001757542    2.471    0.595
        49 -11.3524     35.6957    247.9934   1.1724448794e+02   1.7445873802e+01    0.5508409    0.1736361  51.44  0.002467446    2.744    0.636
        50 -10.5153     20.4184    249.1206   1.2040364641e+02   1.8760728796e+01    0.3781859    0.1712711  42.00  0.002019941    1.672    0.402
        51 -10.1880     12.8518    248.9982   1.2189721522e+02   1.9497580726e+01    0.2999491    0.1420854  53.43  0.001582904    1.658    0.397
        52 -10.3392      3.5922    250.2841   1.2374502245e+02   2.0088317173e+01    0.2927964    0.1312997  28.21  0.001673113    2.098    0.523
        53 -11.2161      2.9549    243.1398   1.2361013652e+02   2.1506139244e+01    0.4409696    0.1973038  73.10  0.002462434    2.071    0.517
        54  -9.4776    249.0358    130.4870   5.3592559304e+01   8.2334363315e+00    0.1600756    0.1232733  42.65  0.001032451    1.591    0.371
        55  -9.0131     25.4944    128.5244   1.0928839546e+02   4.6397603574e+01    0.1377801    0.1246212 -71.91 0.0005626081    1.002    0.002
        56  -9.7428      2.1600    126.8804   1.1691274525e+02   4.8440048895e+01    0.2059931    0.1609219  74.35  0.001225745    1.267    0.211
        57  -9.2231     28.3362    125.3219   1.0786387876e+02   4.6983400832e+01    0.1494019   0.09364503 -38.40 0.0007050418    1.710    0.415
        58 -10.0831     69.2370    122.8948   9.3290344897e+01   4.2798886367e+01    0.2260524    0.2101308  27.99 0.0003385429    1.108    0.098
        59 -11.1964    248.1419    112.6703   5.0158555058e+01   1.1094293013e+01    0.2340745    0.1514829 -37.67  0.000943545    1.249    0.199
        60 -12.3275    248.2820    104.8874   4.8573532634e+01   1.2246209598e+01    0.7911839    0.1801885 -43.66  0.002791418    3.691    0.729
        61  -8.9146    105.0317    111.5361   7.8995076578e+01   3.9430056729e+01    0.2299461    0.1520467  39.09 0.0004803527    1.519    0.342
        62 -10.4863    249.9974     98.0348   4.6989313333e+01   1.2985072790e+01    0.1931282    0.1551459 -41.78  0.001128169    1.002    0.002
        63  -8.9415     72.3238     95.3369   8.5550203046e+01   4.9089235062e+01    0.1589895    0.1130204 -18.49 0.0007051039    1.717    0.417
        64 -12.0028    242.9698     91.7796   4.6529921808e+01   1.5092477339e+01    0.3824454    0.1851846 -33.57   0.00191452    1.854    0.461
        65 -11.1340    238.1369     90.5891   4.6853134313e+01   1.6111951984e+01    0.2287823     0.155798  39.57  0.001316333    1.935    0.483
        66  -9.1780     19.0351     91.5291   1.0581563069e+02   5.6370074921e+01     0.194025    0.1332248  15.99 0.0009708847    1.602    0.376
        67  -9.3500     38.3187     89.9594   9.7454724147e+01   5.5011563738e+01    0.1926721    0.1629383 -49.15 0.0002930804    1.081    0.075
        68  -9.2563     28.0682     89.1061   1.0154400183e+02   5.6233064761e+01    0.2106673    0.1604965  67.19 0.0009078238    1.659    0.397
        69 -11.6940    248.2855     86.4649   4.4842819260e+01   1.4960616159e+01    0.4161733    0.2292358 -51.88  0.002289722    1.681    0.405
        70  -8.9805    189.0303     87.9837   5.3185128461e+01   2.6114342475e+01    0.1593319    0.1492025 -55.44 0.0009400528    1.017    0.017
        71 -11.2867    239.1677     84.5197   4.5462261264e+01   1.6828461652e+01    0.3258998    0.1600222 -54.27  0.001576653    2.137    0.532
        72  -8.7848    135.6479     83.3436   6.2685042119e+01   3.8850819781e+01     0.158537    0.1188935 -80.84 0.0007040908    1.813    0.448
        73 -10.4291    195.7736     82.0868   5.0670491812e+01   2.5654354092e+01    0.2150789    0.1914484  62.40 0.0002686166    1.206    0.171
        74  -9.0066     88.4829     82.4237   7.6070444213e+01   4.9107910724e+01    0.1498764    0.1417053   4.29 0.0001034709    1.026    0.026
        75 -10.9277    248.6286     80.3099   4.3558325051e+01   1.5782974800e+01    0.3314382    0.1913257 -73.20  0.001689092    2.520    0.603
        76 -11.3552    243.9972     76.5073   4.3269273349e+01   1.7128275059e+01     0.313197    0.1848963 -85.22  0.001607089    2.536    0.606
        77  -9.2919     12.5021     81.4960   1.0670669983e+02   5.9285003645e+01    0.1357144    0.1123997 -46.47 -8.420644e-05    1.044    0.042
        78 -11.4262    234.6488     74.8340   4.3931896921e+01   1.9053908655e+01    0.3161539    0.2067614 -68.62  0.001440724    1.728    0.421
        79  -9.6176     19.8110     74.5572   1.0192513700e+02   6.0438578212e+01     0.268572    0.1494003  37.29  0.001297638    2.077    0.518
        80 -10.6652    128.7592     71.2053   6.0746503294e+01   4.2636014618e+01    0.2458998    0.2317587  15.96 0.0002595624    1.116    0.104
        81  -9.6699     29.0050     71.5317   9.6909305060e+01   6.0346293549e+01    0.1931241    0.1658945 -39.84 0.0003274214    1.038    0.036
        82 -11.4536    244.3331     70.6977   4.2041278836e+01   1.7883883781e+01    0.2538159    0.1469783 -59.71  0.001408494    1.761    0.432
        83 -11.9274    249.0343     65.0688   4.0438499882e+01   1.7823927190e+01     0.572681    0.2098901 -42.92  0.002758805    2.107    0.525
        84 -12.4368    243.8311     58.5480   3.9601706284e+01   1.9625930158e+01    0.4295064    0.3161699 -89.95   0.00282875    1.473    0.321
        85  -8.6080    137.6889     69.6944   5.8173049429e+01   4.0826726886e+01    0.1475302    0.1150396  18.45 0.0002600919    1.615    0.381
        86 -11.6492    235.2915     67.0878   4.2220675717e+01   2.0031592275e+01    0.3084475    0.1780154  63.61  0.001730557    1.964    0.491
        87  -9.7619      3.4115     66.7976   1.0799922817e+02   6.3297186861e+01    0.1991553   0.09007183 -54.97 0.0009571538    1.726    0.421
        88 -10.4202    227.6555     65.9108   4.2787811681e+01   2.1641289323e+01    0.2819957    0.1516763 -25.90  0.001367741    2.205    0.546
        89  -9.2504    118.9764     64.4830   6.1110329879e+01   4.6055503678e+01    0.2258811    0.1398504  49.15  0.001014977    1.553    0.356
        90 -10.2067    100.7595     63.0134   6.5759958116e+01   5.0385372206e+01      0.31055    0.2740779  74.49  0.001161929    1.313    0.238
        91  -9.5917     41.4042     63.8315   8.8887123118e+01   6.0696327456e+01    0.2246317    0.1824452  -8.81 0.0002473136    1.198    0.165
        92  -9.9284     39.8465     60.3151   8.8467600130e+01   6.1642993652e+01    0.2368224    0.2036701  29.32 0.0004593718    1.262    0.207
        93  -9.9383    135.1344     60.0719   5.5812746426e+01   4.3015358456e+01    0.4888935    0.2167833 -55.31  0.001596151    3.628    0.724
        94 -10.2079     34.3539     59.6573   9.0875688846e+01   6.2435891970e+01    0.2590516    0.2280645 -34.70 0.0008530969    1.082    0.076
        95 -12.6237    244.5727     50.1623   3.7829091500e+01   2.0585999140e+01    0.6428534    0.4479281  49.00  0.004077574    1.923    0.480
        96 -10.7852    192.8246     56.8055   4.4891158831e+01   3.0125243933e+01    0.2435855    0.1879887 -62.86 -0.000430966    1.239    0.193
        97  -9.0378     19.5757     57.1982   9.7503803072e+01   6.4426809773e+01    0.1892521    0.1012967 -46.27 0.0006799866    1.589    0.370
        98  -9.0149    112.8464     55.3840   5.9714234747e+01   4.8975664195e+01     0.216803    0.1251513  43.03 0.0009482446    1.711    0.416
        99  -9.2325    205.0000     51.1240   4.1998954599e+01   2.8278451923e+01    0.2058143   0.06729253 -33.99 0.0007922151    2.872    0.652
       100  -8.9632    120.3719     50.4947   5.6153624901e+01   4.7987094688e+01    0.1391341    0.1338732  33.31 0.0001211929    1.053    0.050
       101  -8.6985     84.9597     51.0000   6.6545133676e+01   5.5810529060e+01    0.2310547   0.07746507  46.97 0.0006880196    2.848    0.649
       102  -9.1862     79.7024     49.6442   6.7859456819e+01   5.7107961645e+01    0.2306784    0.1613932   9.31  0.001095016    1.792    0.442
       103  -9.5581    192.9323     48.5153   4.2823582466e+01   3.1246731632e+01    0.1941499    0.1239743  69.05 0.0007476498    1.577    0.366
       104  -9.1245    212.5036     47.4332   4.0308037631e+01   2.7193440836e+01    0.1264051    0.1067491 -63.85 9.489955e-05    1.019    0.019
       105  -8.8799    164.0289     45.9672   4.6202756209e+01   3.8216796701e+01    0.1615186    0.1490723 -66.11  0.000346452    1.052    0.050
       106  -9.5445     30.5633     45.3362   8.7817435223e+01   6.5819393771e+01    0.2649102    0.1655913 -49.94  0.001401645    1.592    0.372
       107  -8.9733     33.9878     44.0238   8.5534712561e+01   6.5666674662e+01    0.2349278    0.1463403  17.69 0.0009960297    1.621    0.383
       108 -10.3571    233.6821     45.0568   3.7728080746e+01   2.3272316393e+01    0.1730008    0.1303255 -45.99 0.0006904428    1.145    0.127
       109 -10.7639    225.8919    248.1158   7.8311647605e+01  -5.9715310528e+00    0.3018931    0.1762958  -3.60  0.001891116    1.570    0.363
       110 -11.2193    242.9969    245.5696   7.5021934176e+01  -7.4534631771e+00    0.3100818    0.1711302  -7.63  0.001578207    1.653    0.395
       111 -10.5436    142.0254    245.9648   9.4282034663e+01   4.6689233585e+00    0.2016243    0.1609116  21.50  0.001237661    1.025    0.024
       112 -11.0726    234.2317    243.7196   7.6206039315e+01  -6.3125918329e+00     0.347322    0.1846185   0.74  0.001790543    1.933    0.483
       113 -11.6447    241.3021    238.1118   7.4146376646e+01  -6.3559946542e+00    0.4779713    0.2217968  -7.37  0.002299652    2.951    0.661
       114 -10.9784    212.2850    245.1084   8.0275652516e+01  -4.0607512404e+00    0.2760276      0.13585  15.07  0.001477617    2.029    0.507
       115 -10.7381     44.9205    244.5919   1.1510535573e+02   1.7118886794e+01      0.28667    0.1761436  44.89  0.001492806    1.310    0.237
       116  -8.7729    134.6937     42.3561   5.0323689545e+01   4.5733016951e+01    0.1467695    0.1036067 -68.96 0.0007041255    1.721    0.419
       117  -8.9895     92.8551     40.8230   6.0141813469e+01   5.5717945231e+01    0.1738185    0.1613038 -80.08 0.0002925166    1.280    0.219
       118  -9.9167      1.5703     40.7333   1.0260593592e+02   6.9193814497e+01     0.164141    0.1124142 -72.61 0.0009514499    1.697    0.411
       119  -9.7126    209.9006     37.8788   3.8388183886e+01   2.8956298471e+01    0.1753297    0.1719624  81.99 0.0004447285    1.256    0.204
       120  -9.5005     61.3232     37.9079   7.0191540912e+01   6.2545803571e+01    0.2032469    0.1674769 -47.11  0.001113969    1.459    0.314
       121 -11.6139    226.6705    240.9942   7.7085735631e+01  -5.1435551335e+00    0.3460183    0.2095714 -28.95  0.002250601    1.511    0.338
       122 -10.7684     17.8837    241.2950   1.2054171375e+02   2.0514606744e+01    0.3000861    0.1746464  53.38  0.001432192    1.376    0.273
       123  -9.9301    124.5975     35.1588   5.0031217721e+01   4.9107898573e+01    0.3574772     0.162784 -33.34  0.001517653    2.302    0.566
       124  -8.7677    113.6802     35.6174   5.2623035631e+01   5.1655660097e+01    0.1493816    0.1006848  25.80 0.0007020128    1.832    0.454
       125 -11.3490    226.6814     31.6971   3.5501467961e+01   2.6276886057e+01    0.4340365    0.1755629 -32.18  0.001509103    2.392    0.582
       126 -10.0656     71.9390    239.9285   1.0889364720e+02   1.4903820693e+01    0.2082507    0.1216503  54.58  0.001130839    1.672    0.402
       127  -9.8204    212.0214     31.7335   3.6785753482e+01   2.9257963412e+01    0.1680702    0.1415192 -83.00 0.0004386456    1.103    0.094
       128  -8.7292    134.2475     32.3265   4.7186455295e+01   4.7128210646e+01    0.1314505      0.10167  27.52 0.0003063265    1.539    0.350
       129  -9.4139      3.3399     32.3224   9.8826404749e+01   7.0817203250e+01    0.1356016   0.07022369 -29.74 0.0007050664    1.721    0.419
       130 -10.6732    215.5459     29.9925   3.6078128501e+01   2.8731516954e+01    0.3066015    0.1465402 -57.24  0.001543062    1.997    0.499
       131  -9.4182     68.9152     31.5483   6.4447730046e+01   6.2067414564e+01    0.1981212    0.1215129  43.30 0.0003820134    1.496    0.332
       132  -9.8711     19.5698     31.2742   8.8398574534e+01   6.9692890477e+01    0.2195164    0.1600845  12.97 0.0007752944    1.304    0.233
       133  -8.7216    158.3174     28.3073   4.2047600867e+01   4.1792300398e+01    0.1322063   0.09680825  38.55 0.0007030078    1.632    0.387
       134 -10.4048      8.8790     26.5868   9.3099670190e+01   7.1534882358e+01    0.2664943    0.1948638  11.18  0.001353036    1.333    0.250
       135  -8.8755    136.8067     25.9307   4.4674993240e+01   4.7254867958e+01    0.1667877    0.1070552 -26.92 0.0006975774    1.739    0.425
       136  -9.2311     37.9381     25.3586   7.5387971977e+01   6.8391914720e+01    0.1833198    0.1454591  13.47 0.0005968098    1.105    0.095
       137  -9.7402      1.2355     23.9763   9.7131985234e+01   7.2572480890e+01    0.1527262   0.08723453 -52.34  0.000441016    1.596    0.374
       138  -9.8631    157.2234     22.8283   4.0624722395e+01   4.2668074739e+01     0.220709    0.1584581  86.00 0.0004475855    1.335    0.251
       139 -10.1194    199.1993     21.2764   3.5548172118e+01   3.3196207506e+01    0.1952237    0.1635055 -24.72 0.0007856966    1.432    0.302
       140 -11.6473    247.7177    239.1184   7.3250093251e+01  -7.1463656852e+00    0.4041826     0.184655 -20.52  0.002128647    2.078    0.519
       141  -8.9693    161.5448     21.5388   3.9689429493e+01   4.1777311649e+01    0.1295653    0.1151485  88.02 0.0002845807    1.018    0.017
       142  -8.6972     78.3016     21.6635   5.6854312897e+01   6.1414562770e+01    0.1260442    0.1047846 -73.61 0.0006863044    1.663    0.399
       143 -10.0855     71.1499     20.4780   5.8715918902e+01   6.3063715373e+01    0.2131963    0.1844046 -29.87 0.0005360538    1.304    0.233
       144  -9.6051    133.0089     19.6976   4.3307435936e+01   4.8850903945e+01     0.199811     0.181613  25.69 0.0004131586    1.250    0.200
       145 -11.1928    135.0128     16.5153   4.1951514422e+01   4.8688388392e+01     0.360565    0.2405299  73.14  0.001952769    1.369    0.269
       146 -10.1714    169.4197     17.8471   3.7721029867e+01   4.0310094095e+01    0.2418196    0.1781266  48.50 0.0007878709    1.526    0.345
       147  -9.1260    127.5164     18.5465   4.3867214628e+01   5.0302119437e+01    0.1337707    0.1177945  63.90 7.992815e-05    1.032    0.031
       148  -9.9071     84.4961    243.5125   1.0646509593e+02   1.2662690773e+01    0.1248185    0.1039333  39.53 0.0008105524    1.001    0.001
       149  -8.9469     51.5198     18.3820   6.5416450635e+01   6.7141280915e+01    0.2467945    0.1148411  57.14 0.0009579114    3.439    0.709
       150 -10.1110     56.7535    241.5631   1.1235315542e+02   1.6384509418e+01    0.3800029    0.1342807  44.92  0.001728929    2.308    0.567
       151 -10.3929      6.7464    236.5836   1.2259793542e+02   2.2461680715e+01    0.3113517     0.149689  73.13  0.001635835    1.930    0.482
       152  -9.7358     44.7279    236.8236   1.1461317198e+02   1.8669336370e+01    0.2622071    0.1055589  49.81  0.001248611    2.165    0.538
       153  -9.3930     81.6512    236.3116   1.0639095703e+02   1.4399244785e+01    0.1353765   0.08086812  54.96   0.00070457    1.716    0.417
       154 -10.4671    172.1769    234.7098   8.6433138147e+01   2.4562921493e+00    0.1969274    0.1429844  35.97  0.001077046    1.419    0.295
       155 -10.6588    232.3787    233.2616   7.4884199538e+01  -4.7649479835e+00    0.2564096    0.1461939  -6.43   0.00150832    1.706    0.414
       156  -9.9419     12.9817    232.0136   1.2111146171e+02   2.2823875865e+01    0.3316035    0.1165866  46.31  0.001648034    2.162    0.537
       157 -10.3391    245.5927    229.6906   7.2101925206e+01  -5.7405779925e+00    0.1819095    0.1023629  -8.62  0.001101491    1.665    0.399
       158 -10.3787      5.3944    228.7827   1.2254884116e+02   2.4153827549e+01    0.3317438    0.1473377  63.79  0.001768784    1.997    0.499
       159  -9.8519     10.1227    225.2074   1.2139243019e+02   2.4480534039e+01    0.2777272    0.1349056  47.38  0.001231333    1.659    0.397
       160  -9.7006      1.7082    219.9915   1.2295265382e+02   2.6290037524e+01    0.1657519    0.1255888  77.37  0.000799609    1.129    0.114
       161 -10.0678    238.4871    217.7964   7.1326824301e+01  -3.3772828308e+00    0.2927944    0.1491256 -16.65  0.001567006    2.037    0.509
       162  -9.4835    212.4788    219.5022   7.6171136278e+01  -4.7746784904e-01    0.1240222    0.0967843  -3.57 -2.416121e-05    1.009    0.009
       163 -11.2409    248.0157    215.3890   6.9363562077e+01  -4.1288227869e+00      0.49257    0.1739341 -29.95  0.002338484    2.584    0.613
       164 -11.1559    224.2441     22.3962   3.3715634701e+01   2.7834208499e+01    0.2801784    0.1715562  77.03  0.001634651    1.618    0.382
       165 -10.6796     12.4414    217.0714   1.2048399964e+02   2.5996825989e+01     0.414307    0.1356044  48.88  0.001886541    2.478    0.596
       166  -8.6855    160.3049    217.7006   8.6302020653e+01   6.9538492096e+00    0.1214302    0.1013044  54.76 0.0003220372    1.590    0.371
       167  -8.4131     56.2398    216.7110   1.1038108470e+02   2.1559549780e+01    0.1256781   0.08446004  62.04            0    1.462    0.316
       168 -10.5299      2.1141    213.3623   1.2257715155e+02   2.7670296680e+01    0.3415459    0.1702277  89.32  0.001870902    1.853    0.460
       169  -9.1354    234.6522    210.6713   7.0767719454e+01  -1.9337340867e+00    0.1274868   0.07495449  -6.21 0.0001148088    1.758    0.431
       170  -9.8402     12.9844    203.4925   1.1961066589e+02   2.8936557023e+01    0.1886389   0.06193724  47.32 0.0008103832    2.546    0.607
       171  -8.8137      9.3130    198.3112   1.2017536439e+02   3.0420740475e+01    0.1161572   0.08793502 -46.31 0.0004368792    1.631    0.387
       172  -8.6288    220.2822    193.6654   7.0263322676e+01   2.4399565013e+00    0.1097681   0.09850319 -52.12 0.0007008223    1.617    0.382
       173 -11.2317      5.9452    172.6442   1.1943667851e+02   3.6732606507e+01    0.2475004    0.1982783 -69.94  0.001559283    1.216    0.178
       174  -8.9465     15.3170    154.6722   1.1543120477e+02   4.0489337744e+01    0.1419875   0.08647942  62.49 0.0005580257    1.678    0.404
       175  -9.7064    250.0000    151.0133   5.7453022397e+01   4.9504904842e+00    0.2111633   0.05709186 -38.05 0.0002625566    2.996    0.666
       176  -9.3760      9.6779    141.6874   1.1592195772e+02   4.4201019091e+01    0.1371934   0.08722639 -45.17 0.0007039164    1.655    0.396
       177  -9.6586    248.4373    135.2350   5.4608821883e+01   7.5938086990e+00    0.1775648   0.09610093 -44.10 0.0009443881    1.643    0.391
       178  -9.5733    242.6828    134.3427   5.5232857448e+01   8.6028872524e+00    0.1233825   0.08922949 -58.29 0.0007048814    1.715    0.417
