#   1 NUMBER                 Running object number                                     
#   2 MAG_AUTO               Kron-like elliptical aperture magnitude                    [mag]
#   3 X_IMAGE                Object position along x                                    [pixel]
#   4 Y_IMAGE                Object position along y                                    [pixel]
#   5 X_WORLD                Barycenter position along world x axis                     [deg]
#   6 Y_WORLD                Barycenter position along world y axis                     [deg]
#   7 A_WORLD                Profile RMS along major axis (world units)                 [deg]
#   8 B_WORLD                Profile RMS along minor axis (world units)                 [deg]
#   9 THETA_WORLD            Position angle (CCW/world-x)                               [deg]
#  10 FWHM_WORLD             FWHM assuming a gaussian core                              [deg]
#  11 ELONGATION             A_IMAGE/B_IMAGE                                           
#  12 ELLIPTICITY            1 - B_IMAGE/A_IMAGE                                       
         1 -16.5717    195.1702    123.4893   9.3791088719e+01   1.7518353968e+01     6.461024     5.775262  26.92    0.0342591    1.151    0.131
         2 -16.6228    213.4111     98.0285   8.4026782860e+01   1.7838981153e+01     5.343803     4.095469  85.84    0.0182323    1.631    0.387
         3 -13.9922    138.3547    115.2799   1.0448470380e+02   3.2166907889e+01     1.932444    0.6020504 -39.34  0.005448675    3.869    0.742
         4 -14.8183    233.5279     77.5227   7.5751325511e+01   1.6505181211e+01      2.65412     1.880497  -1.07  0.001839567    2.014    0.504
         5 -15.1349    212.8064     63.0894   7.5014013896e+01   2.3649089801e+01     4.259929     2.804762  12.67   0.01757517    2.584    0.613
         6 -15.1056    184.3174     81.6363   8.4913173123e+01   2.7761874101e+01     3.626848      2.20713  84.91  0.004970059    2.669    0.625
         7 -12.3540    191.3978     27.8676   6.8309492671e+01   3.3941076480e+01     1.109918    0.8746585 -32.96  0.006003929    1.334    0.250
         8 -11.6593    192.1008     12.4412   6.3853877721e+01   3.5493255308e+01    0.4366171    0.3799145  -8.03 0.0004277253    1.390    0.281
         9 -13.8413    222.2223     78.1551   7.7540166186e+01   1.9035133423e+01     2.043034    0.8708508 -25.55  0.005648864    2.933    0.659
        10 -11.8480    174.7053     18.5897   6.7851705035e+01   3.9358220473e+01    0.3083197    0.2644441  44.00 0.0003000565    1.236    0.191
        11 -10.0335    247.6182     14.3689   5.9117693430e+01   2.1767757626e+01    0.5241351    0.2450015 -22.01  0.002338325    2.702    0.630
        12  -9.8830    238.8840     10.8568   5.8999648156e+01   2.4153540804e+01     0.383872    0.2394971 -69.14  0.002092163    1.493    0.330
        13  -9.6173    242.8019      7.5635   5.7946397570e+01   2.3612187994e+01    0.2999923    0.1773708  72.93  0.001640221    1.628    0.386
        14  -9.7878    222.7299      7.6588   5.9567900009e+01   2.8322955546e+01     0.257582     0.164918 -74.95 0.0005754735    1.486    0.327
        15 -11.1663    166.1822      2.6755   6.4099081114e+01   4.3141651503e+01    0.2797658    0.2373613  68.18 0.0004272243    1.057    0.054
        16 -10.8497    150.2414    195.4376   1.1823945765e+02   1.3169862531e+01    0.3277994    0.1597884  36.44  0.001419408    2.011    0.503
        17 -11.0612    200.8026    192.4404   1.0748139311e+02   4.2566587886e+00     0.398903    0.2663704 -20.88  0.001647066    1.741    0.425
        18  -9.9759    226.8723    190.9082   1.0233756533e+02  -1.8389297672e-01    0.3037634    0.1851155 -27.26  0.001166621    1.683    0.406
        19 -10.7297    208.2163    191.9996   1.0598463154e+02   2.9709927702e+00     0.292183    0.2229039  31.04 0.0006849938    1.170    0.145
        20 -10.2280    207.6879    188.6773   1.0546009248e+02   3.5826963668e+00    0.2224816    0.1557329  26.80 0.0009709999    1.362    0.266
        21  -8.6209    129.7808    192.0184   1.2205965148e+02   1.7549197855e+01    0.1613461    0.1124615 -57.66 0.0002976311    1.586    0.370
        22 -10.2315    117.8490    191.8713   1.2462768919e+02   1.9678933656e+01    0.1998083    0.1876047  24.86  0.001069263    1.272    0.214
        23 -10.3587    231.8974    188.2865   1.0094060341e+02  -6.7770707777e-01      0.28738    0.2634631 -41.81  0.001003657    1.407    0.289
        24 -10.3035    212.0236    187.0099   1.0432368706e+02   3.0473152284e+00    0.1970957    0.1911075  45.58   0.00125358    1.263    0.208
        25 -12.3343    180.3156    184.2790   1.1002651080e+02   9.4819706331e+00    0.5239789    0.4137723 -70.20  0.002789188    1.729    0.422
        26 -11.0292    193.9057    182.8566   1.0702338516e+02   7.1119440473e+00     0.522092    0.2607512 -32.92  0.002264495    2.308    0.567
        27 -11.4928    199.6191    184.6773   1.0625034823e+02   5.7243438628e+00    0.5632751    0.2370698  40.10  0.002328482    2.203    0.546
        28  -9.2745    242.6275    184.2477   9.8291008957e+01  -1.9374217863e+00    0.1831827      0.10973 -20.70 0.0009098674    1.691    0.409
        29 -11.5368    188.0998    182.3502   1.0808479662e+02   8.3139514386e+00     0.396431    0.2601539 -36.08  0.002004605    1.653    0.395
        30 -10.7834    189.5704    177.3059   1.0681345653e+02   8.8986706406e+00    0.2567804    0.2335136  19.12 0.0002164925    1.036    0.035
        31 -10.8285    207.0996    181.6974   1.0423092861e+02   4.7975681784e+00    0.2266576    0.1893833 -43.77  0.001037361    1.379    0.275
        32 -11.7861    203.1169    177.3899   1.0415129023e+02   6.2558981273e+00    0.5216597    0.3015786 -42.06  0.002448306    1.869    0.465
        33 -10.2205    147.2677    176.4291   1.1560655991e+02   1.7375895689e+01    0.2475398    0.1809207 -79.99  0.001201057    1.825    0.452
        34  -9.1128     33.4069    176.7886   1.4143716190e+02   3.4917045182e+01    0.1587458   0.09437523 -67.57 0.0003791224    1.566    0.361
        35  -9.1683    215.2779    243.9778   1.1340010286e+02  -5.2610757900e+00    0.1626263    0.1295816  18.40 0.0007740735    1.073    0.068
        36  -9.0595     65.7075    242.3417   1.4042146930e+02   1.8024909566e+01    0.1197912     0.063827  66.06 0.0003060427    1.654    0.395
        37 -12.3232    198.9792    166.0614   1.0266462035e+02   8.9867043444e+00    0.7400942    0.3941857 -51.86  0.003072485    2.457    0.593
        38 -11.1401    202.1655    162.8325   1.0136255501e+02   8.9060757746e+00    0.3858163    0.2425249 -18.43  0.001247131    2.018    0.505
        39 -10.6300    229.1048    164.9987   9.6778469977e+01   3.3054279799e+00     0.267909    0.2071463  33.17 0.0004412439    1.249    0.200
        40 -10.8969    233.6399    163.2320   9.5608882951e+01   2.7343804226e+00    0.3359222    0.2321262  50.53 0.0003214654    1.637    0.389
        41 -10.3631    129.1265    164.7939   1.1760228403e+02   2.3266254178e+01    0.2263264    0.1919969  77.42 0.0006254839    1.223    0.183
        42 -10.5897    216.6821    162.0022   9.8413290696e+01   6.1629704540e+00    0.2444692    0.1939726  38.07 0.0002619998    1.228    0.186
        43 -10.5904    220.9897    157.5250   9.6665083459e+01   6.0532837034e+00    0.4796212    0.2815325 -44.61    0.0016421    1.862    0.463
        44 -10.5750    216.6290    157.2682   9.7414542430e+01   6.9559043646e+00    0.3780006    0.2772179 -26.06  0.001440377    1.362    0.266
        45 -11.8478    155.7719    160.0825   1.1056286304e+02   1.8962514669e+01    0.4710808    0.3700134  30.26    0.0021193    1.340    0.254
        46 -10.8729    231.1643    156.9879   9.4724517345e+01   4.1725857262e+00    0.5889617    0.3483302  55.76  0.002616196    2.123    0.529
        47 -12.3004    128.6376    156.2358   1.1609709348e+02   2.5205759958e+01    0.5911197    0.3487785  58.27  0.002538468    1.900    0.474
        48 -14.1071    195.5119     64.2732   7.8032970056e+01   2.7803622518e+01     1.937153     1.199339  48.72  0.002755859    1.679    0.404
        49 -10.6601    143.5961    156.2399   1.1256576534e+02   2.2238601701e+01    0.2628987    0.2151917  43.57  0.001360836    1.172    0.147
        50 -12.7399    141.3128    151.0712   1.1203921825e+02   2.3798052961e+01    0.8946759    0.3954234 -36.52   0.00302597    3.213    0.689
        51 -10.8823    161.7035    154.6816   1.0811246264e+02   1.8822058030e+01    0.2782401    0.2296017 -16.58 0.0009080713    1.440    0.306
        52 -10.9704    160.3064    152.3246   1.0792350601e+02   1.9591357216e+01    0.2818549    0.2315676  50.60  0.001153073    1.180    0.152
        53  -8.7091    250.5376    153.4989   9.0710988043e+01   1.1210778198e+00    0.1336102    0.1151622  -7.44 0.0002476857    1.016    0.016
        54  -9.5591    241.4911    149.3418   9.1309727840e+01   3.4115544291e+00    0.2996077    0.1960525  47.37  0.001552875    1.645    0.392
        55 -10.0566    246.0503    146.0478   8.9844305459e+01   3.0642098280e+00    0.4582457    0.2846888 -33.41  0.002355744    1.489    0.328
        56 -13.6421    232.4669    103.0378   8.2156431524e+01   1.2686236780e+01     1.136498    0.5747615 -53.16   0.00221953    2.481    0.597
        57 -10.7657    135.4066    143.1912   1.1178713317e+02   2.6705436227e+01    0.3869603    0.2094863 -64.56    0.0014423    2.551    0.608
        58 -11.0916    134.5355    138.4870   1.1097297790e+02   2.7913949046e+01    0.2874713    0.2258027 -52.31  0.001117492    1.296    0.229
        59 -15.4181    216.1265    123.1983   8.9763698500e+01   1.2879819582e+01     4.410425     2.367887  48.85   0.01895908    1.910    0.476
        60 -10.5369    121.3628    137.0714   1.1396404751e+02   3.0878643378e+01    0.2466038    0.2036334  34.77 0.0005598328    1.292    0.226
        61  -9.5376    249.0000    233.9983   1.0609791699e+02  -9.1012218904e+00    0.1670396   0.05988507 -31.79 0.0008061545    2.968    0.663
        62 -11.4673     96.9436    117.4708   1.1614914689e+02   3.9947182751e+01    0.3709875    0.3218579  39.15  0.002008983    1.222    0.181
        63  -9.9394     90.0108    116.6973   1.1794842349e+02   4.1319479061e+01    0.2003399    0.1929082  71.66  0.000618817    1.069    0.065
        64  -9.6607     56.9459    116.5360   1.2758354735e+02   4.6174785952e+01    0.2104445    0.1598022 -65.89 0.0004109456    1.163    0.140
        65 -11.3320    100.4022    106.0853   1.1241175483e+02   4.1941457697e+01    0.4183555    0.3356956 -17.26   0.00192799    1.563    0.360
        66  -8.8293     29.5139    106.5003   1.3409457278e+02   5.1431278653e+01    0.1268186    0.1049369 -73.45 3.602596e-05    1.026    0.025
        67  -9.7159    118.5040    129.4791   1.1302488701e+02   3.3156653533e+01    0.1483033    0.1457775 -85.59 0.0001133759    1.049    0.046
        68 -14.2517    185.8988    104.4940   9.0823381108e+01   2.3233069911e+01     2.401736     1.122976 -48.21  0.007339186    2.343    0.573
        69 -11.1353    127.1927     95.6849   1.0210672642e+02   3.8805113952e+01    0.3248498    0.2160989 -32.87  0.001046077    1.652    0.395
        70  -9.8590    110.1317     94.1426   1.0640332231e+02   4.2721622577e+01    0.2318246    0.2093727 -10.66 0.0007120067    1.219    0.180
        71 -11.9127    124.9740     89.5172   1.0092521909e+02   4.0577060509e+01    0.4445493    0.3636103 -43.56  0.001964367    1.212    0.175
        72 -11.2794    131.0801     88.9482   9.9129049545e+01   3.9333185594e+01    0.4346389    0.2621018  28.37  0.001679365    2.266    0.559
        73  -9.5604    237.4841    234.4981   1.0810720100e+02  -7.4932355524e+00    0.1177807    0.0899016  17.40 0.0002508859    1.002    0.002
        74 -11.2938    168.9424    171.3247   1.0992274223e+02   1.4083917680e+01    0.3107556     0.207459 -54.28  0.001386196    1.736    0.424
        75 -11.6000    136.8300     85.4436   9.6600869058e+01   3.8717294182e+01    0.4125384    0.2935496 -68.92  0.001228427    1.865    0.464
        76 -11.5587    116.3710     84.6038   1.0184417008e+02   4.3447007906e+01     0.494059    0.2508957  50.24  0.001942818    2.076    0.518
        77  -9.5415     74.3321     85.3264   1.1499408566e+02   5.1012077104e+01    0.1455124    0.1048623 -21.22 0.0002447657    1.711    0.416
        78 -11.4052    143.0761     83.8276   9.4553453816e+01   3.7563182289e+01    0.3668762    0.2825065   9.63  0.001273022    1.710    0.415
        79 -10.6933    139.9624     81.9954   9.4773418870e+01   3.8655939104e+01    0.2424218    0.1912762 -81.62 0.0004764852    1.618    0.382
        80  -9.7997    205.1527    225.8143   1.1240146518e+02  -1.3760141172e+00    0.1842475    0.1484802  36.70 0.0007874462    1.163    0.140
        81 -11.5453    125.6261    130.9793   1.1152389948e+02   3.1398579707e+01    0.3921397     0.292533 -21.95  0.001785302    1.815    0.449
        82 -10.7527    125.9347     77.4104   9.6996119914e+01   4.2790006612e+01    0.3245415    0.2230356  29.44 0.0008876913    1.718    0.418
        83 -10.5357    102.9563     78.5081   1.0389990450e+02   4.7447833385e+01    0.2286245     0.146309  42.77  0.001039147    1.609    0.379
        84 -12.2727    154.4066     73.2984   8.8686920090e+01   3.6757409427e+01    0.6742755    0.4399466  64.16  0.001801931    1.669    0.401
        85 -12.6816    188.9655     74.1597   8.1944585072e+01   2.7865616304e+01    0.6656893    0.5423794  51.03  0.001097498    1.243    0.196
        86 -11.3742    161.4674     69.7189   8.6046712252e+01   3.5610550830e+01    0.3726825    0.2872316   9.77  0.001394578    1.688    0.408
        87 -11.0353    131.7450     72.9098   9.4043503629e+01   4.2312977400e+01    0.3598595    0.2115069  36.11  0.001412214    1.943    0.485
        88 -10.4540    203.5022    218.4942   1.1151905290e+02  -9.9247510324e-02    0.2067483    0.1686685 -44.55  0.001315248    1.559    0.359
        89 -12.2156    138.2776     64.3638   8.9647479978e+01   4.2299953904e+01    0.6426003    0.3377745 -51.04  0.002451795    2.291    0.564
        90  -9.9723    145.3622     67.8283   8.9063853575e+01   3.9965178024e+01    0.2726237    0.1969102  21.20 0.0009613693    1.780    0.438
        91 -11.0586    119.4588     69.5937   9.6263977436e+01   4.5732929385e+01    0.3212046    0.2658631 -87.81  0.001437337    1.543    0.352
        92 -11.0086    126.6452     56.3230   8.9880432217e+01   4.6447591599e+01     0.297558    0.2451338  64.39  0.001234399    1.303    0.233
        93 -10.1953    184.7125     47.0182   7.4854337938e+01   3.3166967866e+01    0.3056189    0.2507727  77.45 0.0009678526    1.201    0.167
        94 -11.2032    180.7378     45.4337   7.5034467288e+01   3.4426000144e+01    0.4796847    0.2408647  77.46  0.001407766    2.552    0.608
        95  -9.2913    221.8049    170.6124   9.9257082571e+01   3.7949922876e+00    0.2262779    0.1758941  55.56  0.001236697    1.550    0.355
        96  -9.5287    218.9689    167.3033   9.9097804180e+01   4.8590675409e+00    0.2580115    0.2018714 -38.97  0.001076331    1.358    0.264
        97  -9.9540    187.0507     41.2757   7.2805389805e+01   3.3354555169e+01    0.3178441    0.2331804 -81.16  0.001233956    1.497    0.332
        98 -10.3616    190.8279     38.5729   7.1458748274e+01   3.2734724885e+01    0.4105024    0.2045525 -36.84  0.001667817    1.958    0.489
        99 -10.5083    242.9374     36.5512   6.4658207158e+01   2.0151675429e+01    0.3749172    0.2838495 -43.73  0.002072834    1.200    0.167
       100  -9.9422    247.0077     36.5030   6.4249836138e+01   1.9232568424e+01    0.2918066    0.1893935 -70.53  0.001161124    1.563    0.360
       101 -11.1999    176.1634     33.9999   7.2327659930e+01   3.7155876106e+01    0.3574597    0.2389522  17.98  0.001577381    2.151    0.535
       102 -11.2690    207.5045    167.9200   1.0138736997e+02   6.9797345727e+00    0.4611839    0.3448962  69.65  0.002291193    1.941    0.485
       103  -8.5036     96.4722     37.4647   9.1420380311e+01   5.6116851786e+01    0.1395107    0.1269836  10.50 0.0001302218    1.009    0.009
       104 -10.0265    184.7177     19.7873   6.6856623914e+01   3.6614270448e+01    0.2985181    0.2168142  58.16   0.00100002    1.320    0.242
       105  -9.7960    195.8763    214.6752   1.1231356408e+02   1.7483150987e+00    0.2160731    0.1699094 -10.54  0.001203101    1.408    0.290
       106  -9.9980    235.1669    211.9064   1.0470555618e+02  -4.4152089430e+00    0.3617197    0.2075375   1.22  0.001807538    2.294    0.564
       107 -10.0032    142.8760     34.1411   7.8390056510e+01   4.5767372139e+01    0.2249923    0.2022267 -72.80 0.0007574613    1.218    0.179
       108 -10.5141    190.1246    200.6065   1.1102318894e+02   4.9154861524e+00    0.3433838    0.2001885  53.53  0.001647452    1.951    0.488
       109  -9.5110    246.3918     28.8653   6.2532143393e+01   2.0331334233e+01    0.5438011    0.2157168 -25.16  0.002161481    2.986    0.665
       110 -10.2340    183.1775     26.5795   6.9058650525e+01   3.6234594107e+01    0.2624407     0.215584 -11.67  0.001178752    1.436    0.304
       111  -9.6141    167.4210     26.8071   7.1487817408e+01   4.0331200907e+01    0.1901889    0.1428175  -5.87  0.000497404    1.630    0.386
       112 -10.2733    162.7030     26.4505   7.2141686397e+01   4.1606646556e+01    0.2404194    0.1754981  16.03 0.0006515814    1.742    0.426
       113 -10.1565    240.4402     23.8266   6.1892067512e+01   2.2304954947e+01    0.5163292    0.1750166 -48.53  0.002038856    2.690    0.628
       114 -10.5456    225.8634     23.1344   6.3094034931e+01   2.5835369758e+01    0.3293948    0.3016351  65.66  0.001142024    1.216    0.177
       115  -9.2953    209.7298     21.5472   6.4361063403e+01   3.0001082896e+01    0.3047321    0.1594926 -70.71  0.001279738    2.299    0.565
       116  -9.6717    128.0238    200.0231   1.2363972232e+02   1.6307131593e+01    0.2009231    0.1715796  56.05 0.0003074789    1.019    0.019
       117 -10.4730    214.1411    198.1573   1.0601338760e+02   9.8666596765e-01    0.3645051    0.2672607  41.01  0.002121446    1.305    0.234
       118  -9.3678    202.7303     14.1575   6.3150872318e+01   3.2594422969e+01    0.2592284    0.1475104  47.64 0.0009189732    1.992    0.498
       119  -9.0224    230.9910    198.2370   1.0297516549e+02  -1.9196546584e+00     0.169152   0.09573594  38.86 0.0008822242    1.623    0.384
       120  -9.2400    249.3126    195.6430   9.9332377705e+01  -4.5638441713e+00    0.1625967    0.1532683 -71.21 0.0007480353    1.713    0.416
       121 -11.4696    156.1964    194.7075   1.1687080790e+02   1.2200009280e+01    0.4814865    0.1876379  47.94  0.001879934    2.420    0.587
