#   1 NUMBER                 Running object number                                     
#   2 MAG_AUTO               Kron-like elliptical aperture magnitude                    [mag]
#   3 X_IMAGE                Object position along x                                    [pixel]
#   4 Y_IMAGE                Object position along y                                    [pixel]
#   5 X_WORLD                Barycenter position along world x axis                     [deg]
#   6 Y_WORLD                Barycenter position along world y axis                     [deg]
#   7 A_WORLD                Profile RMS along major axis (world units)                 [deg]
#   8 B_WORLD                Profile RMS along minor axis (world units)                 [deg]
#   9 THETA_WORLD            Position angle (CCW/world-x)                               [deg]
#  10 FWHM_WORLD             FWHM assuming a gaussian core                              [deg]
#  11 ELONGATION             A_IMAGE/B_IMAGE                                           
#  12 ELLIPTICITY            1 - B_IMAGE/A_IMAGE                                       
         1 -16.6821    150.5608    154.7465   1.0902237729e+02   2.0973338462e+01     2.677247     2.628612 -30.81   0.01519191    1.088    0.081
         2 -13.3311    191.2268     18.2735   6.4759237600e+01   3.4463665364e+01    0.4207734    0.3974048  -4.26  0.001412985    1.275    0.216
         3 -14.7688    238.1067      7.6462   5.7618913561e+01   2.4156931589e+01     1.221387    0.8295847 -78.19  0.007207039    1.313    0.238
         4 -13.2457    178.4496    216.5308   1.1436928925e+02   4.3413706475e+00    0.7819724     0.393844  35.42   0.00376864    1.767    0.434
         5 -11.2036    143.8038    249.7595   1.2564767260e+02   5.1600346161e+00    0.2158783    0.1748009  60.51 0.0009327454    1.260    0.206
         6 -11.9130    137.4243    246.0799   1.2640259865e+02   6.7385810199e+00    0.4260423    0.2162739  51.09  0.002072897    1.718    0.418
         7 -15.1422    118.1028    237.9334   1.2912971818e+02   1.1140309003e+01     3.386141     1.534937  56.76   0.01590903    2.340    0.573
         8 -15.1239     64.7527    215.4858   1.3727481041e+02   2.3195953267e+01     1.714593    0.5664425  50.89  0.007576108    2.585    0.613
         9 -15.6083     77.5702    243.6505   1.3730306100e+02   1.6250221074e+01     1.652652    0.9192445 -57.03  0.009895392    2.286    0.563
        10 -15.4718     67.3773    231.3760   1.3816094906e+02   1.9837110922e+01     2.055559     1.506297  34.92   0.01231373    1.573    0.364
        11 -19.2976     18.7250    131.0914   1.3920026823e+02   4.6721552913e+01     17.66361      1.16544 -71.39   0.03068176   15.842    0.937
        12 -13.3784    179.3242    227.2458   1.1586815519e+02   2.5730621759e+00    0.6926025    0.5213273  29.70  0.003319877    1.147    0.128
        13 -14.9836     75.6995    199.5362   1.3340280715e+02   2.4859806358e+01     3.796878     2.472683   7.58   0.01651571    3.710    0.730
        14 -12.2604    215.5800    241.2834   1.1133234002e+02  -5.2101844741e+00    0.3054889    0.2107521 -37.51  0.001976352    1.821    0.451
        15 -14.2415    192.8490    224.8123   1.1291964688e+02   6.2123709815e-01     1.187213    0.6571702  56.72   0.00553459    2.614    0.618
        16 -10.9634      1.5095    238.4896   1.5015587956e+02   2.6143801563e+01    0.1633965   0.09877428  88.10 0.0006625624    1.356    0.262
        17 -12.2571    171.5343    215.2574   1.1552926615e+02   5.7673549331e+00     1.021415    0.5407642 -36.52   0.00497656    2.348    0.574
        18 -13.3526    147.0664    214.2779   1.2030567659e+02   1.0283558199e+01     1.034101    0.5770167  45.69   0.00524486    1.518    0.341
        19 -13.2584    155.7741    228.8430   1.2066056340e+02   6.3653916928e+00     1.083734    0.4932079  37.82  0.005156163    1.876    0.467
        20 -11.7347    146.4464    225.3869   1.2201542899e+02   8.5204901155e+00    0.8704594    0.8284014  10.19  0.005122883    1.241    0.194
        21 -14.0026    244.9384    219.5945   1.0268525338e+02  -7.0823131308e+00     1.663957    0.5125331 -28.50  0.006713267    3.859    0.741
        22 -13.5790    243.6258    193.8398   9.8273720335e+01  -3.6125338976e+00    0.6674014     0.473085 -32.69  0.003715264    1.482    0.325
        23 -12.7733    227.4425    229.0975   1.0730635631e+02  -5.5654270566e+00    0.5272505    0.3625379  -7.00  0.003322504    1.501    0.334
        24 -12.1546    208.9271    223.8005   1.0976362333e+02  -1.9291104627e+00    0.3770194    0.2659417 -38.45  0.002306354    1.703    0.413
        25 -12.1971    133.7329    221.7845   1.2406607035e+02   1.1303971902e+01    0.5454974    0.3166109 -62.04  0.002849763    2.186    0.543
        26 -11.8586    221.9075    222.3801   1.0717499177e+02  -3.8533339297e+00    0.3278621    0.1720264 -25.73  0.001722631    2.174    0.540
        27 -11.5837    119.6155    218.7014   1.2652268987e+02   1.4230660363e+01    0.3774209    0.1918992  53.36   0.00149526    1.828    0.453
        28 -11.9914    161.3885    214.1435   1.1738191682e+02   7.7577831979e+00    0.4788727    0.2515974 -42.00  0.002336358    2.292    0.564
        29 -12.8666    192.3063    211.1917   1.1079646289e+02   2.7074512516e+00    0.5725812    0.4309111  27.25  0.003048535    1.174    0.148
        30 -11.7792    121.1575    213.1850   1.2548619728e+02   1.4978343431e+01    0.3724588    0.2686272  82.89   0.00209014    1.664    0.399
        31 -12.6470    124.1216    209.8940   1.2442305822e+02   1.5081511568e+01    0.3720015    0.3197502 -69.00  0.002334996    1.320    0.242
        32 -12.3466    233.8034    204.1680   1.0188428524e+02  -3.3921204826e+00    0.5050668     0.248244 -29.70  0.002543976    2.120    0.528
        33 -11.8910    123.7600    202.3203   1.2343106737e+02   1.6572129022e+01    0.3272074     0.179609 -46.20  0.001565624    2.219    0.549
        34 -11.2136     46.9673    204.3114   1.3985559737e+02   2.7712377453e+01     0.187303     0.120449  61.18  0.001161224    1.291    0.225
        35 -12.3167     41.9395    199.4935   1.4047186361e+02   2.9299006766e+01    0.6172599    0.1908637 -64.89  0.002770089    2.976    0.664
        36 -12.4037    198.9970    201.0942   1.0775145365e+02   3.0498953685e+00    0.5592062    0.3697906  45.61  0.003020606    1.452    0.311
        37 -12.3598    192.5609    194.9422   1.0789770609e+02   5.1960562035e+00    0.5552189    0.3901352  34.56   0.00303129    1.264    0.209
        38 -12.5680    145.7188    199.6905   1.1834733293e+02   1.3123433317e+01    0.4108212    0.3593064  43.19  0.002093162    1.030    0.030
        39 -14.3923    150.9780    183.5682   1.1449375202e+02   1.5157125689e+01     1.654019     1.010664 -37.43  0.007765204    1.978    0.494
        40 -16.3714    168.5173    151.9829   1.0437808254e+02   1.7725485772e+01     3.753805     1.323359 -47.12    0.0125356    3.121    0.680
        41 -15.5489    135.6141    179.7267   1.1723099405e+02   1.8857497115e+01     1.665081    0.7693871 -57.31  0.006703018    2.594    0.615
        42 -12.1024    195.6847    242.4145   1.1507537696e+02  -2.2237983534e+00    0.7755032    0.5648456  64.21  0.004597547    2.134    0.531
        43 -13.5249    229.4262    178.0665   9.7710415555e+01   1.0447799789e+00    0.9009596    0.5743541 -45.02  0.004673722    1.866    0.464
        44 -12.5180    201.6618    182.5477   1.0378058271e+02   5.4913593383e+00    0.4652082    0.3278864   3.99  0.001937472    1.730    0.422
        45 -13.1021    162.9733    191.0189   1.1323675934e+02   1.1465611211e+01    0.7754112     0.635111 -10.74  0.004315565    1.489    0.328
        46 -12.9672    247.1573    173.7562   9.3787859617e+01  -1.4314467305e+00    0.7749159    0.4906726 -49.30  0.003982348    2.168    0.539
        47 -14.0666    241.0061    161.2551   9.2282799174e+01   1.4700878666e+00     1.051239    0.6897557 -31.47  0.005676441    1.451    0.311
        48 -13.1100    233.4273    151.5927   9.1542055260e+01   4.3634288571e+00    0.8694327    0.4976468 -23.56  0.004062218    1.880    0.468
        49 -15.2149     96.8117    245.9574   1.3397353766e+02   1.3082338129e+01     1.569144    0.9264618  62.76  0.009420846    1.576    0.366
        50 -14.8356     99.4770    170.1951   1.2405713198e+02   2.7401083758e+01     0.964948    0.6935187 -32.97  0.004811999    1.970    0.492
        51 -13.7102    128.6094    190.5928   1.2060138383e+02   1.7990045054e+01    0.8270588    0.5710233 -38.77   0.00424427    1.828    0.453
        52 -12.4488     81.5814    162.8932   1.2727179623e+02   3.1919293818e+01    0.3561911    0.2545551 -39.29  0.001187226    1.825    0.452
        53 -12.8799     93.2523    167.6271   1.2515030631e+02   2.9004414678e+01    0.4115022    0.3616224  60.26 0.0009759677    1.059    0.056
        54 -12.4794    211.3591    194.0473   1.0410865199e+02   1.8951280859e+00    0.5124556    0.3633696  51.76  0.002803677    1.612    0.379
        55 -12.9040     68.5560    143.6767   1.2758965155e+02   3.8258858630e+01    0.6240107     0.315569  65.43  0.002447283    2.926    0.658
        56 -11.3336     97.2635    143.8377   1.2001620033e+02   3.3712623451e+01     0.240153    0.2035261  35.87 0.0004662095    1.258    0.205
        57 -14.0159    187.5204    230.8935   1.1486684856e+02   6.6193348550e-01     0.679215    0.5411646  51.91  0.004357808    1.384    0.278
        58 -12.7953    181.0116    184.0687   1.0820796230e+02   9.2151605355e+00    0.5423072    0.4545276  32.86  0.002955864    1.076    0.071
        59 -12.9540    248.0630    123.1802   8.2948362905e+01   5.9597055815e+00     0.690012     0.288714 -45.47  0.002759624    2.565    0.610
        60 -12.2848     41.5207    129.9959   1.3282699930e+02   4.4817135439e+01    0.1901928    0.1679191  48.24 0.0006588362    1.239    0.193
        61 -11.4387    177.8985    239.9857   1.1800532503e+02   9.9215741183e-01    0.9939484    0.6685462  88.70  0.004518813    3.972    0.748
