#   1 NUMBER                 Running object number                                     
#   2 MAG_AUTO               Kron-like elliptical aperture magnitude                    [mag]
#   3 X_IMAGE                Object position along x                                    [pixel]
#   4 Y_IMAGE                Object position along y                                    [pixel]
#   5 X_WORLD                Barycenter position along world x axis                     [deg]
#   6 Y_WORLD                Barycenter position along world y axis                     [deg]
#   7 A_WORLD                Profile RMS along major axis (world units)                 [deg]
#   8 B_WORLD                Profile RMS along minor axis (world units)                 [deg]
#   9 THETA_WORLD            Position angle (CCW/world-x)                               [deg]
#  10 FWHM_WORLD             FWHM assuming a gaussian core                              [deg]
#  11 ELONGATION             A_IMAGE/B_IMAGE                                           
#  12 ELLIPTICITY            1 - B_IMAGE/A_IMAGE                                       
         1 -14.2836    199.0122     39.6168   4.5720455649e+01   2.9816491096e+01     1.563518     1.228708  -5.31  0.003485709    1.524    0.344
         2 -14.6384    209.3937     28.9052   4.1716603242e+01   2.8654130135e+01     1.798803     1.284292  15.97  0.002055411    1.980    0.495
         3 -14.0782      2.5015     10.5071   1.0170942724e+02   7.6441699050e+01     3.579403     1.073719 -60.86   0.01517456    2.803    0.643
         4 -13.4030    234.1707      4.2713   3.3682687584e+01   2.5703608455e+01    0.8173654    0.5068955  82.74  0.004792684    1.667    0.400
         5 -10.4516     60.7852      7.6176   6.2255865707e+01   6.8501424365e+01    0.1842038    0.1272682  62.99 0.0005409783    1.668    0.400
         6  -9.2991     69.6693     52.6281   8.0474041885e+01   5.9038984016e+01    0.1929282    0.1359346  50.34 0.0005295392    1.533    0.348
         7 -12.1934    139.4335    247.8590   9.9644194797e+01   7.9947452382e+00    0.4640204     0.318643 -41.47  0.003276403    1.906    0.475
         8 -10.8530    135.1243    246.8793   1.0034885758e+02   8.6911254213e+00    0.1780161    0.1327704  33.17 0.0004587033    1.013    0.013
         9 -13.8400     71.7791    171.9165   1.0586456550e+02   3.0721459088e+01     2.073203     1.136825 -24.94  0.006740694    5.671    0.824
        10 -13.1941     14.5027    191.9372   1.2140955116e+02   3.2895396712e+01    0.6571692    0.2623343 -59.44   0.00223802    3.059    0.673
        11 -13.7042     28.1708    215.7060   1.1950896482e+02   2.6924214927e+01     1.725182    0.5559667 -86.55  0.007793474    3.610    0.723
        12 -13.8605     70.9103    155.7315   1.0406416347e+02   3.4455492061e+01    0.6098735    0.5658594  26.29  0.001709383    1.216    0.178
        13 -15.1584     68.6535    144.1199   1.0307266983e+02   3.7475880086e+01     6.063377      2.78085  64.34    0.0199541    3.465    0.711
        14 -12.1657    201.0314    198.1909   8.1458977342e+01   5.9832561017e+00    0.3589986    0.1953711  19.43  0.001903938    1.938    0.484
        15 -16.9331      6.8512    204.1226   1.2355330009e+02   3.1135509324e+01     7.530799     1.522182 -79.01   0.02231949    4.570    0.781
        16  -9.4121     25.2244    194.4823   1.1909214580e+02   3.1366816900e+01    0.2958095   0.08852422  46.21  0.001008005    2.388    0.581
        17  -8.7734     93.3283    205.3399   1.0448240554e+02   2.1013774421e+01     0.118529   0.09454102  -4.63 0.0007051639    1.736    0.424
        18  -9.7400    127.4862    192.9832   9.5350507139e+01   1.8182680636e+01     0.168494    0.1134514  88.42 0.0008104743    2.580    0.612
        19  -9.7427    133.9851    196.2824   9.4403195667e+01   1.6591014808e+01    0.1843174    0.1422798  36.33 0.0004072781    1.094    0.086
        20  -9.4428    150.6593    188.3234   8.9647209286e+01   1.5285613685e+01    0.1281978    0.0971916  62.61 0.0007050882    1.725    0.420
        21  -9.4052     70.4970    184.9714   1.0762726595e+02   2.8120516840e+01    0.1687378    0.1231294 -77.29 0.0003577826    1.472    0.321
        22  -9.4092     91.7088    183.9350   1.0238304178e+02   2.5368312847e+01     0.174446    0.1620293  65.73 0.0007219901    1.105    0.095
        23 -14.9767     57.2862    239.8611   1.1489469083e+02   1.9515323297e+01     1.012467    0.6522527  58.55   0.00523627    1.312    0.238
        24 -10.6159     99.4706    180.7887   1.0011274398e+02   2.4841154157e+01    0.2490877    0.2047214  40.09 0.0005600323    1.081    0.075
        25 -10.6699    150.1154    178.0205   8.8081967425e+01   1.7132425223e+01    0.3493179    0.2201336 -67.54  0.001550724    2.687    0.628
        26 -11.3900    144.2633    178.3790   8.9413528807e+01   1.8053784440e+01    0.3260901     0.258941 -56.80  0.001765919    1.518    0.341
        27 -12.3031    109.4054    201.0716   1.0042113067e+02   1.9485240546e+01    0.5995314     0.436751 -17.34  0.002450617    2.027    0.507
        28 -11.8891    193.6231    195.8290   8.2408218952e+01   7.3966482496e+00    0.7881311    0.4688079 -60.84  0.003275915    4.698    0.787
        29 -11.0793    130.9820    172.5621   9.1436494657e+01   2.1362917483e+01    0.3087675    0.1644844  38.08  0.001444541    1.672    0.402
        30 -10.4178    187.8740    173.2279   7.9564723150e+01   1.1565168178e+01    0.3632059    0.1791765 -50.24  0.001592482    2.929    0.659
        31 -11.0353    138.0491    169.5877   8.9317636058e+01   2.0713555310e+01    0.3664559    0.2798612  38.21  0.001162066    1.175    0.149
        32 -14.5675     45.0037    200.1458   1.1493385355e+02   2.8142320083e+01     2.151011     1.014619  75.48  0.009311301    2.422    0.587
        33 -11.3096     34.0819    165.8983   1.1506538289e+02   3.6618517783e+01     0.514465    0.1969161  47.13  0.001961562    2.195    0.544
        34 -10.1415    230.0000    166.0048   7.0868373809e+01   5.8794657043e+00    0.1915718   0.06146947 -33.35 0.0006085491    2.920    0.657
        35 -10.5080    156.4158    158.4233   8.3188741480e+01   1.9505012117e+01    0.3648129    0.2430632 -67.35  0.001273299    2.407    0.585
        36 -12.2831     89.3579    153.8336   9.8779909566e+01   3.2137750593e+01    0.6141903    0.4644417 -17.51    0.0019143    1.920    0.479
        37 -10.3389    187.2837    151.9248   7.5575251668e+01   1.5002848067e+01    0.1941718    0.1692896 -10.12  0.001170995    1.087    0.080
        38 -11.5108    133.8219    144.9211   8.5725943486e+01   2.6282853758e+01     1.047212    0.3171892 -55.15  0.002905647    5.149    0.806
        39 -15.2973     55.2869    188.3763   1.1162204232e+02   2.9339508680e+01     7.707675     2.461376  59.77   0.02478459    4.932    0.797
        40 -10.7218    174.3471    148.8162   7.7496109816e+01   1.7889957249e+01    0.2716313    0.2498479  83.05 0.0009569222    1.401    0.286
        41 -10.1358    143.5119    146.0076   8.3643544731e+01   2.4233380793e+01    0.1981604    0.1285056 -72.85  0.000810559    2.628    0.620
        42 -11.0285    103.0410    139.1534   9.2527378471e+01   3.3155014306e+01    0.5401577    0.3586136 -22.59   0.00230328    2.408    0.585
        43 -12.5255     90.3367    139.1045   9.6050145626e+01   3.5329880073e+01    0.2731053    0.2685105  -9.30  0.000508251    1.148    0.129
        44 -12.5064     43.9768    129.8066   1.0852772610e+02   4.4112582798e+01    0.5264511    0.3314898 -87.53  0.002070045    1.605    0.377
        45 -10.7444    105.9671    130.8516   9.0081662442e+01   3.4496564177e+01    0.3457799     0.307674 -87.62  0.001279819    1.190    0.160
        46 -11.3129    135.0000    121.3339   8.0301757805e+01   3.0884301935e+01    0.6929265   0.08426441 -46.26  0.001350933    8.625    0.884
        47 -10.6097    134.5073    105.9737   7.6624295165e+01   3.4155862174e+01    0.4879848     0.145034 -47.53  0.001435162    3.612    0.723
        48 -10.5707    111.9468    129.8709   8.8236306669e+01   3.3607678873e+01    0.3402967    0.2674176   8.77  0.001018481    1.643    0.391
        49 -10.3008    160.5364    127.8719   7.5863906280e+01   2.4339614137e+01    0.3143964    0.2499667 -56.46  0.001621619    1.441    0.306
        50 -11.1294     99.1534    125.8825   9.0976458680e+01   3.6863991854e+01    0.3042941    0.2567706  -6.42 0.0007228458    1.502    0.334
        51  -9.0498     93.9356    126.0647   9.2528111910e+01   3.7747106330e+01    0.1727029    0.1636453  77.40 0.0004900067    1.024    0.023
        52 -11.3840    119.2106    122.9428   8.4756415359e+01   3.3731984008e+01    0.6327204    0.4001176  -5.49  0.002136569    3.711    0.731
        53 -10.0536    108.0085    118.9577   8.6935075067e+01   3.6797578627e+01    0.2156416    0.2069732  54.34  0.001185387    1.017    0.017
        54  -9.7721     32.6822    204.0446   1.1793833575e+02   2.8700028294e+01    0.1598383    0.1256033  69.18 0.0004594193    1.115    0.104
        55  -9.5515    167.9304    112.8111   7.0702101932e+01   2.5562955196e+01    0.2882444    0.1942416 -66.21  0.001238136    2.194    0.544
        56 -11.4188    116.8249    109.3301   8.2160979621e+01   3.7189267588e+01    0.6134802    0.4414333  55.08  0.002872557    1.446    0.309
        57 -11.4498     18.1506    109.3369   1.1466145307e+02   5.1729762775e+01    0.4477619    0.2010577  86.10  0.001889468    2.419    0.587
        58 -10.1243    205.4809    110.1868   6.3103188864e+01   1.8177710713e+01    0.2802988     0.191058  39.20  0.001004798    1.555    0.357
        59 -12.3016     31.3859    107.9268   1.0979208407e+02   5.0930722387e+01    0.4102103    0.3169513 -54.23  0.002333083    1.315    0.239
        60  -8.7707    141.5288    108.4265   7.5523037455e+01   3.2130092493e+01    0.1492231    0.1456615  62.43 0.0001900335    1.037    0.036
        61 -10.0343    242.3159    101.6824   5.5808718251e+01   1.2425203564e+01    0.1252812   0.08956584 -53.59 0.0003903839    1.652    0.395
        62 -10.1390     29.6333     99.0604   1.0914205835e+02   5.3346830563e+01    0.3257212    0.1637262  38.51  0.001179492    1.997    0.499
        63  -8.8716    129.2755     96.3240   7.5378934184e+01   3.7291843310e+01    0.1518151    0.1228702  -1.15 0.0006985327    1.582    0.368
        64 -16.4625     30.8860    249.6687   1.2042556953e+02   2.0744009629e+01     11.17896     3.122314  23.05   0.02521427   15.560    0.936
        65 -10.5252    113.0582    206.0363   1.0022401542e+02   1.8066936978e+01    0.1985988    0.1627018  40.68 0.0007555667    1.013    0.013
        66  -9.1157    157.4865     89.5324   6.6802107461e+01   3.2144762135e+01    0.1521579    0.1434757 -72.22 0.0008073284    1.110    0.099
        67  -8.9286    117.4694     86.4434   7.5746404065e+01   4.1972422170e+01    0.1526266    0.1499061  73.72 8.611478e-05    1.006    0.006
        68  -9.6211     74.9847     84.7910   8.8919217265e+01   5.0865061728e+01     0.217109    0.1909206  71.91 0.0004144348    1.214    0.176
        69  -9.8109    158.1656     81.8445   6.4480432901e+01   3.3364439181e+01    0.2073029    0.1807765  13.76 0.0004872595    1.303    0.232
        70  -8.8029     70.7078     82.2586   8.9786416994e+01   5.2194241032e+01     0.142782    0.1126745  73.20 0.0001825299    1.494    0.331
        71  -9.4273     56.5084     66.4819   9.0803718652e+01   5.8185010963e+01    0.2531967    0.1236254  46.03 0.0009495108    2.298    0.565
        72 -11.1815     13.4176     59.8554   1.0935054343e+02   6.4486588690e+01    0.2654868    0.2109739 -78.91 0.0004372099    1.181    0.153
        73 -13.7989    188.7909     47.2762   4.9157326058e+01   3.1287324919e+01     1.247961    0.8924798  37.22  0.001186673    1.688    0.408
        74 -16.8294      6.5939    246.1690   1.2477531929e+02   2.3623602087e+01     1.739393     1.114612  25.90   0.01286759    1.703    0.413
        75  -9.4429     93.9540    249.9455   1.0847099712e+02   1.3545360746e+01     0.134886   0.09838366  40.59 0.0004977026    1.008    0.008
        76 -11.7425      3.5178     30.5424   1.0813068812e+02   7.2009528861e+01     0.421739    0.2949163  25.51  0.001786235    1.635    0.388
        77  -9.6016    101.8323    250.2525   1.0698981709e+02   1.2515589290e+01    0.1924673   0.08491912  56.26 0.0009581475    2.825    0.646
        78 -11.2668    145.0605     41.9610   5.4493876704e+01   4.3159063467e+01    0.4812506    0.2985225 -76.58 0.0009988158    2.250    0.556
        79 -11.7593     20.6680     33.4664   9.7930634713e+01   7.0127870409e+01    0.3641653    0.2219412  32.93   0.00182787    1.806    0.446
        80 -10.9128    187.9666     30.9880   4.4538388178e+01   3.3565097404e+01    0.2165929    0.2018028 -64.59 0.0005458412    1.028    0.027
        81 -10.7876    198.0410     23.8279   4.1415814577e+01   3.1924090513e+01    0.3047154    0.1990831 -14.28 0.0009230833    1.783    0.439
        82  -9.5479    189.5188     14.9780   3.9704888907e+01   3.4972909304e+01    0.2021156    0.1281787 -28.44 0.0006121185    1.547    0.354
        83  -9.7294     64.5412    223.9014   1.1236742607e+02   2.1393779272e+01    0.2182422    0.1093276 -84.38  0.001181055    2.529    0.605
        84 -10.4213     59.8406    220.2879   1.1309595132e+02   2.2600214817e+01    0.3432384    0.1680606  27.53  0.001268501    2.035    0.509
        85 -11.6226    143.9400     48.7902   5.7057447003e+01   4.2431914967e+01    0.5670956    0.3449869 -78.48  0.001162197    2.543    0.607
