#   1 NUMBER                 Running object number                                     
#   2 MAG_AUTO               Kron-like elliptical aperture magnitude                    [mag]
#   3 X_IMAGE                Object position along x                                    [pixel]
#   4 Y_IMAGE                Object position along y                                    [pixel]
#   5 X_WORLD                Barycenter position along world x axis                     [deg]
#   6 Y_WORLD                Barycenter position along world y axis                     [deg]
#   7 A_WORLD                Profile RMS along major axis (world units)                 [deg]
#   8 B_WORLD                Profile RMS along minor axis (world units)                 [deg]
#   9 THETA_WORLD            Position angle (CCW/world-x)                               [deg]
#  10 FWHM_WORLD             FWHM assuming a gaussian core                              [deg]
#  11 ELONGATION             A_IMAGE/B_IMAGE                                           
#  12 ELLIPTICITY            1 - B_IMAGE/A_IMAGE                                       
         1 -13.4637    171.8084     55.0017   6.0470371793e+01   3.4657563873e+01     2.186747     1.281304  27.77  0.006111542    2.380    0.580
         2 -13.3598    186.8238     40.5269   5.3378229221e+01   3.2688376290e+01     1.067053    0.9439051 -35.98  0.003009834    1.105    0.095
         3 -12.8940    191.4496     34.4370   5.0771831984e+01   3.2209936421e+01    0.6818408    0.6247307 -39.85  0.001614266    1.065    0.061
         4 -13.9500    210.0100      9.5293   4.0842722414e+01   2.9923882033e+01      1.33563     1.154042   9.39  0.004409339    1.261    0.207
         5 -12.7548    193.2762     16.0470   4.4580526887e+01   3.3758202324e+01    0.8727295    0.5723234  83.18  0.004033647    1.630    0.386
         6 -11.6258    242.3356      2.3102   3.6343468014e+01   2.2480278479e+01      1.09726    0.2640757  79.37  0.003384251    4.957    0.798
         7 -10.6892     57.2848    213.8979   1.1406221156e+02   2.7375393934e+01    0.1994308    0.1115438  54.91 0.0008104737    1.272    0.214
         8 -13.3772    246.3123    239.4823   8.5967641026e+01  -1.5161211006e+00     1.250262     0.575994 -16.38  0.008556185    2.612    0.617
         9 -11.1932    150.9303    195.8654   9.5278737284e+01   1.6867179552e+01    0.4330202    0.1967978  42.15  0.002338467    1.721    0.419
        10 -11.3995     63.7006    195.1571   1.1162952466e+02   2.9623165524e+01    0.2656386    0.1976305 -45.73  0.001272676    2.188    0.543
        11  -9.1278     82.8082    195.4962   1.0798655983e+02   2.7105087769e+01    0.2471222    0.1404398  61.03  0.001556791    1.533    0.348
        12  -9.0164     78.7345    193.4919   1.0859687242e+02   2.7977346317e+01    0.1548255   0.08705807  44.43 0.0009699264    1.411    0.291
        13 -17.6615     39.1360    242.3147   1.1849669433e+02   2.5212854391e+01     6.265946     4.041557  33.18   0.05032526    1.781    0.439
        14  -9.9711    156.7537    189.8785   9.3429481666e+01   1.6730291569e+01    0.1676211    0.1367309  31.05 0.0004247962    1.176    0.150
        15 -11.5205    149.8449    187.9460   9.4423800998e+01   1.8131290963e+01    0.3521251    0.1929837  44.13  0.001535296    1.447    0.309
        16 -10.6152    238.6402    186.1038   7.9329380741e+01   3.8320201278e+00    0.1909666    0.0924935 -34.00  0.001093526    2.494    0.599
        17  -9.4757    184.5402    212.2838   9.1670564262e+01   9.5938656686e+00    0.1605969    0.1088644 -43.63  0.001119734    2.036    0.509
        18 -11.2444    151.2659    180.4226   9.3107098452e+01   1.8963644553e+01    0.3468004    0.2529173  87.31  0.001932954    2.073    0.518
        19 -10.6885    189.4690    177.5617   8.5794585302e+01   1.2803686124e+01    0.3957683    0.3103091 -62.20  0.002131723    1.969    0.492
        20  -9.8771     38.7801    212.5459   1.1727889998e+02   2.9656881072e+01    0.1505996    0.0623363  47.53 0.0009650674    1.640    0.390
        21 -12.6386     48.4179    206.5250   1.1523225642e+02   2.9558724014e+01    0.3388669    0.1339649  55.24  0.001413913    1.883    0.469
        22  -8.5760     63.4220    170.4729   1.0967225685e+02   3.4005434699e+01    0.1138061   0.09131925  65.39 0.0002274708    1.056    0.053
        23 -10.0536    240.2247    169.3957   7.6254972183e+01   5.1598971317e+00    0.1520376   0.09911139  48.11 0.0003593488    1.636    0.389
        24 -11.0167     92.8811    157.5744   1.0185723856e+02   3.2307355375e+01    0.2264268     0.208417  63.47 0.0003949314    1.180    0.152
        25 -12.1108     98.4245    151.0362   9.9738871653e+01   3.2677476560e+01    0.4938174    0.4425198 -17.94  0.003200125    1.609    0.378
        26 -11.2836    134.0309    146.4307   9.1186444478e+01   2.7413457446e+01     1.077724    0.2914418 -55.20  0.003176822    6.041    0.834
        27  -9.9406    187.5032    151.7139   8.1640014959e+01   1.6513435790e+01    0.3139418    0.2101628 -71.98  0.001421715    3.237    0.691
        28 -10.3830    113.5567    151.5748   9.6455770315e+01   3.0098860461e+01    0.2806827    0.1873149  72.35  0.001389314    1.730    0.422
        29  -9.8356    174.5024    148.9928   8.3521886845e+01   1.9369496026e+01    0.2369415     0.206383  48.07 0.0008635151    1.109    0.099
        30 -10.1159     92.3037    147.2281   1.0059628980e+02   3.4368334708e+01    0.2870989    0.1694607  62.53   0.00150836    1.713    0.416
        31 -10.3528    143.7138    145.9346   8.9060881896e+01   2.5705623284e+01    0.2914239    0.1611692 -63.39  0.001295007    2.718    0.632
        32 -11.1984     69.8939    206.9081   1.1132094608e+02   2.6946824308e+01    0.4522071     0.214699  29.68  0.001836406    2.775    0.640
        33 -11.8854    109.0929    138.2897   9.5341296676e+01   3.3351764063e+01    0.5637584    0.3985891 -46.57  0.003149046    1.670    0.401
        34 -11.0893    105.9820    130.7944   9.4791852576e+01   3.5353086453e+01    0.3741901    0.2995162  76.69  0.001198566    1.245    0.197
        35 -11.8566     97.6052    137.1134   9.7845357602e+01   3.5509746481e+01    0.2942078    0.2518596  81.34 0.0005270269    1.096    0.088
        36 -10.6703    136.1889    129.1338   8.7507520626e+01   3.0089030865e+01    0.5192064    0.1421422 -48.05  0.001715976    4.036    0.752
        37  -9.9460    161.6364    128.7161   8.2020274891e+01   2.5067809812e+01    0.3696395    0.2412888  68.02  0.001741052    2.012    0.503
        38 -10.5713    103.7089    124.4450   9.4205070714e+01   3.7019015987e+01    0.2644776    0.2399836  11.64 0.0007686177    1.435    0.303
        39 -10.6563    120.6777    122.7856   8.9791332374e+01   3.4262469458e+01    0.3894466    0.2749099 -10.23  0.001736379    2.730    0.634
        40 -10.5780    115.8235    128.6991   9.2076782195e+01   3.4015555291e+01    0.3052833    0.2556131  29.15 0.0007770808    1.388    0.279
        41  -9.6101    152.0995    119.3147   8.1982873677e+01   2.8627208294e+01    0.2929386    0.2131295 -82.35  0.001405863    1.997    0.499
        42  -9.5602    110.9326    118.0535   9.1198041694e+01   3.7015317018e+01    0.2056811    0.1828572  69.85 0.0003405086    1.035    0.034
        43  -9.9201    231.3182    113.6862   6.6417391894e+01   1.2816664581e+01    0.2439183     0.198305  19.17 0.0007515217    1.128    0.113
        44  -9.7202    167.6509    112.7256   7.7260041635e+01   2.6429737478e+01    0.3423357    0.2582263 -80.51  0.001288685    1.903    0.475
        45 -10.5947    134.6825    106.5112   8.2950179930e+01   3.4600645161e+01    0.5209908    0.1420852 -46.47  0.001618314    3.878    0.742
        46 -11.7950    119.1198    109.9313   8.7467676827e+01   3.7088312199e+01      0.56758    0.3863595  57.47  0.002848239    1.461    0.315
        47  -9.6575    205.5228    110.1546   6.9677181084e+01   1.8598910721e+01    0.2987664    0.1833917  42.49 0.0009326146    1.550    0.355
        48 -10.9746     75.4857    248.2165   1.1299660933e+02   2.0359783963e+01     0.252874    0.1079708 -61.28  0.001708589    3.202    0.688
        49  -9.4204    185.3224     85.0838   6.6871145917e+01   2.6777169059e+01    0.2786322    0.2202871  60.18  0.001165486    1.308    0.236
        50 -10.5148     71.9192    244.6319   1.1336439583e+02   2.1248543327e+01    0.1538398    0.1186558  81.08 0.0009423875    1.412    0.292
        51 -19.2061     22.0357    102.6778   1.1347158523e+02   5.2658605142e+01      15.9544     1.204911 -74.60   0.03326645   11.763    0.915
        52 -10.8704     60.5022    203.5088   1.1282046813e+02   2.8639033398e+01    0.1830857    0.1587805  40.47  0.001426092    1.458    0.314
        53 -12.2399    198.2019     23.4651   4.6415199875e+01   3.1656284938e+01    0.5217979    0.4006974 -26.18  0.002039992    1.256    0.204
        54 -10.9625    193.2515    195.3450   8.7894925070e+01   1.0087459427e+01    0.6988702    0.3877359 -60.04  0.002960423    5.488    0.818
        55 -10.2081     63.1347    221.2910   1.1347587739e+02   2.5563966564e+01    0.2958004    0.1179857  60.85  0.001723815    2.246    0.555
