#   1 NUMBER                 Running object number                                     
#   2 MAG_AUTO               Kron-like elliptical aperture magnitude                    [mag]
#   3 X_IMAGE                Object position along x                                    [pixel]
#   4 Y_IMAGE                Object position along y                                    [pixel]
#   5 X_WORLD                Barycenter position along world x axis                     [deg]
#   6 Y_WORLD                Barycenter position along world y axis                     [deg]
#   7 A_WORLD                Profile RMS along major axis (world units)                 [deg]
#   8 B_WORLD                Profile RMS along minor axis (world units)                 [deg]
#   9 THETA_WORLD            Position angle (CCW/world-x)                               [deg]
#  10 FWHM_WORLD             FWHM assuming a gaussian core                              [deg]
#  11 ELONGATION             A_IMAGE/B_IMAGE                                           
#  12 ELLIPTICITY            1 - B_IMAGE/A_IMAGE                                       
         1 -11.8590     13.2506     74.1417   9.1342467348e+01   6.2221752568e+01     1.913684    0.7620822 -87.96    0.0067052    3.037    0.671
         2 -12.5819    119.9059     37.6677   3.4913258207e+01   5.0165919301e+01    0.9825358    0.5203968 -52.93  0.003167964    2.080    0.519
         3 -12.5306    160.0534     29.7109   2.5605436570e+01   4.0935709986e+01    0.4981847    0.3742529 -29.76   0.00047231    1.332    0.249
         4 -12.4129    104.9927     12.5818   2.7296496938e+01   5.7269358358e+01    0.6798904       0.4389 -23.22  0.002411856    1.654    0.395
         5 -11.1132    105.5762      2.8193   2.2715308872e+01   5.8038293039e+01    0.4817937    0.2832743 -55.76  0.001366801    1.786    0.440
         6 -12.2687    105.9121     20.9503   3.0890176838e+01   5.6080072698e+01    0.4266907    0.3481337 -71.03 0.0008414278    1.254    0.202
         7 -12.2706    113.7571     25.0324   3.1061475721e+01   5.3507488306e+01    0.7381024    0.3335579  61.73  0.001979965    2.066    0.516
         8 -11.8133     26.5870     28.0260   6.8072326579e+01   7.2433565601e+01    0.6271033    0.3615549 -48.80  0.002371367    1.639    0.390
         9 -12.1741     20.2307     21.9370   6.9531259527e+01   7.4557747161e+01    0.6340016    0.4063709 -41.09  0.001794209    1.468    0.319
        10 -10.1067     12.2774      8.2026   6.7614038315e+01   7.8293107460e+01    0.4629612     0.329928  88.54  0.002241272    2.813    0.644
        11 -12.1943     16.2541     14.3592   6.8212857319e+01   7.6602440821e+01    0.7088785    0.4241394 -21.64  0.003392738    2.055    0.513
        12 -11.6824     22.6605     11.2146   6.0418186155e+01   7.6298861056e+01    0.4507558    0.3034435  16.07  0.001676813    1.685    0.406
        13 -11.4006    122.2777      5.2439   2.1458138362e+01   5.3380349056e+01    0.3466275     0.257243  -3.35 0.0004142773    1.627    0.385
        14 -12.4423    135.5216     22.4598   2.6356992298e+01   4.8092444208e+01    0.9991946    0.3919846  57.95  0.003849408    2.446    0.591
        15 -11.0352    121.4291     11.6591   2.4197194062e+01   5.2994941554e+01    0.4029722    0.2794401  86.87   0.00202952    1.405    0.288
        16 -10.8258    127.1370     11.8602   2.3479228515e+01   5.1460681277e+01    0.3621573    0.2746981 -65.02  0.001493085    1.270    0.213
        17 -11.5015    134.5052     14.8499   2.3654870002e+01   4.9208282033e+01    0.6609039    0.3320785  71.58   0.00289248    1.892    0.471
        18 -10.2443     87.4730      7.3822   2.8312325628e+01   6.2404857325e+01    0.5866875      0.33076  66.82  0.002286572    1.641    0.390
        19 -11.0561    179.1494     20.6727   2.0835836433e+01   3.7346490890e+01    0.5115224    0.2589827  42.63  0.002158056    2.935    0.659
        20 -11.9441     48.4043     13.0420   4.5072000753e+01   7.1201577352e+01    0.7621263    0.3280402  53.53  0.003137921    2.294    0.564
        21 -11.7257     35.3535     18.9324   5.6559203644e+01   7.2827764205e+01    0.6676964     0.302765 -32.28  0.002648456    2.596    0.615
        22 -13.0026    164.1044     18.6754   2.1625996282e+01   4.1215888184e+01     0.486844    0.3195068  42.30  0.002416858    1.952    0.488
        23 -10.7876     90.7431     22.4301   3.5146832136e+01   5.9838714689e+01    0.4023518    0.3385738 -21.64  0.001498793    1.275    0.216
        24 -11.7354     68.1494     18.4256   4.0038286921e+01   6.5976055349e+01    0.4556843    0.4321462  -9.83  0.001537538    1.086    0.080
        25 -11.6237    228.6921     15.9792   1.6240075904e+01   2.7123302371e+01    0.3224126    0.2393798  76.30 0.0003717483    1.567    0.362
        26 -11.2186    225.6597     14.2875   1.5996919428e+01   2.7894237169e+01    0.2967414    0.1705974 -38.27 0.0008892005    1.335    0.251
        27 -10.5863    148.0921     16.2166   2.2502547823e+01   4.5528906956e+01    0.3616936    0.2287789  47.94  0.001438714    1.834    0.455
        28 -10.7855    186.9099     15.0799   1.8595886076e+01   3.6134082975e+01    0.2260889    0.1807947 -45.62 0.0003320863    1.089    0.081
        29 -12.1222    192.6329      8.8694   1.6476463924e+01   3.5458535095e+01      0.71162    0.4155097   4.70  0.002420665    2.944    0.660
        30 -11.6623    212.0563      8.6006   1.5309074313e+01   3.1245238022e+01    0.6167194    0.3196318 -10.33  0.002896717    2.746    0.636
        31 -11.6598    206.0310      2.9999   1.4186422168e+01   3.3068701660e+01    0.3957504    0.2789822 -83.85  0.002470997    1.380    0.276
        32 -11.2084    163.2860      5.9652   1.7653136244e+01   4.2714763721e+01    0.3261688    0.2379179  11.23  0.001734456    1.885    0.469
        33 -11.8257    169.6011      9.3402   1.8216816116e+01   4.0835137107e+01    0.6094735    0.2088895  61.22  0.002405283    2.940    0.660
        34 -11.3177     85.8963     13.9933   3.2155599837e+01   6.2115273835e+01    0.5057989    0.3366499 -24.59  0.001599675    1.592    0.372
        35 -10.9570      6.1321     10.6128   7.5745652809e+01   7.8472146741e+01    0.4352448    0.3368232 -10.11  0.002164281    1.268    0.212
        36 -10.7224    145.3171      9.7306   2.0533056506e+01   4.6909340392e+01    0.2388346    0.2208134  52.58 0.0005165889    1.235    0.190
        37 -10.0390     62.1410      7.6786   3.5653459382e+01   6.8746114264e+01    0.2562307    0.1976324  -6.88 0.0006436264    1.424    0.298
        38  -9.7021      1.2288      8.2188   7.9758894339e+01   7.9385890372e+01    0.2604356   0.07591444 -55.61  0.001047604    2.729    0.634
        39 -11.3256    232.5302      7.0829   1.3989303260e+01   2.7274324654e+01    0.2455496    0.1954383 -68.74   0.00121285    1.205    0.170
        40 -11.8816    233.9262      3.0638   1.3013124026e+01   2.7393820068e+01    0.4388956    0.1785686 -60.86 0.0007598271    2.140    0.533
        41 -11.3016    183.5061      4.4986   1.5812777746e+01   3.7980782022e+01    0.3799241    0.2655605  25.93  0.002041212    2.108    0.526
        42 -11.1215    153.1674      7.1198   1.8876552463e+01   4.5147795417e+01    0.8178902    0.2867011  46.12  0.002678182    4.345    0.770
        43 -10.7853    157.4960      7.0204   1.8466024125e+01   4.4062037783e+01    0.4548331    0.2439975   1.95  0.001860559    3.051    0.672
        44  -9.6790     78.0332      7.5272   3.0681515793e+01   6.4823214542e+01    0.2820254    0.1826626 -78.55 0.0008727816    1.944    0.486
        45 -10.0594     76.5240      3.4903   2.8749823000e+01   6.5597307087e+01    0.3057864    0.2211428  43.62  0.001272733    1.367    0.268
        46 -10.4881     73.0277      2.9917   2.9358083491e+01   6.6531758478e+01    0.4272115    0.2551291  28.27  0.001969863    1.998    0.500
        47 -10.4873    247.3916      5.6255   1.3082420317e+01   2.4648162637e+01    0.1914859    0.1447595  24.88  0.001270836    2.138    0.532
        48 -11.3080    176.5760      5.8088   1.6640414452e+01   3.9493101314e+01     0.381833     0.211308 -87.56 0.0008812725    1.783    0.439
        49 -11.2205    141.5065      3.3704   1.8639848405e+01   4.8488718971e+01    0.3154607    0.2541104  87.61  0.001708937    1.152    0.132
        50 -10.3150     41.6974      3.9331   4.1831819862e+01   7.3836730390e+01    0.3360868    0.2124151  21.42   0.00125185    1.911    0.477
        51 -10.3384     22.0771      3.2684   5.4381297862e+01   7.7713357562e+01    0.2509072    0.1819487 -42.19 0.0006305431    1.470    0.320
        52 -10.8165    218.5473      3.8959   1.3836724172e+01   3.0357992717e+01    0.2221831    0.1822783 -69.69 0.0007039068    1.168    0.144
        53 -12.0395    133.3299      2.6305   1.9170159807e+01   5.0688842389e+01    0.6043283    0.2941092  85.37  0.002538327    2.018    0.505
        54 -11.2061    185.4903      7.0322   1.6411181840e+01   3.7276373583e+01    0.6164372    0.3146974   0.23  0.002449079    3.661    0.727
        55 -11.3317    223.8982      2.6621   1.3313926549e+01   2.9393709176e+01    0.2211764    0.1729127 -50.98 0.0002458648    1.040    0.039
        56 -11.2794    113.2677      2.8527   2.1627128898e+01   5.5986527555e+01    0.4544934    0.2404142 -76.51  0.001921562    2.126    0.530
        57 -11.0231      2.6609      1.8975   7.3526561324e+01   8.0558710602e+01    0.3258043    0.1985527   0.93  0.001611078    1.837    0.456
        58 -10.1870     13.1826      1.7632   6.1286027291e+01   7.9335411688e+01    0.2535137    0.1623725  31.49 0.0008717107    1.549    0.354
        59 -10.3791    152.3750      1.4319   1.7023789173e+01   4.5866229202e+01    0.2505295    0.1227416  80.72 0.0004672232    1.942    0.485
        60  -9.1916     25.9869      3.9280   5.1837623697e+01   7.6936560121e+01    0.1480468    0.1287356 -15.48 0.0009147754    1.102    0.093
        61  -9.7551    233.6757    143.3293   4.4075422747e+01   9.7474008220e+00    0.1113582   0.08563279 -50.61 0.0007049955    1.699    0.411
        62  -9.0639    249.3436    250.3193   5.9214535000e+01  -4.3426238672e+00    0.1014149   0.05103058  -1.10 0.0007049522    1.722    0.419
        63 -11.4240     49.8134    248.3954   9.5571909428e+01   1.6969246710e+01    0.3951197    0.2190938  59.72  0.002470431    1.748    0.428
        64  -9.9777    217.3372    138.9489   4.5561901713e+01   1.2746741209e+01    0.1806975    0.1344856 -26.14 0.0004815991    1.114    0.103
        65 -10.3257     79.4983    138.0281   7.6549769951e+01   3.6848968097e+01    0.3097793     0.260805  78.79  0.001611157    1.238    0.192
        66 -10.4302     40.1444    137.6840   8.9272216550e+01   4.2298201089e+01    0.2761946    0.1923186  65.37 0.0007627704    1.409    0.290
        67  -9.5983     39.4974    133.5116   8.8976445577e+01   4.3481549051e+01    0.1979627    0.1635901 -40.95   0.00104998    1.402    0.287
        68 -10.0119     31.8520    137.6101   9.2058728339e+01   4.3207126223e+01    0.4168999    0.2132231  32.52  0.001518053    1.847    0.458
        69 -11.1566     29.8896    133.1645   9.2254198679e+01   4.4591625337e+01    0.6097643    0.3260534 -34.23  0.000741167    2.738    0.635
        70 -10.5568     23.4886    137.4817   9.4873623272e+01   4.4047569869e+01      0.32437    0.2573748  64.38  0.001806909    1.137    0.120
        71  -9.6477     20.5051    134.4665   9.5621970296e+01   4.5115997954e+01    0.3210444    0.2453217  25.38   0.00162506    1.392    0.282
        72 -11.0181     12.1695    136.1747   9.8598814003e+01   4.5339975313e+01    0.4843503    0.2559657 -51.17  0.002207391    2.126    0.530
        73  -9.4706     47.2361    134.9898   8.6532372979e+01   4.2179975055e+01    0.1939245    0.1177658 -72.44 0.0005359006    1.606    0.377
        74 -10.0256     73.1046    133.6631   7.7776630857e+01   3.8947695579e+01    0.2703501    0.2076912 -82.31  0.001327578    1.376    0.273
        75 -10.3789    248.4918    133.5191   4.0226526799e+01   9.0186177722e+00    0.1172674   0.08871865 -22.87 0.0001331104    1.001    0.001
        76 -10.3328    103.9798    131.2710   6.7926880345e+01   3.4340433883e+01    0.2402785    0.2103819 -56.17  0.001255671    1.152    0.132
        77  -9.5219     62.6382    131.1534   8.0761955294e+01   4.1149418039e+01    0.2214253    0.1262157 -54.23 0.0007746404    1.768    0.434
        78 -10.8811     10.3295    127.5357   9.8622405407e+01   4.7781772767e+01     0.488683    0.2403371 -57.24  0.001877315    2.062    0.515
        79  -9.3993     93.2189    129.4188   7.0689563872e+01   3.6699854411e+01    0.2223677    0.1356977  47.51 0.0009508278    1.657    0.397
        80  -9.4461     78.6758    128.6912   7.5061770098e+01   3.9335780061e+01    0.1523075    0.1188843 -22.12 0.0003376338    1.651    0.394
        81  -9.0213     26.5652    127.4704   9.2810380237e+01   4.6449143970e+01    0.1428772    0.1280083  82.89 7.775758e-05    1.021    0.021
        82  -9.7112     22.7482    127.0253   9.4134110188e+01   4.6920700530e+01    0.1938806    0.1631479  86.32 0.0003168743    1.070    0.065
        83  -9.8049      2.0765    125.7211   1.0144051435e+02   4.8812282089e+01     0.254398    0.1592573  74.49  0.001300726    1.423    0.297
        84 -11.9952    103.8399    122.4936   6.6028233322e+01   3.6441721601e+01    0.3650703    0.3310184  40.78 0.0008712006    1.108    0.097
        85  -9.4475     78.2470    123.3712   7.4137426882e+01   4.0761232974e+01    0.2101635     0.134835  45.72 0.0005405823    1.544    0.352
        86 -10.1041     49.6972    123.2172   8.3919528893e+01   4.5018024859e+01    0.2861784    0.2148347  10.45  0.001239331    1.620    0.383
        87 -10.9975     44.2720    117.9948   8.5055919302e+01   4.7111848715e+01    0.5672413    0.2771392 -83.51  0.002130429    2.420    0.587
        88 -12.5908      2.8162    111.7527   1.0029734105e+02   5.2539895442e+01    0.6959078    0.3415064  66.45 0.0006815384    1.979    0.495
        89 -11.3679      4.6384    105.1395   9.9074286344e+01   5.4243054550e+01    0.4585931    0.3464074  16.68  0.002530883    1.495    0.331
        90  -9.8947     79.0989    114.6889   7.1995083927e+01   4.2836918574e+01     0.300786    0.2231539 -52.88  0.001119807    1.343    0.255
        91 -11.9176      7.0468     88.8235   9.6465530276e+01   5.8592375476e+01     1.013085    0.4601752   8.61  0.004209859    2.634    0.620
        92 -11.5027     27.5459     85.1338   8.6242645215e+01   5.7998998139e+01    0.8115677    0.6574534   7.95  0.004303818    1.417    0.294
        93 -11.5855     25.4766    107.1361   9.0750527447e+01   5.2126027964e+01    0.7822209    0.5192612 -49.81  0.003798266    1.564    0.361
        94 -10.8853     35.4037     92.6849   8.4140219906e+01   5.5090964613e+01    0.4557737    0.2780246 -86.94  0.001569484    1.802    0.445
        95 -11.9392      9.9253     97.3119   9.6102381160e+01   5.6074785828e+01    0.6963665    0.5509939 -11.92 0.0003902378    1.510    0.338
        96 -11.7507     44.2398     85.0768   7.8528583529e+01   5.6059634304e+01    0.5560238     0.416226  16.89  0.001892605    1.539    0.350
        97 -10.5816     37.3272     85.9623   8.1866227049e+01   5.6698975637e+01     0.358564    0.2282274  21.89  0.001187621    1.748    0.428
        98 -13.1887     17.6659    100.4212   9.3122530456e+01   5.4657453607e+01    0.4175415    0.3846312  45.34 0.0005424378    1.147    0.128
        99 -11.1822     22.9209     94.6996   9.0027002602e+01   5.5799931834e+01    0.3771488    0.2927426   3.17  0.001059053    1.524    0.344
       100 -11.3039     18.2778     91.2957   9.1604519246e+01   5.7133997271e+01    0.4673655    0.2984816  73.20   0.00152884    1.647    0.393
       101 -11.2192     21.2447    114.6362   9.3371170973e+01   5.0435980516e+01    0.5494209    0.2962425   1.95  0.002284283    2.564    0.610
       102 -11.0034     28.0282    113.4917   9.0589100811e+01   5.0129817767e+01     0.355722    0.2661519   5.16  0.001031278    1.620    0.383
       103 -10.1158     48.7432    112.4487   8.2429191404e+01   4.8053436891e+01     0.272157    0.2364573  84.06 0.0009416082    1.108    0.097
       104  -9.3133     93.5378    112.5313   6.6795334065e+01   4.0778511686e+01     0.156107    0.1471816  83.97 0.0002054845    1.055    0.052
       105 -10.0176     66.7105    110.8598   7.5458859681e+01   4.5876648998e+01    0.2540622    0.2166758  19.74 0.0006094153    1.320    0.242
       106  -9.2640    170.5338    110.4428   4.7097404470e+01   2.5638788163e+01    0.1421542    0.1300724 -24.40  9.02842e-05    1.045    0.043
       107 -10.0048    102.1384    109.1827   6.3319261363e+01   3.9928898641e+01    0.2357645    0.2140385 -11.07 0.0005946601    1.263    0.209
       108 -11.3468     80.4814    108.1373   7.0006251838e+01   4.4264194930e+01    0.4772124     0.310868  31.79 0.0009362203    1.650    0.394
       109 -10.5436     15.4097    108.6650   9.5021755473e+01   5.2553929502e+01    0.3850022     0.255747   6.87  0.001896869    1.809    0.447
       110  -9.1885    143.6438    106.3132   5.1639102820e+01   3.1962083514e+01    0.1541621    0.1186814 -83.32 0.0007044324    1.739    0.425
       111  -9.1961    182.5542    104.5026   4.3471322087e+01   2.4294737428e+01    0.1403856    0.1244635 -36.96 9.926768e-05    1.026    0.026
       112  -9.9558     85.6324    103.8546   6.7201351878e+01   4.4402179891e+01    0.2208427    0.1954953 -66.39 0.0009902983    1.112    0.100
       113 -10.4077     36.3513    103.2356   8.5688608931e+01   5.2085257476e+01    0.5885718    0.3048236  11.15  0.002277692    2.631    0.620
       114  -9.5685     64.7242    101.9335   7.4174604464e+01   4.8541511886e+01    0.2688986     0.180212 -56.68 0.0002873986    1.440    0.305
       115 -12.0516     68.7303     95.8684   7.1165322231e+01   4.9458145025e+01    0.3916414    0.3215437  24.70 0.0004308339    1.355    0.262
       116 -10.6637     51.9677     99.6398   7.8617947511e+01   5.1081604730e+01    0.6794249    0.2395555 -50.04  0.002248917    2.855    0.650
       117  -9.4923     28.3609     99.8529   8.8471127297e+01   5.3863705538e+01    0.2947775    0.1827049 -46.10 0.0005007053    1.713    0.416
       118 -10.5398     30.7843     96.3976   8.6851585641e+01   5.4572365879e+01    0.4465313    0.3063051  89.06    0.0016669    1.489    0.328
       119 -10.5090     43.0665     94.7384   8.1241864881e+01   5.3605902512e+01    0.4099918    0.3598788 -49.00  0.002189343    1.169    0.144
       120 -10.4788     83.0032     93.2757   6.5266524339e+01   4.7520013830e+01    0.4122122    0.2874486  68.15  0.000285999    1.798    0.444
       121 -10.8881     79.4871     93.4859   6.6568106769e+01   4.8134941174e+01    0.5233065    0.3876802  55.95   0.00241921    1.436    0.304
       122 -11.6824    125.7515     94.7919   5.2816175230e+01   3.8205370266e+01    0.2573659     0.256422 -46.39  0.000250322    1.049    0.046
       123  -9.5780    121.7068     93.6733   5.3547039394e+01   3.9334170062e+01    0.2299979    0.2061517  56.36 0.0005549639    1.144    0.126
       124 -11.0747     89.8137     89.7722   6.1923265003e+01   4.7024775181e+01    0.5712144    0.3509764 -39.91  0.002363341    1.768    0.434
       125 -10.7713     98.2551     90.9632   5.9528015436e+01   4.5004356660e+01    0.2790555    0.2283565  49.02 0.0003080785    1.240    0.194
       126 -10.0544     49.0957     91.3173   7.7912172121e+01   5.3722066993e+01    0.3421252    0.2130545  33.99  0.001521717    1.648    0.393
       127  -9.5216    120.4059     90.2716   5.2900970068e+01   4.0347511301e+01    0.2160114    0.1434831 -54.13 0.0004861727    1.545    0.353
       128  -9.6442     66.0679     88.9684   7.0353725918e+01   5.1688334390e+01    0.3793096    0.2135471   8.79  0.001147938    4.113    0.757
       129  -8.9497    199.6954     88.2942   3.6806362789e+01   2.3545371797e+01    0.1347886   0.09491365 -58.98 0.0003750495    1.579    0.367
       130  -9.7085    104.0514     87.2505   5.6628008424e+01   4.4614114147e+01    0.2208241    0.2035946  53.83 0.0008586938    1.102    0.093
       131 -11.0481    143.1526     84.6427   4.5757201880e+01   3.6323793662e+01    0.2621699     0.232908 -43.57 0.0002823714    1.072    0.067
       132 -10.6454     80.3172     84.0885   6.3532763677e+01   5.0282905842e+01    0.4115834    0.3681268  70.55   0.00154131    1.160    0.138
       133 -10.7031     76.3945     79.1054   6.3430857928e+01   5.2250507313e+01    0.6672107    0.2776524 -53.52   0.00231812    2.408    0.585
       134 -10.2713     72.1583     77.8656   6.4662678496e+01   5.3363955270e+01    0.3788286    0.2951238  79.56  0.001439586    1.561    0.359
       135  -9.0131    133.3259     84.7084   4.8006112035e+01   3.8563202569e+01    0.1560738    0.1192003 -79.24 0.0002832819    1.618    0.382
       136 -10.5449    113.0474     82.2920   5.2481007652e+01   4.3698581530e+01    0.2730575     0.247737 -49.30            0    1.077    0.071
       137 -10.1270     66.8572     81.7602   6.7969447690e+01   5.3377529243e+01     0.379784    0.2643559  24.99  0.001688947    1.689    0.408
       138 -11.0639     58.4878     78.0010   7.0317292146e+01   5.5766253685e+01    0.4576818    0.3369746 -82.85  0.001712682    1.605    0.377
       139 -11.5294     53.4950     76.5068   7.2058045740e+01   5.6955768864e+01    0.7125263     0.516261  43.31  0.003408959    1.424    0.298
       140  -9.1438    113.3198    249.3486   8.2584967525e+01   9.8791936348e+00    0.1116195   0.07642583  -2.29 0.0007048686    1.736    0.424
       141 -12.3686      5.0194     62.0435   9.3861612648e+01   6.5986862107e+01    0.5233083    0.4139543  47.49  0.001859426    1.370    0.270
       142 -11.6936      9.6959     62.6710   9.1231215777e+01   6.5550717165e+01    0.6070318    0.2687575 -55.47  0.001476679    1.943    0.485
       143 -10.6270     94.7391     76.5498   5.6148491160e+01   4.9036015950e+01    0.4171609     0.275887  41.48  0.001102204    1.586    0.370
       144 -10.9493     87.8319     72.8579   5.7219502910e+01   5.1356800482e+01    0.5420601    0.4304078 -76.07  0.002506967    1.454    0.312
       145 -11.1970     84.6468     73.6808   5.8616574827e+01   5.1847987878e+01    0.4698969    0.3198056  39.42  0.002088026    1.548    0.354
       146 -10.4884     14.2356     67.6894   8.9623037245e+01   6.3896143328e+01     1.444432    0.1843215  23.21  0.003971945    5.489    0.818
       147 -11.0685      2.0374     71.7632   9.6946151501e+01   6.3515172016e+01    0.4176321    0.2025486 -69.95  0.001594584    1.746    0.427
       148 -11.0386    187.0751     71.1748   3.4196403122e+01   2.8772491316e+01    0.5106657    0.2663955 -41.33  0.001970732    1.653    0.395
       149  -9.8643     24.4745     74.0267   8.5463356388e+01   6.1319592263e+01    0.2716398    0.2081861 -43.87 0.0006307592    1.312    0.238
       150 -10.2196     28.5870     72.2716   8.2932633288e+01   6.1374780912e+01    0.3487071    0.2478063   8.88   0.00170974    1.649    0.394
       151 -10.8857     34.9079     71.8776   7.9598676450e+01   6.0761102280e+01     0.564509    0.2667384  35.87  0.002299274    2.142    0.533
       152 -10.5496     41.1277     73.1446   7.6857222570e+01   5.9634349203e+01    0.3455273    0.2450536 -49.73 0.0005965494    1.358    0.264
       153 -11.3954     40.5185     69.1812   7.6015888792e+01   6.0745957975e+01    0.3611139    0.2546349  23.24  0.001520048    1.561    0.359
       154  -9.8533     92.0759     71.9826   5.5479255943e+01   5.0628033643e+01    0.2364537    0.2236173 -79.07  0.000461807    1.049    0.047
       155  -9.6312     19.1575     72.1022   8.7838614877e+01   6.2318550174e+01    0.2226912    0.1694885 -44.24 0.0005136802    1.311    0.237
       156 -11.1712    122.9451     68.8746   4.5519840995e+01   4.4088917124e+01    0.4723641    0.2854689  52.30   0.00125608    1.689    0.408
       157 -10.3258     78.8258     67.9030   5.8726849443e+01   5.4374387052e+01    0.3749857    0.2967739  54.97  0.001812592    1.311    0.237
       158 -10.6166    219.9751     66.9190   2.9117058828e+01   2.2707794165e+01    0.3515885    0.1951824  72.73  0.001807284    2.328    0.571
       159  -9.0816     25.3747     65.2972   8.2901440791e+01   6.3559420760e+01    0.1545388    0.1000516 -32.45 0.0006110296    1.746    0.427
       160 -10.8482     91.7828     62.6178   5.2214968466e+01   5.2690298797e+01    0.4564764    0.2960787  70.30  0.001485788    2.031    0.508
       161 -10.4079     59.1979     63.8463   6.5338506170e+01   5.9126861036e+01    0.4086237    0.2979991 -86.93  0.001313242    1.849    0.459
       162 -10.1508     62.6567     61.6732   6.3004638994e+01   5.9002707108e+01    0.4982401    0.2372775  33.51  0.001844872    2.426    0.588
       163  -9.9455     51.0783     56.6402   6.6480892317e+01   6.2243384885e+01    0.3740967    0.2493358 -60.06  0.000993401    1.548    0.354
       164 -11.0834     40.7095     56.9503   7.1933307649e+01   6.3799159312e+01    0.4940104    0.4055342 -14.94  0.002576815    1.391    0.281
       165 -12.3777     44.0703     61.5120   7.1773209906e+01   6.2182176125e+01     1.006282    0.4366926 -46.16  0.001140935    2.303    0.566
       166 -10.3220     50.6781     61.3120   6.8409662151e+01   6.1196393400e+01    0.3032386    0.2293981  57.37  0.001470703    1.500    0.333
       167 -11.6042     44.0307     43.9848   6.4917845062e+01   6.6313934345e+01     0.843083    0.4271663 -59.24  0.003376648    2.280    0.561
       168 -11.1615     39.5978     44.1145   6.7475384803e+01   6.6995131584e+01    0.4514116    0.3269598  -2.58  0.001377584    1.798    0.444
       169  -9.8521    158.0013     63.1264   3.6419767416e+01   3.6640953785e+01    0.4005042    0.1546147  48.41   0.00141282    2.985    0.665
       170  -9.4136    106.5012     63.4784   4.8011507348e+01   4.9079235622e+01    0.1527244     0.151445 -60.30 -0.0009305498    1.060    0.057
       171 -11.0097    235.2719     60.9311   2.6240179749e+01   2.0664451170e+01    0.3084652    0.2714927  81.42  0.002179085    1.383    0.277
       172  -9.8281     84.2361     61.5691   5.4408141094e+01   5.4601399803e+01    0.2820004     0.186563 -56.69 0.0006499511    1.627    0.385
       173 -12.6333     74.3452     51.6600   5.4141144045e+01   5.8825975467e+01    0.9874102    0.4314251 -54.11  0.002246253    2.861    0.650
       174 -10.8187     82.6310     47.9710   4.9488445629e+01   5.7702870429e+01    0.5707541    0.3569225 -18.02  0.002233438    2.437    0.590
       175 -10.6194     34.5740     51.6998   7.3436850213e+01   6.5936868741e+01     0.615735    0.3695842 -15.61  0.002471968    2.626    0.619
       176 -10.7882     20.4838     55.4915   8.3077587621e+01   6.6593862947e+01    0.4884414    0.2925113  79.30  0.002100024    2.304    0.566
       177  -9.9972     29.3304     53.3027   7.7074645750e+01   6.6206611120e+01    0.2541121    0.1977089 -17.24 0.0007555949    1.453    0.312
       178 -11.1743     24.9781     59.5290   8.1560754016e+01   6.5107069383e+01    0.7806794    0.2434935  27.60  0.002743054    3.153    0.683
       179 -10.8858     25.0126     56.0195   8.0509485838e+01   6.6006057485e+01    0.4694548    0.2695405 -34.58  0.001495306    1.976    0.494
       180 -10.2270    106.2200     58.3148   4.6201076129e+01   5.0141279710e+01    0.2970995    0.1901008 -64.20 0.0009265206    1.980    0.495
       181 -10.0528     91.8017     57.3112   5.0187011382e+01   5.3762491463e+01    0.2903145    0.2283712  84.83 0.0008227956    1.526    0.345
       182 -10.3244     87.6382     56.8391   5.1391877300e+01   5.4815728786e+01    0.4868619    0.2172458 -35.96  0.001711425    2.516    0.603
       183 -10.8569    118.5166     56.6191   4.2355083248e+01   4.7432404730e+01    0.5875486    0.3238705 -65.65  0.002057641    2.842    0.648
       184 -10.1740    109.7860     41.0693   3.8556230604e+01   5.2251869112e+01    0.5884581    0.4764901  37.03  0.002954917    1.394    0.283
       185 -10.4072    112.0463     50.7190   4.1778636923e+01   5.0080829447e+01     0.315421    0.3110523  20.52  0.000773068    1.109    0.098
       186 -10.9802    115.9160     48.8910   4.0128257156e+01   4.9419530740e+01    0.3927627    0.3006381 -41.66 0.0007160471    1.279    0.218
       187 -11.6609    117.8288     43.9526   3.7797950035e+01   4.9739450937e+01     0.637378    0.4535443 -88.23  0.002497655    1.654    0.395
       188 -10.2004    174.7290    246.6895   7.0631213482e+01   3.3138847009e+00    0.1989785    0.1333031   5.89  0.001424064    1.260    0.207
       189  -9.6897    158.2506     55.5420   3.4052043090e+01   3.7780616294e+01    0.3157018    0.2437885 -50.43  0.001637653    1.196    0.164
       190 -11.4464     60.8998     47.9370   5.8214837116e+01   6.2384809114e+01    0.8830157    0.3538194 -42.62  0.003168531    2.522    0.604
       191  -9.8487     57.0656     41.6847   5.7147204133e+01   6.4433725222e+01    0.2866741    0.1398918  47.49  0.001142453    2.125    0.529
       192  -9.2858     66.9845     55.0388   5.8544407717e+01   5.9650827728e+01    0.1857894    0.1703596 -48.87 0.0009160675    1.072    0.067
       193 -10.2081    240.7592     50.2270   2.3359478935e+01   2.1003919874e+01    0.1562546    0.1298549 -14.68 0.0009412366    1.373    0.272
       194 -10.2447     51.8293     48.1701   6.2655809772e+01   6.4043702743e+01    0.2624377    0.2405611  58.10 0.0006262377    1.166    0.143
       195  -9.7101      1.8747     49.1215   9.3503284367e+01   6.9541475783e+01    0.2002618    0.1755213  71.35 0.0008315727    1.221    0.181
       196 -10.2700    200.6563     44.9943   2.5587180397e+01   2.9532453544e+01    0.3606549    0.2015398 -82.60  0.001697521    2.287    0.563
       197 -10.0884    146.1951     46.9648   3.3298449873e+01   4.2055985857e+01    0.3050694    0.1811132 -37.96  0.001008273    1.570    0.363
       198 -10.3044     23.2565     37.8257   7.5120597034e+01   7.0664648657e+01    0.5661675    0.3803354  65.30  0.002672636    2.151    0.535
       199 -10.6582     20.5347     46.0328   8.0096535918e+01   6.8980149996e+01    0.4537334    0.2731525 -32.17  0.001495485    1.836    0.455
       200 -10.4133     26.2960     43.0139   7.5195133384e+01   6.9080909856e+01    0.2336154    0.1927927  -0.04 0.0005923717    1.310    0.237
       201 -10.0821     13.4180     46.7504   8.5092901578e+01   6.9438352402e+01     0.290704    0.1654768 -42.48  0.001136876    1.689    0.408
       202 -10.3858    137.4625     44.7794   3.4094772239e+01   4.4591078435e+01    0.6871477    0.2130388  49.00  0.002098784    3.773    0.735
       203 -10.0549     30.3453     45.2964   7.3520499710e+01   6.8033679617e+01    0.1483104    0.1033168 -23.93 0.0007033462    1.671    0.402
       204  -9.7610    160.2423     43.3280   2.9926092776e+01   3.9092587599e+01    0.2305064    0.1686364 -89.12  0.001166769    1.449    0.310
       205 -10.2850    155.9055     42.2546   3.0211952400e+01   4.0313468755e+01    0.2770592    0.2093972 -26.21  0.001089111    1.384    0.277
       206 -10.3400     92.4143     41.7097   4.3566884090e+01   5.6503806270e+01    0.4343527    0.2402786  62.00  0.001778199    1.913    0.477
       207  -9.5266     17.4205     41.8032   8.0739460549e+01   7.0324827235e+01    0.2113363    0.1056073 -50.53 0.0009414708    1.776    0.437
       208  -9.8956     89.1527     28.9565   3.8733977849e+01   5.9337296373e+01    0.2367153    0.1917603 -72.57  0.001201751    1.374    0.272
       209 -10.2248     79.5265     39.0112   4.6587315991e+01   6.0063263610e+01    0.5152578    0.3199847  83.86  0.001934094    2.798    0.643
       210 -11.3393     80.1582     33.1702   4.3591800032e+01   6.0898923740e+01    0.6967556    0.3701097  40.37  0.002808991    2.140    0.533
       211 -11.0446     60.9785     36.4653   5.2781336876e+01   6.4657394869e+01    0.4365908    0.3339436 -34.68   0.00163307    1.328    0.247
       212  -9.3427     70.5525     34.4949   4.7758555046e+01   6.2920834237e+01    0.2273348    0.1938036 -25.79 0.0005553986    1.227    0.185
       213 -10.2146     67.7070     31.9766   4.7614463126e+01   6.3996686226e+01    0.3861871    0.2594431  26.64 0.0009850716    1.886    0.470
       214 -11.4045     57.3298     30.7561   5.1488530877e+01   6.6466247816e+01    0.4878619    0.3597471 -20.85  0.001376039    1.545    0.353
       215 -11.5603     48.7993     30.4259   5.5564698264e+01   6.8243281675e+01    0.7351493    0.2978801  40.47  0.002252127    2.554    0.609
       216 -10.6320     43.0491     28.0757   5.7430867287e+01   6.9766427574e+01    0.2146562    0.1934336  25.67 0.0002868305    1.103    0.093
       217 -11.3658      4.9541     36.3672   8.8180331487e+01   7.2622956571e+01    0.4299834    0.3546254 -48.92  0.001992948    1.076    0.070
       218  -8.9342    194.3555     38.2992   2.4413673647e+01   3.1759937025e+01    0.1270311    0.1014331  28.14 0.0007036376    1.702    0.412
       219 -11.1356    176.3474     35.0443   2.5360431388e+01   3.6304191719e+01    0.5900754    0.2195367 -37.41  0.002386291    2.199    0.545
       220  -9.7422    132.9457     37.0958   3.2168635018e+01   4.6870469763e+01     0.368137    0.1878645 -83.98  0.001247758    3.235    0.691
       221  -9.3820     94.0177     35.9712   4.0564835294e+01   5.7049588539e+01    0.2353236    0.1748963 -72.38 0.0006157391    1.602    0.376
       222  -9.4095     34.6687    245.3246   9.8580172978e+01   1.8991075977e+01    0.1238057    0.0568853  50.46 0.0007050571    1.705    0.413
       223 -12.2359    164.3639     27.6719   2.4448726776e+01   4.0115879487e+01     0.314676     0.261969 -68.63 0.0004561979    1.096    0.088
       224  -9.3909     11.3047    244.3128   1.0338343258e+02   2.1298766464e+01   0.09158847   0.08173246 -14.40 0.0003135349    1.617    0.382
       225 -11.8701    126.3785    241.8414   7.9215328893e+01   9.4738453673e+00    0.2882677    0.2106262  49.22   0.00141009    1.578    0.366
       226 -10.6304     74.0771    238.5747   8.9808469848e+01   1.6052839161e+01    0.4340822    0.1824002  30.76  0.002264985    1.826    0.452
       227 -11.4971    107.0270     31.8037   3.5372730732e+01   5.4355543011e+01    0.6697616    0.3959303  11.07  0.002361592    3.374    0.704
       228 -11.4222    146.8914    238.0739   7.4750733005e+01   7.6012847730e+00    0.3533921    0.2471616  35.42  0.001833566    1.348    0.258
       229  -9.6229    138.3175     33.3083   2.9883995514e+01   4.6001792555e+01    0.1452516    0.1113431  32.43 0.0004424369    1.635    0.388
       230 -11.1926     32.3431     30.6065   6.5470650423e+01   7.1054953618e+01     0.413034    0.2372748 -56.45 0.0004654751    1.874    0.466
       231 -10.1847    167.5302    238.1328   7.0863380710e+01   5.1966309846e+00     0.144032    0.1028495 -32.99  0.001020358    1.559    0.359
       232  -9.3196     15.3862    233.8132   1.0223373877e+02   2.2841574981e+01    0.1384144   0.09771152 -73.46 0.0009498029    1.711    0.416
       233 -10.4163    196.5194    232.4797   6.4981459207e+01   2.6601623088e+00    0.1088856    0.0809348   5.63 0.0003606263    1.011    0.011
       234 -10.9096     67.4109    240.9352   9.1406038514e+01   1.6384955335e+01    0.3773118    0.1693717  35.10  0.002086179    1.633    0.388
       235 -10.1746     15.8883    140.8786   9.7690981907e+01   4.3805129180e+01    0.1997162    0.1377987  60.77 0.0004408103    1.304    0.233
       236 -10.2772     11.3137     30.3614   8.0989746554e+01   7.3620311467e+01    0.3299339    0.2058587 -30.12  0.001656084    1.659    0.397
       237 -10.2709      7.4721     30.4684   8.4191557961e+01   7.3895713470e+01    0.3777598    0.2053382 -11.64  0.001517489    2.235    0.553
       238  -9.6363    230.0800     30.5425   1.9586471590e+01   2.5279442258e+01    0.1547511    0.1151261  85.73 0.0004137449    1.517    0.341
       239 -11.0898    188.9488     28.0935   2.2098406295e+01   3.4217245923e+01    0.3403061    0.2705095 -21.29  0.001267642    1.367    0.268
       240 -12.3692    126.3257     28.7228   3.0201681806e+01   4.9729094747e+01      0.56608    0.4258505 -89.96  0.002858143    1.356    0.262
       241 -10.2657    197.7968     28.7762   2.1521620650e+01   3.2150094835e+01    0.3238864     0.191217  59.52  0.001694024    1.941    0.485
       242 -11.1510    183.4151     25.3190   2.1808104331e+01   3.5817298297e+01    0.4145683     0.238035  56.80  0.001883366    1.979    0.495
       243  -9.1223     97.3216     26.3064   3.5286638002e+01   5.7631006455e+01    0.1513311    0.1100175  31.38 0.0007032672    1.640    0.390
       244 -10.8186    154.5047     24.2664   2.4492164158e+01   4.2986744437e+01    0.4324369     0.203639 -83.79  0.001636092    2.783    0.641
       245 -11.2932    143.0409     25.2954   2.6320521286e+01   4.5798652083e+01    0.4019496    0.2074925  75.50  0.001724943    1.970    0.492
       246 -11.5910    148.8898     22.6400   2.4626802542e+01   4.4607149006e+01    0.4283568    0.2012103  58.55  0.001815003    2.142    0.533
       247 -10.6691    120.0211     16.0161   2.6198467991e+01   5.2911919588e+01    0.3703616     0.226099  57.88  0.001495254    1.599    0.375
       248  -9.7132     75.2334    224.2401   8.8407628675e+01   1.8456171434e+01    0.1726234    0.1168727  50.29  0.001058173    1.343    0.255
       249  -9.0833    234.2887    223.6311   5.7677673848e+01  -2.8332027550e-01   0.08592103   0.07590889 -17.55 0.0006496671    1.709    0.415
       250  -9.9966    246.5048    230.5397   5.6891933569e+01  -2.1804121774e+00   0.09974873   0.06875993  -2.95 0.0003335877    1.038    0.036
       251  -9.8562     49.6757    222.6696   9.4099444530e+01   2.1610822736e+01    0.1113039   0.08959166 -16.88 0.0007050266    1.702    0.412
       252 -11.0373    127.5022     16.3617   2.5197752665e+01   5.0892259483e+01    0.3265803    0.2274947  62.24  0.001044238    1.407    0.289
       253 -10.0685    164.7203    211.9750   6.7848933370e+01   9.1835906011e+00    0.2012986    0.1478875  24.03 0.0006359385    1.175    0.149
       254  -9.6151    242.5115    211.5329   5.4652498851e+01   2.1256694764e-01    0.1059893   0.07375231  -5.39  0.000267514    1.027    0.027
       255  -9.9951     89.4896     16.5081   3.2535327765e+01   6.0898303388e+01    0.2676646    0.2129881 -29.44  0.001055297    1.309    0.236
       256 -10.0023     59.7993     23.7099   4.6434156028e+01   6.7120453309e+01    0.2245326    0.1867305 -22.54 0.0004271538    1.249    0.199
       257 -10.5185    152.5581    206.8848   6.9520205145e+01   1.1558658001e+01    0.2636547    0.2107603 -85.09  0.001566784    2.230    0.551
       258  -9.2167     61.4873    206.5042   9.0122982855e+01   2.3494722051e+01    0.1276861    0.1061982  44.08 0.0008105363    1.007    0.006
       259 -10.4723     38.7841     22.2160   5.6486671036e+01   7.1626542572e+01    0.2475622    0.2209678   6.68  0.000398285    1.109    0.098
       260  -9.3760     78.3483    203.7127   8.5775292300e+01   2.2020443752e+01    0.1370389   0.08146411  52.71 0.0006262655    1.658    0.397
       261  -9.6246    223.4740     22.0678   1.7983244185e+01   2.7508169984e+01    0.1796976    0.1424809 -67.76 0.0006269883    1.194    0.162
       262  -9.9957      5.8973     22.0166   8.2124854416e+01   7.5989651297e+01     0.196308    0.1714892 -34.60 0.0005703151    1.027    0.026
       263 -10.8696    138.9891    198.4981   7.1129341098e+01   1.4806867982e+01    0.2699566    0.1938362  50.46  0.001523072    1.650    0.394
       264  -9.6732    131.1703    198.6017   7.2846425647e+01   1.5884647203e+01    0.1853587    0.1092575  20.89 0.0009417022    1.712    0.416
       265 -10.0286    233.8196    196.4268   5.3543786158e+01   2.8747764510e+00    0.1840935    0.1027998 -24.69 0.0009928051    1.484    0.326
       266  -9.4360    216.5050     20.5164   1.8031135031e+01   2.9086212975e+01    0.1263226   0.09966104 -49.17 9.568358e-06    1.010    0.010
       267 -10.6657    156.5014     20.5104   2.3015849482e+01   4.2914053310e+01    0.2911486    0.1318407  73.88   0.00121961    2.196    0.545
       268 -10.0418    239.4870     33.0228   1.9557664354e+01   2.3234397798e+01    0.1906913    0.1621027  52.44 0.0007358752    1.580    0.367
       269  -9.9105     74.6134     19.5574   3.8431243059e+01   6.4262815125e+01    0.2678401    0.2120287  38.63 0.0006444454    1.292    0.226
       270  -9.9717     46.9890     19.3688   4.9979578369e+01   7.0536863537e+01    0.2573815    0.2434329 -10.48   0.00154628    1.041    0.040
       271  -8.9178      1.4920     20.4684   8.5658663009e+01   7.6640233785e+01     0.130856    0.1101974 -40.40 8.243457e-05    1.040    0.039
       272  -9.6333     80.2689     19.4097   3.6568121485e+01   6.2883783248e+01    0.2867093    0.1249777  56.53  0.001131099    2.108    0.526
       273  -9.0433    223.3155    191.3113   5.4302140285e+01   4.7172822048e+00    0.1166942   0.07058075  -3.58 0.0007032518    1.637    0.389
       274 -11.1512      5.0153    185.7845   1.0313121335e+02   3.3630499778e+01    0.3828115    0.3177955  38.10  0.002434091    1.189    0.159
       275 -10.7543      2.8631    181.4104   1.0354984699e+02   3.4797222129e+01     0.277834     0.243847 -87.06  0.001812143    1.242    0.195
       276  -9.5056     86.2771    185.5703   8.1757923164e+01   2.4744534848e+01    0.1873999    0.1230037  21.09  0.000947645    1.588    0.370
       277  -9.4633    175.7615    179.9633   6.0599005979e+01   1.2631960434e+01    0.1621666   0.09852223 -36.98 0.0008809231    1.614    0.381
       278  -9.5858     74.7496     13.5681   3.5047175117e+01   6.4986197081e+01    0.1954379    0.1342634  78.32 0.0007650115    1.614    0.380
       279 -10.3077    250.3866    177.1867   4.7966224752e+01   3.3160397324e+00    0.1500843   0.08156104 -35.08 0.0009494525    1.666    0.400
       280  -9.3541     28.3570    175.8002   9.6369945167e+01   3.3904572058e+01    0.1740184    0.1128073 -69.62 0.0004290798    1.607    0.378
       281  -9.6452    113.7329    175.9862   7.3512031995e+01   2.2773124816e+01     0.216927    0.1464128 -22.79  0.001045546    1.965    0.491
       282  -9.3529     51.5336    173.5342   8.9707771928e+01   3.1941760304e+01    0.1380831    0.1189435  56.01 0.0001457838    1.017    0.017
       283  -9.4875    207.2032    172.5912   5.3645491845e+01   9.3063041853e+00    0.1615758    0.1017616  20.37 0.0008356496    1.625    0.385
       284  -9.3124    198.3785    167.7866   5.4262872964e+01   1.1252508159e+01    0.1720339    0.1012345 -26.29 0.0005484926    1.593    0.372
       285  -8.7057     65.3033    168.6920   8.5305267421e+01   3.1375678363e+01    0.1472944   0.09444033  59.82 0.0007014803    1.604    0.377
       286  -9.8578     66.1582     10.4497   3.5994191887e+01   6.7462147830e+01    0.3083354    0.1291299  61.09  0.001221501    2.264    0.558
       287  -9.6044    244.0000    167.0117   4.7060799974e+01   5.3048080827e+00    0.1872711   0.05108449 -34.12 0.0008085256    2.985    0.665
       288  -9.7861    187.6442    167.6867   5.6153158572e+01   1.2840033635e+01    0.1336522   0.08832279  -1.26 0.0007044497    1.738    0.425
       289 -11.1431      9.1724    166.8447   1.0126214191e+02   3.7759623396e+01    0.3111167    0.1860428  20.52  0.001292496    1.764    0.433
       290  -9.7805     18.9333    164.9971   9.8352865288e+01   3.7396696953e+01    0.2054369    0.1524786 -40.26  0.001136358    1.729    0.422
       291 -10.4144    205.0080    163.3334   5.2302983296e+01   1.0965253115e+01    0.2242259    0.1605676 -34.85 0.0006901906    1.325    0.245
       292  -9.5362     28.3643    160.8095   9.5282112792e+01   3.7560465578e+01     0.198688     0.154981  50.86  0.001132789    1.130    0.115
       293  -9.1653     14.2870    159.6414   9.9403469984e+01   3.9122710547e+01    0.1483715    0.0785533  59.24 0.0007023289    1.681    0.405
       294  -9.8562    215.6531    157.0396   4.9385013993e+01   1.0363962723e+01    0.1761062    0.1323676 -20.49 0.0005256233    1.102    0.093
       295 -10.1275      9.4759    155.5090   1.0062167079e+02   4.0544277887e+01    0.2643971    0.1190358 -84.04  0.001182249    2.071    0.517
       296 -10.3354    104.3677    154.6146   7.2358167498e+01   2.8870444302e+01    0.2838702    0.2629162  -7.23  0.001609938    1.168    0.144
       297 -12.4564     22.6228    149.1676   9.6139392355e+01   4.1062798440e+01    0.6131109    0.3496965 -37.90  0.002447356    2.412    0.585
       298  -9.8204    142.2245    152.5919   6.2543688202e+01   2.2872965234e+01    0.3194746    0.1679612  40.37  0.001154807    1.878    0.468
       299  -9.8884      4.2184    153.4459   1.0211525146e+02   4.1453344752e+01    0.1946047   0.09821825  38.83 0.0009489823    1.724    0.420
       300  -9.7970     30.6324    151.8875   9.3845018399e+01   3.9597557086e+01     0.232512    0.1923488  12.61  0.001311331    1.405    0.288
       301  -9.6590    215.3135    151.3335   4.8336998135e+01   1.1237646362e+01    0.1273524   0.08339559  -5.07 0.0007045548    1.683    0.406
       302 -10.1352     66.3228    149.2821   8.2430608673e+01   3.5977877344e+01    0.3766682    0.2348267  11.40 0.0007734449    2.169    0.539
       303 -10.8667     47.2691    146.7586   8.8044281109e+01   3.9093718548e+01    0.5680073    0.3600863 -34.87  0.002564374    2.139    0.533
       304 -10.6739     16.4076    147.9570   9.8021832279e+01   4.1916920629e+01     0.260507    0.2207155  43.07 0.0004389212    1.157    0.136
       305  -9.9019      3.4479    147.6806   1.0209327281e+02   4.2971671309e+01    0.1752995    0.1130387 -74.11 0.0009296729    1.495    0.331
       306  -9.5791     74.0578    146.0233   7.9573937528e+01   3.5681785817e+01    0.2209375    0.1738875 -26.93 0.0005228798    1.593    0.372
       307 -10.9211     33.1531    144.3291   9.2323171266e+01   4.1301152903e+01    0.2982502    0.2471754  63.08 0.0007990554    1.087    0.080
       308 -11.2064      5.8355    142.1072   1.0105817508e+02   4.4244200865e+01    0.3080064    0.2097468  66.18 0.0002568047    1.281    0.220
       309 -12.0173      1.9868    139.9506   1.0220116626e+02   4.5063395944e+01    0.3243418    0.1904287 -87.75 0.0003467673    1.521    0.342
