#   1 NUMBER                 Running object number                                     
#   2 MAG_AUTO               Kron-like elliptical aperture magnitude                    [mag]
#   3 X_IMAGE                Object position along x                                    [pixel]
#   4 Y_IMAGE                Object position along y                                    [pixel]
#   5 X_WORLD                Barycenter position along world x axis                     [deg]
#   6 Y_WORLD                Barycenter position along world y axis                     [deg]
#   7 A_WORLD                Profile RMS along major axis (world units)                 [deg]
#   8 B_WORLD                Profile RMS along minor axis (world units)                 [deg]
#   9 THETA_WORLD            Position angle (CCW/world-x)                               [deg]
#  10 FWHM_WORLD             FWHM assuming a gaussian core                              [deg]
#  11 ELONGATION             A_IMAGE/B_IMAGE                                           
#  12 ELLIPTICITY            1 - B_IMAGE/A_IMAGE                                       
         1 -16.6328    113.0611    143.8840   4.4567773605e+01   3.0035588276e+01     4.066963     2.630719 -66.96   0.01756443    1.896    0.473
         2 -15.9339    149.9634     90.3524   2.1924365546e+01   3.3798188938e+01     4.425454     2.655437  38.09   0.01851883    1.991    0.498
         3 -15.5458    146.2557    130.9567   3.3090864356e+01   2.6426291542e+01     5.356806     1.955536 -55.70    0.0148486    4.633    0.784
         4 -18.0181    184.0102    112.7904   2.0928200422e+01   2.2268698315e+01     8.700406     6.156217  18.31   0.04230193    1.922    0.480
         5 -15.7929    189.6352      7.5119   3.5289686763e+02   3.6177723933e+01     3.710817     1.089346  84.80   0.01332203    3.756    0.734
         6 -13.4693     53.0301      2.3554   1.4094692173e+01   7.1523346117e+01    0.6221172    0.3640268  21.47  0.002934656    2.131    0.531
         7 -13.3206     58.3597      4.4222   1.3264346070e+01   7.0084662485e+01     0.512234    0.2802988  41.46  0.002451157    1.724    0.420
         8 -13.9733     34.7062    172.5312   7.2228019541e+01   3.4468163612e+01    0.5427103    0.3254163  72.96  0.002442114    1.677    0.404
         9 -12.9556     43.6783    181.4525   7.0374077158e+01   3.1313292579e+01     0.318032    0.2734116 -84.98  0.001692327    1.213    0.176
        10 -13.3220     37.9295    178.5146   7.1771828734e+01   3.2658059355e+01    0.4386605    0.2300743  42.51  0.002090054    1.608    0.378
        11 -12.5484    165.3886    203.8339   4.2695431804e+01   9.4032362764e+00    0.4356733    0.1818687  38.40  0.001972534    2.248    0.555
        12 -12.9005     13.4932    176.3478   7.8612067199e+01   3.5527418108e+01    0.3007123    0.2135013  41.20  0.001736139    1.231    0.187
        13 -14.0910      8.5365    158.3094   7.9173117565e+01   4.0396644834e+01    0.7398854    0.2958645  79.95  0.003011228    2.512    0.602
        14 -14.5498     11.8240    144.5494   7.7338708202e+01   4.3703281972e+01    0.9469116    0.3246088 -63.92  0.003667499    2.720    0.632
        15 -11.8459      3.2888    163.0372   8.0968607949e+01   3.9586503523e+01    0.1944919    0.1545184  73.96  0.001174703    1.089    0.082
        16 -13.4002     31.3229    159.9523   7.2211616426e+01   3.7987972902e+01    0.4397136     0.263851 -88.51    0.0021204    1.667    0.400
        17 -12.8345     92.8851    159.5662   5.3262915634e+01   2.9834485910e+01    0.4830355    0.3803188  45.23  0.002066018    1.184    0.155
        18 -12.3796     61.5407    159.3108   6.2681719895e+01   3.4589162888e+01    0.4207363    0.1490119 -70.16  0.001436245    3.120    0.679
        19 -13.1442    107.4092    175.2012   5.1766654289e+01   2.3876082894e+01    0.6195174    0.2901587  44.90  0.002504772    2.074    0.518
        20 -13.6674    108.6197    157.4842   4.8427203973e+01   2.7677726749e+01    0.9365641     0.419596  41.88  0.003602554    2.083    0.520
        21 -13.0229     24.5149    174.4708   7.5348780186e+01   3.5004001416e+01    0.3208519    0.2092003  38.04  0.001720572    1.346    0.257
        22 -13.3262     82.0194    153.9665   5.5576449751e+01   3.2941005602e+01    0.6261851    0.3497198  47.45    0.0026477    1.746    0.427
        23 -13.6176     49.7595    153.6039   6.5692663650e+01   3.7573561434e+01    0.6474093    0.3275112  52.67  0.002691622    1.980    0.495
        24 -12.9628      3.6282    173.2341   8.1263887321e+01   3.7057592864e+01    0.4490102    0.2147332  69.58  0.002159386    1.878    0.468
        25 -13.7263    151.7744    199.4071   4.4898218291e+01   1.2132295388e+01    0.6641573    0.2997472  38.23  0.003026929    2.023    0.506
        26 -13.9272    124.8371     88.0729   2.7326854139e+01   4.0143883460e+01     2.322793     1.095176  33.70  0.007261992    3.376    0.704
        27 -14.4224     28.2763    147.2502   7.2069627971e+01   4.1594575010e+01    0.8916391    0.3893416  60.26  0.003471845    2.461    0.594
        28 -12.6526     21.6581    149.9257   7.4481091788e+01   4.1498631658e+01    0.2839001    0.1889544  38.78  0.001360505    1.386    0.279
        29 -14.3160     39.2405    145.2440   6.8184186977e+01   4.0996368395e+01    0.6729864    0.4849417  46.85  0.003441745    1.285    0.222
        30 -12.4609     78.0245    145.8557   5.5470256435e+01   3.5609114716e+01     0.371405    0.2387663 -69.03  0.001655056    1.675    0.403
        31 -13.8372     54.7682    142.6434   6.2600980971e+01   3.9811627747e+01    0.8197894    0.3893023 -70.11  0.003253194    2.159    0.537
        32 -13.0059     44.7197    171.4214   6.9165446790e+01   3.3643408181e+01    0.3431861     0.239546  47.45  0.001800167    1.260    0.206
        33 -14.4326     88.3690    141.7743   5.1480644842e+01   3.4947768132e+01    0.7069582     0.500505 -70.02  0.003057723    1.553    0.356
        34 -13.7499    162.0879    193.8463   4.1777084943e+01   1.1557754800e+01    0.5917724    0.4151957  24.24  0.002246802    1.281    0.219
        35 -13.7267      4.3191    136.9104   7.9410776071e+01   4.6221728753e+01     0.685477    0.4047982 -65.80  0.003449325    1.647    0.393
        36 -12.4285    193.5518    178.8673   3.2879774495e+01   9.3329971506e+00    0.3634191    0.1787712  35.97  0.001796751    2.011    0.503
        37 -14.5556     84.5548    126.8862   4.9755084420e+01   3.9370789045e+01     1.355363    0.8127836 -39.14  0.005471284    2.026    0.506
        38 -14.1673     94.9553    106.6124   4.1539466317e+01   4.2498328601e+01      1.38347    0.9838937  13.87  0.005778996    1.945    0.486
        39 -12.9034     48.4658    137.6931   6.4066074859e+01   4.1931622376e+01    0.3184048    0.2564618 -69.94  0.001652582    1.238    0.192
        40 -14.7356     23.7256    133.9537   7.2386643531e+01   4.5560794867e+01    0.7514384    0.5994321   8.72  0.004080976    1.436    0.304
        41 -12.6039    158.3660    188.0634   4.1608518393e+01   1.3133804817e+01    0.3714839    0.3135338  21.98  0.002133996    1.071    0.066
        42 -13.7941     39.4058    133.1320   6.6662223762e+01   4.4222736170e+01    0.6240548     0.398744 -33.93  0.002783963    2.008    0.502
        43 -12.8698    138.9036    179.6148   4.4578452113e+01   1.7812727689e+01    0.6284141    0.2197468  42.53  0.002274956    2.824    0.646
        44 -15.0033     99.7414    123.0595   4.4012742264e+01   3.7536304875e+01     1.138669     1.004064 -34.89  0.004631427    1.236    0.191
        45 -14.1977    109.0033    110.6616   3.8139162144e+01   3.8652902857e+01     1.025594    0.7869325 -23.70  0.003508731    1.636    0.389
        46 -13.2401     72.6021    126.1275   5.3665927532e+01   4.1575224705e+01    0.4674139    0.3948171 -32.94  0.002328433    1.356    0.262
        47 -13.5772     13.9247    122.7534   7.4958247936e+01   4.9368617489e+01    0.7230059    0.3961471 -44.05  0.003255146    2.069    0.517
        48 -14.0231     59.5099    118.5934   5.6927373697e+01   4.5581084560e+01    0.8332751    0.6353446 -51.15  0.004040346    1.355    0.262
        49 -14.0629     43.2634    115.0394   6.2544689826e+01   4.8698949712e+01    0.9825922    0.6836882 -56.11  0.004709909    1.425    0.298
        50 -12.8975     71.1913    117.2912   5.2360522255e+01   4.4121512399e+01    0.6278668    0.4322414  14.00  0.002703239    1.825    0.452
        51 -13.0418    184.6907    176.2000   3.4083124454e+01   1.1100868196e+01    0.4384395    0.2346667  32.19  0.002181842    1.832    0.454
        52 -13.3390     29.5286    115.5730   6.8087583920e+01   5.0031012180e+01    0.7946799    0.3206367  21.74  0.003007227    2.569    0.611
        53 -13.6275     79.7437    107.5811   4.7048420083e+01   4.5162502732e+01    0.8643917    0.7793279   1.70  0.004373169    1.265    0.210
        54 -11.9112      3.0185    110.3611   7.8220407484e+01   5.3380840814e+01    0.3435183    0.2715582 -41.21   0.00194909    1.376    0.273
        55 -12.3116     67.0542    106.4124   5.1493200429e+01   4.7652088654e+01    0.5313219    0.4418302 -17.94  0.002583151    1.446    0.309
        56 -11.5836     15.1982    105.8710   7.2778300687e+01   5.3871961701e+01    0.5059773    0.2155599 -30.47   0.00178335    3.423    0.708
        57 -12.2145     83.3220     95.2708   4.2535881274e+01   4.7574622286e+01    0.6829018     0.482838  15.49  0.002880082    1.887    0.470
        58 -12.1607     47.0744     93.3915   5.6722885346e+01   5.4069373045e+01     1.009205    0.4758769  18.58  0.003667256    2.643    0.622
        59 -12.4073     96.5718     92.0777   3.6992019543e+01   4.5634296251e+01    0.7734218    0.5388781   2.65  0.002965784    2.474    0.596
        60 -11.5344     24.6460     91.0777   6.6504867741e+01   5.7164406230e+01      0.69175    0.2498673  15.00   0.00239671    3.248    0.692
        61 -12.3790     66.5097     87.5741   4.6902286050e+01   5.2593450241e+01    0.8667612    0.5042351  17.73  0.003261309    2.421    0.587
        62 -12.4630     89.8152     80.2467   3.5694673901e+01   4.9801193462e+01    0.9190488    0.4259956  32.95  0.003044726    2.804    0.643
        63 -12.2658    106.7937     77.5419   2.9213544416e+01   4.6577478209e+01    0.8434646    0.4329604  41.15  0.003174466    2.064    0.516
        64 -11.2101    119.8540     77.0944   2.5301967658e+01   4.3567319440e+01    0.4044111    0.2862757  29.03    0.0015635    1.809    0.447
        65 -11.3979     50.2983     77.0605   5.1065572873e+01   5.7860271594e+01    0.5650988    0.2651133  15.81  0.001835349    3.427    0.708
        66 -12.7445    159.5765     74.0390   1.5376642785e+01   3.4483714728e+01    0.5846925    0.2447118  53.76  0.002206512    2.400    0.583
        67 -10.8109     75.6776     74.8930   3.9274431443e+01   5.3955537361e+01    0.3767796    0.2084581  32.17  0.001466582    2.014    0.504
        68 -11.4571    141.5044     72.1873   1.8481264071e+01   3.9204688424e+01    0.4125844    0.2613403  44.06  0.001618006    1.728    0.421
        69 -11.8430    130.0503     69.9343   2.0403875065e+01   4.2449662224e+01    0.6016403    0.3506827  42.56  0.002460649    1.908    0.476
        70 -13.3058    186.0888    167.1371   3.2119974438e+01   1.2395497214e+01    0.3686439    0.2622022  47.40   0.00167367    1.670    0.401
        71 -13.3446    130.0229    177.1982   4.6307563376e+01   1.9754565870e+01    0.4709947    0.3329073  58.37  0.002058693    1.761    0.432
        72 -12.8512    164.5889     69.0066   1.3040761555e+01   3.4129491702e+01     0.361787    0.2724141  39.91  0.001418752    1.578    0.366
        73 -10.6123    116.6530     68.8688   2.3493315102e+01   4.5961037155e+01    0.3064185    0.2021557  32.71   0.00126825    1.923    0.480
        74 -14.3390     18.8704    158.8861   7.6015370231e+01   3.9422689873e+01    0.6796911    0.3551157  27.24  0.003222309    1.818    0.450
        75 -10.8509    107.2312     67.2824   2.5643667599e+01   4.8564110080e+01    0.3696876    0.2082054  46.29  0.001491601    1.756    0.431
        76 -11.3576     84.3098     64.7059   3.2378821441e+01   5.4402406929e+01    0.4969978    0.3008834  26.13  0.001905804    2.320    0.569
        77 -11.1225    148.6550     64.0459   1.4512111209e+01   3.8849105301e+01    0.3898956     0.224507  43.90  0.001627924    2.014    0.503
        78 -10.8334     96.0418     64.4519   2.8162162765e+01   5.1788845353e+01    0.3686402     0.141756  43.77  0.001208815    2.661    0.624
        79 -10.7856    139.9311     62.8431   1.5909093073e+01   4.1238138726e+01     0.333062    0.2016962  40.52  0.001386848    1.995    0.499
        80 -13.7150     79.9835    163.2322   5.7629004229e+01   3.0971194494e+01    0.7096753    0.4068277  74.94  0.002747198    2.626    0.619
        81 -10.7291    123.1231     61.5817   1.9346775744e+01   4.5702148204e+01    0.3228914    0.1786381  44.20  0.001284149    1.957    0.489
        82 -13.5164     78.3547    175.5068   5.9821046778e+01   2.8262782362e+01     0.561381    0.2879062  48.50  0.002395524    1.889    0.471
        83 -10.6077    111.8102     58.6474   2.1286494357e+01   4.9072269452e+01    0.3987857    0.1622138  44.22  0.001328459    2.720    0.632
        84 -13.2066     37.6292    163.8486   7.0600916032e+01   3.6335813877e+01    0.3614553     0.289866 -66.59    0.0014342    1.322    0.243
        85 -11.2741     23.1226     47.5390   5.6940099598e+01   6.8497665386e+01      0.32756    0.1382966  16.97  0.001290674    2.635    0.620
        86 -11.6041     33.0489     44.5504   4.9451332107e+01   6.8052321255e+01    0.5558209    0.1197197  31.15  0.001656062    4.273    0.766
        87 -11.7195     40.9993     22.2568   3.3404356220e+01   7.1276906887e+01    0.2005413    0.1710473  27.01 0.0009473655    1.087    0.080
        88 -12.7598     55.6565    187.1561   6.7531703382e+01   2.8548020978e+01    0.4612605      0.16445  48.32  0.001745917    2.598    0.615
        89 -12.8120    176.2266    184.0999   3.7180914763e+01   1.1077841411e+01    0.4009741    0.2582911  46.45  0.002097931    1.845    0.458
