#   1 NUMBER                 Running object number                                     
#   2 MAG_AUTO               Kron-like elliptical aperture magnitude                    [mag]
#   3 X_IMAGE                Object position along x                                    [pixel]
#   4 Y_IMAGE                Object position along y                                    [pixel]
#   5 X_WORLD                Barycenter position along world x axis                     [deg]
#   6 Y_WORLD                Barycenter position along world y axis                     [deg]
#   7 A_WORLD                Profile RMS along major axis (world units)                 [deg]
#   8 B_WORLD                Profile RMS along minor axis (world units)                 [deg]
#   9 THETA_WORLD            Position angle (CCW/world-x)                               [deg]
#  10 FWHM_WORLD             FWHM assuming a gaussian core                              [deg]
#  11 ELONGATION             A_IMAGE/B_IMAGE                                           
#  12 ELLIPTICITY            1 - B_IMAGE/A_IMAGE                                       
         1 -13.3622    196.6498     31.1178   6.5656311917e+01   3.2657313396e+01     1.161898     1.066706 -61.71  0.006648337    1.162    0.139
         2 -13.7219    212.3605     13.4922   5.9774074486e+01   3.1075268091e+01     1.207788    0.9329504  38.20  0.007337587    1.808    0.447
         3 -11.8603      2.3032     12.3969   1.1326075160e+02   7.0846823802e+01    0.6522671    0.1298764 -46.93  0.002609022    4.723    0.788
         4 -10.0708     15.0244     12.5143   1.0727877229e+02   6.9799850860e+01     0.148172   0.09057307  19.02 0.0006076977    1.566    0.362
         5 -12.1733    247.6321    247.8071   1.0418277568e+02  -1.4031853386e+01    0.6626399    0.4103645   3.00  0.003920351    1.677    0.404
         6 -11.1972     64.7546    248.0891   1.3909918536e+02   1.4738405176e+01    0.3307227    0.2060477  77.38 0.0008862666    1.479    0.324
         7 -14.7304    104.5849    229.0572   1.2934024423e+02   1.2530454910e+01     7.683934     0.237139  45.07   0.01459594   11.294    0.911
         8 -11.5010    139.4637    250.0138   1.2508591644e+02   2.7438046968e+00    0.4565781     0.183285  38.50  0.001990526    2.237    0.553
         9 -10.9402     81.5734    249.2137   1.3611009506e+02   1.2111856200e+01    0.2404085    0.1508925  48.21  0.001352575    1.364    0.267
        10 -12.1650    126.4055    249.3519   1.2755174551e+02   5.0305968426e+00    0.7301134    0.2308598  36.31  0.002651424    3.398    0.706
        11 -14.4638      9.7226    245.0838   1.4836219928e+02   2.2042749245e+01      2.81717     1.509129  47.62   0.01866135    1.679    0.404
        12 -10.1034     53.2715    228.7325   1.3948317710e+02   2.0203233552e+01    0.2347794    0.1438354  74.99 0.0007689333    1.484    0.326
        13 -15.3586      5.8593    144.0704   1.4106231427e+02   4.4363945106e+01     6.524262     1.899085 -78.16   0.02385581    3.642    0.725
        14 -10.7991     75.8161    216.2005   1.3369417841e+02   1.9741082540e+01    0.4499645    0.1832441  58.78  0.001768672    2.913    0.657
        15  -9.0138    152.7096    212.9915   1.1681417070e+02   7.3714887156e+00    0.1815521     0.174465 -74.41 0.0002957388    1.113    0.102
        16 -11.5559     53.0537    237.9997   1.4035271245e+02   1.8324528922e+01    0.3580834    0.2293356  55.73  0.001517148    1.315    0.239
        17 -11.6416     59.8377    195.7366   1.3466583044e+02   2.6605608652e+01     0.349795    0.2347499 -52.13  0.001232481    1.686    0.407
        18  -9.6660    192.1996    193.0070   1.0476941195e+02   3.8654046091e+00     0.397227    0.1834476 -62.55 0.0009591965    7.280    0.863
        19  -9.7451     42.0250    194.0328   1.3831147572e+02   2.9255011535e+01    0.2195219    0.1262001  71.91  0.001028144    1.766    0.434
        20 -11.7760     66.0890    187.9317   1.3229136662e+02   2.7569229637e+01    0.2924922    0.2435257 -55.22 0.0004655292    1.341    0.254
        21 -10.8643     76.3902    175.6237   1.2813351860e+02   2.9017919549e+01    0.2517146    0.2261107 -79.23 0.0003769516    1.068    0.063
        22 -13.2390     63.0728    173.3392   1.3098473093e+02   3.1460472749e+01    0.5366746    0.2858504 -45.81  0.001732503    2.243    0.554
        23 -11.9121     84.2059    166.5426   1.2475787092e+02   3.0023682336e+01    0.6565273    0.6026156  74.68  0.003816292    1.078    0.072
        24 -10.4104     33.0950    156.6261   1.3594400213e+02   3.9045244189e+01    0.2355918    0.1543217 -81.83 0.0007833245    1.359    0.264
        25 -10.0553     97.2103    151.0328   1.1858206085e+02   3.1673838930e+01    0.3134459    0.2862201  58.15 0.0008581117    1.126    0.112
        26  -9.2181    100.1322    147.0861   1.1701785209e+02   3.2127290552e+01    0.2237207    0.1975474 -31.05 0.0004145092    1.282    0.220
        27 -12.0960     85.5810    150.0698   1.2144053765e+02   3.3828287269e+01    0.3123359    0.2519718 -46.29 0.0007815351    1.275    0.216
        28 -12.3719     67.7422    143.8873   1.2502933315e+02   3.7991166325e+01    0.7222642    0.4962505  72.03  0.003037752    1.775    0.437
        29  -8.4782    192.2663    144.2866   9.4324934751e+01   1.3755199624e+01    0.1466587    0.1205295  -4.32 0.0002060588    1.496    0.332
        30  -9.7358    109.2138    136.5007   1.1232573315e+02   3.3036960289e+01    0.3913773    0.2696221 -20.75  0.001376147    2.166    0.538
        31 -11.7194     56.2415    128.2318   1.2527866560e+02   4.3283425145e+01     1.361023    0.4527892 -69.78  0.003642764    5.550    0.820
        32 -10.8977     50.4128    129.8296   1.2722536573e+02   4.3599233556e+01    0.3169657    0.2183008  54.39 0.0006710877    1.696    0.410
        33 -10.3933     96.2718    133.5887   1.1517266632e+02   3.6057307632e+01    0.2746302    0.2297031 -32.53 0.0003242245    1.311    0.237
        34 -14.4186     38.5076    221.2666   1.4162562685e+02   2.3643034835e+01     1.815039      1.22224 -40.99   0.01018556    2.534    0.605
        35  -9.1916    106.5449    123.3267   1.0997381290e+02   3.6643473778e+01    0.1891128    0.1411996 -41.99 0.0002797328    1.328    0.247
        36 -12.7118     32.4279    228.9531   1.4338400337e+02   2.2750730168e+01    0.3074098    0.2480436 -75.52 0.0007434005    1.345    0.257
        37 -10.0464    167.8275    112.8877   9.1936190397e+01   2.5853102325e+01    0.3466985    0.2719521 -72.54 0.0009236049    1.480    0.324
        38  -9.2062    203.4691    111.5031   8.4352209739e+01   1.7894409685e+01    0.1504359    0.1429759 -53.49  0.000214691    1.038    0.037
        39 -11.0360     51.5122    234.4481   1.4032800233e+02   1.9250209849e+01    0.2368314    0.1934944  70.56 0.0009130076    1.115    0.103
        40 -13.7329      9.8329    206.9233   1.4589002130e+02   2.9840143974e+01     1.552967     1.186177  23.69    0.0106909    1.949    0.487
        41 -10.3852    109.5761    248.6910   1.3073810500e+02   7.8907345644e+00     0.222623    0.1179873 -55.76  0.001072046    2.152    0.535
        42 -10.9006     97.6405    249.1283   1.3307544884e+02   9.6923012845e+00    0.2366793    0.1427642  52.76  0.001331339    1.389    0.280
