#   1 NUMBER                 Running object number                                     
#   2 MAG_AUTO               Kron-like elliptical aperture magnitude                    [mag]
#   3 X_IMAGE                Object position along x                                    [pixel]
#   4 Y_IMAGE                Object position along y                                    [pixel]
#   5 X_WORLD                Barycenter position along world x axis                     [deg]
#   6 Y_WORLD                Barycenter position along world y axis                     [deg]
#   7 A_WORLD                Profile RMS along major axis (world units)                 [deg]
#   8 B_WORLD                Profile RMS along minor axis (world units)                 [deg]
#   9 THETA_WORLD            Position angle (CCW/world-x)                               [deg]
#  10 FWHM_WORLD             FWHM assuming a gaussian core                              [deg]
#  11 ELONGATION             A_IMAGE/B_IMAGE                                           
#  12 ELLIPTICITY            1 - B_IMAGE/A_IMAGE                                       
         1 -13.1145    177.5766     43.0933   6.2731253678e+01   3.6018248120e+01     1.206086     0.975078  11.13  0.004622524    1.687    0.407
         2 -12.6428    195.6366     14.7329   5.3213444234e+01   3.5311221192e+01    0.8586494    0.5806749 -78.97  0.004091345    1.515    0.340
         3 -12.3781    198.8861      9.7590   5.1695647509e+01   3.5110081931e+01     0.759868    0.4534536 -76.65  0.003870659    1.839    0.456
         4 -19.4786     44.3027    154.5171   1.2221538077e+02   3.8023197014e+01     20.08348     3.682226 -65.79   0.05644757    5.315    0.812
         5 -11.5644    248.0802    244.1325   9.3279272693e+01  -1.4060476953e+01    0.4265801    0.2760392 -26.79   0.00259911    1.516    0.340
         6 -10.2318    157.2910    222.1294   1.0729600985e+02   4.8725446340e+00    0.3002451    0.1264567 -54.04  0.001197651    2.702    0.630
         7 -10.3512    124.0594    170.6235   1.0568078924e+02   2.2252824048e+01    0.3296105    0.2076648 -68.76  0.001439559    1.798    0.444
         8 -11.0114    127.7020    177.3429   1.0607861260e+02   2.0016007193e+01    0.5701001    0.1721116 -52.38  0.001817955    3.262    0.693
         9 -10.0892    188.7037    176.4571   9.2222514375e+01   8.0800501357e+00    0.6501702    0.3868144 -59.94  0.002222355    2.098    0.523
        10 -11.7755    103.3562    173.3605   1.1108426705e+02   2.5293338997e+01    0.5418777    0.4578312 -50.34  0.002876768    1.250    0.200
        11  99.0000     10.1405    206.5267   1.3486938365e+02   2.9841780183e+01    0.2844624    0.2458467  49.71  0.002195815    1.471    0.320
        12 -10.8287    143.1834    172.8540   1.0162761032e+02   1.8068629897e+01    0.3705588    0.2761462 -51.83  0.001118644    1.349    0.259
        13 -11.0083    111.6303    169.0816   1.0835366554e+02   2.4870261850e+01    0.5016407       0.3496  55.82  0.002435292    1.482    0.325
        14 -10.0190    133.9893    145.8986   9.8253063884e+01   2.6098245399e+01     1.016469    0.2234855 -54.69  0.002150385    6.898    0.855
        15  -8.8051    143.4997    147.5159   9.6296935122e+01   2.3805690854e+01      0.15455    0.1475545 -86.89 -2.144895e-05    1.025    0.025
        16  -9.3460    167.1063    225.9281   1.0588815205e+02   2.3581317431e+00    0.2126838    0.1947489 -53.12 0.0004692694    1.204    0.169
        17 -10.1702    112.2272    136.4486   1.0167123521e+02   3.2443117467e+01    0.4693041    0.2601129 -35.49  0.001849029    2.297    0.565
        18 -10.6601    101.4611    135.5485   1.0427751039e+02   3.4547736155e+01    0.2657151    0.2499163 -39.73 0.0009495168    1.105    0.095
        19 -10.4695    105.9437    130.9880   1.0211000262e+02   3.4830005433e+01    0.3908859    0.3288883 -84.58  0.001584588    1.315    0.240
        20 -10.1894    193.1291    195.2018   9.5014319495e+01   3.4131960846e+00    0.6638866    0.3353533 -65.69   0.00199107    4.875    0.795
        21  -9.0702    117.8715    128.0928   9.8335926987e+01   3.3321040981e+01    0.2350391    0.1831019 -14.50 0.0006880296    1.691    0.409
        22  -9.2704    106.0086    123.8677   1.0048860247e+02   3.6448190460e+01    0.2199958    0.2049452 -25.90 0.0006103092    1.130    0.115
        23 -11.1487    140.0057    195.0073   1.0645238936e+02   1.3722550134e+01    0.4900202    0.2235541 -52.50  0.001954595    2.256    0.557
        24  -8.9360    231.1512    113.8517   7.0373104817e+01   1.1779786773e+01    0.2205571    0.1852584 -69.51 0.0008097714    1.188    0.158
        25  -9.6808    168.3224    113.1465   8.2428947788e+01   2.5977837006e+01    0.3064001    0.2286511 -77.31 0.0009350043    1.689    0.408
        26  -8.8610    205.5029    110.4649   7.4154737442e+01   1.8057574418e+01     0.149472    0.1410717 -72.59 9.769302e-05    1.004    0.004
        27  -9.5757    156.3773    189.9001   1.0189765840e+02   1.1688417434e+01    0.2040956    0.1879995 -50.31 0.0005650009    1.134    0.118
        28  -9.7373     83.6391     76.8960   9.4918030806e+01   4.9977622682e+01    0.1892341    0.1605535 -36.44  0.000862752    1.125    0.111
        29 -12.1049    164.2346     57.6673   6.8985039413e+01   3.7026595024e+01     0.652773    0.5340169 -89.18  0.001317085    1.351    0.260
        30  -8.2222    186.6839    186.3089   9.4630753389e+01   6.4541140097e+00    0.1462552    0.1167033  83.68 0.0005624314    1.633    0.388
        31 -10.4701     12.5462    241.2991   1.3688889012e+02   2.2548309751e+01    0.1993459    0.1481753 -70.63  0.001378396    1.513    0.339
        32 -11.4198    182.6098     36.2582   6.0189111294e+01   3.5750830772e+01     0.373686    0.3482775  29.78 0.0009254048    1.282    0.220
        33 -10.0631    145.5358    182.5046   1.0294129482e+02   1.5431813755e+01    0.3191765    0.1434723  42.42  0.001215059    2.179    0.541
