#   1 NUMBER                 Running object number                                     
#   2 MAG_AUTO               Kron-like elliptical aperture magnitude                    [mag]
#   3 X_IMAGE                Object position along x                                    [pixel]
#   4 Y_IMAGE                Object position along y                                    [pixel]
#   5 X_WORLD                Barycenter position along world x axis                     [deg]
#   6 Y_WORLD                Barycenter position along world y axis                     [deg]
#   7 A_WORLD                Profile RMS along major axis (world units)                 [deg]
#   8 B_WORLD                Profile RMS along minor axis (world units)                 [deg]
#   9 THETA_WORLD            Position angle (CCW/world-x)                               [deg]
#  10 FWHM_WORLD             FWHM assuming a gaussian core                              [deg]
#  11 ELONGATION             A_IMAGE/B_IMAGE                                           
#  12 ELLIPTICITY            1 - B_IMAGE/A_IMAGE                                       
         1 -13.6982     57.3261    129.6234   1.0562097686e+02   4.2462406237e+01     2.745429    0.9975088 -74.03  0.007853273    4.818    0.792
         2 -14.4164     68.2956    144.2982   1.0502510328e+02   3.7437595774e+01     4.692868     2.029899  60.29   0.00291206    4.640    0.784
         3 -13.6649    195.3635     42.9259   4.7049935239e+01   3.1261238228e+01      1.04716    0.9160138  74.89  0.002111187    1.104    0.094
         4 -14.3375    204.9047     36.2915   4.4051842458e+01   2.9837161307e+01      1.90899     1.402612  13.66  0.009502904    2.025    0.506
         5 -14.1145    219.2745     21.6803   3.8861524510e+01   2.8255001225e+01     1.153599    0.9738384  46.14  0.003816327    1.441    0.306
         6 -12.5937    213.4173     27.8941   4.0960479316e+01   2.8874126817e+01    0.4651294    0.4116767  41.45  0.001132601    1.371    0.271
         7 -12.1553    242.4433      2.2591   3.2659624429e+01   2.5280552974e+01    0.6297338    0.2331148  77.65    0.0029542    2.602    0.616
         8 -10.4564      2.1316      3.0754   9.2268911296e+01   7.4051346490e+01    0.1999086    0.1245106 -39.24  0.001368935    1.388    0.279
         9 -10.2623     47.9841      2.2967   6.7618825409e+01   6.8795669226e+01    0.1692339    0.1287982  21.32 0.0004309572    1.112    0.101
        10  -9.8555     56.9293      1.4931   6.3605710241e+01   6.7394085606e+01    0.1725067    0.1061374  43.52  0.001005697    1.521    0.343
        11  -9.2439    113.5890    207.7922   1.0357332359e+02   1.6012833925e+01    0.1779199    0.1265165 -79.26 0.0007331564    1.689    0.408
        12 -13.8865     24.5152    225.5321   1.2372961945e+02   2.4166469467e+01     1.125499    0.4888515  65.15  0.004707272    2.115    0.527
        13 -15.4978      9.4522    208.0411   1.2553881049e+02   2.9164379875e+01     2.718524     1.319843 -60.42    0.0155928    2.232    0.552
        14 -13.8273     84.7442    230.4475   1.1240717464e+02   1.5844818118e+01     1.801575    0.8619917  75.52  0.002809629    3.769    0.735
        15 -13.5327     87.4212    225.0188   1.1129654770e+02   1.6520924962e+01     1.171042    0.6222537  41.52  0.003488648    1.625    0.385
        16 -13.2907     38.0087    204.5475   1.1960768786e+02   2.7045452342e+01    0.4389901    0.3987294 -41.65   0.00139495    1.526    0.345
        17 -15.1126     46.9638    194.5990   1.1681912344e+02   2.8202066460e+01     2.251883     1.406621  74.31   0.01001553    1.549    0.354
        18  -9.0092    159.8230    196.8606   9.1584661837e+01   1.0290623984e+01    0.1790239    0.1618157  66.19 0.0003140304    1.285    0.222
        19 -10.4208    110.6191    195.2846   1.0243883749e+02   1.9103811386e+01    0.4266077    0.2344407 -80.73  0.001665974    3.074    0.675
        20  -9.2346     72.0864    188.0755   1.1040915249e+02   2.6500237467e+01    0.2066759    0.1373927  71.35 0.0004589816    1.582    0.368
        21 -15.9776     50.6188    247.7388   1.2039204496e+02   1.7026817726e+01     9.505785     2.826894  27.72   0.01133201   11.411    0.912
        22 -11.6314    194.5049    196.9987   8.4274921846e+01   4.1385514522e+00     1.139669    0.6387401 -65.45  0.003359108    6.542    0.847
        23  -8.8659     91.4969    183.4486   1.0518821035e+02   2.4743399283e+01    0.1381918    0.1252314  70.73 9.611016e-05    1.017    0.017
        24 -10.5826    144.8105    180.6093   9.2020519082e+01   1.6269604077e+01    0.3046227    0.2459686 -77.27  0.001562182    1.546    0.353
        25  -9.7169     99.3939    180.8632   1.0289552033e+02   2.4097480284e+01    0.2473341    0.1978756  34.21 0.0005352869    1.289    0.224
        26 -10.7099    208.9559    197.7798   8.1540470735e+01   1.5449756966e+00     0.232501    0.1837043 -24.95 0.0005682146    1.234    0.190
        27 -12.1697     64.6700    177.3447   1.1082381907e+02   2.9958729904e+01    0.4306363    0.3076352 -37.57  0.001206125    1.843    0.457
        28 -12.0566     69.4278    172.1695   1.0897653880e+02   3.0543363706e+01    0.3558797    0.2837886  29.20  0.001325009    1.422    0.297
        29 -10.9281    122.7707    174.2067   9.6088994747e+01   2.1653531685e+01    0.4393313    0.2344431  21.43  0.001591215    2.981    0.664
        30  -9.7808    134.3086    248.1189   1.0449960866e+02   5.3840870073e+00    0.2633876    0.1151469 -65.32  0.001090991    4.088    0.755
        31 -12.7737     85.7819    155.9405   1.0226893830e+02   3.2082464271e+01    0.9990666    0.6172351 -51.30  0.001638053    1.600    0.375
        32 -13.4885     77.5532    160.0363   1.0511456828e+02   3.2311304811e+01     1.846144    0.8627074  59.09  0.003549734    3.112    0.679
        33 -10.0201    157.8839    160.3994   8.4934019912e+01   1.8031531207e+01    0.2793067    0.2139079 -67.19  0.001319807    1.638    0.389
        34 -10.2569    236.9887    158.7327   6.8405369110e+01   3.1948433269e+00    0.2296861    0.1436268 -63.84 0.0008979664    3.512    0.715
        35  -8.9747    168.3018    158.6197   8.2154139204e+01   1.6326315640e+01    0.1522679    0.1220931 -86.04 0.0007023982    1.773    0.436
        36 -11.1765     33.0690    156.0663   1.1609005050e+02   3.8623164652e+01     0.286423    0.2360014 -82.11  0.001030037    1.024    0.023
        37 -10.3101    172.6190    242.8990   9.6287853261e+01   3.0721752417e-01    0.3686365    0.2181533 -63.23  0.001510504    3.163    0.684
        38 -11.1191    133.5450    143.9598   8.7290114198e+01   2.6489801215e+01      1.17794    0.2871628 -54.07   0.00262614    6.284    0.841
        39 -10.0360    174.4409    148.5037   7.8520961796e+01   1.7154906842e+01    0.3720573     0.261095 -72.62  0.001466708    2.260    0.558
        40 -11.6557     54.5867    147.7163   1.0933899145e+02   3.8332854545e+01    0.4208812    0.2258092 -63.64  0.002000428    1.652    0.395
        41 -10.7507    139.3605    170.7103   9.1424649735e+01   1.9394246612e+01    0.3196324    0.2651371  57.71  0.001298159    1.279    0.218
        42 -10.9734    100.8492    140.4710   9.5243000112e+01   3.3383151219e+01    0.6178397     0.373504 -24.66  0.002338842    2.735    0.634
        43 -12.2731     87.6773    140.7995   9.8971678963e+01   3.5469646751e+01    0.2874144    0.2488198 -47.52 0.0004942169    1.154    0.134
        44  -9.8462     81.5547    141.3899   1.0080032600e+02   3.6265912101e+01    0.2788093    0.1947613  63.83 0.0008490823    1.686    0.407
        45  -9.8768     29.1630    136.5997   1.1477173954e+02   4.3691675485e+01    0.2149676    0.1544603 -84.20 0.0005233393    1.255    0.203
        46  -9.9887     66.0180    194.7403   1.1258927447e+02   2.5816589765e+01    0.2569494    0.2051528  39.51 0.0009642469    1.301    0.231
        47 -10.3002     62.1169    200.4776   1.1408073914e+02   2.5058875726e+01    0.2346373    0.1718764  81.83 0.0005657545    1.278    0.217
        48 -10.6565     38.5650    133.2147   1.1166097771e+02   4.3638304992e+01    0.2917655    0.1788284  29.08  0.001277089    1.865    0.464
        49 -10.2966    110.1676    130.8580   9.0557395586e+01   3.4024145096e+01    0.3193362    0.2561226  -0.66 0.0007592484    1.574    0.364
        50 -10.2940    106.0955    130.8628   9.1696576265e+01   3.4764959239e+01    0.3484352     0.320124  82.90  0.001169337    1.166    0.142
        51 -10.3646     32.8901    130.0673   1.1283318576e+02   4.4948910802e+01     0.422468    0.1797812 -77.18   0.00174431    2.451    0.592
        52 -10.8788    135.9130    127.8906   8.2912993929e+01   2.9654424132e+01     0.560845    0.1676006 -51.21  0.001543192    3.863    0.741
        53 -10.6480    230.2724    166.0137   7.1134560732e+01   3.1545833162e+00    0.2027443    0.1650632 -21.46 0.0005985731    1.092    0.084
        54  -9.7563    160.2797    127.2632   7.6714930736e+01   2.4597143347e+01    0.3239541    0.1878926 -61.56  0.001175434    2.512    0.602
        55 -10.8350     97.5320    127.0194   9.3265027289e+01   3.7193364461e+01    0.3270772    0.2634594 -21.02  0.001313391    1.462    0.316
        56  -9.3124     79.8370    128.6486   9.8782615341e+01   3.9648038971e+01    0.2044104    0.1295344  45.57 0.0007596363    1.696    0.410
        57  -9.6110    116.5034    124.9732   8.7410762731e+01   3.4213140318e+01    0.2205257    0.1287196 -28.26 0.0007203919    2.413    0.586
        58 -11.7302     25.6628    120.5032   1.1357826183e+02   4.7904128406e+01    0.5906902    0.1698922  46.95  0.001949284    5.011    0.800
        59  -9.9227    107.0373    119.5099   8.8753764472e+01   3.7282121225e+01    0.2173598    0.1970944 -45.85 0.0003237206    1.064    0.060
        60 -11.7442     18.5923    111.3043   1.1439100866e+02   5.0663748521e+01    0.5384294      0.17844 -60.13  0.002330004    2.211    0.548
        61  -9.8584    134.8369    112.6167   7.9294868343e+01   3.3279820271e+01    0.3131919    0.1126823 -42.62 0.0009889273    2.768    0.639
        62 -10.0612     39.8461    113.1824   1.0802819348e+02   4.8418806789e+01    0.1986144     0.169921 -87.45 0.0004788933    1.199    0.166
        63  -9.4365    168.0149    112.9986   7.1281222953e+01   2.5838385326e+01    0.2603022    0.1982178 -79.54  0.001137863    1.833    0.454
        64 -10.1062    205.2148    110.3520   6.2998570819e+01   1.7994212865e+01    0.3340162    0.2194152  38.18  0.001095923    1.701    0.412
        65  -8.7657    114.6700    110.6640   8.4314196468e+01   3.7869275195e+01    0.1619861    0.1220157  -9.46 0.0007052081    1.730    0.422
        66 -10.4340     33.1248    109.1675   1.0945845764e+02   5.0020780208e+01    0.2407832     0.177117 -76.23  0.000811719    1.287    0.223
        67  -9.5709    134.5269    105.0768   7.7338077061e+01   3.4982996681e+01    0.3743635    0.1480565 -49.37  0.001211878    2.747    0.636
        68 -10.7108     39.0856    102.0011   1.0616680155e+02   5.1195795116e+01     0.333633    0.1532519  41.87  0.001469513    2.592    0.614
        69 -12.2802    242.1453    100.2194   5.4550653107e+01   1.1987488115e+01    0.3794572    0.2573497 -52.20  0.001901849    1.482    0.325
        70 -10.0749     63.3181    196.7088   1.1341296700e+02   2.5731772647e+01    0.2488299    0.1890461  71.62 0.0007031057    1.199    0.166
        71  -9.5479     33.0168     96.9824   1.0722617704e+02   5.2952154896e+01    0.1984727    0.1503078  76.68 0.0006558701    1.635    0.388
        72  -9.7577     11.3814     92.8538   1.1388075620e+02   5.5506068932e+01    0.1822002     0.162609  42.10 0.0005859222    1.377    0.274
        73 -10.6291     53.0454     91.2325   9.8981988018e+01   5.2250224450e+01    0.2751855    0.1931417 -61.28 0.0007928113    1.368    0.269
        74 -10.3366     41.7411     91.9752   1.0313588992e+02   5.3312191612e+01    0.2048854    0.1896957 -15.14 0.0004463186    1.166    0.143
        75 -10.6286    249.9831     87.7365   5.0652435358e+01   1.2421405268e+01    0.1845971    0.1641822 -50.72 0.0004319255    1.057    0.054
        76  -8.9015     73.3479     83.7309   8.9862712802e+01   5.1215201607e+01    0.1360541    0.1135401  72.98 0.0002803673    1.619    0.382
        77 -13.6342     66.2636    158.5535   1.0783845934e+02   3.4224777116e+01    0.5750095    0.3977244 -53.59  0.001664192    1.432    0.302
        78 -11.4875      2.2456     78.8960   1.1477128932e+02   5.9192377622e+01    0.5587211    0.1084225 -66.43   0.00203217    3.479    0.713
        79  -8.5448     69.6883     81.3332   9.0445989002e+01   5.2288667974e+01    0.1370724    0.1137332  86.41 0.0007044173    1.678    0.404
        80 -11.1045    243.4180     77.7197   4.9223022634e+01   1.5290186152e+01    0.2223027    0.1610636  36.63 0.0003544724    1.784    0.439
        81  -8.9782     50.1142     63.3690   9.2312682883e+01   5.8737947036e+01    0.1747886    0.1191707  39.85 0.0007023065    1.754    0.430
        82 -10.4945     13.5136     59.8141   1.0639366682e+02   6.2813551518e+01    0.2169406    0.1795899 -43.86 0.0003943608    1.063    0.060
        83  -9.5241    197.7035    223.0072   8.8258778573e+01  -6.0842144175e-01    0.1734217    0.1492665   2.46 0.0004849647    1.088    0.081
        84 -16.6145      8.8105    240.1815   1.2727666140e+02   2.2928251954e+01     9.278306     2.677966 -77.61   0.04645772    3.088    0.676
        85  -8.4723    111.5253    217.4917   1.0532903274e+02   1.4400922102e+01    0.1316969    0.1141771  53.46 0.0002394656    1.019    0.018
        86  -9.9593    142.0381     39.5212   5.5221838322e+01   4.4896487641e+01    0.2370243    0.1929551 -50.32 0.0004227064    1.353    0.261
        87  -9.5785      8.4684     39.4876   1.0304697913e+02   6.7281189533e+01    0.1774377   0.09856692  29.30  0.001024506    2.217    0.549
        88  -9.4305     38.1403    215.8929   1.2046711568e+02   2.4649574093e+01    0.1819257    0.1251579  68.42 0.0003670598    1.209    0.173
        89  -8.5431    115.5185     31.4586   5.8496538520e+01   5.2235161320e+01    0.1404509    0.1263431  32.45  7.53432e-05    1.006    0.006
        90  -9.9870    189.4994     15.0307   4.0359502869e+01   3.6029116783e+01    0.2010659    0.1662536  80.44 0.0006111342    1.088    0.081
        91 -10.8965    138.3408     44.2743   5.7597878075e+01   4.5143014969e+01    0.3324909    0.2546245 -78.11 0.0002677797    1.708    0.414
        92  -9.7086    152.9979    198.4852   9.3367360267e+01   1.1188726349e+01    0.3117315    0.1811149 -54.72  0.001440405    2.018    0.504
        93  -8.9851    106.6606    210.2772   1.0543778289e+02   1.6602708547e+01    0.1378775   0.09130491  62.50 0.0003564128    1.617    0.382
        94 -11.0155    186.6648    209.2060   8.8091158174e+01   3.4058697235e+00    0.1904566    0.1603182  31.74 0.0009361986    1.131    0.116
