#   1 NUMBER                 Running object number                                     
#   2 MAG_AUTO               Kron-like elliptical aperture magnitude                    [mag]
#   3 X_IMAGE                Object position along x                                    [pixel]
#   4 Y_IMAGE                Object position along y                                    [pixel]
#   5 X_WORLD                Barycenter position along world x axis                     [deg]
#   6 Y_WORLD                Barycenter position along world y axis                     [deg]
#   7 A_WORLD                Profile RMS along major axis (world units)                 [deg]
#   8 B_WORLD                Profile RMS along minor axis (world units)                 [deg]
#   9 THETA_WORLD            Position angle (CCW/world-x)                               [deg]
#  10 FWHM_WORLD             FWHM assuming a gaussian core                              [deg]
#  11 ELONGATION             A_IMAGE/B_IMAGE                                           
#  12 ELLIPTICITY            1 - B_IMAGE/A_IMAGE                                       
         1 -19.0009    227.9378     62.1165   6.9761595155e+01   2.0718058454e+01     7.674924     5.290954 -34.15   0.02890795    1.571    0.363
         2 -16.3459    144.3472     44.9672   7.9044742465e+01   4.3415258451e+01     7.017615     4.486112 -31.84   0.03470279    1.698    0.411
         3  -9.9029    170.3248     31.0643   7.0305648572e+01   3.8916533813e+01    0.2000872    0.1723078  42.82  0.001015291    1.260    0.206
         4 -12.4186    189.6741     20.5753   6.4829538687e+01   3.5436986941e+01    0.5540545    0.3188562  24.45  0.002265761    3.591    0.722
         5 -12.0897    213.7463     13.1968   6.0379801817e+01   3.0561923445e+01    0.4888301    0.1575376  53.62   0.00188935    3.434    0.709
         6 -10.3596    204.0597      1.1731   5.8655642773e+01   3.4071570514e+01    0.1446669    0.0776506  73.34 0.0002996475    1.556    0.357
         7 -10.9557    237.1664    147.4123   8.7588346279e+01   3.7507004462e+00    0.5461896    0.4354899  22.92   0.00260695    1.455    0.313
         8  -9.7291    243.6769    146.1338   8.6207131582e+01   2.7311891836e+00    0.2819927    0.1797123  44.56  0.001102731    1.731    0.422
         9 -11.3874    250.6636    232.4087   1.0203843260e+02  -1.2341271953e+01    0.1890361    0.1023757 -32.96 0.0002610512    1.806    0.446
        10 -10.4266    140.9603    147.9311   1.0783983301e+02   2.4158798022e+01    0.3714081    0.2015275 -62.95  0.001351334    2.387    0.581
        11 -11.5501    200.2898    144.3927   9.3782219266e+01   1.1956143473e+01    0.6616111    0.3989395  75.91 0.0004245001    3.238    0.691
        12 -11.2563    144.1213    146.2011   1.0668106693e+02   2.3885310929e+01     0.445046    0.2827431 -71.27  0.001735734    2.197    0.545
        13  -9.5493    192.2804    144.0659   9.5338153982e+01   1.3773601293e+01    0.2138725    0.1914309 -50.64 0.0003662147    1.104    0.094
        14 -10.9975    160.4924    142.9842   1.0205845609e+02   2.1052850743e+01    0.3896411    0.2441278 -73.81  0.001184355    2.589    0.614
        15 -11.1114    160.8916    138.9969   1.0102918263e+02   2.1843279881e+01    0.4407367      0.31841  89.40  0.001202562    1.972    0.493
        16 -10.4872    187.0735    137.9776   9.5004809119e+01   1.6189230900e+01    0.4182725    0.2286107  47.66 0.0008937813    1.863    0.463
        17 -11.3591    158.0031    192.3597   1.1300284799e+02   1.0826662472e+01    0.2638091     0.209385 -89.81 0.0006056677    1.571    0.363
        18 -11.2041    153.1159    130.1374   1.0072232860e+02   2.5531539910e+01    0.3595134    0.3078113  40.71  0.001240315    1.205    0.170
        19 -11.3348    152.8951    124.8955   9.9480371625e+01   2.6732132342e+01    0.4722044    0.3333597 -78.63  0.001341284    1.984    0.496
        20 -11.2425    160.6765    128.5972   9.8569818336e+01   2.4166037850e+01     0.423817    0.3377708 -63.22   0.00164968    1.345    0.256
        21 -11.6398    161.2856    189.9116   1.1181808084e+02   1.0687609462e+01    0.2692465    0.1950003  53.66 0.0006814859    1.392    0.282
        22 -11.3971    236.9706    126.0776   8.2929895660e+01   7.6994531427e+00    0.2650016    0.1958407  50.76 0.0005860178    1.484    0.326
        23 -10.9311    205.1401    122.7180   8.7769089492e+01   1.5206028947e+01    0.3204424    0.2626863  45.83  0.001221101    1.289    0.224
        24 -10.8212    175.2536    115.0649   9.1928400430e+01   2.3655868245e+01    0.6547868    0.3866132 -74.25  0.002142155    3.324    0.699
        25 -11.8918    161.8226    119.3403   9.5996047036e+01   2.5892332888e+01    0.7484946    0.4792861 -77.66  0.001517037    2.646    0.622
        26 -12.1951    168.2384    114.0861   9.3211812599e+01   2.5502236680e+01    0.5710036    0.4987606  33.26  0.001396434    1.248    0.198
        27 -13.3060    167.6912    187.0083   1.0985319084e+02   1.0012049026e+01    0.7778959     0.484302  67.11   0.00315092    2.376    0.579
        28 -10.9033    182.0306    149.0491   9.8647121109e+01   1.4987971133e+01    0.3338831    0.2913969  57.74 0.0004249412    1.181    0.154
        29 -11.5587    151.4013    149.7231   1.0573512068e+02   2.1530029175e+01    0.4868246    0.3115636 -79.10  0.001795418    2.601    0.616
        30 -10.6022    207.0983    109.8954   8.4334526891e+01   1.7242353385e+01    0.3679026    0.2506121  51.70   0.00114124    1.526    0.345
        31 -11.1710    211.6789    113.9687   8.4482024327e+01   1.5422524191e+01    0.5239591     0.320085 -57.82  0.002245161    1.838    0.456
        32 -10.8586    215.8851    112.0225   8.3276500870e+01   1.4844036065e+01    0.2554286    0.2018386  77.41  0.000467105    1.424    0.298
        33  -9.8828     39.8290    115.0415   1.2844021720e+02   4.8392866752e+01    0.1983772    0.1560438 -77.81 0.0007687035    1.273    0.215
        34 -11.5197    144.9609    182.3606   1.1403725255e+02   1.5552864276e+01    0.4031188    0.2389343  65.47   0.00158178    2.349    0.574
        35  -9.7557    164.1861    211.2489   1.1507273330e+02   5.8404158805e+00    0.1988456    0.1777662  30.22 0.0003832448    1.099    0.090
        36 -11.6267    242.0262    108.5963   7.8248182881e+01   9.8086198044e+00    0.6185018    0.2277329  59.56  0.002217411    3.358    0.702
        37 -11.0725    240.3368    103.7465   7.7422726504e+01   1.1019522096e+01    0.3606322    0.2566993 -11.15  0.001260726    2.138    0.532
        38 -10.6868    178.2343    148.6063   9.9368859157e+01   1.5915675006e+01    0.3989874    0.2125526 -42.54  0.001578538    1.876    0.467
        39 -11.4461    247.6601    103.7820   7.6360879275e+01   9.4902221701e+00    0.2008045    0.1794371  70.10 0.0005085661    1.222    0.182
        40 -11.2493    165.5039    151.6783   1.0290433104e+02   1.8041300277e+01    0.3160007    0.2531289  81.96 0.0007603755    1.519    0.341
        41 -13.1229    151.8074    101.4184   9.3642602010e+01   3.1943770179e+01     1.754384    0.7820469  31.48  0.004599236    5.002    0.800
        42 -11.4969    167.5136     97.9375   8.9160487665e+01   2.8926680216e+01     0.411191    0.3397036  51.64 0.0006869225    1.208    0.172
        43 -11.0968    163.5367     96.4841   8.9640962742e+01   3.0160142689e+01    0.3406045    0.3050922 -26.82 0.0007510717    1.208    0.172
        44 -11.4222    168.2788     94.0600   8.7962677491e+01   2.9493386468e+01    0.3523498    0.3221945 -83.73  0.000380342    1.113    0.102
        45 -10.9652    133.6681    147.0077   1.0942578963e+02   2.5890973398e+01    0.7220321    0.2523594 -56.27  0.002103503    3.589    0.721
        46 -11.3592    198.8756     98.9728   8.3163852741e+01   2.1225259815e+01    0.3238988    0.2994753 -18.14  0.000761501    1.232    0.188
        47 -10.6556    188.5031     97.9344   8.4858529191e+01   2.3890855684e+01    0.3233354    0.2606322 -57.90 0.0007684848    1.243    0.196
        48 -10.0166     85.5168     96.5013   1.1024665834e+02   4.6489148821e+01    0.2432652    0.1337725 -58.90 0.0007073572    2.103    0.524
        49 -12.0319    106.3380     86.8229   1.0136736077e+02   4.4732784653e+01    0.3418629    0.2995899   3.45  0.001347237    1.220    0.180
        50 -13.3342    109.1592     76.2170   9.7404316710e+01   4.6210969637e+01    0.7082793    0.5607027  12.70  0.003657965    1.439    0.305
        51 -11.2159    143.4002    166.7964   1.1131295615e+02   1.9344662902e+01     0.517378    0.3146167  74.83  0.001850519    2.876    0.652
        52 -12.3655    156.9196    160.9073   1.0691282907e+02   1.7850602812e+01    0.5851559    0.3783642 -87.33  0.002127847    2.833    0.647
        53 -11.2172     91.6675     41.1165   9.0937271920e+01   5.5319915972e+01    0.4622608    0.1693246 -29.19  0.001785416    3.102    0.678
        54  -9.7212    182.0819     41.4830   7.1248892106e+01   3.4707553422e+01    0.2160911    0.1750704 -63.53 0.0004158284    1.248    0.199
        55 -10.8871    180.2717     37.8926   7.0583678108e+01   3.5625835701e+01    0.2189595      0.18668  60.69 0.0002603823    1.137    0.120
        56 -11.5116    168.9682     37.3571   7.2250000157e+01   3.8465225500e+01    0.4319445     0.335414  -3.45  0.001087507    1.721    0.419
        57 -12.9924     60.2129    144.7787   1.2811867166e+02   3.8995603188e+01    0.6141858    0.4904982 -74.28 0.0008330225    1.128    0.114
        58 -10.1024    182.9125     29.4872   6.7996384033e+01   3.6034753750e+01    0.5758283    0.2047921 -32.19  0.002197128    3.014    0.668
        59 -13.7095     37.6985    154.7842   1.3540868711e+02   3.9263027134e+01    0.8588701    0.7282057 -76.69  0.003633137    1.047    0.045
        60 -11.3140    132.4146    137.5145   1.0757272109e+02   2.8346297696e+01    0.8602466     0.248264 -52.14  0.002391933    3.801    0.737
        61 -13.6663     67.4798    142.1910   1.2572665564e+02   3.8642792217e+01     1.230256    0.7386348 -75.89  0.003477455    1.830    0.454
        62 -11.6391    147.4243    157.1459   1.0832059445e+02   2.0697690504e+01    0.4255031    0.3458437 -22.45  0.001816854    1.503    0.335
        63 -13.9485     73.7747    138.5000   1.2333326113e+02   3.8635896480e+01      1.27653    0.9542903 -47.18  0.002221823    1.324    0.245
        64  -9.7940    151.3107    158.2805   1.0764990981e+02   1.9623231085e+01    0.1508923    0.1249268   1.41 0.0002176227    1.565    0.361
        65  -8.9404    112.0002    155.0083   1.1657418967e+02   2.8266855517e+01    0.1779797    0.1600106 -67.54 0.0009382372    1.070    0.065
        66  -9.2511     90.0421    155.5140   1.2226958321e+02   3.1999339303e+01    0.1981457     0.141566  44.39 0.0004708056    1.447    0.309
        67 -11.4388    182.5932    153.6837   9.9576514813e+01   1.3889193775e+01    0.3561576    0.2745336  74.43 0.0005027322    1.621    0.383
