#   1 NUMBER                 Running object number                                     
#   2 MAG_AUTO               Kron-like elliptical aperture magnitude                    [mag]
#   3 X_IMAGE                Object position along x                                    [pixel]
#   4 Y_IMAGE                Object position along y                                    [pixel]
#   5 X_WORLD                Barycenter position along world x axis                     [deg]
#   6 Y_WORLD                Barycenter position along world y axis                     [deg]
#   7 A_WORLD                Profile RMS along major axis (world units)                 [deg]
#   8 B_WORLD                Profile RMS along minor axis (world units)                 [deg]
#   9 THETA_WORLD            Position angle (CCW/world-x)                               [deg]
#  10 FWHM_WORLD             FWHM assuming a gaussian core                              [deg]
#  11 ELONGATION             A_IMAGE/B_IMAGE                                           
#  12 ELLIPTICITY            1 - B_IMAGE/A_IMAGE                                       
         1 -13.4117    172.3380     54.2918   5.9581272596e+01   3.5184820270e+01     2.126773     1.264701  32.77  0.005953999    2.237    0.553
         2 -13.2898    186.9858     40.4995   5.2927363120e+01   3.3422842561e+01    0.9985367     0.892098  82.44  0.003092459    1.083    0.077
         3 -13.8854    210.4715      9.3858   4.1345776139e+01   3.1230717593e+01     1.149313       1.0537  53.43  0.004106242    1.249    0.200
         4 -12.6003    193.6035     15.4179   4.4794652326e+01   3.4814382829e+01    0.9217901    0.5060301  66.99  0.004346404    1.674    0.402
         5 -10.2640     56.4129     10.7872   7.4227473594e+01   6.6768159824e+01    0.1808262    0.1031977 -17.05 0.0009599233    1.718    0.418
         6 -11.0789    244.0386      2.0653   3.6784364390e+01   2.4081552833e+01    0.6380826    0.1613955  76.44  0.002264368    4.024    0.751
         7 -10.8352     56.6262    213.3800   1.2045835674e+02   2.3579782668e+01    0.2164021    0.1546402  64.82 0.0006981944    1.116    0.104
         8 -13.2441    246.6432    240.1671   8.8187239108e+01  -1.0128309514e+01     1.574028    0.6526985 -25.68   0.00823138    2.650    0.623
         9 -17.9870     36.3646    240.5260   1.2598380838e+02   2.0918671400e+01     6.552993     5.664739  52.16   0.04977674    1.464    0.317
        10 -10.0547    193.0310    205.4694   9.2027480572e+01   2.9157417641e+00    0.2066063    0.1156234  39.61 0.0006014205    1.579    0.367
        11 -11.1945     44.3507    211.0510   1.2260714623e+02   2.5546887548e+01    0.3004581    0.1807635 -84.72 0.0007969576    1.483    0.326
        12 -10.8809     59.9433    203.4193   1.1892708816e+02   2.5164884892e+01    0.2505387    0.2231874 -22.70  0.001295716    1.806    0.446
        13 -11.0246    193.0114    195.2306   9.0208330817e+01   4.5624821672e+00    0.9505951    0.5039529 -62.77  0.003107879    5.309    0.812
        14 -12.9188     49.1287    207.2098   1.2138824901e+02   2.5746358365e+01    0.4068967    0.1940175  64.35  0.001364977    1.986    0.497
        15 -11.2665    150.1432    196.2293   9.9132413399e+01   1.2257750182e+01    0.3351779    0.2327143 -55.01  0.001777448    1.633    0.388
        16 -11.2190     63.2857    195.2594   1.1745196267e+02   2.6429602819e+01    0.3531025    0.2229189 -46.01  0.001517535    2.263    0.558
        17  -9.4093     82.5299    195.1559   1.1339836981e+02   2.3773011461e+01    0.2569157     0.169678  72.10  0.001421329    1.493    0.330
        18  -8.6420     78.4479    193.3864   1.1405916914e+02   2.4738533288e+01    0.1279337    0.1059681  69.98 0.0001511558    1.022    0.021
        19  -9.8584    156.7559    189.8863   9.6668136397e+01   1.2229913207e+01    0.1976599    0.1818942  11.91 0.0004476797    1.166    0.142
        20 -11.7265    149.6737    187.9961   9.7850965605e+01   1.3909034945e+01    0.4189451    0.2800327  51.37  0.002116663    1.440    0.306
        21 -11.6206    145.3817    181.0451   9.7571348083e+01   1.6078779068e+01    0.3801489    0.3075559 -25.52  0.001680712    1.519    0.342
        22 -12.2311    141.7392    175.4461   9.7377660263e+01   1.7902254079e+01    0.7259575     0.501267  76.91  0.002258366    2.017    0.504
        23  -9.1472     60.5694    186.8459   1.1715215882e+02   2.8587985527e+01    0.1606467   0.08945034  15.44 0.0006236464    4.220    0.763
        24 -10.2558    238.4866    185.4940   7.9844125614e+01  -1.9660023335e+00    0.1310202    0.1109921   3.19 0.0008104639    1.016    0.015
        25 -19.1375     21.1348    102.2269   1.1642518682e+02   5.2423979694e+01     16.55512    0.8572494 -68.24   0.02841767   14.784    0.932
        26 -11.3091    151.2411    180.3823   9.6170930042e+01   1.5102029242e+01    0.4445773    0.3109831 -80.77  0.002065099    2.109    0.526
        27 -10.6653    189.4762    177.6350   8.7572996478e+01   8.2297401785e+00    0.5099404    0.3708961 -63.12  0.002515128    1.926    0.481
        28  -9.5028    184.6936    212.4238   9.4821125418e+01   3.2865948756e+00    0.2107511    0.1646661 -54.79  0.001240945    1.647    0.393
        29  -8.3296     50.6494    173.7738   1.1792604181e+02   3.2719124677e+01     0.106533   0.09714709 -32.32 0.0003623388    1.555    0.357
        30 -10.0805    240.2457    169.3820   7.6285114745e+01   1.1845870179e-01    0.1713751    0.1248438  47.34 0.0003505159    1.580    0.367
        31  -9.6615     38.9644    212.6412   1.2373499596e+02   2.5858032206e+01    0.1536944   0.08514627  49.89 0.0009381511    1.523    0.344
        32 -11.1138    133.9370    145.9385   9.3413110155e+01   2.5767750411e+01     1.297173    0.3349775 -55.50  0.003037354    6.059    0.835
        33 -11.8787     98.2233    151.1582   1.0331631380e+02   3.1150032881e+01    0.5953729    0.4597976 -33.38  0.003047823    1.648    0.393
        34 -10.2265    187.4001    151.7892   8.2580505092e+01   1.3417007791e+01    0.3797546    0.2812346 -86.42  0.001669803    2.205    0.547
        35 -10.1701    113.6033    151.6099   9.9561725416e+01   2.8361467478e+01    0.3209855    0.2302886  78.05  0.001058382    1.701    0.412
        36  -9.6189    174.8607    149.0962   8.4652633337e+01   1.6589076040e+01    0.2296193    0.2090308 -87.18 0.0006484273    1.272    0.214
        37 -10.3996     75.5630    247.5937   1.1978654972e+02   1.4790402989e+01    0.3060375    0.0990733 -61.01  0.001488681    3.451    0.710
        38 -11.6178    108.9164    138.1221   9.8065583152e+01   3.2339593838e+01    0.6431286     0.390752 -44.68  0.002856429    1.732    0.423
        39  -9.6085     92.5628    147.3723   1.0407161206e+02   3.2972013482e+01    0.2564533    0.1938417 -88.15  0.001317603    1.404    0.288
        40 -11.8076     97.4187    137.1054   1.0087092154e+02   3.4597736743e+01     0.325314    0.2839162 -73.11 0.0005524168    1.085    0.078
        41 -11.0280    106.0706    130.8480   9.7276797417e+01   3.4563254162e+01    0.4006915    0.3448689 -78.56   0.00115574    1.173    0.148
        42 -10.3829    135.9240    128.6055   8.9023244991e+01   2.9240477178e+01    0.4272822    0.1844587 -52.47  0.001491374    2.463    0.594
        43  -9.7955    161.2050    128.2346   8.2838946870e+01   2.3848706391e+01    0.4214541     0.294877  87.29   0.00167826    2.311    0.567
        44 -10.5564    103.5098    124.4877   9.6568481637e+01   3.6524367968e+01    0.2824525    0.2435846 -23.17 0.0005160146    1.371    0.271
        45  -9.9400    120.2691    123.4477   9.1825226715e+01   3.3600614481e+01    0.2875371    0.1779493 -40.15 0.0006882189    1.720    0.419
        46 -10.5723    115.6520    128.8017   9.4284548665e+01   3.3260383624e+01    0.3246174    0.2912785 -29.96 0.0006295691    1.234    0.189
        47  -9.5286    151.8003    118.9202   8.2727066420e+01   2.7926909010e+01    0.3742043    0.2014691 -63.27  0.001233715    3.014    0.668
        48  -9.4361    110.8863    118.0639   9.3059599280e+01   3.6666684486e+01    0.2232422     0.211732 -80.85 0.0004078765    1.044    0.042
        49 -10.0053    231.2895    113.6890   6.5309681327e+01   1.0944703615e+01    0.2712357    0.2519341 -39.61 0.0007137853    1.074    0.069
        50  -9.8306    167.6429    112.7119   7.7426084273e+01   2.5606705505e+01    0.3906277    0.2905907 -79.34  0.001462782    1.871    0.466
        51 -10.4402    134.6287    106.0538   8.3629631827e+01   3.4518865347e+01    0.6063096    0.1537011 -44.19  0.001637919    3.874    0.742
        52 -11.7229    119.2713    110.0626   8.8772088074e+01   3.6860805585e+01    0.6079017    0.4608018  56.01  0.002607852    1.425    0.298
        53  -9.7169    205.3976    110.1002   6.8973578132e+01   1.7314067411e+01    0.3198682    0.2314731  45.64 0.0009736086    1.439    0.305
        54  -9.4323    184.8911     84.8110   6.6140929254e+01   2.6843706650e+01    0.2411089    0.2176251  21.46  0.001187849    1.217    0.178
        55 -10.5824     71.9280    244.8064   1.2020177239e+02   1.5754226740e+01    0.1969492    0.1438607 -77.59  0.001022311    1.469    0.319
        56 -10.2697     63.1392    221.3812   1.1989862705e+02   2.1181590043e+01    0.3511992    0.1518272  65.29  0.001671617    2.509    0.601
        57 -12.8524    191.9429     34.2228   5.0365748618e+01   3.2986746506e+01     0.674504    0.5919006  80.47  0.001510723    1.088    0.081
        58 -12.4152    199.5177     23.7887   4.6414307298e+01   3.2352713949e+01    0.7089231    0.3553106  70.16  0.003112535    1.916    0.478
        59 -11.1427     68.0536    207.1271   1.1765953803e+02   2.3337449928e+01    0.1914644    0.1521765  63.45 0.0004137071    1.071    0.066
        60  -9.8349     73.0610    205.5965   1.1650287037e+02   2.2963345467e+01    0.2714691    0.2084827  19.41  0.001618762    1.949    0.487
        61  -8.3152    224.2799    206.6730   8.6378934485e+01  -2.6072604078e+00    0.1085881    0.1034252  85.07 0.0002879116    1.596    0.374
