#   1 NUMBER                 Running object number                                     
#   2 MAG_AUTO               Kron-like elliptical aperture magnitude                    [mag]
#   3 X_IMAGE                Object position along x                                    [pixel]
#   4 Y_IMAGE                Object position along y                                    [pixel]
#   5 X_WORLD                Barycenter position along world x axis                     [deg]
#   6 Y_WORLD                Barycenter position along world y axis                     [deg]
#   7 A_WORLD                Profile RMS along major axis (world units)                 [deg]
#   8 B_WORLD                Profile RMS along minor axis (world units)                 [deg]
#   9 THETA_WORLD            Position angle (CCW/world-x)                               [deg]
#  10 FWHM_WORLD             FWHM assuming a gaussian core                              [deg]
#  11 ELONGATION             A_IMAGE/B_IMAGE                                           
#  12 ELLIPTICITY            1 - B_IMAGE/A_IMAGE                                       
         1 -10.8290    185.3538     31.7393   6.8108327446e+01   3.4848271523e+01    0.8525099    0.7079579  88.16  0.004216263    1.106    0.096
         2 -11.1307    192.0519     20.7647   6.4434858538e+01   3.4498997685e+01    0.6304923    0.5679204 -57.21  0.001627009    1.208    0.172
         3  -9.5292    202.3672     15.3120   6.1891239925e+01   3.2611120867e+01    0.2864329    0.1820807  45.91  0.001011825    1.889    0.471
         4  -7.4177    174.3515      7.2546   6.3316563543e+01   4.0220804210e+01      0.15678    0.1156838 -45.46 0.0005495118    1.500    0.333
         5  -8.6735     88.0864    243.4690   1.3554523681e+02   1.2722192301e+01     0.218227    0.1477531  82.50 0.0004060931    1.485    0.327
         6  -8.9908    133.6202    249.7240   1.2741330858e+02   4.1185841941e+00    0.2961134    0.1790373  28.76  0.001497758    1.949    0.487
         7  -8.7810    138.4425    249.1282   1.2638642871e+02   3.3974796878e+00    0.3928464    0.1583106  30.10  0.001339219    4.072    0.754
         8  -8.0177    107.5745    249.7563   1.3248763870e+02   8.4556512545e+00    0.2119652    0.1186985 -56.69  0.001134453    2.089    0.521
         9  -9.5161     96.5808    249.3801   1.3454888385e+02   1.0282629285e+01    0.3960674    0.2294861  53.39  0.002216503    1.418    0.295
        10 -13.0862     61.3995    211.6327   1.3746642573e+02   2.3189875389e+01     4.632736     1.605195  56.89  0.009083834    3.408    0.707
        11  -8.0784    102.8371    236.9691   1.3193425042e+02   1.1636657745e+01    0.2051882    0.1432615  69.36 0.0006891468    1.377    0.274
        12 -11.7508    250.4339    233.5335   1.0216428596e+02  -1.2816197917e+01    0.2360225    0.1546395 -22.64  0.001429921    1.448    0.309
        13  -9.3426    111.5996    230.7012   1.2938500389e+02   1.1408146168e+01    0.3591911    0.1616604  53.82  0.001329079    2.162    0.537
        14 -12.1799     66.4173    248.8419   1.4010330204e+02   1.4894449651e+01     2.921866    0.6479679  42.00   0.01133785    3.523    0.716
        15 -11.9619     51.5640    235.8132   1.4169136632e+02   1.9465818127e+01     1.525541    0.7118296 -47.97  0.006688855    3.961    0.748
        16  -9.9444     96.3755    228.1508   1.3218196134e+02   1.4438396076e+01     0.386305    0.2350013  51.82  0.002052079    1.417    0.294
        17 -11.0563     22.4318    235.7939   1.4687792997e+02   2.3014461468e+01    0.4219601    0.2351248  71.49 0.0005527734    1.454    0.312
        18  -9.0839     65.2028    233.2716   1.3890249997e+02   1.8118558913e+01    0.2703468    0.1404335 -54.22   0.00138869    2.382    0.580
        19  -7.1910    234.4241    228.4532   1.0418681078e+02  -9.6903836129e+00    0.1243719    0.1071649  10.40 4.847185e-05    1.090    0.082
        20  -8.7524    110.1021    224.8247   1.2892680620e+02   1.2836904750e+01    0.3061973      0.22024 -67.09  0.001303238    1.496    0.332
        21  -7.1837    129.4863    221.5728   1.2438160742e+02   1.0098464392e+01    0.1389297    0.1204196  53.30 0.0003885407    1.020    0.020
        22  -8.5654      6.7133    218.3731   1.4848078744e+02   2.8157660634e+01     0.229476    0.1164214 -85.37 0.0005806453    1.578    0.366
        23 -10.1219    164.2053    212.2111   1.1542819181e+02   5.4758274379e+00    0.2928592    0.2471495   7.62 0.0003744756    1.363    0.266
        24  -8.8142      3.3518    213.1051   1.4874137036e+02   2.9557483777e+01    0.2122365    0.1275261  58.13  0.001426676    1.442    0.307
        25  -7.3213     92.4734    208.4933   1.3050989318e+02   1.9213297167e+01    0.1361397     0.119386  72.09 0.0001388994    1.037    0.035
        26 -10.0266     63.9989    194.0098   1.3489287686e+02   2.6756859914e+01    0.6594829    0.2934872  48.46  0.002999702    2.137    0.532
        27 -10.6600     73.1255    199.0873   1.3351527164e+02   2.4300067921e+01     0.696843    0.4379429 -66.08  0.002821807    1.527    0.345
        28 -10.1466     68.5805    199.2601   1.3453075347e+02   2.4920643259e+01    0.6343169    0.2553024 -67.37  0.002659771    2.421    0.587
        29 -13.2012     14.2561    243.0884   1.4870176738e+02   2.2496949143e+01     1.161031    0.7917075  40.27  0.007252901    1.727    0.421
        30  -9.0486    198.6109    199.6630   1.0584020623e+02   1.2359980683e+00    0.2937821     0.250843  80.99   0.00148717    1.599    0.375
        31  -7.3301    165.1010    197.7883   1.1263957238e+02   8.1337520784e+00    0.1931861    0.1107526  44.07 0.0004999254    1.618    0.382
        32  -8.5248    190.8867    192.7522   1.0610007408e+02   4.0181632456e+00    0.2716435    0.1946999 -71.11   0.00123214    2.134    0.531
        33  -6.8534      7.6484    193.7259   1.4660706948e+02   3.3248273152e+01    0.1038891   0.07908118 -54.45 0.0005170615    1.637    0.389
        34  -9.4317     81.9039    183.1472   1.2933962254e+02   2.6639706540e+01    0.4121296    0.2450756 -42.96  0.001543026    2.170    0.539
        35  -9.2676     85.4337    177.3928   1.2762310552e+02   2.7438852460e+01    0.3323973    0.2321937 -48.87 0.0007313361    1.565    0.361
        36  -7.7597     90.4305    185.0571   1.2762215683e+02   2.4838274805e+01    0.2611147     0.172781  61.14 0.0008542431    1.539    0.350
        37  -7.9937    170.5828    242.7634   1.1907811980e+02  -1.1232411719e+00    0.1629651    0.1285371 -65.48 0.0007034161    1.681    0.405
        38  -7.6542      7.5139    183.9747   1.4587247119e+02   3.5384500236e+01    0.1633029     0.134708  59.41 0.0007336968    1.300    0.231
        39  -8.0638    199.6032    180.1672   1.0171890572e+02   4.6950621451e+00    0.2477736    0.2007331  52.72 0.0007102101    1.327    0.246
        40  -8.0714     92.9630    178.8226   1.2603900628e+02   2.5880301319e+01    0.2816683    0.1857415  60.35  0.001353445    1.575    0.365
        41  -9.0626    101.0143    175.9804   1.2361851128e+02   2.5183263097e+01    0.2059576    0.1902287  82.19  0.001161107    1.016    0.016
        42  -9.5408     47.5403    173.0123   1.3601572882e+02   3.3761804502e+01    0.3428946     0.200812 -84.57  0.001739551    1.693    0.409
        43 -14.3161     25.3770    243.4233   1.4687619994e+02   2.1194971380e+01     2.559113     1.524666 -68.26  0.009037982    1.740    0.425
        44  -8.8203     39.6578    170.6428   1.3755830835e+02   3.5230538599e+01    0.2527905    0.1722718 -63.56 0.0009843762    1.328    0.247
        45  -9.2301     92.0826    167.6239   1.2438162058e+02   2.8682633667e+01    0.2821874    0.2440329  66.41 0.0003973389    1.120    0.107
        46 -10.9643     80.8483    163.0584   1.2642381079e+02   3.1577000237e+01    0.4433276    0.3490767 -44.19  0.001389915    1.418    0.295
        47  -9.1039     17.0259    164.9742   1.4210754893e+02   3.8808048413e+01    0.1941473    0.1605649  42.03  0.001338855    1.435    0.303
        48  -7.1756    181.4014    162.5024   1.0184060495e+02   1.2041092691e+01    0.1503791    0.1485045  -6.14 0.0001373712    1.020    0.020
        49  -9.0071     96.9663    160.6481   1.2189836008e+02   2.9529628092e+01    0.4447414    0.3187525 -29.64  0.001471063    1.906    0.475
        50  -8.3321      4.2680    162.1061   1.4467137728e+02   4.0512905912e+01    0.2057813     0.151756  23.94  0.001127746    1.817    0.450
        51  -9.2214     12.1616    156.6126   1.4235163135e+02   4.1131303740e+01    0.2768227    0.1688718  48.32  0.001672473    1.768    0.434
        52  -7.3559    111.4529    156.0213   1.1728938238e+02   2.8038970144e+01    0.2154161    0.1453905 -53.50 9.623422e-05    1.462    0.316
        53  -7.5085     23.5315    156.4818   1.3966901041e+02   4.0175056725e+01    0.1254716    0.1003252 -81.28 0.0003421702    1.011    0.011
        54  -9.4328     53.4584    152.4691   1.3170158005e+02   3.7923294977e+01    0.5146413    0.2721885 -33.58  0.002059065    3.240    0.691
        55 -10.7077     68.1379    144.7477   1.2655765322e+02   3.7861895966e+01    0.6740955    0.4504176  72.05  0.002605979    1.860    0.462
        56 -10.0914    223.8071    143.9547   8.9039239783e+01   6.6825408531e+00    0.2707016     0.256542  43.74 0.0004108585    1.115    0.103
        57  -7.9853    133.5385    144.9536   1.0925738968e+02   2.6265824742e+01    0.2418136    0.1539596 -49.74 0.0008261622    1.576    0.366
        58  -8.2451    107.9965    144.9957   1.1590729335e+02   3.1311579088e+01    0.2795585    0.2217441 -56.49 0.0008760319    1.229    0.186
        59  -8.3317     97.1433    144.0386   1.1860366727e+02   3.3491842234e+01    0.2222385    0.2071635 -56.43 0.0004468801    1.069    0.064
        60  -9.4393     68.1944    135.1922   1.2477259362e+02   4.0151481540e+01    0.2890463    0.1867213 -71.14  0.001119283    1.586    0.370
        61  -7.9328    115.3329    133.3475   1.1135289600e+02   3.2666903177e+01    0.2359557    0.1860465 -11.10 0.0008656306    1.691    0.409
        62  -9.4336     38.2861    130.5108   1.3226606426e+02   4.4842464428e+01    0.3800808    0.1965327  40.36  0.001894702    2.166    0.538
        63  -7.6051     79.7523    135.6229   1.2163746571e+02   3.8361042138e+01    0.2579713    0.1425486  31.28   0.00111904    2.068    0.516
        64  -8.9651    242.1839    125.5606   8.1737440479e+01   6.3020568860e+00    0.2462543     0.215103 -43.17  0.000327719    1.042    0.040
        65  -7.6698    228.1913    125.1787   8.4003197433e+01   9.2864832236e+00    0.2020422     0.166409 -67.31 0.0006571515    1.331    0.249
        66  -7.6329    175.2122    122.2074   9.3745345613e+01   2.1939205274e+01    0.2170875    0.1832941 -74.38 0.0003500924    1.329    0.247
        67  -7.7022     13.7042    114.9469   1.3671400398e+02   5.0521613405e+01    0.1675269    0.1310901 -70.47 0.0004742525    1.081    0.075
        68  -7.3987    197.0245    107.5196   8.5528585411e+01   1.9710669033e+01    0.2266319    0.1510449  53.83 0.0006075549    1.514    0.340
        69  -7.6623    196.9493    102.7303   8.4350641944e+01   2.0643903223e+01    0.2083324    0.1939967  69.22 0.0002735337    1.069    0.065
        70  -7.7317     98.0742     96.7086   1.0697496810e+02   4.4195922890e+01    0.1982293     0.182763  35.91 0.0004326908    1.120    0.107
        71  -7.7125     96.8562     90.1836   1.0551131017e+02   4.5782402759e+01    0.2036881    0.1932865 -75.11 0.0004050435    1.201    0.168
        72  -7.2820    181.7893     80.4042   8.1532378152e+01   2.8441122347e+01    0.2096775    0.1366173  46.94 0.0003750957    1.567    0.362
        73  -9.7771    237.2938     69.8386   7.0030279183e+01   1.6939260097e+01    0.2441033     0.213285 -66.06 0.0002992329    1.027    0.026
        74  -8.0017    241.6820     65.8362   6.8588220384e+01   1.6592496924e+01    0.2159809    0.1795644  59.30 0.0008506793    1.341    0.254
        75  -7.2441    123.4838     65.4445   9.0428875593e+01   4.4997342886e+01    0.1449935    0.1371505  35.16 -5.318051e-06    1.029    0.028
        76  -7.5484    109.7394     57.5373   9.1644794526e+01   4.9243749019e+01    0.1854262    0.1338394  56.67 0.0004366295    1.524    0.344
        77  -7.5799    179.5588     53.5593   7.4775272121e+01   3.3341032532e+01    0.1444355    0.1320202  72.65  0.000174588    1.025    0.025
        78  -8.0628    159.4976     51.4950   7.7923962320e+01   3.8639629354e+01    0.1457967    0.1334824  61.41 -0.0002858876    1.011    0.010
        79 -10.1358    174.8482     40.7894   7.2137566810e+01   3.6303225714e+01    0.3445085    0.3189309  82.53   0.00117585    1.048    0.046
        80 -10.9878     19.1305    214.9544   1.4601543331e+02   2.7604668463e+01     0.672099    0.3134328  48.34  0.001488365    1.915    0.478
        81 -11.5826     11.5984    207.4381   1.4686412410e+02   2.9947901075e+01    0.6793728    0.3605973  43.11  0.002575384    1.873    0.466
        82  -9.1882    229.8904     21.3327   6.0324325120e+01   2.5456546644e+01    0.3188352    0.2235407 -44.62  0.001033775    1.442    0.307
        83  -9.2484    120.5797    249.3634   1.2992177089e+02   6.3841355252e+00    0.3014064    0.2704427   6.01 0.0005437058    1.538    0.350
