#   1 NUMBER                 Running object number                                     
#   2 MAG_AUTO               Kron-like elliptical aperture magnitude                    [mag]
#   3 X_IMAGE                Object position along x                                    [pixel]
#   4 Y_IMAGE                Object position along y                                    [pixel]
#   5 X_WORLD                Barycenter position along world x axis                     [deg]
#   6 Y_WORLD                Barycenter position along world y axis                     [deg]
#   7 A_WORLD                Profile RMS along major axis (world units)                 [deg]
#   8 B_WORLD                Profile RMS along minor axis (world units)                 [deg]
#   9 THETA_WORLD            Position angle (CCW/world-x)                               [deg]
#  10 FWHM_WORLD             FWHM assuming a gaussian core                              [deg]
#  11 ELONGATION             A_IMAGE/B_IMAGE                                           
#  12 ELLIPTICITY            1 - B_IMAGE/A_IMAGE                                       
         1 -14.2517      2.6619     89.7746   1.4463599756e+02   5.7635936931e+01     3.660683    0.3023613 -80.08  0.008094455    8.286    0.879
         2 -15.0343      4.9365    137.6861   1.4650699928e+02   4.5348813285e+01     4.971895     1.154454  88.96   0.01594839    4.408    0.773
         3 -13.4500    200.1188     30.4612   6.4193015111e+01   3.0730482685e+01     1.405478     1.192337  52.66  0.006693178    1.324    0.244
         4 -13.5176    217.6563     10.3079   5.7272845981e+01   2.8752577858e+01    0.8574869    0.8460095  70.96  0.002670167    1.246    0.197
         5 -11.6457      2.7189      9.7864   1.3105697507e+02   7.7380111611e+01     1.093732          nan -54.24  0.003104392    5.649    0.823
         6 -13.4876     32.9276    247.0873   1.4412242341e+02   1.9967896908e+01     1.411761    0.9413036  22.19  0.009801088    1.665    0.399
         7 -13.1648    241.2247    247.8264   1.0414727606e+02  -5.6152373452e+00     1.317068    0.3436972  28.74  0.006287341    3.167    0.684
         8  -9.7307    174.6650    250.3226   1.1609938695e+02   2.0306264424e+00    0.1066951   0.07460952  43.87 0.0007050522    1.709    0.415
         9 -10.9983    156.3027    249.8931   1.1955251667e+02   4.4598439849e+00    0.2090874    0.1501589  21.05  0.001470753    1.098    0.089
        10 -12.4692    140.9095    249.2390   1.2249691301e+02   6.5679919375e+00    0.5517183    0.2540644  35.60  0.003113181    1.570    0.363
        11 -14.1075      7.8147    241.7811   1.4883862072e+02   2.3238738296e+01     1.773559     1.317766  69.82   0.01425864    1.251    0.201
        12 -13.2232     42.8690    213.3998   1.4051436812e+02   2.5019898776e+01    0.9766322     0.767378 -82.09  0.005522598    1.434    0.303
        13 -13.1397     27.2287    231.1621   1.4469243278e+02   2.3299481478e+01    0.2909798    0.2644958  80.63 0.0007708096    1.362    0.266
        14 -14.2027     31.9142    225.1138   1.4347851514e+02   2.3937597978e+01    0.8190005     0.531353  51.14  0.002524224    1.129    0.114
        15 -11.0807     65.0924    248.7667   1.3779455187e+02   1.6207781582e+01      0.24454     0.168584  51.52 0.0006242229    1.164    0.141
        16 -10.3208    183.4442    238.6720   1.1296159334e+02   2.2998327156e+00    0.2110024   0.08223421  32.20  0.000762801    1.949    0.487
        17 -12.8224    102.9030    229.8190   1.2840015077e+02   1.4600050178e+01    0.9270899    0.1503259  35.00   0.00309789    3.947    0.747
        18 -12.2707     90.2549    227.2424   1.3092165698e+02   1.6720374431e+01    0.8582225   0.09223032  42.32  0.002569848    5.100    0.804
        19 -12.6926      9.6908    206.9300   1.4764992156e+02   2.9506972569e+01     0.752355    0.4525734  22.52  0.002743826    1.784    0.439
        20 -11.8527     59.1483    213.5405   1.3681791252e+02   2.3146676120e+01    0.7388222    0.1109162  45.49  0.002480423    4.124    0.758
        21  -8.7337    152.4766    213.3703   1.1571324596e+02   1.0160740721e+01    0.1294284   0.09873943  27.55 9.409953e-05    1.035    0.034
        22 -10.6385     53.6415    203.8198   1.3741964279e+02   2.5718071769e+01    0.3648116    0.1699845  56.37  0.001814006    1.950    0.487
        23 -11.8842     55.6373    197.8528   1.3650410730e+02   2.6709207721e+01    0.2554165     0.232794  47.12 0.0005214957    1.176    0.149
        24  -8.8624    191.6858    192.3980   1.0434119409e+02   7.3371831627e+00    0.1152087    0.1032457  70.40 0.0006998049    1.862    0.463
        25 -11.1548      5.8122    191.6989   1.4811388947e+02   3.2933217167e+01    0.2720771    0.1712069  41.35 0.0006016372    1.307    0.235
        26 -12.1370     62.5590    189.4452   1.3409313728e+02   2.7644928233e+01    0.2669235    0.2351895  47.75 0.0003274804    1.099    0.090
        27 -11.1172      3.9682    183.9364   1.4834061106e+02   3.4723891726e+01    0.2969177    0.1728226  49.37 0.0007798438    1.332    0.249
        28 -11.9694    199.3601    247.8300   1.1125082712e+02  -7.8252917785e-01    0.3866867    0.2814573  49.82  0.002542098    2.405    0.584
        29 -10.8741     73.7204    176.5400   1.2989258004e+02   2.9018479269e+01    0.2379706    0.2153986  50.03 0.0003075138    1.074    0.069
        30 -12.7745      9.6033    120.5586   1.4411809939e+02   4.9365153446e+01    0.7041606    0.4380959  48.51  0.001523756    1.519    0.342
        31 -11.9771     81.2172    167.7206   1.2678779812e+02   2.9958011730e+01    0.6142657    0.5048531 -56.69  0.003470153    1.369    0.270
        32  -9.2947     93.2326    170.4485   1.2387272037e+02   2.7541753752e+01    0.2030203    0.1143584  44.46 0.0008113325    1.574    0.365
        33 -10.9141     94.9695    152.0446   1.2059334972e+02   3.1469611160e+01    0.3242441    0.3059109  52.51  0.000760837    1.039    0.038
        34 -11.9562     83.4079    151.0163   1.2380554732e+02   3.3549959384e+01    0.2950938    0.2697251 -42.60 0.0008337607    1.248    0.199
        35  -9.3962     98.3268    147.9739   1.1893092692e+02   3.1866269464e+01    0.1990203    0.1874124 -71.10 0.0003738372    1.135    0.119
        36 -12.0394     68.1102    143.2979   1.2729965592e+02   3.7680035285e+01    0.6455498    0.4300831  62.10  0.001731966    1.558    0.358
        37 -10.5999     64.6713    141.6897   1.2814716706e+02   3.8552763874e+01    0.3268751    0.1898771 -44.23    0.0012214    2.098    0.523
        38 -10.0613    108.0180    137.0712   1.1405405076e+02   3.2720405036e+01    0.4562589    0.3031632 -16.96  0.001811499    2.452    0.592
        39 -10.6767     94.6862    134.3892   1.1753238773e+02   3.5742891262e+01    0.2535377    0.2432498 -22.55 0.0003393329    1.153    0.132
        40  -8.7014    114.2721    130.3040   1.1080816267e+02   3.3121844862e+01    0.1504951    0.1220774 -10.07 0.0001961965    1.537    0.349
        41  -9.1966    105.6145    123.8952   1.1199149098e+02   3.6298317084e+01    0.2041837     0.188473 -62.67 0.0003895218    1.131    0.116
        42 -10.1200     74.5475    119.3704   1.2118714910e+02   4.2823375034e+01    0.3050104     0.216991  58.39 0.0006821877    1.486    0.327
        43  -8.6669     61.5228    118.4312   1.2556776107e+02   4.4954373629e+01    0.1488466    0.1362168  69.55 0.0001637733    1.043    0.041
        44  -9.2923     66.3368    113.1662   1.2288299180e+02   4.5658037622e+01    0.2030276    0.1803187 -88.78 0.0003868608    1.114    0.102
        45  -8.6895     55.0178    105.2439   1.2558786775e+02   4.9278735369e+01    0.1796442    0.1251771  28.57 0.0002974568    1.490    0.329
        46 -13.2980     59.9380    174.5903   1.3339554952e+02   3.1258370605e+01    0.5180305    0.2931737 -46.75  0.001838064    2.305    0.566
        47 -10.2496    159.2703     77.4009   8.4713306164e+01   3.4114092245e+01     0.281152    0.2070864  66.02  0.001112179    1.468    0.319
        48  -8.9721     41.7138     66.6218   1.2277328688e+02   6.0966110084e+01    0.1900751    0.1290514  37.26 0.0004247505    1.563    0.360
        49 -10.9819     98.6794    248.5700   1.3095168928e+02   1.2160840564e+01    0.2617548    0.1262378  58.42  0.001347152    2.610    0.617
        50 -11.2540     81.1497    248.6843   1.3453387782e+02   1.4319442341e+01    0.2325975    0.1712533  57.93    0.0016697    1.303    0.233
        51 -11.2494    105.1565    245.6404   1.2937675621e+02   1.1778899133e+01    0.2095381    0.1334716  62.00  0.001293463    1.879    0.468
