#   1 NUMBER                 Running object number                                     
#   2 MAG_AUTO               Kron-like elliptical aperture magnitude                    [mag]
#   3 X_IMAGE                Object position along x                                    [pixel]
#   4 Y_IMAGE                Object position along y                                    [pixel]
#   5 X_WORLD                Barycenter position along world x axis                     [deg]
#   6 Y_WORLD                Barycenter position along world y axis                     [deg]
#   7 A_WORLD                Profile RMS along major axis (world units)                 [deg]
#   8 B_WORLD                Profile RMS along minor axis (world units)                 [deg]
#   9 THETA_WORLD            Position angle (CCW/world-x)                               [deg]
#  10 FWHM_WORLD             FWHM assuming a gaussian core                              [deg]
#  11 ELONGATION             A_IMAGE/B_IMAGE                                           
#  12 ELLIPTICITY            1 - B_IMAGE/A_IMAGE                                       
         1 -13.9914      7.3182     15.8259   1.2356179866e+02   7.1019247424e+01     2.808993    0.7283001 -54.14   0.01293533    2.490    0.598
         2 -14.2759    198.1978     12.9000   6.7877352036e+01   3.3410049501e+01     3.156904     1.751024  19.85   0.01138577    2.473    0.596
         3 -13.3626    203.0356      6.8873   6.5426588550e+01   3.2721166827e+01     1.398442    0.5811359  53.83  0.001456086    2.328    0.570
         4 -11.2804     83.6902    244.3138   1.3581053052e+02   1.9413779427e+01    0.4071319    0.1660085  66.30   0.00232596    2.925    0.658
         5 -11.3296    123.8761    250.0648   1.3026924062e+02   1.3539180418e+01    0.3731616   0.09491841  42.84   0.00186693    2.866    0.651
         6 -10.6185    111.4479    250.2273   1.3211818806e+02   1.5158861144e+01    0.1985192   0.09823247  50.82 0.0007383223    1.423    0.297
         7 -11.0794     98.3438    249.2443   1.3397808271e+02   1.6960515171e+01    0.2513483    0.1463773  57.33  0.001414757    1.273    0.214
         8 -11.2427    102.6308    247.7561   1.3323733474e+02   1.6600427786e+01    0.2305064    0.1454889  49.16 0.0004354935    1.147    0.128
         9  -9.7930     74.0409    250.4874   1.3760878467e+02   1.9767392561e+01     0.142807   0.06523637  46.28 0.0005734422    1.560    0.359
        10 -11.3289     66.7121    242.9121   1.3823887227e+02   2.1622741645e+01    0.2917452    0.1521215 -84.70 0.0005344101    2.123    0.529
        11 -10.5125     67.1195    250.5345   1.3861006831e+02   2.0565178719e+01    0.2188197    0.1193049  49.99 0.0008665022    1.282    0.220
        12  -9.9356     63.6577    250.7090   1.3911674542e+02   2.0937537654e+01    0.1694083   0.06272253  46.41 0.0006616247    1.840    0.456
        13 -14.3964     32.9389    245.7888   1.4325968438e+02   2.4899999075e+01     3.537961     0.904604  36.78    0.0137198    4.334    0.769
        14 -15.6797      5.6629    239.5360   1.4686557387e+02   2.8376526322e+01     9.884022    0.7839931 -76.90   0.04044825    8.363    0.880
        15 -13.9298     11.1928    206.9519   1.4495410754e+02   3.2755311576e+01     1.144326    0.6143611  75.97   0.00521039    1.390    0.281
        16 -14.8341     58.7009    212.6051   1.3761033984e+02   2.6941836995e+01      6.59278    0.2011744  48.19   0.02327648    5.938    0.832
        17 -10.1505     36.7708    226.0336   1.4182917139e+02   2.7318149748e+01    0.1596668     0.103054  76.43 0.0004802659    1.224    0.183
        18 -10.8354    228.6999    228.0359   1.1224655150e+02   7.4657850333e-01    0.2643757    0.2084553 -54.07  0.001600012    2.318    0.569
        19 -12.9052     46.5549    232.2005   1.4065665659e+02   2.5378631021e+01    0.3535605    0.2271099  71.44  0.000840712    1.191    0.161
        20 -11.0703    173.9597    222.2675   1.1978205021e+02   9.5623324003e+00    0.3250763    0.2319326  68.82  0.001860001    1.851    0.460
        21 -14.0574     52.9334    222.5505   1.3915022694e+02   2.6088463872e+01    0.9191282    0.5443411  80.19  0.007151908    1.495    0.331
        22 -10.5076     27.7166    221.5884   1.4300308780e+02   2.8906136157e+01    0.2116916    0.1016759  60.13 0.0008493185    1.464    0.317
        23  -8.9505    152.5390    212.8910   1.2209704123e+02   1.3985852135e+01    0.1252209    0.1099617 -56.97 0.0003726404    1.459    0.315
        24 -10.3331     94.9975    240.5496   1.3385365694e+02   1.8494985212e+01    0.1419739    0.1103791  74.08 0.0006132871    1.240    0.194
        25 -10.8466     34.8799    229.7980   1.4229079420e+02   2.6960619859e+01     0.214614    0.1250152  61.50 0.0007489953    1.167    0.143
        26 -10.4134    193.8315    196.1616   1.1308380411e+02   9.4110980644e+00    0.5545459    0.2905033 -61.05   0.00210113    6.321    0.842
        27 -11.5006     70.2832    197.8254   1.3457171239e+02   2.7901241870e+01    0.2597957    0.2127205 -55.44  0.001695195    1.737    0.424
        28  -9.3001     66.4751    195.5459   1.3505259052e+02   2.8745161523e+01    0.1600825    0.0921554  67.34 0.0006363232    1.504    0.335
        29 -11.6876     75.1786    190.3210   1.3306601246e+02   2.8523829306e+01    0.2065848     0.186279 -82.58 0.0005110831    1.363    0.266
        30  -9.4575    106.3133    181.8687   1.2649611653e+02   2.5627512843e+01    0.1807076    0.1244621  58.20 0.0003995654    1.226    0.185
        31 -10.9918     83.7888    177.7910   1.3026429592e+02   2.9529086285e+01    0.1974829    0.1668973  87.89 0.0004092876    1.164    0.141
        32 -13.2775     71.4547    175.5414   1.3237495248e+02   3.1553505449e+01    0.3694446    0.2451461 -46.68  0.001595296    2.249    0.555
        33  -9.1929     33.3565    175.2798   1.3951400238e+02   3.5983642264e+01   0.08611435   0.07860499 -56.98 0.0007013144    1.660    0.398
        34 -12.1010     90.4109    168.4702   1.2795220804e+02   3.0255888118e+01    0.7539053    0.3934758  55.26  0.004245245    1.728    0.421
        35 -12.9846     67.1165    143.8580   1.2979390284e+02   3.8072062557e+01     1.040367    0.5258863  80.62  0.004775347    2.702    0.630
        36 -12.2834     57.9535    131.5777   1.3030594900e+02   4.1689619722e+01    0.8663577    0.2849746 -75.92  0.003091256    4.406    0.773
        37  -9.4940    104.3851    147.8841   1.2235523057e+02   3.1944237654e+01    0.2359544    0.1798797 -32.85  0.001353663    1.909    0.476
        38 -12.0980     90.8953    151.4643   1.2570174518e+02   3.3322039741e+01    0.2248873    0.2159343  65.91 0.0006258739    1.260    0.206
        39  -8.6630    192.2216    143.9922   1.0434457987e+02   1.6547191900e+01     0.156492    0.1075494 -33.63 0.0004151654    1.575    0.365
        40  -9.7060    111.8310    136.9749   1.1901189109e+02   3.2801517064e+01    0.2576835    0.1965558 -24.36 0.0009842302    2.003    0.501
        41 -10.6168     99.6576    134.3840   1.2125252658e+02   3.5287454785e+01    0.2336422    0.2072661 -35.80 0.0009893252    1.447    0.309
        42 -10.3617     43.4871    126.5095   1.3304451660e+02   4.4386352167e+01    0.1981204   0.08471908  48.18  0.000911962    2.246    0.555
        43  -9.3738    108.6702    123.9936   1.1739619460e+02   3.5859084322e+01    0.1727045    0.1543712 -74.72 0.0003680633    1.086    0.079
        44 -10.8528    168.2751    113.3439   1.0226024073e+02   2.6265583555e+01    0.3785104    0.2928332 -87.53   0.00117015    1.767    0.434
        45 -10.0406    101.9889    152.0043   1.2346334739e+02   3.1548104354e+01    0.2267833    0.2062784 -81.74 0.0007316894    1.154    0.134
        46 -10.3155    248.9198    249.3677   1.1220030745e+02  -3.7177127340e+00    0.2120335   0.08150759  33.96  0.001014936    1.892    0.471
        47  -8.6736     73.6463     38.4862   1.0460347350e+02   5.9038779801e+01    0.1338401     0.113099 -41.47 0.0007914551    1.052    0.049
        48 -11.6912     81.3768    248.4810   1.3641943860e+02   1.9153195119e+01    0.5301822    0.2056489  66.36  0.002926551    3.252    0.692
