#   1 NUMBER                 Running object number                                     
#   2 MAG_AUTO               Kron-like elliptical aperture magnitude                    [mag]
#   3 X_IMAGE                Object position along x                                    [pixel]
#   4 Y_IMAGE                Object position along y                                    [pixel]
#   5 X_WORLD                Barycenter position along world x axis                     [deg]
#   6 Y_WORLD                Barycenter position along world y axis                     [deg]
#   7 A_WORLD                Profile RMS along major axis (world units)                 [deg]
#   8 B_WORLD                Profile RMS along minor axis (world units)                 [deg]
#   9 THETA_WORLD            Position angle (CCW/world-x)                               [deg]
#  10 FWHM_WORLD             FWHM assuming a gaussian core                              [deg]
#  11 ELONGATION             A_IMAGE/B_IMAGE                                           
#  12 ELLIPTICITY            1 - B_IMAGE/A_IMAGE                                       
         1 -13.1415      6.1645     12.5608   8.0049199425e+01   7.2710501589e+01     0.352167    0.1776308 -15.18  0.001930612    2.121    0.529
         2 -10.3398    167.3772      9.1652   3.1825544460e+01   4.1624260138e+01    0.1676281   0.09562898 -47.88 0.0009455527    1.766    0.434
         3 -10.5209    160.5528      9.5000   3.2671583134e+01   4.3133322259e+01    0.1229114    0.1000156  88.98 0.0002981893    1.035    0.034
         4 -10.2918    155.3443      9.6749   3.3332901168e+01   4.4301292986e+01    0.1305169   0.07971612 -72.03  0.000705059    1.739    0.425
         5 -11.0171    148.8402      8.7423   3.3898732215e+01   4.5872617059e+01    0.2362737    0.1305722 -60.42  0.001235223    2.046    0.511
         6 -12.0290    110.3394      5.1784   3.8721021509e+01   5.4964620921e+01    0.3550759    0.1306868 -37.46  0.001402727    3.078    0.675
         7 -11.1600    138.9818      8.4747   3.5144140259e+01   4.8157230964e+01    0.1777635   0.09201037 -84.43 0.0008092673    2.475    0.596
         8 -10.4702    159.4923      2.5227   3.1047001942e+01   4.4002885778e+01    0.1219653      0.09631 -89.23 0.0001188107    1.065    0.061
         9 -12.5468     21.8431      2.1821   6.5804553840e+01   7.2169550607e+01    0.3301498    0.1215219  30.84  0.001605989    2.495    0.599
        10 -12.5393      8.6880      2.1441   7.3248117669e+01   7.3808725184e+01      0.33024    0.1250159  24.86  0.001675015    2.498    0.600
        11 -10.2163    152.3178      1.6709   3.1627897244e+01   4.5696731288e+01    0.1254662   0.07733719 -70.87 0.0007046722    1.683    0.406
        12 -11.4227    128.7871      1.6266   3.4633371869e+01   5.1059110058e+01    0.1803967   0.09897473  79.51 0.0009540609    1.702    0.412
        13 -10.8430    206.0000    235.9456   7.4824906808e+01  -4.4040240429e+00     0.196599   0.06527694 -42.68 0.0008042585    2.955    0.662
        14 -11.2159    184.9719    250.0121   8.1247262527e+01  -3.9188521556e+00    0.3461501    0.1467421  20.35  0.001448408    2.783    0.641
        15 -11.0738    187.0058    245.9854   8.0210060962e+01  -3.5371461344e+00    0.2797851    0.1472209 -27.61  0.001387942    2.078    0.519
        16 -11.9656    168.6549    249.8667   8.4582502067e+01  -1.6980743115e+00    0.2359054    0.1522801  18.61  0.001130814    1.425    0.298
        17 -10.9172    215.6070    232.2050   7.2367264275e+01  -5.0335788351e+00    0.1791965   0.09859128 -29.19 0.0009513468    1.683    0.406
        18 -11.4209    202.6633    232.3268   7.4872488154e+01  -3.3795933994e+00    0.1742103    0.1606257  67.49  0.001117441    1.740    0.425
        19 -11.6730      5.3630    228.1902   1.1845100843e+02   2.4034661744e+01    0.2786923    0.1046667  72.53  0.001170519    2.978    0.664
        20 -10.5246    246.3123    225.0229   6.5677207666e+01  -7.6016693131e+00    0.1998378   0.06899726 -26.27 0.0007045299    4.251    0.765
        21 -10.1412    190.3056    225.3407   7.6163039954e+01  -5.0029174558e-01     0.138457   0.09076101  -9.46 0.0007041433    1.682    0.405
        22 -11.1815    240.2741    218.9832   6.5670532623e+01  -5.9873419732e+00    0.2899313    0.1119914 -29.75  0.001276642    2.624    0.619
        23 -11.1726      5.3391    235.6279   1.1886509467e+02   2.2419167235e+01    0.1993486    0.1032662  61.25  0.001109049    1.657    0.397
        24 -12.0549     13.1140    216.2137   1.1603014955e+02   2.6010839283e+01    0.2608849    0.1258342  69.99  0.001251868    2.091    0.522
        25 -11.3575    247.9694    214.0175   6.3516113671e+01  -6.1288194212e+00    0.3057414    0.1412483 -32.24  0.001600068    1.830    0.454
        26 -11.2369     16.1939    212.4087   1.1506650309e+02   2.6599716482e+01    0.1793904   0.09777848  44.04 0.0007945694    1.668    0.400
        27 -11.3721      2.6074    212.2505   1.1811249373e+02   2.7870995845e+01     0.227074    0.1231469  45.11   0.00125885    1.667    0.400
        28 -11.6963      6.5719    206.2500   1.1683875180e+02   2.8923869381e+01    0.2435796    0.1068943 -85.01  0.001135375    2.117    0.528
        29 -11.0493      1.6102    205.2275   1.1790257446e+02   2.9586060408e+01    0.1755546   0.09710258 -70.28 0.0008627272    1.632    0.387
        30 -12.2904      4.2201    197.7399   1.1680713847e+02   3.1141732693e+01    0.3196734    0.1389599  83.04  0.001411016    2.393    0.582
        31 -12.3343      3.2628    188.2536   1.1636410460e+02   3.3509387116e+01    0.2355796    0.1726766  84.33  0.001392861    1.169    0.145
        32 -13.3661      3.1389    171.9717   1.1512910092e+02   3.7538012431e+01    0.5549496    0.2613195  71.12  0.002465202    2.378    0.579
        33 -10.6537     21.6825    170.3109   1.0997929495e+02   3.6437384887e+01    0.1422107    0.0908753  65.13 0.0004249706    1.640    0.390
        34 -10.8986    246.0000    157.9405   5.3617212302e+01   3.3115778648e+00    0.2149037   0.05992425 -41.70 0.0007993547    2.921    0.658
        35 -11.6965      3.0082    154.7987   1.1363674562e+02   4.1870045666e+01    0.2015175    0.1261228  78.19  0.001053309    1.610    0.379
        36 -10.9651    244.2209    148.9659   5.2168793940e+01   5.1125671212e+00    0.2843722    0.1458461 -49.17  0.001409749    1.821    0.451
        37 -12.2822      8.4891    145.4777   1.1107059129e+02   4.3864948108e+01     0.209324    0.1457147  68.63  0.001056861    1.532    0.347
        38 -11.3339    235.4408    147.3273   5.3174369408e+01   6.7537004559e+00     0.301716    0.2122936 -54.18  0.001710861    1.452    0.311
        39 -11.1921    244.0000    140.9480   5.0655320336e+01   6.5243629809e+00    0.2168857    0.0607145 -41.73 0.0006675172    2.915    0.657
        40 -11.0540    234.8021    135.4887   5.0931199003e+01   8.9409916294e+00    0.2597002    0.1859585 -60.73  0.001463949    1.535    0.348
        41 -11.5920    242.4913    134.0617   4.9533266733e+01   7.9443906610e+00    0.3023053   0.09995764 -46.08  0.001205103    2.598    0.615
        42 -12.4969      3.6382    129.6793   1.1074396351e+02   4.8192855365e+01     0.516628    0.1903055  87.65  0.001581237    4.843    0.794
        43 -11.8387    248.3471    129.4671   4.7833954417e+01   7.7991039929e+00    0.3297264    0.1836184 -48.65  0.001768302    1.541    0.351
        44 -11.4916    249.5325    124.4869   4.6719119789e+01   8.4471454405e+00    0.2277892     0.158969 -39.45 0.0008855394    1.199    0.166
        45 -11.4241    241.0021    126.3113   4.8224502336e+01   9.5140763810e+00    0.3133487    0.1615269 -42.87  0.001587718    1.593    0.372
        46 -10.8502    227.7686    124.7594   4.9818326987e+01   1.2024434669e+01    0.2229768   0.08710204 -49.37 0.0008891036    2.446    0.591
        47 -12.0616    248.1142    119.1734   4.5880737990e+01   9.5598858915e+00    0.2994932    0.1464015 -45.82  0.001520565    1.664    0.399
        48 -10.0916    209.4553    118.4583   5.1351252131e+01   1.6502037581e+01    0.1386136    0.1213097 -53.23 0.0001848225    1.036    0.035
        49 -11.5986    243.7895    114.0111   4.5437372071e+01   1.1131054617e+01    0.2118768    0.1205453 -60.07 0.0007231397    1.960    0.490
        50 -11.7012    247.8477    113.0769   4.4737265655e+01   1.0613072700e+01    0.1976174    0.1456083 -58.12  0.000671057    1.258    0.205
        51 -12.5268    242.9330    108.0476   4.4378966994e+01   1.2265143115e+01    0.3865629    0.1568103 -56.09  0.001535688    3.071    0.674
        52 -11.8707    248.4100    107.1932   4.3531673536e+01   1.1483895686e+01    0.3022451   0.09296674 -45.62  0.001228751    2.626    0.619
        53 -12.1226    247.5785    102.7556   4.2775773426e+01   1.2342553365e+01    0.2680621     0.101957 -42.35  0.000956458    2.127    0.530
        54 -12.3738    248.8789     98.5243   4.1806802255e+01   1.2801985621e+01    0.2995133    0.1354611 -47.44  0.001353006    1.796    0.443
        55 -12.2798    248.2843     92.7639   4.0768390682e+01   1.3815202524e+01    0.3868485    0.1607536 -56.33  0.001694694    2.638    0.621
        56 -10.5437      2.6776    105.2952   1.0776307258e+02   5.4297530555e+01     0.124118   0.09307549  65.08 0.0004916802    1.617    0.382
        57 -11.7332    230.0754    102.7024   4.4983685970e+01   1.5419182621e+01    0.2387099    0.1517858 -51.41 0.0009922817    1.366    0.268
        58 -10.2487    200.7926    103.0191   4.9367459839e+01   2.1002771868e+01    0.1891261    0.1017202 -42.55 0.0006598467    1.693    0.409
        59 -13.0563    242.0224     92.8196   4.1502701736e+01   1.4894337702e+01    0.3170165    0.1772063 -44.37   0.00111341    1.475    0.322
        60 -10.6603    195.3301     97.6646   4.9048122184e+01   2.3077097816e+01    0.1472097    0.1014959 -72.43 0.0007034165    1.729    0.422
        61 -12.3892    235.6620     95.4940   4.2803628835e+01   1.5597580419e+01    0.2651368    0.1550723 -58.68  0.001020665    1.679    0.404
        62 -11.7995    237.0066     89.8470   4.1511181325e+01   1.6263324910e+01    0.3165358     0.149276 -49.52  0.001559278    1.807    0.447
        63 -10.1176    171.2976     90.6673   5.1606566688e+01   2.9496046946e+01    0.1490355    0.1074161 -73.65 0.0006084759    1.645    0.392
        64 -12.2984    249.1562     87.6702   3.9695600484e+01   1.4459771864e+01    0.2599257    0.1424148 -48.61 0.0008796972    1.468    0.319
        65 -11.7773    246.5063     84.5026   3.9378100054e+01   1.5408695522e+01    0.1738348    0.1414683 -57.97 0.0008845308    1.025    0.025
        66 -12.7610    243.1163     82.6558   3.9393258121e+01   1.6291900281e+01     0.257474    0.1603917 -53.70 0.0008388349    1.338    0.253
        67 -10.5880    222.4738    104.9758   4.6501540191e+01   1.6435262854e+01    0.2109297    0.1141545 -43.20  0.001032893    1.596    0.374
        68 -12.0855    239.0000     84.9806   4.0312373258e+01   1.6670422918e+01    0.1883723    0.1223298 -60.61 0.0007583637    1.414    0.293
        69 -10.4734    226.3551     88.0855   4.2468372589e+01   1.8519259732e+01    0.1951806   0.09604824 -50.26 0.0009348766    1.792    0.442
        70 -10.4084    193.3266     83.6473   4.6147553528e+01   2.5916945306e+01    0.1477696    0.0973465 -70.86 0.0007047383    1.766    0.434
        71 -10.5084    185.6749     83.3412   4.7299237177e+01   2.7615865189e+01    0.1482512    0.1003456 -72.32 0.0007051132    1.731    0.422
        72 -10.7017    159.3294     82.6549   5.1885904025e+01   3.3601340375e+01    0.1531895    0.1088793 -76.55 0.0006905839    1.753    0.430
        73 -13.0814    244.5807     77.1812   3.8175638620e+01   1.6864294457e+01    0.4398434    0.2097961 -65.48  0.002005906    2.712    0.631
        74 -10.4522    214.9944     79.9817   4.2232203259e+01   2.2033826713e+01    0.1673256    0.1305164 -51.38 0.0009958372    1.131    0.116
        75 -11.7501    235.9853     78.9941   3.9470543031e+01   1.8149116606e+01    0.1561277    0.1209246 -54.04 0.0007067927    1.069    0.064
        76 -10.5533    201.3935     78.2137   4.3705655267e+01   2.5103717511e+01    0.1995322     0.108062 -50.65 0.0008678827    1.718    0.418
        77 -10.8524    174.5118     77.9946   4.7886894529e+01   3.0976607527e+01    0.2169263    0.1322632 -42.37  0.001034841    1.600    0.375
        78 -11.2123    166.8779     78.1201   4.9280446310e+01   3.2672034862e+01    0.2296255      0.18332 -71.61  0.001091467    1.305    0.233
        79 -10.1812    200.6524     83.3030   4.4958342027e+01   2.4428219726e+01    0.1420861   0.09573182 -73.44 0.0007040087    1.692    0.409
        80 -10.4802    150.5127     79.5199   5.2852871775e+01   3.6154629775e+01     0.145188     0.135316 -88.33 0.0008097749    1.047    0.045
        81 -12.3296    248.1276     73.6785   3.7139396766e+01   1.6757608253e+01    0.2228361     0.129586 -51.79 0.0009256862    1.388    0.279
        82 -10.0368    195.3089     72.6730   4.3321529423e+01   2.7277752072e+01    0.1415244   0.09330318 -70.12 0.0003604406    1.657    0.397
        83 -10.8501    163.5824     71.8001   4.8265252431e+01   3.4467603117e+01    0.2077099    0.1225249 -50.93 0.0009556403    1.736    0.424
        84 -10.6131    211.3891     76.2363   4.1899226386e+01   2.3354368378e+01    0.1929143    0.1039344 -50.09 0.0009480019    1.667    0.400
        85 -10.0452    214.6679     70.3336   4.0211178078e+01   2.3604207850e+01    0.1386792   0.08554696 -68.67 0.0007052218    1.730    0.422
        86 -10.7083    170.6993     70.3568   4.6638902074e+01   3.3082417427e+01    0.1476168    0.1001318 -71.10 0.0005526611    1.709    0.415
        87 -10.7575    203.8296     66.7787   4.0818640682e+01   2.6380004239e+01    0.2639363    0.1381353 -59.84  0.001225236    2.051    0.513
        88 -11.8801    248.6014     64.7566   3.5408822774e+01   1.7971533717e+01    0.2210799   0.09929592 -38.54 0.0009667167    2.046    0.511
        89 -10.2178    197.6620     64.3508   4.1093762945e+01   2.8055321220e+01    0.1441091    0.0890729 -69.84 0.0007045182    1.793    0.442
        90 -10.4641    171.4744     64.4935   4.5034947475e+01   3.3825689171e+01    0.1387682    0.1228328 -81.29 0.0003348513    1.047    0.045
        91 -10.4026    158.0000     61.9883   4.6714097441e+01   3.7295675308e+01    0.2199595   0.07813423 -36.61 0.0008000817    2.926    0.658
        92 -10.4535    206.6285     59.2170   3.8800382974e+01   2.6913809938e+01    0.1714893     0.116973 -33.06 0.0009478892    1.648    0.393
        93 -11.1325    250.4496     55.7182   3.3557429671e+01   1.8909918614e+01    0.2233574   0.08607657 -44.67  0.001126955    2.042    0.510
        94 -10.8314    244.4833     51.9839   3.3388319422e+01   2.0496966915e+01    0.1784106   0.06658503 -55.84 0.0008101247    2.527    0.604
        95 -10.4255    163.5175     53.4898   4.3536878120e+01   3.7275036729e+01    0.1365209    0.1207429 -87.76 0.0002337556    1.038    0.037
        96 -10.6223    156.1693     17.1784   3.5170217694e+01   4.3385388504e+01     0.178926    0.1299363 -71.34   0.00107636    1.373    0.271
        97 -10.5965    148.4028     15.2149   3.5688321198e+01   4.5365325610e+01    0.1684111    0.1053255 -47.66 0.0009455807    1.705    0.414
        98 -12.3387    193.6328    246.4239   7.8949925965e+01  -4.4780434842e+00    0.4889925    0.2328129 -36.69  0.002458323    2.088    0.521
        99 -10.6270    126.3223     12.6663   3.8292500868e+01   5.0692204678e+01    0.1277153    0.0875628 -73.74 0.0005010991    1.705    0.413
       100 -10.9816     19.6627     12.6719   7.2305115727e+01   7.1224766467e+01    0.1231475    0.0728282   0.30 0.0007051858    1.729    0.422
       101 -11.7161    152.4156    249.5241   8.7975607106e+01   6.2612820021e-01    0.2767106    0.1127736  31.90  0.001155585    2.155    0.536
       102 -10.8897    218.4883    245.4871   7.4014432122e+01  -7.4273203188e+00    0.2186658   0.09190652 -30.57  0.001040638    2.361    0.576
       103 -12.6895    176.8211    244.0845   8.1998742102e+01  -1.8459224019e+00    0.4361681    0.2299612 -19.12  0.001921572    2.690    0.628
       104 -10.7042     65.4939    248.9815   1.0707058222e+02   1.2857347704e+01    0.1776648    0.0951565  74.79 0.0008097444    2.481    0.597
       105 -11.7152    210.1037    243.7571   7.5313857565e+01  -6.1495564535e+00    0.2478744    0.1329176 -17.54   0.00124749    2.113    0.527
       106 -11.0733      2.9786    242.9743   1.1971714116e+02   2.1082833000e+01    0.1897071    0.1443801  66.69  0.001219946    1.023    0.022
       107 -11.4847    202.1302    240.5614   7.6334728383e+01  -4.6432993939e+00    0.2775562    0.1448946 -34.77  0.001454661    1.836    0.455
       108 -12.3546    170.4211    240.3435   8.2754505384e+01  -3.1163678536e-01    0.3004359    0.1855966 -10.68  0.001477915    2.033    0.508
       109 -11.1505     29.8594    240.3434   1.1405036653e+02   1.8923026029e+01    0.3432645    0.1094089  60.87  0.001190595    4.212    0.763
       110 -12.1071    183.5487    238.1569   7.9670512135e+01  -1.7683751326e+00    0.3530556    0.1979797 -33.16  0.001819837    1.805    0.446
