#   1 NUMBER                 Running object number                                     
#   2 MAG_AUTO               Kron-like elliptical aperture magnitude                    [mag]
#   3 X_IMAGE                Object position along x                                    [pixel]
#   4 Y_IMAGE                Object position along y                                    [pixel]
#   5 X_WORLD                Barycenter position along world x axis                     [deg]
#   6 Y_WORLD                Barycenter position along world y axis                     [deg]
#   7 A_WORLD                Profile RMS along major axis (world units)                 [deg]
#   8 B_WORLD                Profile RMS along minor axis (world units)                 [deg]
#   9 THETA_WORLD            Position angle (CCW/world-x)                               [deg]
#  10 FWHM_WORLD             FWHM assuming a gaussian core                              [deg]
#  11 ELONGATION             A_IMAGE/B_IMAGE                                           
#  12 ELLIPTICITY            1 - B_IMAGE/A_IMAGE                                       
         1 -14.5686     68.6231    145.1180   1.0200216068e+02   3.7196701110e+01     5.006017     2.590975  78.07   0.01544627    4.462    0.776
         2 -13.7887    230.4837     17.9957   3.4690691706e+01   2.6510160979e+01    0.9564048    0.8865736  27.33  0.002623442    1.521    0.342
         3 -13.8455    203.8792     40.8631   4.2720106109e+01   2.9641563591e+01     1.352125      1.16496  19.74    0.0048408    1.549    0.355
         4 -13.5839    211.6856     35.3656   4.0459970695e+01   2.8563112138e+01     1.282762    0.8574262 -35.93  0.004824465    1.501    0.334
         5 -12.5931    219.3303     28.5843   3.8062906059e+01   2.7691008879e+01    0.5107987    0.4333447  37.03  0.001234445    1.578    0.366
         6 -10.7798    249.0875      1.9757   3.0084764281e+01   2.4424013900e+01    0.3139174    0.1743096  88.13  0.001904779    1.650    0.394
         7  -9.0524    121.3173      2.6414   4.3776491015e+01   5.3601927242e+01    0.1293535   0.09250651 -66.58 0.0007044054    1.756    0.431
         8 -10.1167    109.8781    201.3483   1.0044261608e+02   1.7475553616e+01     0.228014    0.1839563 -79.99 0.0004840983    1.354    0.261
         9  -9.4429    139.3538    250.2971   1.0077808025e+02   3.4678400297e+00    0.1234445   0.08974447   8.75   0.00038599    1.693    0.409
        10 -13.7773      5.2893    181.8915   1.2251086513e+02   3.4944543004e+01     2.376422    0.7450309 -84.24   0.00969116    3.047    0.672
        11 -13.3201     86.4046    226.4310   1.0889011949e+02   1.5762132292e+01     1.119601    0.5706291 -64.52  0.005620009    2.108    0.526
        12 -16.0551     36.5389    190.5966   1.1621271663e+02   2.9989540191e+01      9.61695     3.806983  81.38   0.02836253    4.238    0.764
        13 -10.8265    193.2487    195.1651   8.0824776187e+01   4.3482197393e+00    0.7820181    0.4375727 -66.13   0.00231874    6.145    0.837
        14 -10.0568    209.8580    199.5909   7.8348489908e+01   8.1657084303e-01    0.2479961    0.1848399 -40.82 0.0009385265    1.440    0.306
        15 -13.2662     30.0094    205.6476   1.1892970898e+02   2.7287344906e+01    0.5674556    0.4584121 -49.72  0.001043697    1.595    0.373
        16  -9.3958     80.9324    182.3591   1.0462359354e+02   2.6286801000e+01    0.4059159    0.1417586  41.52  0.001518272    2.665    0.625
        17  -9.1700     99.3362    180.9949   9.9842619064e+01   2.3776480424e+01    0.1949284    0.1795109 -80.37 0.0004920214    1.071    0.066
        18 -12.0480     58.6169    178.4986   1.0964029444e+02   3.0259777113e+01    0.4266076    0.2944404 -35.10  0.001304983    1.978    0.495
        19 -12.0019     64.1403    172.9311   1.0752409305e+02   3.0892992262e+01    0.3394407     0.268619 -46.30  0.000467628    1.415    0.293
        20  -9.1875    143.8430    179.3863   8.8701394541e+01   1.6374958348e+01    0.2177712    0.1367833  27.25 0.0009499716    1.764    0.433
        21 -11.8344     74.4221    163.2792   1.0342677961e+02   3.1851683645e+01    0.3838757    0.3271005 -88.82 0.0004867886    1.134    0.118
        22 -12.7913     81.5130    157.0750   1.0049390113e+02   3.2349378359e+01    0.9036505    0.6910199 -49.99  0.001316324    1.315    0.239
        23 -12.8397     16.3021    216.1748   1.2245252791e+02   2.6407762165e+01    0.3838159    0.3478625  45.81  0.001615402    1.374    0.272
        24  -9.9659    123.9327    152.5518   8.8251495730e+01   2.6200336403e+01    0.2611024    0.2116199 -76.09 0.0005395641    1.414    0.293
        25  -8.9842    175.1758    149.4034   7.5160476215e+01   1.6683924656e+01    0.2058356    0.1451697  53.69 0.0004938967    1.603    0.376
        26 -10.3027    134.1369    146.9366   8.4397782563e+01   2.5541333134e+01    0.6879346    0.1454506 -52.05  0.001564554    5.731    0.826
        27 -10.9391     97.8146    141.6295   9.3023211816e+01   3.3558380489e+01    0.7000561    0.4382681 -16.09   0.00256208    2.979    0.664
        28 -12.3557     84.6717    141.2580   9.6683918940e+01   3.5803767647e+01    0.3322493    0.2678927 -51.28 0.0004848341    1.194    0.162
        29 -10.9423     29.5478    143.4730   1.1282618140e+02   4.2086130882e+01    0.3445106    0.2882796 -18.89  0.002100857    1.514    0.340
        30 -11.2425     74.9171    136.0953   9.8503816511e+01   3.8571713253e+01    0.4534914    0.2702536  63.72   0.00105762    2.353    0.575
        31 -11.7100     68.0090    130.3293   9.9434673458e+01   4.0998667144e+01    0.7590154    0.2447085 -57.82  0.002611508    2.737    0.635
        32 -10.7079     20.7157    131.9370   1.1385232548e+02   4.5703961342e+01    0.3074073    0.1937257 -55.08  0.001292382    1.416    0.294
        33 -10.9941     16.7707    129.7863   1.1472392692e+02   4.6538094031e+01    0.2490307    0.1930371  49.66  0.000801507    1.441    0.306
        34  -9.0430    156.8595    132.7929   7.5461076028e+01   2.4048505745e+01    0.2088322    0.1863774 -88.88 0.0004161626    1.305    0.233
        35 -10.8449    107.3060    131.2211   8.8048332622e+01   3.4413921076e+01    0.4638757    0.3434615  37.92  0.001679153    1.397    0.284
        36  -9.0232    137.6448    170.7036   8.8505887632e+01   1.9438629769e+01    0.1539096    0.1183652  -3.41 0.0007033909    1.695    0.410
        37 -13.4615     61.3637    159.3088   1.0630930558e+02   3.4609465950e+01    0.5681164    0.3256782 -44.18  0.002470947    1.990    0.498
        38 -11.1077     95.4251    127.6919   9.0665469250e+01   3.7389976609e+01    0.2944901    0.2563165 -36.92 0.0003829984    1.164    0.141
        39  -9.8475    115.7645    125.0502   8.4197079673e+01   3.4285804612e+01    0.2624091    0.1771321 -23.65  0.001075203    1.967    0.492
        40 -10.2710    240.5040    123.4731   5.7003824821e+01   8.6980007650e+00    0.1378741    0.1187895 -33.96 0.0001042951    1.010    0.009
        41  -8.7145    163.3288    121.6754   7.1191049391e+01   2.5032008095e+01    0.1596902    0.1254724 -82.94 0.0005992855    1.699    0.411
        42  -9.7202    105.9171    119.9489   8.5749624087e+01   3.7371553963e+01    0.2224212    0.2108734 -36.99 0.0002872046    1.033    0.032
        43  -9.3607    168.0651    113.0652   6.7920124884e+01   2.5766614684e+01    0.2589822    0.1937579 -77.93  0.001131305    1.832    0.454
        44  -9.3558    135.0000    112.9846   7.5887233952e+01   3.3099155602e+01    0.2666373   0.08851917 -44.82  0.000803895    2.953    0.661
        45 -10.1090    205.1904    110.6384   5.9890004927e+01   1.8037121234e+01    0.3268829    0.2528679  31.09  0.001137752    1.515    0.340
        46  -9.7386    134.3870    106.1877   7.4217395263e+01   3.4715150260e+01    0.2334851    0.1453643 -53.58 0.0009542513    1.737    0.424
        47  -8.7836    130.4573     96.4819   7.2541515860e+01   3.7637524202e+01    0.1541792    0.1510959 -56.00 4.862734e-05    1.049    0.046
        48 -10.9599     52.9024     91.4551   9.5753659020e+01   5.2431867209e+01    0.3371156    0.1807536 -52.55  0.001259231    1.632    0.387
        49 -10.2283     41.6532     92.1170   9.9974438893e+01   5.3547546132e+01    0.2263997    0.1920734  -5.74 0.0004019344    1.283    0.221
        50 -10.0326    249.7553     88.0018   4.7947321670e+01   1.2810967921e+01    0.1786747   0.09660212 -38.59 0.0004142172    1.572    0.364
        51 -14.5916     10.5347    207.6944   1.2307662121e+02   2.8759950143e+01    0.8837707    0.8198136  56.44  0.003130473    1.341    0.254
        52  -9.3589    161.4431     82.5153   6.1084418874e+01   3.3244904781e+01    0.1505968    0.1463442 -65.12 0.0001546758    1.020    0.020
        53  -9.8659     29.7109     60.1937   9.6272002071e+01   6.1806058376e+01    0.2910888    0.1483074  39.63  0.001400775    2.542    0.607
        54 -11.2342     13.4636     60.3250   1.0333168400e+02   6.3050041827e+01    0.2699835    0.1915284 -51.82 0.0004967519    1.162    0.139
        55  -9.3379     35.5396     56.0972   9.2488500515e+01   6.2070051555e+01    0.1803773    0.1550853 -12.39 0.0005015028    1.105    0.095
        56  -9.7864    170.8764    233.6567   9.2059627386e+01   1.3645840286e+00      0.20923    0.1655024 -22.15 0.0006343561    1.369    0.270
        57 -15.5214     57.0340    247.2124   1.1672803437e+02   1.5599018962e+01     9.448717     2.763239  27.15   0.01274892   10.856    0.908
        58 -10.9487     59.8245    231.7252   1.1492119114e+02   1.8273547582e+01    0.3171099    0.2169127 -72.15 0.0007675851    1.499    0.333
        59 -11.1278    183.7323    216.0892   8.6569830845e+01   2.2629776626e+00    0.3041221    0.1773824  48.14  0.001464886    1.981    0.495
        60 -11.1447     11.4379     52.8134   1.0221885816e+02   6.4751047908e+01    0.2452479    0.1708474  25.64  0.001450913    1.713    0.416
        61 -10.1907      2.4724     49.1299   1.0534279777e+02   6.6012301732e+01    0.2057692    0.1445042  35.54    0.0013152    1.891    0.471
        62  -8.9605    152.6453     43.2910   5.1272221961e+01   4.1674349327e+01     0.146899    0.1067684 -76.15 0.0007028199    1.681    0.405
        63 -10.7691    132.7531     39.7801   5.4199897300e+01   4.6957443623e+01    0.2994554    0.2373087 -77.21 0.0005900774    1.555    0.357
        64 -10.0256    133.3102     32.3605   5.1612725532e+01   4.7772982187e+01    0.2492637    0.2153491 -83.38  0.001237716    1.298    0.230
        65 -10.1835    189.5362     15.2343   3.7953176825e+01   3.6081408723e+01    0.2373932     0.163328  76.98 0.0006671239    1.310    0.236
        66 -15.1279      7.4567    240.1182   1.2537883085e+02   2.2438818186e+01     2.214223     1.451273 -80.92   0.01584451    1.427    0.299
