#   1 NUMBER                 Running object number                                     
#   2 MAG_AUTO               Kron-like elliptical aperture magnitude                    [mag]
#   3 X_IMAGE                Object position along x                                    [pixel]
#   4 Y_IMAGE                Object position along y                                    [pixel]
#   5 X_WORLD                Barycenter position along world x axis                     [deg]
#   6 Y_WORLD                Barycenter position along world y axis                     [deg]
#   7 A_WORLD                Profile RMS along major axis (world units)                 [deg]
#   8 B_WORLD                Profile RMS along minor axis (world units)                 [deg]
#   9 THETA_WORLD            Position angle (CCW/world-x)                               [deg]
#  10 FWHM_WORLD             FWHM assuming a gaussian core                              [deg]
#  11 ELONGATION             A_IMAGE/B_IMAGE                                           
#  12 ELLIPTICITY            1 - B_IMAGE/A_IMAGE                                       
         1 -12.1539     30.3447     38.4974   1.0608088294e+02   6.5459320607e+01    0.8001996    0.5446455 -54.11  0.002823597    1.213    0.176
         2 -11.3286      2.4360      9.4991   1.1017025897e+02   7.3191917751e+01    0.6363967    0.1836752 -52.11  0.002304898    2.238    0.553
         3 -10.7592     19.7176     10.4379   1.0081113473e+02   7.1838841109e+01    0.4990242    0.3396685 -68.54  0.003004943    2.037    0.509
         4 -11.3896     19.2918      3.3902   9.7713310507e+01   7.3119414715e+01    0.6369479    0.2944062  24.45   0.00351938    2.499    0.600
         5 -12.4613     20.0898     26.5138   1.0688800136e+02   6.8738880231e+01     1.571696    0.2899441 -51.38  0.005877567    3.311    0.698
         6 -12.2609     10.4651     18.0268   1.0881848639e+02   7.1082712530e+01    0.5425591    0.4968693  31.43  0.002376981    1.432    0.302
         7 -11.0445     27.6022      7.9540   9.5382783988e+01   7.1541575919e+01    0.4463173     0.274186  38.36   0.00239438    2.083    0.520
         8 -12.2604     31.2695     28.7612   1.0237423831e+02   6.7338733934e+01    0.5904245    0.3684615  -2.78  0.001241969    2.100    0.524
         9 -11.8659     43.6072     21.7796   9.3877375419e+01   6.7322277990e+01    0.8510215    0.4793848  26.67  0.003937298    2.038    0.509
        10 -10.8398     39.2720     15.9267   9.3283385438e+01   6.8879489967e+01    0.3320446    0.2307518  24.88 0.0008515826    1.594    0.373
        11 -12.1200    246.2899     23.6695   4.8433446104e+01   2.0333395718e+01    0.7036409    0.4197411  75.85  0.003501411    1.796    0.443
        12 -11.7175     30.1882     14.3238   9.7035911662e+01   7.0162132338e+01    0.3623882    0.2570592 -47.36  0.000833616    1.291    0.225
        13 -11.8957    179.2275     15.3682   5.3634975502e+01   3.8465533623e+01    0.7256335    0.3887844 -65.55  0.002773574    2.571    0.611
        14  -9.7839     58.5149     16.6000   8.4956852868e+01   6.6154884443e+01     0.378446    0.2404549 -63.02  0.001692762    3.138    0.681
        15 -11.2148    248.9875     12.6563   4.5396781154e+01   2.0876421283e+01    0.3438517     0.226237  66.86  0.001853455    1.580    0.367
        16 -10.4660     47.8127      2.8787   8.2586857751e+01   6.9832924083e+01    0.4917096    0.2905093  25.74  0.002445388    1.830    0.454
        17 -11.1971     51.3860      8.8000   8.4144305820e+01   6.8438801263e+01    0.4247738    0.3065469 -10.24  0.001827585    1.330    0.248
        18 -10.5997     42.1054     10.0186   8.9066717126e+01   6.9524995706e+01    0.3115854    0.2494103   3.59 0.0007384668    1.229    0.186
        19 -10.4901     46.4748      8.0292   8.5979760860e+01   6.9256961602e+01    0.3034238    0.1626146 -17.56  0.001004134    2.317    0.568
        20 -11.2874    178.6420      9.3606   5.1723669274e+01   3.9245372939e+01    0.6244321    0.1871583  61.51   0.00212677    2.791    0.642
        21 -10.7930    197.8510      6.5047   4.8492728225e+01   3.4368498033e+01      0.58989    0.2782404 -55.15  0.002309942    2.458    0.593
        22 -10.8210    246.9389      1.8409   4.2834774484e+01   2.2435364426e+01    0.3927057    0.2106554  84.67  0.001908435    1.958    0.489
        23 -11.1471     75.3780      4.0109   7.2079360018e+01   6.5022072551e+01    0.4247988    0.2670527 -12.41  0.001250302    1.594    0.373
        24 -10.7189     59.3075      4.1866   7.8285887809e+01   6.7864938159e+01    0.4249011    0.2325825 -21.63  0.001635045    1.781    0.439
        25 -11.2061    142.9531      3.7484   5.5110089640e+01   4.9347398205e+01    0.4658518    0.3011293  86.67  0.001476243    1.838    0.456
        26 -11.0321     68.1506      7.5167   7.6545042206e+01   6.5904115345e+01    0.4566627    0.2055725  46.99  0.002102651    2.331    0.571
        27  -8.3817     35.2963      2.3073   8.8386376600e+01   7.1597701543e+01    0.1217393   0.07828261 -12.74 0.0007003599    1.589    0.370
        28  -9.5420      7.6400      1.9035   1.0391554185e+02   7.4292209336e+01    0.2038475    0.1564507  15.82  0.001507536    1.544    0.352
        29 -11.4602    222.0803      2.8048   4.5049851384e+01   2.8420217518e+01    0.4968057    0.2922011  69.53   0.00243052    1.648    0.393
        30 -10.9251    140.1786    246.6220   1.1254799503e+02   9.5121996173e+00    0.2831468    0.1678543  35.43 0.0006580937    1.506    0.336
        31  -9.1187    249.9369    250.0101   9.5479595035e+01  -6.7750303464e+00    0.1648781    0.0880506  19.55 0.0006847261    1.621    0.383
        32 -10.9219    225.4793    247.9858   9.8922440948e+01  -3.2204662263e+00    0.3442861    0.2369533  54.27  0.001928468    2.039    0.510
        33  -9.9585    234.0110    243.9751   9.7065340177e+01  -4.0735336142e+00    0.2126208    0.1348977  21.30 0.0005052377    1.274    0.215
        34  -9.4085    232.3055    250.7009   9.8230994469e+01  -4.4204595145e+00     0.168719   0.07892392  39.47  0.000479706    1.581    0.367
        35  -9.4703    234.0000    247.9735   9.7608806126e+01  -4.4217088455e+00    0.1909416    0.1339337 -17.21 0.0005518954    1.667    0.400
        36  -8.7483     72.9412    250.7856   1.2381660623e+02   1.8074259330e+01    0.1289589   0.06060057  43.43 0.0005292877    1.613    0.380
        37  -9.5709     52.0762    250.5168   1.2705613162e+02   2.0580319211e+01    0.2004407    0.0709722  41.35 0.0007895398    2.160    0.537
        38 -10.5688     46.2656    249.9032   1.2791841365e+02   2.1322325125e+01    0.3075894    0.1256845  44.01  0.001154763    1.788    0.441
        39  -9.5067      1.6181    249.0543   1.3449568552e+02   2.5937519823e+01    0.1800491     0.103905  89.09  0.001557877    1.542    0.352
        40  -9.8099     51.6712    240.3337   1.2658702337e+02   2.2143131988e+01    0.1700234    0.1290255  58.00 0.0004544546    1.188    0.158
        41 -10.0855     29.3264    239.6689   1.3006648389e+02   2.4674640852e+01    0.2009699    0.1156715  67.14 0.0007450079    1.242    0.195
        42 -10.7573     26.0003    239.0167   1.3055323390e+02   2.5115350393e+01    0.3154044    0.2518255 -22.49 0.0006633006    3.230    0.690
        43  -9.7197    246.9280    238.8794   9.4374994663e+01  -5.4453042058e+00    0.2143277    0.1262464  -3.00  0.001086917    1.837    0.456
        44 -11.2246    235.0423    238.5802   9.6157873633e+01  -3.7381329934e+00    0.8093254    0.2127991  35.90   0.00361689    3.071    0.674
        45 -10.0482    248.7803    233.0909   9.3252910904e+01  -5.2046895745e+00    0.2779581    0.1716286   4.33  0.001921048    1.590    0.371
        46  -9.9640    250.1035    200.4158   8.7875109178e+01  -2.3130144634e+00    0.4334559    0.1601807 -24.14  0.002050452    3.082    0.676
        47 -11.4584    246.8151    206.5816   8.9425049680e+01  -2.4302820858e+00    0.3474162    0.2295717 -34.15  0.001374296    1.912    0.477
        48 -11.1742    246.8529    218.0076   9.1257671248e+01  -3.5517806316e+00    0.2683396    0.1819135 -26.68 0.0008500983    1.725    0.420
        49 -10.4454    248.6616    212.8598   9.0157574330e+01  -3.3277002803e+00    0.3007275    0.1683552  22.10 0.0008148425    1.568    0.362
        50 -11.0389    244.8545    230.8795   9.3528911183e+01  -4.4507659581e+00    0.5843903    0.2552026  24.85  0.002146237    2.260    0.558
        51 -11.6529    245.6090    225.4149   9.2593950244e+01  -4.0623041194e+00    0.4776186    0.3349612  30.14   0.00317241    1.137    0.120
        52 -10.4162    171.0549    239.5738   1.0664284043e+02   5.7501196160e+00     0.342571    0.1532692  32.86  0.001289785    2.157    0.536
        53  -9.9789    126.0312    239.9600   1.1426372429e+02   1.2452237007e+01    0.3256201    0.1132554  40.66  0.001323716    2.242    0.554
        54  -9.6385    103.4731    240.0052   1.1806434824e+02   1.5641614536e+01    0.1768381    0.1193326  40.36 0.0004383065    1.354    0.261
        55  -9.5083     68.9000    239.9207   1.2378294956e+02   2.0164120416e+01    0.1711953    0.1119315  43.65 0.0005231686    1.374    0.272
        56  -8.9289     72.8092    239.6281   1.2312475997e+02   1.9724843187e+01     0.194394    0.0898543  49.99 0.0007558267    1.539    0.350
        57  -8.9262    135.1616    238.7674   1.1260188251e+02   1.1273598008e+01    0.1406897    0.1058086  35.54 0.0003845469    1.292    0.226
        58 -10.1516    119.3892    238.2501   1.1522579950e+02   1.3648508694e+01    0.3269675    0.1701241  36.36  0.001622566    1.789    0.441
        59  -9.2985     62.2931    239.0895   1.2480638288e+02   2.1090339358e+01    0.1686604    0.1106135  43.41 0.0006099535    1.401    0.286
        60  -9.7713      9.8822    238.6719   1.3299164034e+02   2.6740013635e+01    0.1622991   0.09712932  75.17 0.0005550685    1.236    0.191
        61  -9.8419    149.2135    237.9462   1.1013368719e+02   9.2765625438e+00    0.2663176    0.1196289  40.90 0.0008288671    1.688    0.408
        62 -10.2070    184.5401    236.4371   1.0401231797e+02   4.0455353609e+00    0.2764493    0.1486304  34.27 0.0008286424    1.512    0.339
        63 -10.5225    159.2808    234.9505   1.0808744171e+02   8.1218683444e+00    0.3105879    0.1611217  38.88  0.000888236    1.506    0.336
        64 -10.2015    141.2183    234.8607   1.1116335417e+02   1.0890726209e+01    0.3319571    0.1542025  48.66  0.001900216    1.685    0.406
        65  -9.7630     91.2224    235.5922   1.1976743425e+02   1.7951344083e+01    0.2098264    0.1327969  36.97 0.0006864037    1.593    0.372
        66 -10.5679     86.9587    232.9037   1.2027939838e+02   1.8924408529e+01     0.391278    0.1678002  48.22  0.001789458    1.703    0.413
        67  -9.2934     41.9123    236.4895   1.2794423960e+02   2.3827190853e+01     0.143645   0.07373793  45.00 0.0005069321    1.532    0.347
        68  -9.4446      4.6046    235.2439   1.3367862358e+02   2.7755759809e+01     0.211713   0.07701381  30.97  0.001191231    3.688    0.729
        69 -10.4942    230.4404    233.2680   9.6124821251e+01  -2.5775631329e+00    0.2144112    0.1453927  26.29 0.0004611269    1.093    0.085
        70  -9.4367    128.7605    233.9612   1.1320920262e+02   1.2878468626e+01     0.222984    0.1087001  51.93  0.001299838    1.685    0.407
        71 -10.9503    204.9933    231.6468   9.9997963464e+01   1.4226274885e+00    0.2945685    0.1702623  29.28 0.0005386149    1.463    0.316
        72  -9.8468    177.8736    232.0253   1.0457612095e+02   5.5953843656e+00    0.2094395    0.1517615  19.08 0.0005954177    1.498    0.332
        73  -8.9146    171.0076    232.5092   1.0580115985e+02   6.6084046284e+00    0.1713342   0.08613301  41.37 0.0003563112    1.493    0.330
        74 -10.8949     33.3186    231.6838   1.2908661513e+02   2.5505169329e+01    0.3160194    0.1327355  67.07  0.002016359    1.972    0.493
        75 -11.2247     36.4773    230.0437   1.2850004692e+02   2.5431150491e+01    0.3056239    0.1787205  37.32  0.001827293    1.792    0.442
        76  -9.6583      9.8446    231.5062   1.3276520002e+02   2.7859656508e+01    0.1590008    0.1001453  80.74 0.0005908602    1.266    0.210
        77  -9.8168    226.5942    230.0727   9.6276262915e+01  -1.6986289643e+00     0.223288    0.1417802   4.00  0.001464617    1.744    0.426
        78 -10.2551    216.7871    230.3208   9.7888650106e+01  -2.4367346766e-01    0.2550876    0.1442805  27.91 0.0006467703    1.490    0.329
        79  -9.7873    145.5456    230.5235   1.0994309521e+02   1.0814975609e+01    0.1962114    0.1532101  44.31 0.0006016666    1.052    0.050
        80  -9.9316    124.4873    230.3005   1.1357937829e+02   1.4029364447e+01    0.3104769    0.1546558  34.07  0.001191025    2.080    0.519
        81 -10.2652     55.6699    230.1696   1.2535662584e+02   2.3260794469e+01    0.2440578    0.1942643 -80.24  0.001721403    1.476    0.323
        82  -9.2370    134.4208    230.3407   1.1185523139e+02   1.2536431626e+01    0.2150049    0.1057542  45.06 0.0005012086    1.528    0.346
        83 -10.5544    102.9557    228.6279   1.1716988043e+02   1.7389714083e+01    0.3438883    0.2364473  20.82  0.002130359    2.352    0.575
        84  -9.6441    191.7363    230.2237   1.0200705416e+02   3.6381127623e+00    0.1885778   0.06795151  35.92 0.0008822123    2.397    0.583
        85 -10.2282     46.4166    229.4314   1.2684534028e+02   2.4439788681e+01    0.3307348   0.09897429  45.47  0.001208227    2.277    0.561
        86 -10.1057    114.4544    227.8450   1.1508864695e+02   1.5861753736e+01    0.3578847    0.1310243  38.24  0.001233175    2.454    0.592
        87  -9.7324     19.3480    227.2012   1.3112310977e+02   2.7640099761e+01    0.2493641    0.1403683  57.37  0.001658706    1.231    0.188
        88 -10.4362     17.2506    221.9394   1.3125020037e+02   2.8699336475e+01    0.3106157    0.1655922  70.76  0.001870746    1.389    0.280
        89 -10.4850    236.4238    226.0226   9.4122075938e+01  -2.7706845497e+00    0.2559936    0.1559257  18.56 0.0004718454    1.468    0.319
        90  -8.9394    174.4716    227.0558   1.0452497713e+02   6.7372705811e+00    0.1335905    0.1152619 -32.37 0.0004755768    1.500    0.333
        91  -8.8073     93.4376    227.5021   1.1872813642e+02   1.8881714738e+01    0.1081682   0.08345295  55.45 0.0001512375    1.076    0.071
        92  -9.5640     68.1856    226.9852   1.2304226291e+02   2.2258328893e+01    0.1813217    0.1162092  49.54 0.0005410922    1.225    0.183
        93  -9.5976      3.5194    227.4336   1.3360892484e+02   2.9083707832e+01     0.283524   0.04957133  38.48  0.001466399    3.601    0.722
        94 -10.6321    222.7314    225.1674   9.6184164099e+01  -6.2259983165e-01    0.3026582    0.1480505  35.94  0.001109576    1.567    0.362
        95 -10.5783    164.5738    224.8520   1.0595930226e+02   8.5900987303e+00    0.3144237    0.1797569  34.45  0.001110274    1.535    0.348
        96  -8.9191    143.9812    225.9681   1.0970093524e+02   1.1680478872e+01     0.140883    0.1073782  46.46 0.0004177848    1.002    0.002
        97  -9.7097      9.3121    225.2372   1.3263650578e+02   2.8910269992e+01    0.3105664    0.0813421  44.17  0.001845149    2.445    0.591
        98 -10.0576    229.6733    225.0621   9.5051412680e+01  -1.6668616747e+00    0.1525365    0.1184834  15.64 0.0006472792    1.125    0.111
        99  -8.6974    185.0055    225.7541   1.0255011955e+02   5.2232970261e+00    0.1499692   0.07659097  41.51 0.0003651163    1.496    0.331
       100  -8.9486    120.8410    224.8084   1.1366148474e+02   1.5372634615e+01    0.1620357    0.1284385  41.22 0.0005503308    1.219    0.179
       101 -11.1688    216.7768    220.5079   9.6470063010e+01   7.8832936784e-01    0.3558194    0.2742062  -8.73  0.001676223    1.421    0.296
       102  -8.9663    199.7681    224.4658   9.9873426761e+01   3.0309545790e+00    0.1608025   0.08471034  33.33 0.0003947745    1.564    0.361
       103  -9.0821    129.9135    223.7293   1.1193848936e+02   1.4164736808e+01    0.1660461    0.1144126  47.32 0.0005588781    1.112    0.101
       104  -9.7249    115.1576    222.3005   1.1441718712e+02   1.6592275868e+01    0.2422538    0.1575453 -75.72  0.001580556    1.919    0.479
       105  -9.8031    207.1861    222.5465   9.8358891096e+01   2.0742970654e+00    0.1988769    0.1478043  19.54 0.0004304584    1.221    0.181
       106  -9.0068    191.3645    222.8466   1.0107052305e+02   4.5561749220e+00    0.1372974    0.1029695 -11.57 0.0004373095    1.653    0.395
       107  -9.5028    136.0181    222.5477   1.1072219670e+02   1.3399125188e+01    0.1818782   0.08952944  43.29 0.0005665129    1.571    0.364
       108  -9.6488     77.4889    235.2397   1.2204922321e+02   1.9799216303e+01    0.2224897    0.1146516  55.03  0.001040516    1.452    0.311
       109  -8.7521     74.4977    222.4222   1.2162301581e+02   2.2196031382e+01    0.1082053   0.08015002  59.31 8.908778e-05    1.033    0.032
       110  -9.6743     50.3195    222.2022   1.2577686414e+02   2.5168925124e+01    0.1655892    0.1173449  45.13 0.0006687868    1.372    0.271
       111 -11.5742     40.6011    220.2247   1.2731039756e+02   2.6584531060e+01    0.4722398    0.1813543  45.14  0.002008297    1.933    0.483
       112  -9.6323     35.9768    214.9959   1.2781261827e+02   2.7961082317e+01    0.2569725    0.1260466  63.47 0.0009962817    1.588    0.370
       113  -9.5257     31.8438    213.9213   1.2846229192e+02   2.8578885912e+01     0.182144    0.1156472  50.28 0.0007014595    1.296    0.228
       114  -9.2161     28.8446    221.8566   1.2935527230e+02   2.7560049372e+01    0.1398313    0.1087423  66.37  0.000518102    1.190    0.160
       115  -8.4017     98.2619    221.7020   1.1737157909e+02   1.9118997402e+01     0.109805   0.06729597  65.02 0.0002885316    1.509    0.337
       116  -8.9166     68.4868    221.4306   1.2259805558e+02   2.3117927021e+01    0.1070695    0.0797524  60.50 0.0003904184    1.044    0.042
       117  -9.2512    200.1175    220.2084   9.9211483160e+01   3.4639832333e+00    0.1766506    0.1257807  24.66 0.0004718575    1.241    0.194
       118  -8.8499    180.9824    220.5347   1.0253967401e+02   6.5084877390e+00    0.1761469   0.09090161  39.84 0.0004203578    1.506    0.336
       119 -10.7346    167.0036    220.1956   1.0493927853e+02   8.8121883751e+00    0.3286615    0.1334964  44.02  0.001132391    1.914    0.478
       120  -9.5411    148.7935    219.9342   1.0813774001e+02   1.1768114096e+01    0.1689525     0.136178  32.07 0.0005798329    1.241    0.195
       121  -8.9618     59.7538    220.4221   1.2404479620e+02   2.4354154355e+01    0.1332008   0.08815027  38.45 0.0005595919    1.582    0.368
       122  -9.5191    186.0973    218.7038   1.0140098589e+02   5.9074614997e+00    0.1700246    0.1204937  37.63  0.000478104    1.091    0.084
       123 -10.3994    228.3882    217.2168   9.4073296231e+01  -6.7425005148e-01    0.2417163    0.1864805   0.40 0.0008810067    1.286    0.222
       124 -10.6098    224.4236    213.2178   9.4102052675e+01   3.6899519457e-01    0.3678174    0.2282243   6.96  0.002036209    1.840    0.457
       125  -9.9714    159.3214    217.6009   1.0596651236e+02   1.0404071894e+01    0.2458071    0.1561184  33.64 0.0007977653    1.432    0.302
       126  -9.3258    109.2545    218.4659   1.1509268309e+02   1.8052254568e+01    0.1650586   0.08201716  50.87 0.0006600281    1.600    0.375
       127  -9.6662    238.8848    215.9626   9.2191927943e+01  -2.1580293150e+00    0.2239509    0.1437457 -14.07  0.001056155    1.664    0.399
       128  -9.6665    136.4448    217.5021   1.1006839341e+02   1.4069657785e+01    0.1173221   0.09218476  48.08 5.659849e-05    1.019    0.018
       129  -9.6973    211.1141    215.9790   9.6736297156e+01   2.1846997656e+00    0.2030946    0.1345805  33.90 0.0004698467    1.168    0.144
       130  -9.7298    202.7719    215.5724   9.8085978589e+01   3.5764350966e+00    0.1768168    0.1525874   2.43 0.0005049013    1.252    0.202
       131  -9.6683    193.7337    215.5412   9.9631219631e+01   5.0515559662e+00    0.1941929    0.1527172  25.46 0.0004285771    1.125    0.111
       132  -9.4383    179.9907    215.6492   1.0204119372e+02   7.2901807892e+00    0.1732266    0.1202899  38.70 0.0004714734    1.126    0.112
       133  -9.6195    120.0114    216.5037   1.1293900255e+02   1.6756116535e+01    0.1765399   0.09131401  44.18 0.0003965535    1.522    0.343
       134  -9.4953      8.1714    216.0054   1.3249466285e+02   3.0531111905e+01    0.1637391    0.1313132  16.15  0.001014082    2.219    0.549
       135  -8.6096     83.3356    215.2861   1.1948189061e+02   2.2206002021e+01   0.09524471   0.08450289  24.22 0.0003388093    1.627    0.385
       136  -8.8849    186.4625    213.7849   1.0064248247e+02   6.4632485427e+00    0.1400463     0.109008  -8.12 0.0005533743    1.564    0.361
       137  -9.9646    171.4264    213.6464   1.0328093221e+02   8.9630119378e+00    0.2113577    0.1482067  42.17 0.0005724163    1.126    0.112
       138  -9.2498    166.1606    213.7798   1.0424066254e+02   9.8123131375e+00    0.1627115    0.1202687  27.36 0.0004396498    1.341    0.254
       139  -8.9794    143.7513    214.1594   1.0834217006e+02   1.3403716678e+01    0.1549342     0.120199  30.72 0.0004789664    1.330    0.248
       140 -10.5134    132.3165    213.4314   1.1034512234e+02   1.5328377246e+01    0.2609209    0.1382418  36.28  0.001068676    1.771    0.435
       141  -9.8527     64.8549    212.8739   1.2261434074e+02   2.4995886724e+01    0.3724874    0.1298754  36.87   0.00184869    2.761    0.638
       142  -8.8274    154.6390    212.1474   1.0610527426e+02   1.1932018529e+01    0.1396597     0.111419 -28.55 0.0004899998    1.672    0.402
       143 -10.0131    118.9724    212.2703   1.1266892157e+02   1.7576087086e+01     0.298896    0.1206976  37.44  0.001429206    2.341    0.573
       144  -8.8031     96.8782    212.3625   1.1675044205e+02   2.0818976918e+01    0.1545681   0.09261741  36.16  0.000689949    1.691    0.409
       145  -9.2829     52.6690    212.5504   1.2476131317e+02   2.6515921706e+01    0.2472259   0.07852884  40.71  0.001097985    2.504    0.601
       146  -9.5328     41.5784    212.4001   1.2669945682e+02   2.7797285301e+01     0.217573   0.09381256  33.08   0.00121508    2.654    0.623
       147  -9.5588      2.4602    212.3206   1.3329451081e+02   3.1656905423e+01    0.1504133   0.07018311  40.32 0.0007124913    1.901    0.474
       148  -9.2342     18.5082    210.4893   1.3056341386e+02   3.0499587793e+01    0.1355575    0.1291037 -70.40 0.0006197432    1.694    0.410
       149 -10.8941    239.3922    206.4470   9.0584748789e+01  -1.2687885772e+00    0.4808186    0.2203363 -28.28  0.002302673    2.415    0.586
       150  -9.9928    235.8147    201.6270   9.0366196626e+01  -1.9324913933e-01    0.2700097    0.1851779   6.85  0.001020608    1.407    0.289
       151 -10.9537    245.6787    191.8116   8.7091911974e+01  -7.1515520015e-01    0.4666203    0.2801544  29.30  0.001951943    1.391    0.281
       152 -10.4844    237.7124    196.3811   8.9170629212e+01   7.2032521987e-02    0.3744905    0.2121091 -18.68  0.002068825    1.928    0.481
       153  -9.8869    234.4283    209.5864   9.1894644811e+01  -8.1997452509e-01    0.2393003    0.1561701  20.38 0.0006712204    1.319    0.242
       154 -11.5766    217.1925    205.9644   9.4162991147e+01   2.3406151968e+00    0.3939949    0.2559547  -0.32  0.002181374    1.827    0.453
       155 -11.1354    224.7050    204.0482   9.2594980069e+01   1.3320683547e+00    0.3567857    0.3215828  41.37 0.0009987893    1.395    0.283
       156  -8.6134    107.0016    210.0187   1.1464504477e+02   1.9736729215e+01    0.1406971    0.1081009  55.12 0.0003709956    1.019    0.019
       157  -8.9842     25.8574    210.1887   1.2929872550e+02   2.9829734415e+01    0.1227055    0.1062777  67.01 0.0005652916    1.363    0.266
       158  -9.5212    161.3146    208.3210   1.0437734433e+02   1.1377212856e+01    0.2035442     0.152956  30.94 0.0005703505    1.265    0.210
       159  -9.2123     56.7879    209.6263   1.2382774519e+02   2.6532971517e+01    0.1557972   0.07307618  49.58 0.0005719805    1.635    0.388
       160  -9.0649    177.2497    207.9883   1.0144260586e+02   8.7547499186e+00     0.158141     0.134517  33.36 0.0003437701    1.078    0.073
       161 -10.7411    132.5712    206.8670   1.0951216377e+02   1.6302342219e+01    0.3561578    0.2006606  39.37   0.00166328    1.540    0.351
       162  -8.4626    193.4226    207.5010   9.8497058918e+01   6.1017120992e+00    0.1207123   0.09644059  32.84 0.0001443762    1.012    0.012
       163 -10.1533    148.2009    205.9479   1.0647682215e+02   1.3901636805e+01    0.3461697    0.2144371  17.08  0.001700336    2.783    0.641
       164  -9.6873    120.6738    206.4108   1.1169138268e+02   1.8251138913e+01    0.1708966    0.1471103 -24.57 0.0007475158    1.711    0.416
       165  -8.8381     73.2300    207.5882   1.2067801508e+02   2.4840637331e+01    0.1454722   0.09446106  37.59 0.0008255836    1.594    0.373
       166 -10.0112     14.5467    205.6224   1.3102511820e+02   3.1714891508e+01    0.2888763    0.1625164  81.21  0.002085241    1.398    0.285
       167  -8.9068    206.9993    205.7367   9.5864016608e+01   4.0510464223e+00    0.1719843    0.1242434  33.16 0.0004575089    1.097    0.088
       168  -9.6342    115.3432    206.3551   1.1268837823e+02   1.9081906570e+01    0.2412269    0.1179405  44.91 0.0008599718    1.641    0.390
       169  -8.8537     66.4999    206.4957   1.2182859797e+02   2.5888163014e+01    0.1111914   0.08475981  64.29 0.0008105743    1.023    0.022
       170  -9.7013     48.1639    206.0315   1.2513560172e+02   2.8164931715e+01    0.3460499    0.1277332  34.24  0.001594204    2.927    0.658
       171  -8.2121     32.3143    206.3466   1.2797846510e+02   2.9837038135e+01    0.0879458   0.07654496 -60.30 0.0007047267    1.717    0.418
       172  -8.5582     26.3281    206.2793   1.2902276132e+02   3.0460555135e+01   0.08240433   0.07689784 -76.99 0.0005087715    1.597    0.374
       173 -10.2244    139.8122    203.1716   1.0768542810e+02   1.5708361396e+01    0.2828442    0.1901799  26.40  0.000875416    1.773    0.436
       174 -10.1018    144.8250    200.1299   1.0633441415e+02   1.5354423089e+01    0.2724447    0.1495986  39.50 0.0008895942    1.568    0.362
       175  -8.9176     86.7477    204.4663   1.1788346464e+02   2.3571134799e+01    0.1475031   0.09878069  35.76 0.0009313763    1.600    0.375
       176  -9.8724      6.8651    203.9044   1.3226262966e+02   3.2711217286e+01    0.1800094    0.1360619  25.18  0.001062552    1.984    0.496
       177  -8.4431    179.3339    202.2658   1.0022446746e+02   9.1800725312e+00    0.1223716    0.0827371  23.06 0.0002618301    1.584    0.369
       178  -8.2416    173.3485    202.2850   1.0131811563e+02   1.0200912784e+01    0.1237626   0.08452148  21.64  0.000409665    1.653    0.395
       179  -9.9895    109.9393    201.1149   1.1312597983e+02   2.0778001870e+01    0.3129254    0.2055851  75.75   0.00167439    1.708    0.415
       180 -10.7298     57.7178    201.7360   1.2308477215e+02   2.7806425886e+01    0.3839092     0.127992  41.53  0.001665236    2.409    0.585
       181  -9.2195    198.4900    201.0135   9.6602347581e+01   6.0704613250e+00    0.1822019    0.1354575  34.52 0.0003945249    1.082    0.076
       182  -8.5276    187.2524    200.6957   9.8554455939e+01   8.0354769037e+00    0.1080415    0.0908654  66.09 0.0002218073    1.506    0.336
       183  -9.9787    165.5509    199.7868   1.0239001235e+02   1.1894040622e+01    0.2218644     0.167052  20.89 0.0006452814    1.474    0.322
       184  -8.6549     98.7782    200.4012   1.1518975279e+02   2.2564164674e+01    0.1593793   0.09966758  36.06 0.0009406829    1.641    0.390
       185  -9.2471     69.5039    200.4386   1.2077470101e+02   2.6574891126e+01     0.111824    0.0882962  64.08 0.0001845657    1.055    0.052
       186 -10.4322    209.7090    195.9913   9.3823206529e+01   4.7875024576e+00    0.4990951    0.2223954 -39.72  0.002465982    2.712    0.631
       187  -9.1158    230.1854    198.0880   9.0696958881e+01   1.1075528847e+00    0.1885509     0.128671  17.37 0.0006051016    1.328    0.247
       188  -9.6042    103.3166    197.5053   1.1399995262e+02   2.2395542594e+01    0.2777736    0.1649275  75.45  0.001458752    2.040    0.510
       189  -8.9449     49.8270    198.1418   1.2428965364e+02   2.9380797595e+01    0.1320848    0.1186609  64.47 0.0006707234    1.336    0.251
       190  -9.6451    215.1729    196.5448   9.2970792129e+01   3.7895907373e+00    0.2205946    0.1631015  -7.73  0.001389659    1.457    0.314
       191  -8.4259    131.5116    200.3961   1.0890573649e+02   1.7503830720e+01    0.1218051   0.09852726  46.16 0.0002001255    1.076    0.071
       192  -8.9392    149.4899    196.4405   1.0493734376e+02   1.5145546864e+01     0.125127    0.1028128  41.82 0.0001459368    1.064    0.060
       193  -9.3169    202.8140    194.8440   9.4842699024e+01   6.1193242756e+00    0.1896406    0.1393444  23.33 0.0005758883    1.240    0.194
       194  -8.8128    176.4732    195.4616   9.9712006896e+01   1.0628611302e+01    0.1262944    0.1033829  37.23 6.645191e-05    1.010    0.010
       195 -10.4395    157.7447    194.0679   1.0302035608e+02   1.4097576630e+01    0.2772407    0.1766332 -50.50  0.001585688    1.914    0.478
       196  -9.3598     89.2770    195.4561   1.1651289597e+02   2.4800681528e+01    0.2012465    0.1019331  38.50  0.000689277    1.865    0.464
       197  -9.2122    184.6901    194.4092   9.8034123865e+01   9.3388613856e+00    0.1718301    0.1000909  35.76 0.0005363339    1.488    0.328
       198  -9.0530     55.3228    194.2880   1.2296675399e+02   2.9439990701e+01    0.0908822   0.08774378 -42.75 0.0002199537    1.604    0.376
       199  -8.5671    113.4721    193.5474   1.1155473025e+02   2.1530275659e+01    0.1212799    0.1011104  54.17 7.161283e-05    1.056    0.053
       200  -8.5188     75.3007    193.3249   1.1902936165e+02   2.7102956813e+01   0.09754499   0.09155476 -28.39 0.0004410861    1.635    0.388
       201 -11.4407    233.9827    188.1806   8.8356057569e+01   1.6080324647e+00    0.4747161    0.2727655   6.56  0.001833745    2.196    0.545
       202  -9.8954    151.6487    191.3776   1.0379460223e+02   1.5573610050e+01    0.2310318    0.1922963  38.47 0.0007022476    1.100    0.091
       203  -9.8549    205.9047    189.3605   9.3376756946e+01   6.2908197497e+00    0.3525316    0.2302909  -6.33  0.001937831    1.958    0.489
       204  -9.2067    210.3400    187.2937   9.2238559526e+01   5.7794021407e+00    0.1807086   0.09071481  42.05  0.000348314    1.693    0.409
       205  -9.9206    225.5206    190.0326   9.0097041359e+01   2.8172306288e+00    0.2733669    0.1479349  38.00 0.0008382883    1.548    0.354
       206  -9.2899    162.3140    190.0565   1.0154435053e+02   1.3917855662e+01    0.1655521    0.1532675  43.99 0.0004633352    1.110    0.099
       207  -9.4763    199.4490    188.7246   9.4421086993e+01   7.5134052659e+00    0.2294067     0.179984  11.53 0.0005144308    1.295    0.228
       208  -8.8725     96.9043    188.6117   1.1426581876e+02   2.4931492288e+01    0.2647265    0.1327719 -80.80  0.001244762    2.846    0.649
       209  -9.6761     68.5044    189.5115   1.2000927062e+02   2.8693429693e+01    0.2893381    0.0786277  42.98  0.001273031    2.854    0.650
       210  -8.6884    172.9606    188.7837   9.9319780729e+01   1.2224311282e+01    0.1704632   0.08845899  42.54 0.0004119115    1.614    0.381
       211 -10.9431    243.0789    197.7241   8.8532680513e+01  -9.3290232037e-01    0.3547066     0.289559  -2.25  0.001416759    1.205    0.170
       212  -9.1738    215.1363    186.6131   9.1280813667e+01   5.0255989614e+00    0.1800444    0.1331627  33.68 0.0007736312    1.129    0.115
       213 -11.3790    249.6704    183.6990   8.5005550099e+01  -4.7832179931e-01    0.3658671    0.2020268 -20.15  0.001346604    1.849    0.459
       214 -10.7377    159.0389    185.8698   1.0152884227e+02   1.5152138561e+01    0.3257499    0.2041463  37.86  0.001786635    1.421    0.296
       215  -9.5373    128.4412    185.2537   1.0749665408e+02   2.0550499476e+01    0.2251337    0.1388824  35.70 0.0005668948    1.614    0.381
       216  -9.8186    141.3709    182.1747   1.0445412633e+02   1.8872697130e+01    0.2865356    0.2008929 -10.88   0.00142413    2.617    0.618
       217 -10.1771    211.3537    179.8936   9.0752110018e+01   6.5647407973e+00    0.3185859    0.2155893  -9.84  0.001359495    1.725    0.420
       218  -8.4933    134.6445    182.7170   1.0588730126e+02   1.9941062802e+01    0.1230255   0.09605426  17.96 0.0007017772    1.665    0.399
       219  -8.4067     67.4955    182.5048   1.1955871483e+02   3.0143999440e+01    0.1153727   0.09537227  70.10 7.563333e-06    1.068    0.063
       220  -8.4208    224.2492    181.6821   8.8830965347e+01   4.0501085188e+00    0.1035704    0.1000466 -82.84 0.0002976351    1.526    0.345
       221  -9.0322    203.5127    180.8399   9.2322809959e+01   7.8519972143e+00    0.1629459     0.124453 -26.24  0.000435795    1.451    0.311
       222  -9.5217    156.1030    181.3885   1.0139918697e+02   1.6397252239e+01    0.2444627    0.1449155  48.01  0.001283186    1.473    0.321
       223  -9.6360    175.2548    179.5916   9.7371698372e+01   1.3201004337e+01    0.2305565    0.1897772  17.03 0.0005633721    1.283    0.221
       224 -10.3360    241.5154    176.1864   8.4932994987e+01   1.7305841632e+00    0.4320516    0.2259017 -10.96  0.001772013    2.414    0.586
       225 -10.1167    247.8469    175.6171   8.3803010522e+01   7.2645766082e-01    0.2983201    0.2046069  -1.23  0.001156241    1.401    0.286
       226  -9.9441    250.6065    171.9881   8.2676937108e+01   6.7778200709e-01    0.2461356    0.1072873 -29.96 0.0008780077    2.310    0.567
       227  -8.6588    184.4565    180.5790   9.5790418347e+01   1.1364219054e+01    0.1310586    0.1086436  31.51 0.0001110533    1.054    0.051
       228  -9.0466     55.7882    179.6510   1.2167003051e+02   3.2143424270e+01    0.1572413   0.08503737  49.12 0.0005692208    1.567    0.362
       229 -10.0678    144.5528    177.7194   1.0313094250e+02   1.9073973298e+01    0.3387842    0.1858459  69.30  0.001336685    3.398    0.706
       230  -9.0702    191.2030    176.7664   9.3858537509e+01   1.0680629842e+01     0.177875     0.134567  21.81 0.0004433079    1.311    0.237
       231  -8.6297    219.4179    174.8162   8.8405411256e+01   5.7787404165e+00    0.1563971    0.1135897  -8.49  0.000300217    1.455    0.313
       232  -9.8006    210.0835    173.9902   8.9900260557e+01   7.5864938050e+00    0.3399132    0.1930961  42.38  0.001049216    1.547    0.354
       233  -9.3727    205.3221    174.9676   9.0936973060e+01   8.3276018671e+00    0.1761719    0.1526332   4.87 0.0004269417    1.138    0.121
       234  -9.5866    198.1383    174.1941   9.2108011803e+01   9.7652791625e+00    0.1960254     0.157115  22.05 0.0004380407    1.160    0.138
       235  -8.7393    183.0120    173.9845   9.4911351168e+01   1.2620167129e+01    0.1558567    0.1390361  30.26 0.0004102663    1.042    0.040
       236  -9.6328    162.1158    173.7384   9.8950227115e+01   1.6555600695e+01    0.2447283     0.160494  30.22 0.0008188692    1.602    0.376
       237  -9.6696    146.4963    174.5166   1.0222862095e+02   1.9277498375e+01    0.1319089     0.114293  48.58 8.288117e-06    1.002    0.002
       238  -9.4570    153.3113    173.6867   1.0070949163e+02   1.8183559552e+01     0.130609   0.09761459  72.06 0.0003457329    1.632    0.387
       239  -8.7871    126.0547    173.5513   1.0630300913e+02   2.3039985158e+01    0.1921808   0.09357116  59.39 0.0008081034    2.523    0.604
       240  -8.3675    233.3254    172.2880   8.5552932979e+01   3.6186244019e+00    0.1314106   0.08365256  17.01 0.0002901762    1.609    0.379
       241  -8.7995    192.8716    171.1677   9.2533945265e+01   1.1190691974e+01     0.182312    0.1384076  22.00  0.000425565    1.303    0.233
       242  -9.1177    225.9633    170.5224   8.6465257934e+01   5.1532709587e+00    0.1855742     0.110405  39.34 0.0004633917    1.483    0.326
       243  -8.6999    201.3032    170.2826   9.0803322060e+01   9.7335840368e+00    0.1320185   0.09191975  17.65 0.0002143669    1.554    0.357
       244  -8.9252    183.5805    169.9852   9.4082476536e+01   1.3125556528e+01    0.1792686    0.1306365 -34.89  0.000612685    1.547    0.354
       245  -9.6300    245.8622    166.7620   8.2429958517e+01   2.0963634624e+00    0.3299176    0.1633706 -22.94  0.001065755    2.087    0.521
       246  -9.3634    158.5114    168.5336   9.8782596502e+01   1.8096296999e+01    0.1343469    0.1177734  42.81 0.0001148126    1.013    0.013
       247  -9.8232    237.6028    166.8836   8.3802833839e+01   3.5291328448e+00    0.2334799    0.1729039 -40.85  0.000990981    1.702    0.413
       248  -9.6670    234.1426    162.2597   8.3472621960e+01   4.7292710565e+00    0.2407267    0.1912228  -9.29 0.0005599134    1.204    0.169
       249  -9.6842    205.4668    166.6308   8.9350209236e+01   9.4703891368e+00    0.2171215    0.1355698  27.52 0.0006379379    1.614    0.380
       250  -8.6278    179.3028    166.3084   9.4237495293e+01   1.4516160630e+01    0.1340833   0.09872312  14.72 0.0002921225    1.604    0.376
       251  -8.6018    170.2581    166.3540   9.6031377925e+01   1.6239482165e+01    0.1302474    0.1009762   5.57  0.000344218    1.611    0.379
       252  -9.0177    150.5159    166.5396   1.0007770226e+02   1.9930743048e+01    0.1344251    0.1184187  46.84 6.429409e-05    1.008    0.007
       253  -8.7485    140.5448    166.5111   1.0215292350e+02   2.1766755966e+01    0.1334913    0.1176062  53.93 0.0003958117    1.017    0.016
       254  -9.5569    219.0912    165.1579   8.6625253367e+01   7.1175035229e+00    0.1982004     0.149921  19.55 0.0003434648    1.226    0.184
       255  -9.3521    240.1415    162.3540   8.2496085469e+01   3.6374920010e+00    0.2135011    0.1545849  -5.12  0.000661562    1.336    0.252
       256  -8.3659    185.2934    163.3070   9.2510763983e+01   1.3834723536e+01    0.1344749   0.09869819  14.24 0.0002721204    1.582    0.368
       257  -9.0674    111.3984    162.8164   1.0783666976e+02   2.7537723915e+01    0.1664678    0.1204933 -48.59 0.0004113416    1.605    0.377
       258  -8.4722    200.2704    162.3546   8.9484049400e+01   1.1082616465e+01    0.1356621   0.09661844   9.34 0.0006447322    1.636    0.389
       259  -8.8852    192.0524    162.4534   9.1050205549e+01   1.2656859568e+01    0.1986314    0.1192051  42.72 0.0004457934    1.484    0.326
       260  -9.1482    213.2251    160.1618   8.6685093867e+01   8.9111736966e+00    0.1993151    0.1555127  17.14 0.0004584516    1.221    0.181
       261 -10.2441    205.5615    158.9697   8.7840263965e+01   1.0556628742e+01    0.2899604    0.1991743  23.41 0.0005922737    1.492    0.330
       262 -10.7839    155.8985    157.1595   9.7282918076e+01   2.0568518018e+01      0.33415    0.2751236  70.01  0.001895288    1.351    0.260
       263  -9.8302    237.6104    157.0963   8.1862155489e+01   4.7553504238e+00     0.276364    0.1869418  -5.21  0.001112272    1.537    0.349
       264  -8.7781     55.3674    158.2942   1.1972420876e+02   3.6471975338e+01    0.1077172   0.09164467 -36.16 0.0007028609    1.719    0.418
       265  -9.4348    250.5336    156.4964   7.9649817913e+01   2.5103108526e+00    0.2396727    0.1153081 -26.37   0.00116902    2.038    0.509
       266  -9.1217    231.9676    157.0993   8.2806329973e+01   5.7939321138e+00     0.206894    0.1371004  12.93 0.0004810531    1.616    0.381
       267  -9.0523    140.5101    157.0120   1.0053120072e+02   2.3514997605e+01    0.1907777    0.1356777 -51.28 0.0007854307    1.547    0.354
       268  -8.7879     82.6894    156.6707   1.1338199621e+02   3.3222906793e+01    0.1158687   0.09940369 -30.01 0.0006547179    1.667    0.400
       269  -9.8245    221.9676    151.9679   8.3476137455e+01   8.3771771200e+00    0.3783697    0.1684466 -38.89  0.001648624    2.447    0.591
       270  -8.2341    197.4788    154.4751   8.8447835510e+01   1.2813227872e+01     0.138991    0.1201912  23.36 6.037542e-05    1.056    0.053
       271  -9.5298    233.6071    152.1899   8.1527959140e+01   6.1321365364e+00    0.2742843    0.1527746 -40.80  0.001339673    2.092    0.522
       272  -9.7733    206.0555    151.8737   8.6315518737e+01   1.1505181344e+01    0.1939078     0.183189  60.39 0.0007424175    1.270    0.213
       273  -9.5624    240.2531    150.7486   8.0128655095e+01   5.0815332447e+00    0.3093724    0.1542125  51.65  0.001434743    2.236    0.553
       274  -8.7078    144.8408    151.3856   9.8569832616e+01   2.3746394850e+01    0.1941987    0.1219248  35.80 0.0005098393    1.628    0.386
       275  -8.4775    108.3110    151.2856   1.0673368814e+02   3.0348045575e+01    0.1214543    0.1066246  -2.55 0.0003216573    1.575    0.365
       276 -10.3380    211.2321    149.8252   8.4944576390e+01   1.0781626253e+01     0.401949    0.2026963  52.29  0.001775929    2.117    0.528
       277  -8.6975    157.6670    150.6979   9.5685784640e+01   2.1378784775e+01    0.1394804    0.1069477  13.60 0.0007035447    1.656    0.396
       278  -9.5473    249.7240    148.1769   7.8073166588e+01   3.6727274136e+00    0.2402131    0.1554195  -3.76  0.001023924    1.611    0.379
       279  -9.9838    243.8390    145.8273   7.8519319917e+01   5.0480232754e+00    0.3648362    0.1712874 -31.36  0.001130823    2.084    0.520
       280  -8.8678    162.2989    147.3371   9.4045129619e+01   2.1059852048e+01    0.1402098    0.1085992   8.01 0.0002668184    1.658    0.397
       281  -8.8615    150.3025    147.2948   9.6603612183e+01   2.3449740444e+01    0.1353443    0.1086817  10.92 0.0002225203    1.576    0.365
       282  -9.1772    122.2614    146.6537   1.0274717661e+02   2.8864052927e+01    0.2432292    0.1650837 -67.36  0.001073469    1.664    0.399
       283 -10.3169     36.2496    144.6237   1.2270312847e+02   4.1446300990e+01    0.2227404    0.1358037 -79.76 0.0008281856    1.405    0.288
       284  -8.6942    223.5237    144.4788   8.1633535065e+01   9.1196429235e+00    0.1380159    0.1180076  14.49 5.892794e-05    1.046    0.044
       285  -8.6184    159.6788    144.2953   9.3988715802e+01   2.2134494140e+01    0.1395666    0.1095326  78.65 0.0002098458    1.615    0.381
       286  -8.4740    208.6683    142.7002   8.3906359894e+01   1.2353314604e+01    0.1446379   0.09979361  16.65 0.0007032103    1.648    0.393
       287  -8.6247     24.6909    142.6973   1.2520318967e+02   4.2954540378e+01    0.1050278   0.07861158 -54.34  0.000565673    1.605    0.377
       288  -9.8419    250.1775    139.5877   7.6189932734e+01   4.6664961388e+00    0.2522941    0.1692444 -16.34 0.0007733282    1.415    0.293
       289  -9.1549    238.6742    139.1619   7.7935708123e+01   6.8954906330e+00    0.1842788    0.1501545  -8.28 0.0004997626    1.135    0.119
       290  -8.9735    135.6098    138.7507   9.8199796333e+01   2.7949517690e+01    0.1834175     0.133543 -62.82 0.0003596925    1.533    0.348
       291  -9.3285    234.9463    143.7969   7.9545165452e+01   6.9927269355e+00    0.2076262     0.155232  18.03 0.0005737683    1.276    0.216
       292  -9.3981    166.3150    137.6757   9.1198800377e+01   2.1972182277e+01    0.2399418    0.2175621  85.50 0.0006333484    1.261    0.207
       293  -8.9081    109.7564    138.4136   1.0419954821e+02   3.2755122215e+01    0.1828857    0.1281969  32.07 0.0006480627    1.626    0.385
       294  -9.6541    248.6044    133.7437   7.5172067110e+01   5.7088199557e+00    0.2943941    0.1843485 -12.64 0.0009008823    1.632    0.387
       295  -9.9092    248.9405    122.8693   7.2705785564e+01   7.0621968407e+00     0.276137    0.2132383  16.86   0.00079011    1.256    0.204
       296  -9.6183    242.5014    131.4806   7.5637120156e+01   7.1778928375e+00    0.2734124      0.19404  17.72  0.001007659    1.431    0.301
       297 -10.1377    247.3194    127.2853   7.3946454079e+01   6.7969395898e+00    0.4794832    0.2809336   2.11  0.002166674    2.243    0.554
       298  -8.8660     39.2732    131.3521   1.2059963505e+02   4.4008116755e+01    0.1162442   0.08112212 -51.72 0.0007000856    1.636    0.389
       299  -9.7456    231.0177    129.4722   7.7064094447e+01   9.7325812620e+00     0.206716    0.1294946  46.66 0.0008333822    1.584    0.369
       300 -11.7534    232.1544    120.9464   7.4929004674e+01   1.0701553239e+01    0.6177928    0.4050246  35.51  0.003135551    1.516    0.341
       301  -8.5067    153.4913    122.4218   9.0623103724e+01   2.7508336206e+01    0.1461517    0.1377391  38.21 0.0008050402    1.041    0.039
       302 -10.1642    235.2875    115.0536   7.3044847624e+01   1.0881527537e+01    0.2133095    0.1852396  35.46 0.0005059846    1.156    0.135
       303 -11.7547    248.5768     93.3290   6.5829286579e+01   1.1076589163e+01    0.9587643    0.1816248 -37.14  0.002789076    4.455    0.776
       304 -11.7231    239.5053    113.3850   7.1983696679e+01   1.0238412686e+01    0.5475577    0.2759243 -17.07  0.002272726    2.347    0.574
       305 -11.3126    243.3439    108.4722   7.0232147390e+01   1.0119458135e+01    0.4098489    0.2656825 -54.16  0.001937124    2.130    0.531
       306 -10.9789    246.4669    100.4997   6.7864685606e+01   1.0553851347e+01    0.2630662    0.2276829 -42.06 0.0008705844    1.252    0.201
       307  -8.9810     90.2623    111.7481   1.0405180761e+02   4.1779819213e+01    0.1761185    0.1591287 -28.13 0.0006584473    1.323    0.244
       308  -8.8143      2.3291    108.3691   1.2784200744e+02   5.2037725418e+01    0.1157363   0.06575616 -53.73 0.0007032852    1.820    0.451
       309 -11.5103    248.3200    104.4577   6.8537212527e+01   9.6366288233e+00    0.6360133    0.2657633 -35.28  0.002659335    2.215    0.548
       310  -8.6334     89.4864    102.5420   1.0230343334e+02   4.3950936324e+01    0.1379905    0.1279954 -78.72 0.0004254362    1.009    0.009
       311  -9.6389     25.4027     98.7435   1.2035446465e+02   5.2554369467e+01    0.2412533    0.1633227 -55.64  0.001039851    1.407    0.289
       312  -8.7437     44.5061     98.0033   1.1457202535e+02   5.0957849438e+01    0.1885273   0.07750283 -48.06 0.0008105284    2.579    0.612
       313 -10.6312    230.8591    112.0273   7.3044219460e+01   1.2243604454e+01    0.3300018    0.1923004 -37.24  0.001547762    1.709    0.415
       314  -9.3769     86.9225     96.0061   1.0155184496e+02   4.5817548690e+01      0.21616    0.2038273 -68.31  0.001298944    1.030    0.029
       315  -8.9554    208.0975     91.4790   7.1736306384e+01   2.0441096583e+01      0.21741    0.1442942  51.74  0.000897985    1.514    0.339
       316 -11.9523    241.6800     85.7840   6.4950006369e+01   1.3583824867e+01    0.4195867    0.3481841 -61.68  0.001584894    1.438    0.305
       317 -10.0759    229.6058     84.1042   6.6300833377e+01   1.6528023372e+01    0.3028668    0.2572567 -41.47 0.0006416054    1.195    0.163
       318  -9.2829    202.0282     84.2691   7.0875024276e+01   2.3019662428e+01     0.205902    0.1896723  51.40 0.0003843218    1.108    0.097
       319 -10.5630     10.6446     82.9846   1.2277232306e+02   5.7142988388e+01    0.2873565    0.1508853 -34.54  0.001555718    2.526    0.604
       320 -11.5631    249.2445     78.6244   6.2121825703e+01   1.2892425747e+01    0.5242323    0.3376096 -22.15  0.001842473    1.471    0.320
       321  -9.8473    243.4949     81.4789   6.3615616761e+01   1.3769470511e+01    0.2202374    0.1634095  12.67 0.0006962443    1.537    0.349
       322  -9.9922    218.0536     71.6556   6.4775156458e+01   2.1033987905e+01    0.4286735     0.260273  -3.00  0.001733209    2.319    0.569
       323  -8.9586    125.5615     72.8003   8.4245984353e+01   4.3356658184e+01    0.2055814    0.1402547 -51.80 0.0003199608    1.551    0.355
       324 -10.5341     52.8114     70.9835   1.0636157615e+02   5.6157709377e+01    0.3207418     0.236415  52.88  0.001086796    1.590    0.371
       325  -8.6788    226.0000     70.9025   6.3375444846e+01   1.9236212600e+01    0.2383488   0.07921487 -29.00 0.0007911038    2.864    0.651
       326 -10.9585    242.8723     68.8777   6.0502639266e+01   1.5595640628e+01    0.4061573    0.1436879 -42.34  0.001451611    2.849    0.649
       327  -9.8498    101.8364     68.1493   8.9510329284e+01   4.9169466699e+01    0.2096857    0.1942981 -66.51 0.0004001243    1.134    0.118
       328 -11.3310    247.2958     61.7843   5.8127116109e+01   1.5521234359e+01    0.3714453    0.2691091 -42.90  0.001205322    1.326    0.246
       329 -11.3808     16.5097     51.6448   1.1536012551e+02   6.3719191797e+01    0.5084779    0.3580137 -75.25  0.002158397    1.306    0.234
       330 -11.0671      9.3737     52.6264   1.1839804410e+02   6.3932862669e+01    0.4270409    0.1910057 -47.11  0.001374372    1.936    0.484
       331  -9.9102      1.3969     61.1974   1.2288241094e+02   6.2460191707e+01    0.2523294    0.1211331 -79.39 0.0009216757    1.768    0.434
       332 -11.1586      5.6852     59.0587   1.2096690784e+02   6.2721828006e+01    0.3336224    0.2496524 -34.02  0.001431685    1.484    0.326
       333 -10.9162      3.4119     53.3261   1.2086081772e+02   6.4084661956e+01    0.5367374    0.2091083 -67.80  0.002629496    1.886    0.470
       334  -8.6656    198.2227     54.9912   6.3187072992e+01   2.8393936662e+01    0.2000796    0.1220941 -29.03  0.000487484    1.618    0.382
       335  -9.8948     26.5448     55.3928   1.1224787756e+02   6.2178306107e+01    0.2493277     0.123305  13.31  0.001247103    2.827    0.646
       336  -8.9236    131.4856     54.0129   7.6532586273e+01   4.5464910172e+01     0.235321    0.1466042 -36.30 0.0009396583    1.585    0.369
       337  -9.4823    175.6931     53.6820   6.6719716297e+01   3.4429825653e+01    0.1597837    0.1168347  23.29 0.0003856162    1.633    0.388
       338 -10.3568    240.9234     51.7945   5.6320320651e+01   1.8259567654e+01    0.2876046    0.1473343 -47.94  0.001227132    2.047    0.511
       339 -11.1198    247.2992     47.9577   5.4584478717e+01   1.7259956934e+01     0.578374    0.1476321 -43.25  0.001790132    3.913    0.744
       340 -10.0663     11.8220     44.4076   1.1566761810e+02   6.5569995314e+01    0.2955595    0.1726012 -40.16  0.001284338    1.614    0.381
       341  -9.0047    193.6505     45.7016   6.1127925788e+01   3.0881896465e+01    0.1600226    0.1113793  30.32 0.0004595671    1.686    0.407
       342  -9.1197    108.3079     45.2997   7.9721059456e+01   5.2184821285e+01    0.1474227    0.1116229   8.86 0.0002438043    1.596    0.374
       343 -10.2302    208.0305     43.8174   5.8405239879e+01   2.7397650912e+01    0.2512097    0.2091081 -31.87 0.0004328215    1.173    0.148
       344 -10.4149    166.3630    248.4121   1.0842516565e+02   5.4257021486e+00    0.1979105    0.1448354  37.63 0.0002795148    1.082    0.075
       345  -8.7311     87.5323    249.5734   1.2141356085e+02   1.6407933015e+01    0.1031896   0.07263777  54.34 0.0001341033    1.038    0.037
       346 -10.1838     61.5827    248.4832   1.2546857202e+02   1.9775455847e+01    0.2017292    0.1390119  46.85 0.0006249069    1.299    0.230
       347 -10.1218     16.8948    240.6382   1.3200249738e+02   2.5770472275e+01    0.3088315    0.1144148  64.27  0.001965634    1.996    0.499
       348  -9.5421     20.3488    248.7147   1.3176875550e+02   2.4217054101e+01    0.1448091   0.08418484  64.80 0.0006093398    1.147    0.128
       349  -9.9705     17.1931    248.5941   1.3222922034e+02   2.4544568223e+01    0.1709749    0.1626823  80.92  0.001383726    1.783    0.439
       350 -10.2482     10.1106    248.6239   1.3326350323e+02   2.5218294888e+01    0.2834639    0.0976327  45.36   0.00134386    1.939    0.484
       351 -10.5210    157.7157    245.6400   1.0954460830e+02   7.0405293914e+00    0.2999058    0.2042719  23.31  0.001550771    1.698    0.411
       352 -10.3028     31.7012    246.7380   1.2999615377e+02   2.3358106791e+01    0.2418329    0.1311311  58.99 0.0006446968    1.234    0.189
       353 -10.8914    210.9334    245.8916   1.0092863767e+02  -9.2394935839e-01    0.2338567    0.1541905  25.28 0.0005472631    1.251    0.201
       354  -9.6102     19.4310     43.6105   1.1224819202e+02   6.5251949353e+01    0.2186936    0.1453418  -2.68  0.001346391    1.925    0.481
       355 -10.4542    119.0203     41.8448   7.5408332938e+01   5.0401193969e+01       0.4604      0.27934  59.96  0.001679514    1.860    0.462
       356 -10.0151    126.9049     40.6171   7.2882423842e+01   4.8760672267e+01    0.3825842    0.2366831  27.58  0.001186449    2.039    0.509
       357  -9.2213     48.6732     42.7149   9.9735334986e+01   6.2689280826e+01    0.1289922   0.08845808 -24.41 0.0003053074    1.606    0.377
       358  -9.2840    193.1679     39.6266   5.9339220443e+01   3.1824146519e+01    0.2220065    0.1292224  52.69 0.0009188096    1.687    0.407
       359 -11.0627    249.2191     35.5959   5.1208966592e+01   1.8298054722e+01    0.4098834    0.2533592  40.74  0.001996593    1.946    0.486
       360 -11.5302    246.4019     33.1817   5.0872267318e+01   1.9232694533e+01     0.317584    0.2414469 -27.69 0.0008697581    1.238    0.192
       361 -10.2127    239.8420     34.1209   5.1793645138e+01   2.0673466546e+01    0.2226458    0.1730034 -54.18 0.0007156733    1.260    0.206
       362  -9.3360     49.8430     32.7305   9.5629181279e+01   6.4516234891e+01    0.2180138    0.1203494 -19.20 0.0009490044    2.760    0.638
       363 -10.3878      4.0971     29.6973   1.1555327879e+02   6.9079274486e+01    0.4647628    0.2248114 -40.71  0.002712474    1.814    0.449
       364 -10.3017    194.7496     30.5743   5.6307837514e+01   3.2554374209e+01    0.5226235    0.2783124 -82.97  0.001853242    2.983    0.665
       365  -9.6338    179.4948     30.4907   5.8576606587e+01   3.6635125565e+01    0.1488606    0.1447595  50.37 0.0008104926    1.023    0.022
       366  -8.8597    124.4322    246.7817   1.1516721206e+02   1.1766226131e+01    0.1066609     0.103748 -33.80 0.0004453357    1.506    0.336
       367 -10.2811    204.9435     23.3404   5.2755253210e+01   3.0714427846e+01    0.2583797    0.1947482 -42.87 0.0009817925    1.299    0.230
       368  -9.7831    167.1644     21.8215   5.7658521235e+01   4.0993390974e+01    0.2122613    0.1683014  32.37 0.0004721061    1.333    0.250
       369  -9.4581     28.5775     22.2622   1.0119126317e+02   6.8850915335e+01    0.1893313    0.1462542  37.67  0.001248641    1.644    0.392
       370  -8.3560    243.3110    245.3040   9.5827271773e+01  -5.4883880259e+00    0.1083561    0.0594335  19.75  0.000289551    1.612    0.380
       371  -9.2303     59.1850     28.1695   8.9891665338e+01   6.4091116328e+01    0.1658773    0.1495684 -54.59 0.0004520003    1.310    0.237
       372 -10.6647    197.6286     20.0359   5.2668929401e+01   3.3019341376e+01    0.5350351     0.186386  64.95  0.001895635    2.649    0.623
       373 -10.7733    192.1334    243.9529   1.0370043482e+02   2.0628833074e+00    0.2553882    0.1620473  30.22 0.0005442391    1.296    0.229
       374  -9.3807    133.0300    245.0733   1.1358236489e+02   1.0753440862e+01    0.1659724    0.1195557  46.14 0.0004569182    1.043    0.041
       375 -11.0123    220.0297    239.6981   9.8667360135e+01  -1.6603474011e+00     0.555836    0.3033098  -1.24  0.003115006    2.845    0.649
       376  -9.5475    162.6380     11.3169   5.4698810434e+01   4.3366009305e+01    0.1579408    0.1064538 -63.52            0    1.765    0.433
       377  -9.5642     59.5108     11.5051   8.2033504140e+01   6.6789178185e+01    0.1288875    0.1090407 -12.02 -7.530169e-05    1.005    0.005
       378 -10.4515    225.8874    239.8859   9.7768733730e+01  -2.5353870366e+00    0.2338308    0.1597264  22.03 0.0005407443    1.179    0.152
       379  -9.3185    215.0286    239.2006   9.9395870290e+01  -8.7258081986e-01    0.2087786    0.1107976  38.53 0.0006483156    1.393    0.282
       380  -9.9296    202.0699    239.9253   1.0157768172e+02   9.9285924537e-01      0.22184    0.1506626  38.97 0.0005863631    1.137    0.120
       381 -10.6162    198.0629    237.8534   1.0196132645e+02   1.8181222421e+00    0.3875276     0.154966  35.30  0.002046634    2.045    0.511
       382 -10.7270    210.6863    237.5203   9.9866787966e+01  -5.5878105962e-02     0.300366    0.1779192  31.43  0.001704139    1.298    0.229
       383  -9.7801    206.3818    237.7811   1.0059730321e+02   5.6530857759e-01    0.2298595    0.1330612  26.92 0.0007302472    1.522    0.343
       384 -10.3512    177.4975    243.1365   1.0599536578e+02   4.3583762869e+00    0.3148015    0.1632944  32.54  0.001686311    1.695    0.410
       385  -9.5432    114.0735    243.9896   1.1663497193e+02   1.3608087187e+01    0.1870647    0.1164721  45.93 0.0005084673    1.191    0.160
       386  -9.1717     93.7042    244.4499   1.2003827769e+02   1.6326485304e+01    0.1373859   0.08117971  39.09 0.0007565654    1.541    0.351
       387  -9.2312     80.9314    244.3082   1.2211477451e+02   1.8008786784e+01    0.1449355   0.09499361  48.97 0.0004700111    1.172    0.147
       388  -9.0035     41.7109    244.4519   1.2836136983e+02   2.2632573604e+01    0.1181878   0.07719833  41.62 0.0006605919    1.529    0.346
       389  -9.2554     98.4892    242.3627   1.1908701134e+02   1.5983927864e+01    0.1794612    0.1009699 -67.62  0.001219698    2.196    0.545
       390  -9.5456      2.5978    242.2256   1.3417400136e+02   2.6867734752e+01    0.1859035   0.08242236  59.74 0.0009155634    1.455    0.313
