#   1 NUMBER                 Running object number                                     
#   2 MAG_AUTO               Kron-like elliptical aperture magnitude                    [mag]
#   3 X_IMAGE                Object position along x                                    [pixel]
#   4 Y_IMAGE                Object position along y                                    [pixel]
#   5 X_WORLD                Barycenter position along world x axis                     [deg]
#   6 Y_WORLD                Barycenter position along world y axis                     [deg]
#   7 A_WORLD                Profile RMS along major axis (world units)                 [deg]
#   8 B_WORLD                Profile RMS along minor axis (world units)                 [deg]
#   9 THETA_WORLD            Position angle (CCW/world-x)                               [deg]
#  10 FWHM_WORLD             FWHM assuming a gaussian core                              [deg]
#  11 ELONGATION             A_IMAGE/B_IMAGE                                           
#  12 ELLIPTICITY            1 - B_IMAGE/A_IMAGE                                       
         1 -16.5612    170.0405     72.0934   1.9827485266e+01   3.4931845423e+01     4.356838     2.933032  77.10   0.02810237    1.440    0.305
         2 -16.7722    135.5523     70.9713   2.4927883184e+01   4.1471836430e+01     2.873156     1.290535  63.57   0.01343597    2.293    0.564
         3 -16.3928    127.2087     96.7463   3.2119925884e+01   3.8376022497e+01     3.841802      1.95281 -73.48    0.0146525    3.253    0.693
         4 -17.2379    109.5398     97.4181   3.6312676588e+01   4.1528616584e+01     3.541928     2.206499  45.75   0.01774218    1.645    0.392
         5 -17.2096    147.8907     94.4729   2.7635146602e+01   3.5037906634e+01      4.55498     3.705272  66.18   0.02896732    1.268    0.212
         6 -14.5753     44.7087     97.7917   5.7421743834e+01   5.2560715172e+01    0.7662693    0.6659902 -79.87  0.004260144    1.236    0.191
         7 -11.5480    109.0586    158.7153   4.8480568842e+01   2.7661487470e+01    0.5726205     0.255149  40.41  0.002289422    2.289    0.563
         8 -11.6245    120.4033    156.0506   4.5183434276e+01   2.6596943255e+01    0.3802945    0.2476707  76.78  0.001669045    2.269    0.559
         9 -11.3292     83.1570    155.6785   5.5154706457e+01   3.2257510094e+01    0.5188712     0.158794  46.83   0.00145927    4.175    0.760
        10 -12.7219    107.5362    145.2234   4.6483884582e+01   3.1156108983e+01    0.6355186    0.3753701  77.00  0.002396139    2.946    0.661
        11 -11.2070     55.8813    146.0239   6.2282920031e+01   3.8627395298e+01    0.3746791    0.1977115  82.63  0.001247338    3.165    0.684
        12 -12.0295     89.1003    144.2672   5.1406240847e+01   3.4282566212e+01    0.5273838    0.2769001  51.55  0.002106603    2.167    0.538
        13 -11.8208     23.5105    138.1596   7.2977057551e+01   4.4499768374e+01    0.5283908    0.2369411  55.46  0.001836732    2.818    0.645
        14 -14.1082     86.0904    131.2359   4.9857159393e+01   3.8003094197e+01    0.9771358    0.5264545  48.07  0.004104244    1.922    0.480
        15 -13.1476    144.8067    131.7213   3.5386434651e+01   2.8196953738e+01    0.4451466     0.340981  83.81  0.002516916    1.464    0.317
        16 -13.1209    132.2790    130.8208   3.7846436200e+01   3.0430987392e+01    0.5499017    0.3466268 -76.99  0.002584517    1.956    0.489
        17 -12.8687    154.2001    129.5224   3.3164396696e+01   2.7152540753e+01    0.3988324    0.2787083  79.63  0.002160208    1.769    0.435
        18 -14.2416    100.4774    127.1018   4.4921417181e+01   3.6616546641e+01    0.8377566    0.5803796  68.56  0.003986727    1.700    0.412
        19 -12.1286     73.2585    129.3470   5.3502179499e+01   4.0507849226e+01    0.3938808    0.2622997  86.55  0.001703641    1.957    0.489
        20 -11.7237     12.3386    128.1442   7.6144149873e+01   4.8245320432e+01    0.4075175    0.2370224  74.67   0.00170393    2.085    0.520
        21 -14.0994    120.0598    125.3209   3.9574599998e+01   3.3689354691e+01    0.8440946    0.4254364  57.08  0.003493966    2.429    0.588
        22 -13.4702     60.0317    122.9575   5.6759856377e+01   4.4130283340e+01    0.8921189    0.5564449  75.50  0.003646828    2.244    0.554
        23 -13.7399     43.7133    120.6017   6.2357931307e+01   4.6995737167e+01     1.133159    0.6236566  79.75  0.004086595    2.945    0.660
        24 -11.6721    222.6767    215.3423   3.5213898933e+01   2.9641991781e+00    0.1479876    0.1212766 -73.24  0.001121543    1.741    0.425
        25 -15.0759     64.8759     89.6068   4.7808478876e+01   5.1280566069e+01     1.347953    0.5506479  36.27  0.005216717    2.399    0.583
        26 -10.3784    249.3417    214.6612   3.1548182270e+01   1.1265537531e+00   0.08955568   0.06883531 -66.26 0.0007049706    1.769    0.435
        27 -13.3690     71.8609    119.3114   5.1981181150e+01   4.3225811823e+01    0.5215574    0.3426841  40.82  0.002449189    1.474    0.322
        28 -12.7376     33.9320     88.3933   5.9936381911e+01   5.6225070240e+01    0.5589401    0.2301589 -66.71  0.002106874    2.876    0.652
        29 -13.0902     28.2116    121.0290   6.8602279315e+01   4.8707680830e+01    0.8431825    0.4182327  68.48  0.002895378    3.208    0.688
        30 -11.6377      4.3955     89.1128   7.4163899873e+01   5.9030393623e+01    0.3405319    0.2437278 -56.39  0.001825122    1.368    0.269
        31 -14.8301     86.8643     83.9219   3.9277131994e+01   4.8517297034e+01    0.9706357    0.7607562  -3.57  0.004906969    2.129    0.530
        32 -14.1905     49.2017     79.5519   5.1290165191e+01   5.6011897741e+01    0.6127532    0.4977373   4.43  0.003363147    1.464    0.317
        33 -13.7149     74.8367     77.1847   4.1302935633e+01   5.2093326730e+01    0.5126792    0.4112642 -31.34  0.002835746    1.603    0.376
        34 -13.5126     26.5136     73.0519   5.9803178318e+01   6.0605987441e+01    0.9455972    0.4708167 -24.28  0.003399132    3.691    0.729
        35 -14.3359     83.0091     67.7801   3.6307616494e+01   5.2329264542e+01    0.7318599     0.514889 -31.37  0.003800007    2.033    0.508
        36 -13.2626     65.4023     62.2449   4.0453068235e+01   5.6656981871e+01    0.5879635     0.268387  36.76  0.002470614    2.407    0.585
        37 -13.6096     94.8527     67.4532   3.2928040197e+01   5.0074832993e+01     0.555142     0.323486 -45.36  0.002805549    1.923    0.480
        38 -11.8293     43.0956     69.2770   5.1163434996e+01   5.9096359830e+01    0.3069929    0.1963406  -7.07  0.001314876    2.754    0.637
        39 -13.4925     51.5349     63.8239   4.6115592414e+01   5.8809128582e+01    0.6138654    0.3514071 -35.96  0.002848602    2.364    0.577
        40 -12.5368     99.7205     57.6002   2.9168815020e+01   5.0773721613e+01    0.3586545    0.2425652 -43.90  0.002016931    1.713    0.416
        41 -13.6458    186.4120    116.0778   2.5507015186e+01   2.4760867449e+01    0.3998518    0.2702944  72.51  0.002480336    1.743    0.426
        42 -13.3683     62.6264     69.6233   4.3491332362e+01   5.5778322541e+01    0.5633473    0.2375743 -52.25  0.002359452    2.590    0.614
        43 -13.0385    119.8836     53.3423   2.3785599484e+01   4.7382503087e+01    0.3809227    0.3385983 -26.68  0.002497768    1.688    0.408
        44 -13.1203     74.3733     52.4324   3.4673839387e+01   5.6651153773e+01     0.457862    0.3463879   0.46   0.00238828    2.399    0.583
        45 -11.3584      2.3259    115.0358   7.8788703537e+01   5.2515726008e+01    0.4810323    0.1747977 -85.14  0.001577661    3.481    0.713
        46 -11.3505    162.2164    193.8998   4.2269448932e+01   1.2673303086e+01    0.3353429     0.228234  36.42   0.00195456    1.690    0.408
        47 -11.0084     38.4345    179.1277   7.2669019205e+01   3.1462121269e+01    0.3394596    0.1655693  39.75  0.001331861    1.964    0.491
        48 -11.1787     35.8430    173.9207   7.2934162552e+01   3.3192477767e+01    0.3558631    0.2072984  29.50   0.00152641    1.642    0.391
        49 -14.1334     67.1791    109.3865   5.1496971609e+01   4.6379283315e+01    0.5965697    0.4962016 -87.17  0.003092243    1.283    0.221
        50 -11.5016     26.1324     55.6230   5.5341423279e+01   6.4234530267e+01    0.2708071    0.1576349  15.20  0.001305274    1.954    0.488
        51 -11.5725     13.9866    109.4886   7.2861159986e+01   5.3120779694e+01    0.2868295    0.2035522  79.32   0.00139457    1.641    0.391
        52 -13.5367     21.1034     96.7623   6.7479947452e+01   5.5696262132e+01    0.7134396    0.4960995  86.00   0.00348424    1.775    0.437
