#   1 NUMBER                 Running object number                                     
#   2 MAG_AUTO               Kron-like elliptical aperture magnitude                    [mag]
#   3 X_IMAGE                Object position along x                                    [pixel]
#   4 Y_IMAGE                Object position along y                                    [pixel]
#   5 X_WORLD                Barycenter position along world x axis                     [deg]
#   6 Y_WORLD                Barycenter position along world y axis                     [deg]
#   7 A_WORLD                Profile RMS along major axis (world units)                 [deg]
#   8 B_WORLD                Profile RMS along minor axis (world units)                 [deg]
#   9 THETA_WORLD            Position angle (CCW/world-x)                               [deg]
#  10 FWHM_WORLD             FWHM assuming a gaussian core                              [deg]
#  11 ELONGATION             A_IMAGE/B_IMAGE                                           
#  12 ELLIPTICITY            1 - B_IMAGE/A_IMAGE                                       
         1 -10.1734     26.8192     22.8791   1.1619921185e+02   7.2867430472e+01      1.09997    0.3678172 -36.88  0.003815146    3.540    0.718
         2 -11.4776     80.3282     23.4111   8.6166152609e+01   6.3356086884e+01    0.6937079    0.3054599  39.86 0.0006067573    2.389    0.581
         3  -8.6306    103.2954     17.0733   7.5481713961e+01   5.8426348594e+01    0.6569278    0.2797242  23.16  0.001267288   10.210    0.902
         4  -9.7306     79.3465     12.9342   8.0829974112e+01   6.5026034307e+01    0.6367075    0.3080006  47.34  0.002678147    1.860    0.462
         5  -9.0415     74.4534     13.4886   8.3018413428e+01   6.6117727016e+01    0.3611109    0.2377556  31.01  0.001229374    1.556    0.357
         6  -9.5274     64.6322     14.0352   8.7589432185e+01   6.8251667476e+01    0.3633987    0.2241801  34.26 0.0009510101    1.600    0.375
         7  -9.2068    134.0263     13.6338   6.7389987606e+01   5.0363751695e+01    0.2912431    0.2355553  53.48 0.0003102149    1.195    0.163
         8  -8.9860    129.9765      9.5763   6.6437917648e+01   5.1904865886e+01    0.5193745    0.2746493 -15.12  0.002158882    2.243    0.554
         9  -8.2045     97.0585     11.9938   7.4677010847e+01   6.0657910944e+01    0.3545999    0.1465322  43.13  0.001292146    2.452    0.592
        10  -9.4370     31.8104     10.9922   1.0563913187e+02   7.4624692855e+01    0.3953564    0.2445264  15.37 0.0004204469    1.735    0.424
        11  -9.2721     32.0099      6.1800   1.0219359800e+02   7.5437870563e+01     0.270704    0.1996402   4.37   0.00038338    1.321    0.243
        12  -8.6207    125.1163     10.1828   6.7539615245e+01   5.3202630695e+01    0.2463862    0.2202989  65.51 0.0004021999    1.027    0.026
        13  -8.6336    156.2321      7.5142   6.1939575638e+01   4.4781591167e+01    0.3116006    0.1741028 -16.93  0.001363139    2.070    0.517
        14  -8.3886     71.6952      8.9838   8.1450795249e+01   6.7326402590e+01    0.1959442    0.1763234  -1.47 0.0004364731    1.122    0.109
        15  -9.3435     46.4772      6.3681   9.2272137498e+01   7.2999441244e+01    0.3325656    0.2254522  32.10  0.001105717    1.380    0.275
        16  -8.8866     41.0722      5.5434   9.5148068022e+01   7.4092106640e+01    0.4511273    0.2443921 -17.85  0.001897218    2.299    0.565
        17  -9.1190    119.2066      6.8865   6.7206264026e+01   5.5163489705e+01    0.2698921    0.2188404  42.85 0.0002283198    1.233    0.189
        18 -10.3477      7.2674      5.5050   1.2453431469e+02   7.8098552816e+01    0.6561542    0.2714294 -10.19   0.00281353    3.001    0.667
        19  -8.1638    100.7867      6.0205   7.0704189234e+01   6.0282660556e+01     0.234579    0.1835166  35.57  0.001220077    1.272    0.214
        20  -8.9381     92.6352      5.0229   7.2264625849e+01   6.2539487518e+01      0.49206     0.212174  54.11  0.001989272    1.953    0.488
        21  -9.7040     84.9011      5.3618   7.4676876629e+01   6.4501498349e+01    0.2975135    0.2467561 -12.76  0.001638033    1.291    0.226
        22  -8.4488    104.8018      1.8095   6.7711843014e+01   5.9577633723e+01     0.374664    0.1407207  48.88  0.001389444    2.385    0.581
        23  -7.8845    111.0281      4.4976   6.7710266159e+01   5.7641005247e+01    0.2373332    0.1808379  41.79 0.0003941389    1.292    0.226
        24  -8.9067    109.9569      2.0000   6.6752789032e+01   5.8152707281e+01    0.3764302    0.1985489  74.40  0.001505791    1.816    0.449
        25  -8.3802    143.2506      2.2288   6.1610629343e+01   4.8859856633e+01    0.2302349    0.1970481  55.71 0.0002343622    1.174    0.148
        26  -7.9103    134.1381      3.0866   6.3166628763e+01   5.1333810112e+01    0.2142249    0.1775203  51.46 0.0003502367    1.200    0.167
        27  -8.2317     57.0325      2.9209   8.4015413684e+01   7.1335774585e+01    0.2954777    0.2098351  35.54  0.001567111    1.272    0.214
        28  -8.3913    159.3017      1.9715   5.9685617009e+01   4.4440014656e+01     0.192709    0.1828759 -76.23 0.0009164521    1.091    0.083
        29  -9.1167     76.4386      5.7065   7.7679620839e+01   6.6569832481e+01    0.4613974    0.2781833 -27.99  0.001265388    1.755    0.430
        30  -8.2682      3.3668      1.6592   1.2669932168e+02   7.9097272958e+01    0.2015914    0.1360229  20.36 0.0005715397    1.640    0.390
        31  -8.4408      2.5911    109.1020   1.4588104218e+02   5.2658847761e+01    0.3360659    0.1535435 -32.00  0.001459339    2.941    0.660
        32  -9.6406    218.4632    250.1572   1.0822720281e+02  -3.3020030622e+00    0.2799416     0.105459  30.68  0.001576599    2.010    0.502
        33 -10.3821    197.3133    250.1917   1.1192625925e+02  -7.9042353466e-01    0.4569043    0.1189249  32.53  0.002050614    2.887    0.654
        34  -7.9431    133.8516    106.2334   9.9349175497e+01   3.4458278553e+01    0.3018633    0.2086511 -15.24 0.0008612048    2.069    0.517
        35  -7.7904    123.9835    107.5028   1.0247308709e+02   3.6364327754e+01    0.2284922    0.1402548  20.09 0.0005323933    2.479    0.597
        36  -9.1687     14.4652    105.5118   1.4125902500e+02   5.2969312487e+01    0.4994593    0.1704588 -42.14  0.001744877    3.829    0.739
        37  -7.5545    109.3743    106.4151   1.0660951346e+02   3.9723209979e+01    0.3214187    0.1475372  27.32 0.0009440394    3.455    0.711
        38  -8.1040     61.0022    106.0000   1.2345321627e+02   4.8286959243e+01    0.2457951   0.08473272  29.12 0.0008059275    2.967    0.663
        39  -7.6368     94.2001    103.1844   1.1076198909e+02   4.3525240870e+01    0.3454321    0.1255528  31.52 0.0009956363    3.458    0.711
        40  -7.2447    166.5245    100.4792   8.9727513262e+01   2.8096743076e+01    0.1542837    0.1478418   4.94  0.000352942    1.033    0.032
        41 -10.4488     15.8484     94.8608   1.3968905982e+02   5.5683462775e+01     0.635544    0.3994094 -26.63  0.001183984    1.926    0.481
        42  -9.3360     12.3927     93.7354   1.4098658592e+02   5.6171918430e+01    0.4246646    0.1622838 -62.14  0.001420129    2.201    0.546
        43  -9.3620    242.6777     97.2537   7.6000352499e+01   1.2575761884e+01    0.2133761    0.1683398  74.85  0.001273865    1.721    0.419
        44  -7.6919    130.3425     96.8321   9.7717494320e+01   3.7290855918e+01    0.3568064    0.1801662  27.68   0.00107367    3.374    0.704
        45  -8.4302    250.1605     96.0027   7.4786370117e+01   1.1410147968e+01    0.2163332    0.1173718 -48.02  0.001077538    2.008    0.502
        46  -8.1240    243.2989     93.6591   7.5107143479e+01   1.2954499858e+01    0.1311285   0.08846802 -52.21 0.0007035058    1.667    0.400
        47  -8.3425     96.3387     90.5880   1.0659674040e+02   4.6164766440e+01    0.5273693    0.3403116  -4.28  0.001793887    3.105    0.678
        48  -7.1214     83.3393     93.3426   1.1205839246e+02   4.7989364232e+01     0.164753    0.1231258 -16.97 0.0005038705    1.773    0.436
        49  -8.6777     43.4109     92.4846   1.2783697735e+02   5.4031374035e+01     0.326026    0.2033152 -32.10  0.001262911    1.956    0.489
        50  -8.0312    109.6318     91.1834   1.0230552808e+02   4.3220535768e+01    0.3505404    0.1872094  23.45  0.001074142    3.332    0.700
        51  -8.1845     62.9720     88.0280   1.1866782916e+02   5.2700038028e+01    0.3177352    0.1631737 -25.45 0.0009531913    4.085    0.755
        52 -10.1725     37.2955     81.1285   1.2828450234e+02   5.7664719589e+01    0.7560253    0.3825599 -19.59  0.002762513    3.242    0.692
        53  -8.0636    126.6918     83.8146   9.4868915978e+01   4.0923810707e+01    0.3225929    0.2124994  26.49  0.001268524    1.958    0.489
        54  -7.8960     66.1595     84.3029   1.1638335114e+02   5.3171804384e+01    0.2390728    0.1939299   1.49 0.0005579445    1.454    0.312
        55  -7.5506    180.5226     81.5452   8.1643171650e+01   2.8162685293e+01    0.1491133    0.1449233 -15.14 0.0005092752    1.032    0.031
        56  -8.6303     87.6953     79.1757   1.0629925611e+02   5.0615438467e+01    0.6053205    0.3535968  13.41  0.001962023    3.345    0.701
        57  -9.8478      7.5262     77.8000   1.4148406877e+02   6.0562263596e+01    0.5992206    0.2483902 -34.35   0.00227345    2.777    0.640
        58  -7.7634    184.4703     78.0358   7.9939658065e+01   2.7798755738e+01    0.2251339    0.1422788 -34.72 0.0004335863    1.517    0.341
        59  -8.6438     49.6792     76.9838   1.2166349036e+02   5.7368237650e+01    0.5048272    0.2594477   4.27  0.001752672    3.362    0.703
        60  -7.4184    105.3437     76.3113   9.9070802395e+01   4.7521064647e+01    0.1660352     0.128583   5.45 0.0007045903    1.703    0.413
        61  -9.2491     23.5040     74.4865   1.3350387095e+02   6.0565233971e+01    0.4881019    0.1717587 -57.59  0.001926188    2.307    0.566
        62  -9.6711     28.5092     69.0074   1.2999024028e+02   6.1619114390e+01    0.4791921    0.2129198 -37.64  0.001895454    2.553    0.608
        63  -8.4265     23.4639     69.4816   1.3262037752e+02   6.1874820137e+01    0.2949513    0.2370995  20.99  0.001217463    1.370    0.270
        64  -7.9446     74.8362     74.1768   1.0981240701e+02   5.4237884233e+01    0.2237292    0.2070518  61.59  0.000426526    1.146    0.128
        65  -9.8755    236.5331     71.0676   7.0660773654e+01   1.7312460362e+01    0.2493939    0.2243015  10.06 0.0004139377    1.266    0.210
        66  -7.6073    128.3327     70.3506   9.0041248775e+01   4.3254917007e+01    0.1700139    0.1277435  13.36 0.0007047348    1.777    0.437
        67  -8.6868     82.8219     65.0652   1.0346514872e+02   5.4851242128e+01    0.6168095    0.3613431 -14.56  0.001910393    3.833    0.739
        68  -9.0598    245.6667     65.5932   6.8382817358e+01   1.6238291438e+01    0.2195832     0.118517  56.89  0.001134014    2.139    0.532
        69  -8.9710     32.6874     60.6910   1.2587908883e+02   6.3392720982e+01     0.297021    0.1487819 -45.09 0.0005696519    1.885    0.470
        70  -9.2421     17.5797     62.5726   1.3437263734e+02   6.4035056437e+01    0.5499893    0.1579997 -38.79  0.001762346    4.121    0.757
        71  -9.3966     62.8256     61.3262   1.1083205326e+02   5.9367780654e+01    0.6564533    0.3803136  12.50  0.002438711    2.623    0.619
        72  -8.3121     57.9956     62.2311   1.1342941442e+02   5.9912863394e+01      0.34283     0.156322  28.17    0.0011162    2.408    0.585
        73  -9.1804     37.0346     59.6489   1.2327634754e+02   6.3229980899e+01    0.4028204    0.1690065 -39.81  0.001507512    2.636    0.621
        74  -8.2723    245.5262     60.5424   6.7224089910e+01   1.6909607639e+01    0.1279072    0.1073592 -37.65 0.0002319893    1.013    0.013
        75  -9.6120     25.7660     59.6506   1.2935896460e+02   6.4240259686e+01    0.3668528    0.1488374  28.71   0.00152066    2.521    0.603
        76  -7.9065    110.9381     58.6094   9.0989830455e+01   4.9869635821e+01    0.2608884    0.1883938  34.51  0.001143561    1.486    0.327
        77  -8.4377     98.6016     56.5025   9.4287432330e+01   5.3241358156e+01    0.4183201    0.2655261  -1.99  0.001433911    3.056    0.673
        78  -7.6187     49.2394     58.4089   1.1650228181e+02   6.2088637420e+01    0.2017707    0.1318411  40.22 0.0009447792    1.636    0.389
        79 -10.1113     74.9317     50.3198   1.0111430414e+02   5.9640733834e+01    0.4883909    0.3529563 -18.07  0.000323057    1.678    0.404
        80  -9.1434     45.0707     49.4685   1.1562886729e+02   6.4775164758e+01     0.485216    0.2359087 -32.34  0.001837871    2.651    0.623
        81  -8.2304    118.4197     51.1454   8.5914117257e+01   4.9360779359e+01    0.2662816    0.2033924  45.20 0.0005025006    1.280    0.219
        82  -7.6723    107.0072     48.4651   8.8285260426e+01   5.2736491910e+01    0.2258541    0.1254278  32.13  0.000483589    2.363    0.577
        83  -9.7116     12.1249     45.8184   1.3416210798e+02   6.8552758090e+01     0.633922    0.2997797 -34.78  0.002518923    2.095    0.523
        84  -9.2524     57.9352     41.3447   1.0539619763e+02   6.4665982305e+01    0.5669059    0.3144751 -14.23  0.001858587    3.825    0.739
        85  -8.8762      3.8813     40.2468   1.3828595230e+02   7.0221061405e+01    0.4429851    0.1453965 -79.45  0.001710018    2.950    0.661
        86  -9.5951      6.4084     33.7944   1.3523312494e+02   7.1717357122e+01    0.4845391    0.2839822 -29.34  0.002011091    1.641    0.391
        87  -9.6812      1.9986     29.2202   1.3738046753e+02   7.2933225835e+01    0.6408077    0.2134666 -74.06  0.002659972    2.626    0.619
        88  -8.9891     87.6929     37.9966   9.0475306249e+01   5.9263749533e+01    0.3424465    0.2330437  42.19  0.000651521    1.418    0.295
        89  -8.7651     81.3338     44.2771   9.5812788180e+01   5.9532897543e+01    0.3053411    0.2389089   7.19 0.0005822349    1.509    0.337
        90 -10.5956     83.1836     40.0740   9.3182785958e+01   5.9918916641e+01    0.3003426    0.2660376  29.12 0.0002303611    1.093    0.085
        91  -7.5303    124.1746     39.9480   8.0000043507e+01   4.9692017236e+01    0.2505945     0.177521  11.43 0.0006425687    1.927    0.481
        92  -8.5457      3.2798     46.1193   1.3966368176e+02   6.8784456129e+01    0.4765959    0.2500618  46.93  0.002325293    2.320    0.569
        93  -9.3940     67.9470     37.7232   9.8746473557e+01   6.3565860553e+01    0.6081092        0.307 -31.87  0.002386695    2.276    0.561
        94  -9.2359     71.9995     34.8090   9.5473373221e+01   6.3297271155e+01    0.4540091    0.2491072  35.91  0.001903961    1.883    0.469
        95  -8.8555     35.4945     38.0251   1.1691097925e+02   6.8589911064e+01    0.3127315    0.2070531 -52.36 0.0008535837    1.405    0.288
        96  -8.7984     38.7177     35.4288   1.1380335242e+02   6.8787357111e+01    0.2711568    0.2131052  12.61 0.0008285166    1.298    0.229
        97  -7.9280    105.9590     36.8180   8.3735843665e+01   5.4976397370e+01     0.252421    0.2005256  32.08  0.001213936    1.315    0.240
        98  -8.1825     92.2476     37.0246   8.8353500596e+01   5.8354793476e+01    0.2097855    0.2002424 -11.86 0.0003118957    1.072    0.067
        99  -7.3839    250.3377    249.3212   1.0291885523e+02  -6.7128812543e+00     0.109375   0.05498794   5.92 0.0007050269    1.712    0.416
       100  -8.9778     22.9934     35.5297   1.2417753085e+02   7.0375336148e+01    0.3149453    0.2676958  29.09  0.001850239    1.321    0.243
       101  -8.6917     21.8731     32.1657   1.2375117592e+02   7.1247325752e+01    0.2739134    0.1874052 -18.55  0.000698966    1.490    0.329
       102  -8.6918     56.0394     35.4188   1.0367572910e+02   6.6213002502e+01    0.2702608    0.2213225 -16.62 0.0007334464    1.227    0.185
       103  -8.4471     18.9861     35.7734   1.2700088650e+02   7.0612669233e+01    0.2052612    0.1733875 -43.34 0.0004099616    1.019    0.018
       104  -9.2698     41.9448     27.1353   1.0784231555e+02   7.0110048543e+01    0.3756282    0.2603049 -59.31  0.001079447    1.754    0.430
       105  -8.2492    106.0398    249.3400   1.2951823858e+02   1.1106713775e+01    0.1687859    0.1090958  34.59 0.0004483709    1.118    0.106
       106  -9.2495     69.7235     26.1383   9.2103481132e+01   6.5294169718e+01    0.2806066    0.2326514  81.22 0.0007227106    1.671    0.401
       107  -8.3048     61.8738     26.7409   9.6210658868e+01   6.6790096268e+01     0.235812    0.1881061 -13.71 0.0005275764    1.287    0.223
       108  -7.8162    101.6760     25.6499   7.9997362435e+01   5.7746285857e+01    0.1639365    0.1103503  26.65 0.0007048677    1.752    0.429
       109  -9.0737    229.3117     22.6538   5.9545417689e+01   2.4813918287e+01    0.3190773    0.1856292 -32.08  0.001036838    1.519    0.342
       110  -8.4035    144.9320     23.3084   6.9253285231e+01   4.6241892629e+01     0.217964    0.2147301 -70.58 0.0003980624    1.082    0.076
       111  -7.6368    128.9839     22.6909   7.1972801569e+01   5.0749941349e+01    0.2202475    0.1863441  66.19 0.0006559956    1.097    0.088
       112  -8.5210     64.0962     22.8001   9.2948813724e+01   6.7019467246e+01    0.2128829    0.2054804  64.40  0.001239081    1.240    0.193
       113  -8.8784     46.1394     20.6614   1.0166476348e+02   7.0711962887e+01    0.3628978    0.2163757 -46.25  0.001654604    1.769    0.435
       114  -7.9258     92.6669     20.5562   8.0313581749e+01   6.0748888402e+01    0.2673909    0.1870895  38.80 0.0005636662    1.397    0.284
       115  -8.2640    140.1610     19.9804   6.8815441922e+01   4.7957627897e+01    0.2219029    0.2026151  70.67 0.0005294709    1.030    0.029
       116  -8.4053      9.7376     19.8240   1.2852643884e+02   7.4850623457e+01    0.2805908    0.1469203 -15.16  0.000997401    2.028    0.507
       117  -7.4604    147.0163     19.0279   6.7333369188e+01   4.6154954236e+01     0.173089    0.1641393 -83.81 0.0009562706    1.042    0.041
       118  -7.1453    111.6746     19.6526   7.4535264733e+01   5.5868605256e+01    0.1640093    0.1066022  32.13 0.0007049731    1.748    0.428
       119  -9.2301    159.9572    250.0186   1.1886092677e+02   3.9670478727e+00    0.1822652    0.1130799   9.60  0.001127081    1.688    0.407
       120  -8.4296      5.1368     18.8980   1.3210217249e+02   7.5256244403e+01    0.1743364    0.1585211 -75.54  0.000338167    1.233    0.189
       121  -8.5334    127.6441     16.9122   6.9874849464e+01   5.1792589510e+01    0.2457292    0.1879951  55.03 0.0003865329    1.223    0.182
       122  -8.4633    111.5346    244.9658   1.2800492095e+02   1.1051504244e+01     0.207317      0.10859 -49.70  0.001200276    2.567    0.610
       123  -7.4398     30.5327    241.4417   1.4439238009e+02   2.1164314064e+01    0.1109689   0.07884444  48.23  7.72131e-06    1.029    0.028
       124  -7.3002    202.0346     16.7135   6.0175221990e+01   3.1815378160e+01    0.1586194    0.1141794  85.15 0.0003121849    1.354    0.262
       125  -7.9919    189.1983     15.4137   6.0967810660e+01   3.5177850878e+01    0.2014423    0.1222122 -85.96 0.0003297908    1.675    0.403
       126 -11.9420    249.6086    234.8801   1.0094944549e+02  -5.2975642349e+00    0.2291189    0.1510406  -2.19 0.0004113435    1.138    0.121
       127  -9.6083    187.9983    234.1056   1.1148535244e+02   2.2591505413e+00    0.2241414    0.2133262  77.87  0.001358523    1.913    0.477
       128  -8.5157     16.0144    234.1136   1.4705966864e+02   2.3837231537e+01    0.1631575    0.1156074  49.82 0.0003323728    1.037    0.035
       129  -7.6211    128.4228    222.5041   1.2207278560e+02   1.2244230163e+01    0.1263255   0.09916491  29.61 0.0003654471    1.035    0.034
       130  -9.5163    162.7173    213.5216   1.1357981851e+02   8.6102370800e+00    0.2128982    0.1752909  19.69 0.0003239313    1.065    0.061
       131  -7.2036     36.7135    212.6143   1.4185966632e+02   2.5826353059e+01    0.1053607   0.08815745 -37.71 0.0007010164    1.746    0.427
       132  -8.2637     11.4816    207.4877   1.4727239469e+02   2.9242864416e+01    0.1170828   0.08548327  55.73 0.0005229411    1.006    0.006
       133  -7.9795    112.6728     11.6737   7.0677562304e+01   5.6494555532e+01    0.1609992    0.1017313  36.67 0.0004400728    1.699    0.411
       134  -7.9359     88.1030     12.9554   7.7840629619e+01   6.2858181473e+01    0.2393946    0.1576517  29.83 0.0007400072    1.632    0.387
       135  -7.1343    164.3259    198.3430   1.1094500803e+02   1.0708691483e+01    0.1368458   0.09104355   3.83 0.0007050927    1.738    0.425
       136  -7.4219    179.7953    163.9833   1.0154840312e+02   1.3780484218e+01    0.1739986    0.1076027 -36.48 0.0003993269    1.686    0.407
       137  -9.2859    222.6496    145.1046   8.9515592242e+01   9.2676227467e+00    0.2232606    0.2020134   8.64 0.0003921827    1.167    0.143
       138  -9.2432     67.1896    144.7287   1.2778820635e+02   3.7450367963e+01    0.5166097    0.2844623  56.96  0.002225793    1.938    0.484
       139  -7.5574     40.9525    129.3568   1.3427935604e+02   4.4549219956e+01    0.2186033    0.1105317 -10.66 0.0007042598    4.429    0.774
       140  -7.5796    193.6673    127.6811   9.0927195655e+01   1.7346975177e+01    0.1503176    0.1061352   7.01 0.0007048532    1.694    0.410
       141  -7.4308    241.4717    126.5885   8.2627485138e+01   8.7359252137e+00    0.1278073    0.1052244 -10.86  9.67321e-05    1.038    0.037
       142  -8.1222    226.9817    126.0494   8.4710316482e+01   1.1305910145e+01    0.1601082    0.1369861 -12.34 0.0004804976    1.004    0.004
       143  -7.9360    132.6872    124.6504   1.0432158400e+02   3.0686279980e+01    0.1620863    0.1236455  -3.08 0.0007046129    1.721    0.419
       144  -8.9906     11.8352    121.2309   1.4340538970e+02   4.9058511949e+01    0.2392133    0.1921731 -62.52  0.001445694    1.272    0.214
       145  -7.0369    180.6692    120.6506   9.1867199287e+01   2.1241510765e+01    0.1578037      0.11257   5.98 0.0007048464    1.768    0.434
       146  -7.5938    119.7733    118.7771   1.0655433030e+02   3.4690393520e+01    0.2563774    0.1713815  -3.98 0.0009337881    2.647    0.622
       147  -7.8581    100.9760    118.5245   1.1223081936e+02   3.8476078187e+01    0.2294439    0.1415031  12.08 0.0008098987    2.704    0.630
       148  -7.3889    159.3421    117.3263   9.5759116537e+01   2.6470902418e+01    0.1623884    0.1198169   7.38 0.0007051144    1.737    0.424
       149  -7.3578     40.1941    116.3450   1.3291489857e+02   4.8032407744e+01    0.1837566    0.1206912  39.10 0.0009031541    1.494    0.331
       150  -8.2246    236.7240    111.2537   7.9957063107e+01   1.1697785933e+01    0.1976413   0.09645469  38.27 0.0009037278    2.403    0.584
       151  -7.2655     38.7286    110.6439   1.3267404116e+02   4.9688002089e+01    0.1470454    0.0978208 -44.66 0.0003428798    1.641    0.391
