#   1 NUMBER                 Running object number                                     
#   2 MAG_AUTO               Kron-like elliptical aperture magnitude                    [mag]
#   3 X_IMAGE                Object position along x                                    [pixel]
#   4 Y_IMAGE                Object position along y                                    [pixel]
#   5 X_WORLD                Barycenter position along world x axis                     [deg]
#   6 Y_WORLD                Barycenter position along world y axis                     [deg]
#   7 A_WORLD                Profile RMS along major axis (world units)                 [deg]
#   8 B_WORLD                Profile RMS along minor axis (world units)                 [deg]
#   9 THETA_WORLD            Position angle (CCW/world-x)                               [deg]
#  10 FWHM_WORLD             FWHM assuming a gaussian core                              [deg]
#  11 ELONGATION             A_IMAGE/B_IMAGE                                           
#  12 ELLIPTICITY            1 - B_IMAGE/A_IMAGE                                       
         1 -13.3404      3.5717    126.8385   1.3147705042e+02   4.7708454945e+01     1.043833    0.3742267 -74.76  0.005796486    2.133    0.531
         2 -12.9304    197.4866     32.5536   6.1959098121e+01   3.1572002540e+01     1.231307    0.9286932  34.41  0.006051576    1.393    0.282
         3 -13.7275    212.1618     15.0427   5.4649196399e+01   2.9641720376e+01     1.543134     1.010015  26.40  0.007151903    1.806    0.446
         4 -11.3439      1.9547      4.9447   1.1179697076e+02   7.3049383744e+01    0.7168458    0.1273738 -60.43  0.002451464    5.042    0.802
         5  -9.3771     16.5041     25.4805   1.1173339917e+02   6.8159525536e+01    0.1143765   0.09112431 -55.51   0.00014538    1.096    0.088
         6 -10.5292    184.4663    250.2876   1.1022561114e+02   4.4563254221e+00    0.2538183    0.1036206  41.01  0.001525571    1.734    0.423
         7 -10.7007    169.5126    248.7732   1.1233124462e+02   6.7873484226e+00    0.2501329    0.1510901  27.10 0.0008857084    1.827    0.453
         8 -11.1283    149.9145    248.7172   1.1532185979e+02   9.6211094400e+00     0.249967    0.1941229  81.38  0.002031194    1.670    0.401
         9 -10.5000     84.5681    240.8075   1.2471388872e+02   1.9444841423e+01    0.2902064    0.1914177  70.00  0.002343003    1.311    0.237
        10 -10.4921     91.6620    225.4774   1.2245181000e+02   2.0694407713e+01    0.4303169    0.1216761  49.90  0.002144646    2.687    0.628
        11 -12.6523    130.7120    248.8572   1.1827363912e+02   1.2308692058e+01     1.384076    0.2546137  41.17  0.005308658    4.643    0.785
        12 -11.4926    100.3947    247.7892   1.2280308572e+02   1.6508760617e+01     0.536657    0.2631315  49.97  0.003214435    1.432    0.302
        13 -12.8137    124.2578    242.0965   1.1867226002e+02   1.4031604741e+01    0.7547595    0.4021745  37.68  0.005009434    1.717    0.418
        14 -12.8081    135.6765    233.5351   1.1606278374e+02   1.3490358115e+01     1.073046    0.5019094 -59.52  0.006495973    2.989    0.665
        15 -10.2019     85.4191    234.8031   1.2415800283e+02   2.0168179522e+01    0.3028557    0.1534172  65.11  0.002016691    1.845    0.458
        16 -10.7869     84.7795    229.3760   1.2386072163e+02   2.1018744903e+01    0.1776363    0.1569239  82.98 0.0001205057    1.351    0.260
        17 -10.6872    115.6074    250.2730   1.2069103994e+02   1.4194166784e+01    0.3914903    0.1241788  45.07  0.001057415    2.194    0.544
        18 -11.3625    109.4209    246.3529   1.2131999264e+02   1.5509683280e+01    0.3495487    0.2458863 -85.64  0.001376173    1.703    0.413
        19 -11.5779     98.6537    232.6541   1.2190576344e+02   1.8758008626e+01      0.82374    0.3249728 -78.11  0.003723351    5.330    0.812
        20 -11.3693    113.3379    230.7910   1.1939620222e+02   1.7024500478e+01    0.3344679    0.2537067  44.51  0.001784422    1.229    0.186
        21 -11.5289     91.0877    240.5779   1.2369610293e+02   1.8654989430e+01    0.4753651    0.2510773  82.39  0.002313982    2.439    0.590
        22 -10.8431     96.8774    239.7403   1.2273884725e+02   1.8023523840e+01    0.2532923    0.2153914  79.44  0.001756903    1.303    0.233
        23 -11.8323    104.8702    227.5536   1.2048076898e+02   1.8634879782e+01    0.5098259    0.2794625  64.01  0.002620694    1.768    0.434
        24 -11.0406     98.4389    223.5217   1.2118369056e+02   2.0078836203e+01    0.3965532    0.2156276  57.31  0.001147569    1.495    0.331
        25 -10.1595     82.0050    247.0093   1.2551785019e+02   1.8925401154e+01     0.235668    0.1460884 -81.53  0.001888482    1.827    0.453
        26  -9.3831     62.7714    250.3779   1.2855472039e+02   2.0745873573e+01    0.1763634   0.09484226  36.94 0.0008266064    2.005    0.501
        27 -11.4533     60.3857    245.7774   1.2865245367e+02   2.1640615627e+01    0.3506923    0.2257853  56.83  0.001667141    1.071    0.066
        28 -10.6395     67.2147    243.8444   1.2753157549e+02   2.1121017667e+01     0.286086    0.1160653  41.66  0.001858116    2.007    0.502
        29 -13.3263      2.9885    190.6143   1.3495201638e+02   3.5903889514e+01     2.276692    0.2706314 -75.89    0.0092985    5.759    0.826
        30 -12.1622     55.0338    207.0447   1.2713776266e+02   2.8035101891e+01    0.9636094    0.4118077  52.83  0.005475888    1.795    0.443
        31 -12.0037     16.8865    217.5367   1.3382576275e+02   3.0307771177e+01    0.5634206    0.3441998  24.93   0.00405939    2.777    0.640
        32 -13.0495     12.1465    207.3534   1.3414811649e+02   3.2350664839e+01    0.8638039     0.744289 -23.54  0.007469611    2.412    0.585
        33 -11.5950     41.5154    205.9000   1.2932306603e+02   2.9709947666e+01     0.557248    0.1598366  47.26  0.002377627    2.468    0.595
        34 -13.3389     28.3629    246.7978   1.3330411052e+02   2.4900512761e+01     1.050764    0.4773379  45.11  0.008135098    1.677    0.404
        35 -13.2910     39.8474    242.8068   1.3150010162e+02   2.4289870981e+01    0.9838716    0.4900551  60.90  0.007681793    1.406    0.289
        36 -13.1178      3.9820    244.8931   1.3660585135e+02   2.7450489158e+01    0.7470046    0.3163601  73.81  0.005874379    1.775    0.437
        37 -13.0316     13.6641    239.8262   1.3511580912e+02   2.7289645151e+01    0.5977884    0.4429592  88.27  0.001613207    1.413    0.292
        38 -12.7921     32.7122    227.4155   1.3184940263e+02   2.7259556159e+01    0.3642135    0.2602645 -72.49  0.002007501    1.707    0.414
        39 -14.0029     39.5159    218.6395   1.3036308871e+02   2.7895423487e+01    0.9851757    0.6502017  42.10  0.007943635    1.553    0.356
        40  -9.7214     55.2876    235.9401   1.2886993619e+02   2.3595869981e+01    0.2198802    0.1096673  60.63  0.000963016    1.496    0.332
        41 -11.3114    166.3404    242.1554   1.1211320350e+02   7.9639850640e+00    0.3291057    0.1307854  46.01  0.001802195    1.836    0.455
        42 -11.0860    116.8693    238.2736   1.1949372171e+02   1.5541935384e+01    0.2996165    0.2395548 -20.09  0.001582797    2.356    0.576
        43 -11.0122     79.2021    224.7957   1.2441530086e+02   2.2388025301e+01    0.4817132    0.2446834  83.14  0.002980725    2.424    0.587
        44 -11.6230    122.5670    233.1021   1.1812343857e+02   1.5423930036e+01    0.2787431     0.255231  79.44  0.001830923    1.318    0.241
        45  -8.7930    151.3154    239.6340   1.1419650921e+02   1.0463173796e+01    0.1049464   0.06718349  64.43 0.0007038971    1.771    0.435
        46 -10.6411    105.3848    237.3370   1.2122121996e+02   1.7224719003e+01    0.2385865    0.2173731 -20.28  0.002042151    1.848    0.459
        47  -8.9190     61.4406    239.0528   1.2811768691e+02   2.2455629815e+01    0.1471996   0.09067918  53.01 0.0007620679    1.176    0.149
        48  -9.3997    173.1277    236.1734   1.1038394361e+02   7.6092726507e+00    0.1355646    0.1019825  54.10 0.0002505431    1.291    0.226
        49 -10.5554    244.1733    240.8398   1.0017134778e+02  -3.3677412657e+00    0.1496069   0.08944629  22.76  0.000544845    1.348    0.258
        50 -10.8154    156.6965    231.8116   1.1250660903e+02   1.0591142543e+01    0.1942814    0.1694174  35.88 0.0004830022    1.227    0.185
        51  -8.7329     78.1562    233.5786   1.2520685896e+02   2.1245644943e+01    0.1229255   0.07817741  40.00 0.0004732227    1.566    0.361
        52  -8.7018     62.6012    233.1906   1.2759436388e+02   2.3159033413e+01    0.1025983   0.08119247 -85.66 0.0001228596    1.421    0.296
        53 -11.3413     87.6430    248.4808   1.2477151452e+02   1.8035780544e+01    0.4314618    0.1923503  49.89  0.000883532    1.557    0.358
        54 -10.1944    142.2898    227.3052   1.1435142338e+02   1.3311487811e+01     0.218739    0.1425033 -83.45  0.001395034    2.440    0.590
        55  -8.4974     57.4663    231.4290   1.2828023624e+02   2.4003767050e+01   0.09804353   0.06688359  62.04 0.0003195043    1.015    0.015
        56  -9.2753     45.8385    231.1543   1.3004408734e+02   2.5330674077e+01    0.1545232    0.0855222  62.26  0.001196703    1.304    0.233
        57 -10.7163    142.1837    221.5941   1.1374967469e+02   1.4069722425e+01    0.2919672     0.164774  42.39 0.0003658354    1.396    0.284
        58 -10.7119    117.1048    224.6244   1.1821407535e+02   1.7342419982e+01     0.257239      0.18585  48.32 0.0008947343    1.111    0.100
        59 -11.1965     39.6711    230.3332   1.3093698521e+02   2.6107509792e+01    0.2547252    0.1771652  86.37 0.0009626137    1.319    0.242
        60  -9.2684     64.9548    224.6546   1.2668809305e+02   2.4139614880e+01    0.1701857     0.141022 -46.75  0.001082508    2.056    0.514
        61  -9.7731    160.1071    223.7399   1.1103263053e+02   1.1050718697e+01    0.1828163    0.1072338  27.80  0.001086993    2.011    0.503
        62 -10.7810    245.9144    219.9019   9.6927191433e+01  -1.9075872626e+00    0.2679413    0.1298082 -13.20  0.001538692    2.616    0.618
        63 -10.3690     70.3418    218.8303   1.2542079589e+02   2.4375897349e+01    0.4145513    0.2073411 -86.78  0.002646391    2.285    0.562
        64  -8.8999    118.4501    217.7447   1.1731836561e+02   1.8117418237e+01    0.1152597    0.1041333 -49.43 0.0004380133    1.533    0.348
        65  -9.2724     88.9876    218.2794   1.2230377165e+02   2.2105454630e+01    0.1932875    0.1385913 -60.90   0.00146751    1.766    0.434
        66  -9.4827     88.1580    212.8953   1.2199014254e+02   2.3032311332e+01    0.1932936    0.1226093  85.68 0.0009050149    1.673    0.402
        67  -8.9785     62.4683    217.9370   1.2664273244e+02   2.5452863152e+01    0.1392614    0.1157475  53.86 0.0006059324    1.329    0.248
        68 -10.1602    137.2960    214.5118   1.1378142198e+02   1.5768758004e+01    0.2063863    0.1553247  77.12  0.001115746    1.527    0.345
        69  -8.9713    160.0150    213.6958   1.0983045072e+02   1.2331812129e+01    0.1556047    0.1159009  42.87 0.0004071621    1.056    0.053
        70  -9.9507    102.2521    211.8847   1.1949854159e+02   2.1278367080e+01    0.2844262     0.127153  61.78  0.001488122    2.503    0.600
        71  -9.2394     97.2109    210.8612   1.2026657919e+02   2.2129388925e+01    0.1275223    0.1162656  52.61 0.0003664083    1.329    0.248
        72  -9.4154    106.8466    209.8863   1.1851547639e+02   2.0935687967e+01    0.1520427    0.1328125  47.55 0.0005179239    1.269    0.212
        73  -9.7774    112.5589    208.3291   1.1736873929e+02   2.0352001190e+01    0.1899686    0.1558516  51.54  0.000588501    1.130    0.115
        74  -9.4314     74.7412    208.6100   1.2391625853e+02   2.5426343338e+01    0.1979707    0.1346868  46.73  0.001462546    1.311    0.237
        75  -8.7874    134.4763    208.4652   1.1357488669e+02   1.7051623977e+01    0.1129771   0.08981124  47.41 9.963672e-05    1.075    0.070
        76 -10.4262     53.8195    240.6075   1.2934368470e+02   2.3095655558e+01    0.1839508    0.1252068 -81.42 0.0007551383    1.579    0.367
        77  -9.6556     95.9985    205.8145   1.2000455355e+02   2.3077906480e+01    0.3015994    0.1530211  85.60  0.001528238    3.162    0.684
        78  -9.7574     91.0755    204.9867   1.2078654686e+02   2.3878410059e+01    0.3611382    0.1889365  44.72  0.001167772    1.578    0.366
        79  -9.1094     32.9004    207.0218   1.3080419271e+02   3.0421468682e+01      0.12041    0.1061927 -76.32 0.0004747708    1.574    0.365
        80 -10.4555    247.7001    205.8357   9.4475489537e+01  -9.3617463724e-01    0.3858779    0.1212729  33.92  0.001710616    2.927    0.658
        81  -9.9771    250.1600    200.7384   9.3273569540e+01  -8.5325567784e-01    0.2625172    0.1305041  -4.75  0.001360644    2.682    0.627
        82  -8.3367    190.2505    206.7050   1.0380140723e+02   8.2806828349e+00    0.1010157   0.08289909  62.70 0.0002125698    1.487    0.327
        83  -8.9642    125.8213    205.8512   1.1478555238e+02   1.8755352340e+01    0.1532056    0.1115767  65.17 0.0005614542    1.299    0.230
        84  -9.0123     74.6997    203.7135   1.2352728270e+02   2.6217648635e+01     0.216208    0.1285537  29.11 0.0009335011    2.391    0.582
        85  -9.8576    114.0364    201.7646   1.1641304381e+02   2.1138570199e+01    0.2464922    0.1951175  -7.19   0.00158544    2.339    0.573
        86  -9.6245    103.3530    202.8093   1.1841771024e+02   2.2522813724e+01    0.2772507    0.1422274  52.70  0.001443147    1.597    0.374
        87  -9.5790     83.8357    202.0008   1.2178409717e+02   2.5320630693e+01     0.180007    0.1416878  85.51 0.0003541321    1.217    0.178
        88  -8.7743     86.0000    198.9902   1.2112693904e+02   2.5524352137e+01    0.1291367    0.1201449  62.34  0.001037594    1.333    0.250
        89  -9.1402     85.9758    195.7313   1.2082529321e+02   2.6064191386e+01    0.1697527     0.118714  65.62 0.0003703932    1.194    0.162
        90  -8.9847     64.3600    201.8836   1.2517468976e+02   2.7787000599e+01    0.1402625    0.1106669  70.73 0.0005095116    1.085    0.078
        91  -9.5701     44.1464    199.1937   1.2846516754e+02   3.0535514189e+01    0.2226912    0.1897058 -38.79  0.001778922    2.073    0.518
        92  -9.0974    183.0327    200.3208   1.0409756780e+02   1.0266766467e+01    0.1651752    0.1202345  42.58 0.0003482276    1.106    0.096
        93  -8.7114    127.7768    199.6530   1.1372157321e+02   1.9384181179e+01    0.1402384    0.1242624  54.64  0.000304704    1.131    0.116
        94  -8.9567    119.9583    199.2653   1.1507656427e+02   2.0639883645e+01    0.1441809   0.08122021  46.59 0.0002296968    1.437    0.304
        95 -11.8012     58.8608    194.9786   1.2560846520e+02   2.9592008828e+01    0.4323681    0.3664563   9.69  0.002098895    2.072    0.517
        96  -9.4641     27.9558    197.9267   1.3113367370e+02   3.2413998048e+01    0.2022972    0.1330623 -87.59  0.001616696    1.333    0.250
        97  -9.0995     31.3471    195.1861   1.3040746047e+02   3.2539910508e+01    0.2403123   0.05731703  48.95  0.001235149    2.888    0.654
        98  -9.0379    145.3275    198.1932   1.1040381951e+02   1.6819421245e+01      0.13799    0.1067087 -70.45 0.0002730984    1.624    0.384
        99 -10.2132     96.7350    196.0201   1.1891054389e+02   2.4543844291e+01    0.3598545    0.1504664  53.60  0.001765151    2.116    0.527
       100  -9.7872    102.9617    195.9375   1.1777436536e+02   2.3674461029e+01    0.1658327    0.1357401  61.90 0.0005179974    1.041    0.039
       101  -8.7145    134.2836    197.6940   1.1231726622e+02   1.8661906681e+01    0.1134691   0.07826466  68.03 0.0002453105    1.561    0.360
       102 -10.4460    249.4169    194.2408   9.2302366137e+01  -1.2726012116e-01    0.2978256    0.1873135  33.07  0.001925749    1.251    0.201
       103  -9.7268     25.7258    192.4138   1.3121211732e+02   3.3563023762e+01    0.2246833    0.1194783  61.50 0.0007845485    1.439    0.305
       104 -12.6352      5.8696    226.0323   1.3577566023e+02   3.0010558926e+01    0.7975082    0.4917819  69.91  0.007174053    1.083    0.077
       105  -9.7351     20.0358    191.2397   1.3212051526e+02   3.4301671462e+01    0.1695975   0.09819182  76.21  0.001271919    1.330    0.248
       106  -8.8194     72.5377    192.9998   1.2300084043e+02   2.8267137127e+01    0.1371887   0.09572395 -74.42 0.0003381402    1.476    0.322
       107  -9.4872    191.4833    191.4717   1.0130364427e+02   9.9393450302e+00    0.2058982    0.1691129  33.02 0.0005795276    1.033    0.032
       108  -9.3411     38.5196    192.4183   1.2900317201e+02   3.2279400347e+01    0.1439922   0.08355363 -80.99 8.671004e-05    1.574    0.365
       109  -9.7338     40.6208    188.4042   1.2837091965e+02   3.2752197598e+01    0.2226826     0.156235  73.32 0.0007051582    1.082    0.076
       110  -9.2400     15.5744    191.4648   1.3288749708e+02   3.4671418035e+01    0.2119269   0.09097023 -88.15 0.0008046013    2.014    0.504
       111  -8.9095    113.4340    190.6771   1.1526942546e+02   2.2986490162e+01    0.2255704    0.0848882 -42.22 0.0008046313    6.031    0.834
       112  -9.7661     31.7672    189.9170   1.3002585819e+02   3.3398905336e+01    0.3255888    0.1156575  52.11  0.001912751    2.175    0.540
       113  -9.7631     28.4397    184.6351   1.3029387754e+02   3.4646786218e+01    0.2520036    0.1739214  31.27  0.001320207    1.891    0.471
       114  -9.4283     24.2848    183.9934   1.3099145723e+02   3.5158556000e+01    0.1433238    0.1289282  82.42 0.0004612144    1.399    0.285
       115 -10.7110    250.0054    187.6581   9.1080876501e+01   4.1258328839e-01    0.3073871    0.1754568 -10.78  0.001798776    1.887    0.470
       116  -9.4775     77.0881    188.6545   1.2177725534e+02   2.8428878395e+01    0.1664285    0.1233671  77.99 0.0003833566    1.180    0.153
       117  -8.6143    111.3121    188.6496   1.1542499549e+02   2.3637193137e+01     0.121215   0.07658038  70.34 0.0007045679    1.721    0.419
       118 -10.9887     83.7900    186.8495   1.2036079776e+02   2.7857471321e+01    0.1893039     0.151668  70.40 0.0002096127    1.038    0.036
       119 -11.5469     66.3126    186.9382   1.2360665272e+02   3.0082362059e+01    0.2152357    0.1941806  81.38 0.0004403779    1.282    0.220
       120  -8.7678     65.9382    182.0294   1.2324179563e+02   3.0991652742e+01     0.130472     0.119127  86.27 0.0003200162    1.301    0.232
       121  -8.6175     73.7405    184.6628   1.2202350586e+02   2.9551467361e+01   0.09295154   0.08421379 -50.39 0.0004796941    1.580    0.367
       122  -9.3585    140.0421    183.0443   1.0932303110e+02   1.9981343061e+01    0.1793329    0.1498838  55.32 0.0003296927    1.044    0.042
       123 -10.6400    127.7445    182.6386   1.1158413076e+02   2.2062505019e+01    0.2110281    0.1724872  67.31 0.0002759924    1.156    0.135
       124  -9.3918    107.8315    182.5879   1.1535894992e+02   2.5172003145e+01    0.1638009     0.149761 -88.60 0.0004500052    1.202    0.168
       125  -9.4250     36.7977    183.0494   1.2869665492e+02   3.4090220892e+01    0.1679824    0.1061774  72.71  0.001224968    1.254    0.202
       126 -10.2111     86.1087    180.2867   1.1924554410e+02   2.8686813616e+01    0.2408736    0.1630123  78.20 0.0003449063    1.446    0.308
       127  -9.0930     47.4883    179.7204   1.2649641673e+02   3.3548135872e+01    0.1710061   0.08172103  39.95 0.0007054257    1.984    0.496
       128  -8.6317     92.5441    178.4080   1.1780209846e+02   2.8123618494e+01    0.1144013   0.09423912  63.96 -3.343285e-05    1.031    0.030
       129  -8.9390     12.2908    178.5632   1.3281871310e+02   3.7203370397e+01    0.1109191   0.09018704  39.49 0.0009389732    1.577    0.366
       130 -12.0507    248.0892    172.5507   8.8656429703e+01   2.2633391916e+00    0.6182351    0.3938736  -4.79  0.003671142    1.602    0.376
       131 -12.7633    248.4105    114.4735   7.6459882812e+01   8.8892443720e+00     1.046342    0.6681116 -10.57  0.005375197    1.574    0.365
       132 -12.8600    247.9606    101.1496   7.3377104373e+01   1.0631829736e+01    0.9344681    0.6310919 -24.92  0.004933572    1.385    0.278
       133 -12.1324    246.6889    157.8710   8.6059774397e+01   4.0978090409e+00     1.114679    0.8422654 -78.72  0.005575396    3.205    0.688
       134 -11.8733    247.8277    142.4108   8.2727097472e+01   5.6511767207e+00    0.8288625    0.4607596  43.62  0.004322263    1.674    0.403
       135 -12.5466    248.8831    132.6312   8.0469671692e+01   6.6003308961e+00      1.06593    0.6309442 -17.12  0.005530745    1.669    0.401
       136 -10.7417     76.5247    174.9023   1.2052842056e+02   3.0930312087e+01    0.2115272    0.1855423  85.44 0.0004190932    1.170    0.145
       137 -11.5219     63.7600    173.6345   1.2288327331e+02   3.2771312960e+01    0.3834839    0.2205894  74.82  0.001158489    1.719    0.418
       138 -11.3586     14.7003    167.2056   1.3176763104e+02   3.9046072913e+01    0.3088037     0.213515  49.90  0.001918112    1.386    0.279
       139 -10.7920     11.8515    173.1788   1.3261970752e+02   3.8203168257e+01     0.290179    0.1784139 -70.83  0.002187539    1.622    0.383
       140  -9.7815     45.0000    164.9469   1.2577681966e+02   3.6538632708e+01    0.2134654    0.1286761 -71.79 0.0003726785    1.546    0.353
       141 -10.7022     43.6993    168.6980   1.2634304024e+02   3.5975073359e+01    0.2651283    0.2066609 -85.19   0.00095271    1.192    0.161
       142 -10.3113     28.1015    171.6404   1.2953527202e+02   3.7011126848e+01    0.2577971    0.2172879 -74.04  0.001455066    1.418    0.295
       143  -8.4436    150.7390    170.3014   1.0537838423e+02   2.0169187488e+01    0.1184174   0.09224943  75.38 0.0001681004    1.514    0.339
       144  -9.1246    133.9876    167.6393   1.0823363701e+02   2.3522258938e+01    0.1738466    0.1378376  50.04  0.000427177    1.099    0.090
       145 -11.8603     84.4339    166.3193   1.1801064522e+02   3.1443046342e+01    0.5164362    0.3845149  48.31  0.003458249    1.262    0.208
       146 -10.6305     19.0759    173.0909   1.3129885399e+02   3.7585671681e+01    0.3713011    0.1695881  66.21  0.002274331    1.856    0.461
       147  -9.2284     58.2303    162.4987   1.2290510906e+02   3.5512557840e+01    0.1748631    0.1196275  75.62  0.000364432    1.279    0.218
       148  -9.7265     21.7652    163.4362   1.3019695732e+02   3.9121467345e+01    0.1148368   0.09635875  40.52 0.0003604448    1.506    0.336
       149  -8.6174     36.5638    162.5386   1.2724619853e+02   3.7874065903e+01    0.1089718   0.08112951  76.71 0.0001908059    1.038    0.037
       150 -12.7926     11.3612    154.3917   1.3164782061e+02   4.1723373161e+01    0.6997768    0.4008053 -83.22  0.004197123    1.401    0.286
       151 -13.0253     10.2859    114.6642   1.2896756219e+02   4.9722314293e+01    0.6011744      0.37316  87.46  0.002031358    1.311    0.237
       152 -12.3128     15.3797    138.8976   1.2977599331e+02   4.4408567618e+01    0.8865135    0.1515995  47.06  0.003734635    4.334    0.769
       153 -13.6053      4.3098    142.4516   1.3233692754e+02   4.4568134954e+01     1.155629    0.4862674 -75.58  0.007091625    1.887    0.470
       154 -11.7275     23.7231    155.0727   1.2923694972e+02   4.0529643984e+01    0.3158848    0.2823387  22.99  0.002590602    1.645    0.392
       155 -11.4296     23.1124    150.2829   1.2900872348e+02   4.1510080478e+01    0.2384515    0.2278531 -62.61  0.001695934    1.489    0.328
       156 -10.6162     84.2150    155.5729   1.1673730406e+02   3.3503410728e+01    0.2898895    0.1965314  33.07  0.001731581    1.734    0.423
       157  -8.7783    228.3625    155.2629   8.8510481486e+01   7.7735962457e+00    0.1647735    0.1153778 -34.94 0.0005373028    1.623    0.384
       158 -10.4419     90.0235    153.2135   1.1519311314e+02   3.3132914190e+01    0.2296269    0.1917872 -61.06 0.0003208914    1.311    0.237
       159  -9.2116    104.6336    153.3225   1.1209806846e+02   3.0913859776e+01    0.2095538    0.1293627  54.68 0.0004238306    1.517    0.341
       160  -9.1363    113.9645    150.9340   1.0974911148e+02   2.9868235835e+01    0.2533685    0.1550108 -66.98 0.0008889757    1.846    0.458
       161 -10.4234     97.2185    151.2471   1.1337830410e+02   3.2448350568e+01    0.2805349    0.2598803 -79.99  0.001486353    1.162    0.139
       162 -12.2485     68.4007    144.4446   1.1874244593e+02   3.7797720749e+01     0.577675    0.3777725  80.62  0.002081041    1.544    0.353
       163  -9.8867     83.9989    146.7347   1.1561053636e+02   3.5255031582e+01     0.195087     0.144468  74.31 0.0006419735    1.292    0.226
       164 -10.6900     72.9012    139.5686   1.1710187215e+02   3.8198256532e+01    0.3008564     0.193975 -49.01  0.001008732    1.825    0.452
       165  -9.2065     18.3351    148.2889   1.2984262689e+02   4.2315462028e+01   0.09421119   0.07340597 -56.01 0.0003246549    1.632    0.387
       166  -9.1728    100.6738    146.2938   1.1189473395e+02   3.2876087898e+01    0.2352883    0.1418113 -38.38  0.001162671    2.433    0.589
       167  -9.7336     41.1002    147.3317   1.2499564601e+02   4.0359396532e+01    0.1480047    0.1456657  57.90 0.0009216965    1.422    0.297
       168 -10.0048    235.8824    145.8862   8.5361252356e+01   7.4956996397e+00    0.2111493    0.1512125  18.08 0.0005772574    1.314    0.239
       169  -9.0777     52.9542    146.2970   1.2234073747e+02   3.9281956497e+01    0.1548456    0.1284792  70.27 0.0003511792    1.096    0.088
       170 -10.5666     32.6020    145.1294   1.2660592269e+02   4.1643514306e+01    0.2011234    0.1368776 -48.20 0.0009721406    1.972    0.493
       171 -11.1204     32.8304    140.6019   1.2614893894e+02   4.2525703432e+01    0.2727395    0.1697639  79.17 0.0009588343    1.414    0.293
       172 -10.0904     37.1305    140.2038   1.2517044247e+02   4.2186832989e+01     0.182291    0.1244971  71.84 0.0007303869    1.279    0.218
       173  -9.8679    133.3766    141.1861   1.0392503377e+02   2.8322110548e+01    0.4475647    0.2275137 -57.41  0.002019879    2.306    0.566
       174  -8.8288    105.0872    142.8554   1.1038588528e+02   3.2849516766e+01    0.1511689    0.1483769  21.00 0.0002853285    1.249    0.200
       175 -11.8242    199.6870    246.4392   1.0748735462e+02   2.6000361432e+00    0.4516589    0.1790586  43.27  0.002665557    1.795    0.443
       176  -9.1754    126.0821    177.1715   1.1116042589e+02   2.3232508523e+01    0.1630807    0.1238404  67.77 0.0002708251    1.297    0.229
       177 -11.1285     60.2494    136.6359   1.1959164885e+02   4.0384930652e+01    0.2762851     0.200301  85.39  0.001786421    1.258    0.205
       178  -8.8807     50.8456    138.1667   1.2190547747e+02   4.1158015234e+01    0.1418428    0.1284103 -67.31 0.0003852423    1.302    0.232
       179  -9.7702    109.1058    136.1993   1.0837763992e+02   3.3497977692e+01    0.3108456    0.2371583   0.97  0.001630824    2.200    0.545
       180 -11.2230     45.0393    130.7522   1.2238284029e+02   4.3308923820e+01    0.3316023    0.2058848  70.15  0.001500444    1.575    0.365
       181 -10.5185     59.6179    128.2230   1.1864250502e+02   4.2197904937e+01    0.2759306    0.1781011  65.80  0.001634784    1.563    0.360
       182  -9.4302     75.1579    128.9041   1.1505254658e+02   4.0082988246e+01    0.1981911    0.1495165  78.13 0.0008318392    1.294    0.227
       183 -10.8058     67.3740    128.2074   1.1679776590e+02   4.1246183841e+01    0.3117467    0.2283169  82.80  0.001938206    1.320    0.242
       184 -11.3823     23.7850    126.9012   1.2690207642e+02   4.6132937249e+01    0.2508032    0.1749561  89.13  0.001673316    1.149    0.130
       185 -10.1366    209.9256    125.7828   8.5420217039e+01   1.5393174029e+01    0.2622209    0.2143691 -19.87 0.0004974831    1.236    0.191
       186 -11.5019     33.6049    129.7645   1.2492014030e+02   4.4657112734e+01    0.3940079    0.1482747 -72.38  0.001987597    2.257    0.557
       187 -12.1875     22.3895    121.4443   1.2670616982e+02   4.7378363920e+01    0.2995287    0.2644365 -28.85   0.00230643    1.628    0.386
       188  -9.7191    231.7855    116.5678   7.9557411150e+01   1.2049641824e+01    0.1784825    0.1336797  59.72 0.0005578495    1.576    0.366
       189  -8.8771     67.3151    116.3512   1.1500884664e+02   4.3748443986e+01    0.1222662   0.09136399 -37.64 0.0007046671    1.731    0.422
       190 -10.2417    168.0211    113.0996   9.0548727084e+01   2.6456652349e+01    0.3254348    0.2701439 -88.66  0.001054059    1.543    0.352
       191  -9.9750     89.9314    160.0589   1.1611542001e+02   3.1841980659e+01     0.175501    0.1531906  69.18 0.0003114257    1.063    0.060
       192 -10.6212    103.0244    176.0918   1.1549484682e+02   2.7010215516e+01    0.1876007    0.1817948  62.15            0    1.276    0.216
       193  -8.8417    203.5060    111.5179   8.3227944886e+01   1.8881595709e+01    0.1463649    0.1306713  17.71 4.594012e-05    1.052    0.050
       194  -8.7836     29.3040    109.3232   1.2368847294e+02   4.9336784921e+01     0.111721   0.07558322 -50.17 0.0003191273    1.638    0.389
       195 -11.5457     14.7649    105.3032   1.2695873732e+02   5.1358071260e+01    0.3090966    0.1925156 -62.37  0.001245551    1.436    0.304
       196 -11.6283    107.8346    172.8745   1.1414591860e+02   2.6849462933e+01    0.2250535    0.1863089  69.14 0.0002872318    1.070    0.065
       197  -8.6343     21.3115    102.2998   1.2492585861e+02   5.1499304834e+01    0.1092209   0.07339506 -50.80            0    1.604    0.377
       198 -11.1422     45.9860    172.2704   1.2619149636e+02   3.5067150236e+01    0.3138126    0.2061591 -55.13  0.000340044    1.938    0.484
       199 -11.3353     31.8203    155.9696   1.2767408641e+02   3.9598471736e+01    0.3004805    0.2293979 -71.42   0.00140751    1.352    0.260
       200 -10.8746    249.5184    151.0303   8.4244974038e+01   4.3531627819e+00    0.4570487     0.305825 -24.85  0.002115873    1.507    0.336
       201 -10.0469     17.0040     99.0107   1.2568463215e+02   5.2529485599e+01    0.1728201    0.1336951 -82.24 0.0003280546    1.003    0.003
       202 -11.6909    245.1453    162.9131   8.7289822800e+01   3.8138124942e+00     0.480032    0.2984797 -35.06  0.002728197    1.873    0.466
       203  -8.5857    184.6919     77.6474   7.7831885729e+01   2.8519950180e+01    0.1609204    0.1143889  16.40  0.000704318    1.717    0.418
       204 -10.6595    192.2994    248.7284   1.0886838698e+02   3.4650477085e+00    0.2054265    0.1367253  34.70 0.0009919864    1.141    0.123
       205 -10.7081     73.6479    242.9715   1.2651469563e+02   2.0481476620e+01    0.3317486    0.2620465  17.63  0.002596455    2.389    0.581
       206 -11.3639    176.4223    242.7735   1.1061830892e+02   6.4039572370e+00    0.3221058    0.1652422  56.93  0.001756634    2.252    0.556
