#   1 NUMBER                 Running object number                                     
#   2 MAG_AUTO               Kron-like elliptical aperture magnitude                    [mag]
#   3 X_IMAGE                Object position along x                                    [pixel]
#   4 Y_IMAGE                Object position along y                                    [pixel]
#   5 X_WORLD                Barycenter position along world x axis                     [deg]
#   6 Y_WORLD                Barycenter position along world y axis                     [deg]
#   7 A_WORLD                Profile RMS along major axis (world units)                 [deg]
#   8 B_WORLD                Profile RMS along minor axis (world units)                 [deg]
#   9 THETA_WORLD            Position angle (CCW/world-x)                               [deg]
#  10 FWHM_WORLD             FWHM assuming a gaussian core                              [deg]
#  11 ELONGATION             A_IMAGE/B_IMAGE                                           
#  12 ELLIPTICITY            1 - B_IMAGE/A_IMAGE                                       
         1 -11.2734     50.3066     37.2549   6.4411633231e+01   6.4056240975e+01    0.8657939    0.6609142  86.75   0.00397008    3.285    0.696
         2 -12.8280     44.7239     23.0735   6.0850210608e+01   6.7042227352e+01    0.9384155    0.8171981 -51.90  0.005888805    1.759    0.431
         3 -10.8111     75.8537     25.7131   4.9331857420e+01   6.0763286453e+01    0.4301722    0.2364345 -19.34  0.002075907    2.231    0.552
         4 -10.7853     39.4799      7.7678   5.5906683167e+01   6.9799643876e+01    0.3977391     0.233412 -19.16  0.002247429    1.860    0.462
         5 -10.3202    226.8137     15.3862   2.2551347046e+01   2.8639875694e+01    0.3431576    0.1624907  87.44  0.001979809    2.129    0.530
         6 -10.2387     20.6065     14.2807   6.9988773212e+01   7.1817021539e+01     0.471862    0.2309733 -16.51  0.002187402    2.615    0.618
         7 -13.2277    182.8045      7.0361   2.4211936755e+01   3.8246423318e+01     0.871117    0.4971526  70.07   0.00525606    1.538    0.350
         8 -12.6251    156.1723     11.6279   2.8042643582e+01   4.3716332391e+01    0.6903684    0.4782229 -59.54  0.004229054    1.478    0.324
         9 -12.6244    165.0697     12.4448   2.7232451283e+01   4.1630960013e+01    0.4466471     0.321561 -64.96  0.002456057    1.356    0.262
        10 -12.6991    169.4049      9.2030   2.5980970137e+01   4.0964079352e+01    0.5095137    0.4539704 -43.25  0.003672923    1.292    0.226
        11 -12.6085    168.6348      2.4249   2.4428055999e+01   4.1728984354e+01     1.135796    0.2175338  73.21  0.003828989    4.573    0.781
        12 -11.7182     78.1987     13.3980   4.3537770081e+01   6.1565042684e+01    0.4259841     0.304538  10.64  0.002476416    1.584    0.369
        13 -10.6496    192.5096      5.6449   2.3099446011e+01   3.6330208361e+01    0.2919814     0.131294 -52.00  0.001595368    2.059    0.514
        14 -10.3338    223.0592      4.4934   2.0752004091e+01   3.0409264433e+01    0.3064115    0.1052296 -48.14   0.00165626    2.322    0.569
        15 -11.7209    208.5479      4.7459   2.1735457218e+01   3.3170226962e+01    0.4974496    0.2063287  82.29  0.002661886    2.271    0.560
        16 -11.5018    144.0361      3.7105   2.7396102172e+01   4.7181590758e+01    0.5644068    0.3130157 -84.04  0.002940226    1.960    0.490
        17 -10.7548    121.5921      4.4154   3.0724101107e+01   5.2356808945e+01    0.4268244     0.330394  87.20  0.002698675    1.248    0.199
        18 -11.7669     84.0097      3.5882   3.7948989061e+01   6.1120857438e+01    0.8105065    0.2991112  62.82  0.003088255    2.336    0.572
        19 -10.5088     71.1299      5.8574   4.2494386492e+01   6.3773025412e+01    0.4447922     0.178042  57.26  0.001930932    2.096    0.523
        20 -10.2865    129.4952      4.4901   2.9552267158e+01   5.0499561164e+01    0.3531438    0.1834004  58.48  0.001535231    1.582    0.368
        21  -9.8705    134.0079      2.7449   2.8410143186e+01   4.9583643750e+01    0.3119901     0.172875  33.28  0.001584768    2.421    0.587
        22 -10.2920    112.0232      5.4705   3.2675664742e+01   5.4517414412e+01    0.2056749    0.1053939  67.06  0.001038829    1.619    0.382
        23 -10.2045    106.2012      4.7055   3.3493669089e+01   5.5937938306e+01    0.4027794    0.1983292 -88.99  0.001589498    3.461    0.711
        24 -10.1888     61.4619      1.9811   4.3890961293e+01   6.6137846179e+01    0.4379134    0.1243446  46.47  0.001798511    2.545    0.607
        25  -9.7795    217.4004      1.9239   2.0613106222e+01   3.1717586286e+01    0.1901453    0.1181425 -81.60  0.001303657    1.364    0.267
        26 -11.6049    183.4478     40.3827   3.1826862126e+01   3.4587413143e+01    0.4836673    0.2814274  75.65  0.002601417    1.707    0.414
        27  -9.7862     95.3089    111.6490   7.1020846231e+01   4.1550103653e+01    0.2430988    0.1943271  71.20  0.001120696    1.728    0.421
        28 -10.5346    212.6907    112.9069   4.3893958698e+01   1.8206541639e+01    0.4913616    0.1988483 -46.09  0.002103452    2.339    0.572
        29 -10.4752     21.6252    108.5110   9.8213406574e+01   5.1994136640e+01    0.3210309     0.184579  64.83   0.00134165    2.636    0.621
        30 -10.5141     17.3580    104.1694   9.9217078959e+01   5.3382054405e+01    0.2980845    0.2461435 -76.04  0.001698799    1.281    0.219
        31  -9.9278     18.4141    127.7656   1.0234461990e+02   4.7275790413e+01    0.2045756    0.1117643 -57.55 0.0008061017    1.596    0.373
        32 -10.0017     30.8924    101.6832   9.3135973513e+01   5.2965327655e+01    0.2675736    0.1736432 -45.36  0.001319821    1.383    0.277
        33  -9.8181     46.8704    100.2568   8.6185106366e+01   5.1665481976e+01    0.3081194    0.1523591 -45.27  0.001278597    1.886    0.470
        34  -9.2876    208.8080     94.8319   4.0644088830e+01   2.1799792657e+01    0.1789871    0.1370767 -58.72 0.0006416662    1.317    0.240
        35  -9.3406    178.7126     93.0014   4.5089823919e+01   2.8016289752e+01    0.1956883    0.1787585 -45.33 0.0009249636    1.056    0.053
        36 -10.2052     12.8234     89.8705   9.8636508847e+01   5.7202823370e+01    0.2233238    0.1611107 -36.78  0.001158266    1.209    0.173
        37 -12.3957      5.1628     76.5516   9.9655653328e+01   6.0790882343e+01    0.7811673    0.5557237  49.28  0.004309109    1.851    0.460
        38 -10.6564      2.7039     88.3812   1.0287143329e+02   5.8063786606e+01    0.4036977    0.2775269 -87.21  0.002177627    1.677    0.404
        39 -10.2985      2.4905     83.0554   1.0208833776e+02   5.9359486188e+01    0.3267007    0.1573797 -63.52 0.0009899781    1.784    0.439
        40 -11.8845     18.0962     74.6473   9.2978932602e+01   6.0476160765e+01    0.6869043    0.3666961 -23.83  0.003212393    1.879    0.468
        41 -12.3715     12.1536     71.6704   9.5210871107e+01   6.1554702774e+01    0.6515003    0.4280588 -36.32  0.003494237    1.290    0.225
        42  -9.9567    192.7322     86.8958   4.1315319442e+01   2.6151409482e+01    0.3371372    0.1934226  65.50  0.001628199    2.050    0.512
        43 -12.2416     41.9973     82.3658   8.3754093347e+01   5.6446670285e+01    0.9975235    0.5416726  15.82  0.004343866    1.898    0.473
        44 -10.7504     47.2106     76.5903   7.9786165914e+01   5.7090767390e+01    0.3221458    0.2962816  34.97  0.001599523    1.278    0.218
        45  -8.9883    100.5037     83.4797   6.1426750226e+01   4.6509623884e+01    0.1511534    0.1401994  23.25 1.723126e-05    1.021    0.021
        46  -9.7573    145.2689     80.9007   4.8683346973e+01   3.7259594092e+01    0.2915349    0.2067955  44.14  0.001453153    1.388    0.279
        47  -9.5939    215.0112     79.7510   3.6597340746e+01   2.2914171765e+01    0.2377295    0.1394388 -51.74  0.001288917    1.614    0.381
        48  -9.4653    220.9369     77.9739   3.5493032249e+01   2.2075287506e+01    0.1991374    0.1311222 -68.61 0.0009497496    1.732    0.423
        49  -9.9549    169.7307     76.6738   4.2718605959e+01   3.2558509837e+01    0.3048586    0.2333141 -61.23  0.001438872    1.404    0.288
        50  -9.1350    218.2300     71.3859   3.4458168108e+01   2.3503066943e+01    0.1634667    0.1102541  80.70 0.0007559028    1.704    0.413
        51 -10.1239     74.3742     69.7276   6.6236755247e+01   5.4231601669e+01    0.3057617    0.2628505  15.26   0.00103935    1.048    0.046
        52  -9.6133     83.8328     68.9122   6.2461828358e+01   5.2600649760e+01    0.2380697    0.1934486   7.92  0.001246745    1.250    0.200
        53 -10.9126    214.8258     66.8523   3.3915371712e+01   2.4770296913e+01    0.3106664    0.1599339 -27.48  0.001509708    2.384    0.580
        54 -10.6566     25.4881     65.1447   8.6809821717e+01   6.2000354561e+01    0.4141826    0.2561571 -48.80  0.002144977    1.504    0.335
        55  -9.1540    178.9975     66.4946   3.8677064285e+01   3.2089188171e+01     0.185077    0.1106166 -89.93 0.0008099876    2.490    0.598
        56 -11.0815    232.8529     64.3392   3.1444244051e+01   2.1801386631e+01    0.2588276    0.2055172  45.39  0.001772256    1.632    0.387
        57 -10.0575    218.6994     61.8620   3.2440026091e+01   2.4711628988e+01      0.18145    0.1461585 -25.34  0.001187432    1.455    0.313
        58 -11.8286    227.8217     59.1981   3.0941862503e+01   2.3375223239e+01    0.3843769    0.2233773 -76.20   0.00212249    2.116    0.527
        59  -9.3382     76.4198     59.2278   6.1880842701e+01   5.5764444822e+01     0.188321    0.1387668 -48.28 0.0008551308    1.635    0.389
        60 -10.4067    209.3605     59.3538   3.2970047083e+01   2.6837064863e+01    0.2590573    0.1473318 -66.11  0.001175965    2.052    0.513
        61 -10.7048    198.4573     52.8494   3.2844059558e+01   2.9872984806e+01    0.4450533    0.2170581 -28.58  0.002122847    2.430    0.588
        62  -9.6791    164.5131     53.9931   3.7857971482e+01   3.7022923245e+01    0.2850966    0.1368685 -26.27  0.001209747    2.666    0.625
        63  -9.5056     35.0275     52.6782   7.7938043294e+01   6.3552002049e+01    0.2008989    0.1558628   5.16  0.001154262    1.128    0.113
        64 -11.0615    215.1694     50.8053   3.0538355400e+01   2.6816748131e+01    0.2768009    0.1799275  54.39  0.001682042    1.745    0.427
        65 -10.5164     84.1640     47.6089   5.4942180462e+01   5.6095232231e+01    0.3592177    0.2821461  28.36  0.001502231    1.163    0.140
        66 -11.3996     81.6027     38.5779   5.2449047325e+01   5.7923539656e+01    0.6871431    0.3883286 -40.37  0.003294829    2.082    0.520
        67 -10.4754    196.8938     43.8877   3.1038662934e+01   3.1324823307e+01    0.1752239    0.1653327  54.56 0.0009905495    1.271    0.213
        68 -11.3945      3.4068     41.0583   9.1950958653e+01   6.8672066938e+01    0.4543284    0.4328781 -14.22  0.002783444    1.320    0.243
        69 -10.8843      5.7955     35.1807   8.8544598186e+01   6.9685573342e+01    0.3277903    0.1773887  19.53   0.00178333    1.791    0.442
        70 -10.0520      3.3847    230.2119   1.1476513473e+02   2.3487645361e+01    0.1679581   0.09532382  79.04 0.0006541635    1.716    0.417
        71 -11.7145     40.0065     29.5248   6.6142105352e+01   6.6878408493e+01    0.5079536    0.3162189 -35.95    0.0021744    1.723    0.420
        72 -10.6093    249.0715    224.2828   5.8749547700e+01  -4.3395881577e+00    0.3883608     0.227147 -38.80  0.002445557    1.712    0.416
        73  -9.4274     65.9946     35.4856   5.6928239603e+01   6.1499239413e+01    0.2161335    0.1186658  43.31  0.001037039    1.607    0.378
        74 -10.5604    197.7914     33.9781   2.8759133698e+01   3.2314777130e+01    0.2145332    0.1601223  79.49    0.0012943    1.245    0.197
        75 -10.4805     86.1176     31.8299   4.8422771539e+01   5.7831440375e+01    0.2538706    0.1759711  45.72  0.001183865    1.223    0.183
        76  -9.8576     90.1251     28.1438   4.5831449849e+01   5.7388408580e+01    0.2672415    0.2246458   5.46  0.001528998    1.298    0.229
        77  -9.4495     66.8486     29.1550   5.3986387848e+01   6.2182818095e+01    0.1930129    0.1408795  16.24  0.001075684    1.362    0.266
        78  -9.1363     31.3452    227.3234   1.0814479928e+02   2.1709307652e+01    0.1240882   0.09130352 -29.09 0.0007050185    1.737    0.424
        79 -11.7459    178.3923     23.7706   2.8505376748e+01   3.7558467249e+01    0.4288763    0.3171467  83.68  0.002739502    1.201    0.168
        80 -11.3033    172.8629     20.8286   2.8417573063e+01   3.9077585409e+01     0.259525    0.2143134  80.49  0.001125404    1.067    0.063
        81  -9.5050    224.4009     23.1827   2.4203241421e+01   2.8274918230e+01    0.1607394   0.07908757 -47.59 0.0009521177    1.708    0.414
        82 -12.7535    202.9873    221.6542   6.6621100276e+01   1.1645671679e+00    0.6793383    0.4253695  -7.65  0.003812207    1.518    0.341
        83  -9.7178    187.4406     19.5071   2.6587632769e+01   3.6052590829e+01    0.2474722    0.1024004  71.35   0.00121653    2.185    0.542
        84 -10.0827    128.4765     17.8291   3.3734980030e+01   4.9575452150e+01    0.2667324    0.2078728  64.63  0.001175297    1.083    0.077
        85  -9.7292     94.3929     17.2895   4.0614710122e+01   5.7575803783e+01    0.2740335    0.1785313 -85.63  0.001309734    2.431    0.589
        86  -9.7674    116.4364     17.2429   3.5731509963e+01   5.2463205523e+01    0.1669711    0.1182401 -44.15 0.0009496414    1.644    0.392
        87 -12.5460    183.7418    216.0407   6.9603881652e+01   4.5570795353e+00     0.535095    0.3188877   8.43  0.002707759    1.727    0.421
        88  -9.5350     64.2339     16.3853   4.9470347910e+01   6.4208577259e+01    0.1801573    0.1106149  55.56 0.0007600445    1.630    0.386
        89  -9.7087     51.0000    217.9955   1.0251841724e+02   2.1788512146e+01    0.2078958   0.07506146 -69.40 0.0008098819    2.994    0.666
        90  -9.7590     67.1728    217.1779   9.8270544069e+01   2.0146676474e+01    0.1988571    0.1487125  51.67   0.00108917    1.347    0.258
        91  -9.1117    141.0000    206.9752   7.7823479155e+01   1.2290715489e+01     0.222976   0.08015756 -49.84 0.0008068887    2.973    0.664
        92 -11.1237    243.4392    201.5658   5.5870233564e+01  -4.8867877969e-01    0.5079945    0.3102873 -40.00  0.003108581    1.589    0.371
        93 -10.3504    205.5769    192.1612   6.0923447794e+01   5.7187720588e+00    0.2129958    0.1474259  17.15  0.001210551    1.415    0.293
        94 -10.5949    196.6684    186.0150   6.1530326635e+01   8.0427516760e+00    0.2203133    0.1984391  50.91  0.001338866    1.580    0.367
        95  -9.5799    129.7166     12.8199   3.2014720465e+01   4.9745811973e+01    0.2670678    0.1271527  49.43  0.001291916    1.954    0.488
        96  -8.4645    220.2897     11.3316   2.2222684604e+01   3.0268629060e+01   0.09373219   0.08147931  45.65 0.0007018434    1.626    0.385
        97  -9.4406     37.5089    185.4689   1.0296680877e+02   3.0877359486e+01    0.1319795    0.1304992  71.41 9.720369e-05    1.031    0.030
        98 -11.1279    219.1262    156.3291   5.1644609588e+01   9.8889113615e+00    0.4257292    0.2814913  17.29   0.00232036    1.818    0.450
        99 -12.2955     11.2924    140.9899   1.0639808315e+02   4.4308424896e+01     0.617433    0.3333618 -86.40  0.002826606    1.959    0.490
       100  -9.5595     53.8321    143.3069   9.2196922858e+01   3.9945324687e+01    0.2570673    0.2062873 -76.63  0.001191076    1.363    0.266
       101 -13.6733    242.3449    124.8930   4.2043966962e+01   1.1484552468e+01     1.246839      1.07574 -22.55  0.008814498    1.141    0.124
       102  -9.6765     23.3062    126.0147   1.0031373700e+02   4.7381543360e+01    0.2492748    0.0431964 -49.98 0.0007031898    4.143    0.759
       103 -10.8399    248.1931    144.6315   4.4945227962e+01   7.6151213892e+00    0.2630152    0.1911863  56.67  0.001675255    1.975    0.494
       104  -9.8460      4.9868    124.7849   1.0682147808e+02   4.8823186071e+01    0.2022861    0.1400009  73.86  0.001058147    1.637    0.389
       105  -9.4466     58.6607    124.6742   8.6994743364e+01   4.4141448934e+01    0.1645168    0.1075858 -24.56 0.0007051422    1.728    0.421
       106  -9.1679    208.9951    123.4662   4.6692547885e+01   1.7099384970e+01    0.1793271    0.1305519  46.20 0.0007677306    1.542    0.351
       107 -10.6972    189.0695    116.3316   4.8594572818e+01   2.1950819778e+01    0.4530959    0.2513958 -18.92  0.001764911    2.976    0.664
       108 -12.2608    242.2553    109.0509   3.9035669279e+01   1.3898294806e+01    0.5402429     0.372414 -60.62  0.003333967    1.617    0.381
       109 -10.7537    222.8331    107.1300   4.1214652762e+01   1.7368557262e+01    0.3320258    0.2079394  46.05   0.00166097    1.851    0.460
       110  -9.5243    148.5598    111.2789   5.5844814088e+01   3.0990305145e+01    0.2856922    0.1417111 -46.47   0.00113146    2.085    0.520
       111  -9.4634    223.8170     40.3796   2.7600700534e+01   2.6448769742e+01    0.1523056   0.09557083  60.90 0.0009530178    1.732    0.423
