#   1 NUMBER                 Running object number                                     
#   2 MAG_AUTO               Kron-like elliptical aperture magnitude                    [mag]
#   3 X_IMAGE                Object position along x                                    [pixel]
#   4 Y_IMAGE                Object position along y                                    [pixel]
#   5 X_WORLD                Barycenter position along world x axis                     [deg]
#   6 Y_WORLD                Barycenter position along world y axis                     [deg]
#   7 A_WORLD                Profile RMS along major axis (world units)                 [deg]
#   8 B_WORLD                Profile RMS along minor axis (world units)                 [deg]
#   9 THETA_WORLD            Position angle (CCW/world-x)                               [deg]
#  10 FWHM_WORLD             FWHM assuming a gaussian core                              [deg]
#  11 ELONGATION             A_IMAGE/B_IMAGE                                           
#  12 ELLIPTICITY            1 - B_IMAGE/A_IMAGE                                       
         1 -10.8639    110.5292     39.9739   1.2375634568e+01   5.1801810251e+01     1.439325     0.390247 -35.05  0.004569263    3.575    0.720
         2 -12.0619    119.8164     37.8324   9.5983074813e+00   4.9755792889e+01     0.774801    0.3726894 -46.15   0.00200097    2.106    0.525
         3 -12.0941    146.5875     26.7205   1.4303218635e+00   4.4397782406e+01     1.512776    0.5626072  77.06  0.005538267    2.937    0.660
         4 -12.8641    164.6637     27.1263   3.5939024578e+02   3.9894046943e+01    0.4263934     0.303337 -65.63 0.0006126169    1.274    0.215
         5 -10.3492     60.4885     23.0902   1.9821731778e+01   6.6255761612e+01    0.5225861    0.1657165 -32.16   0.00182025    3.488    0.713
         6 -11.4583     20.6250     21.5649   4.0901450532e+01   7.3850679577e+01    0.5439723    0.3200362 -33.35   0.00176875    1.767    0.434
         7 -11.3422    179.5447     20.3946   3.5605580620e+02   3.7149387152e+01    0.6368706    0.2560457  50.36  0.002533204    3.460    0.711
         8 -11.2971    134.0822     21.5424   1.4159807734e+00   4.8171265801e+01    0.5990165    0.3764932 -30.05  0.003002781    1.680    0.405
         9 -12.0080    127.8784     15.2928   9.4745215393e-02   5.0442334268e+01    0.5387647    0.4167318 -26.03  0.002060788    1.448    0.309
        10 -11.3271    135.3918     14.5243   3.5883813229e+02   4.8598370173e+01    0.5882565    0.2584896  70.41  0.002547713    2.047    0.512
        11 -11.6896     36.1437     17.8998   2.8516627732e+01   7.1962376634e+01    0.6582493    0.5143504 -29.91  0.002781074    1.314    0.239
        12 -12.4636     48.7113     12.8124   1.8931629220e+01   7.0176137970e+01    0.7415908    0.2793588  52.72  0.003036065    2.403    0.584
        13 -11.5809      8.9050     19.6499   4.9113148423e+01   7.5631992395e+01     0.477649    0.2705813  -9.07 0.0003302244    2.307    0.566
        14 -11.9509     22.7046     10.5605   3.2360673385e+01   7.5398062427e+01    0.5173076    0.4037001 -13.63  0.002211059    1.292    0.226
        15 -11.7056     16.1017     13.6248   3.9502719507e+01   7.5881122763e+01    0.6572757    0.2735105 -36.42  0.002869944    2.606    0.616
        16 -12.0935    164.7621     18.0000   3.5672401908e+02   4.0913458750e+01    0.5047275    0.2926109  45.81   0.00243074    2.280    0.561
        17 -11.5157    242.2721     14.9885   3.5079803633e+02   2.4757681973e+01    0.2265906    0.2174407  76.40 0.0002093451    1.469    0.319
        18 -10.9466     88.4241      7.8417   3.7873450659e+00   6.1308671048e+01    0.3644408    0.3139216 -88.02  0.001339929    1.135    0.119
        19 -11.1447     85.8498     14.6049   7.5526738008e+00   6.1276528871e+01    0.4953512    0.3293194  -1.20  0.002108803    2.019    0.505
        20 -12.0921    227.9583     14.9585   3.5149361909e+02   2.7441894596e+01    0.3986326    0.1819771 -64.19  0.001595341    1.962    0.490
        21 -11.8715    104.4580     12.0606   2.5312809229e+00   5.6808594752e+01    0.5003728    0.3518811 -23.38  0.001726996    1.603    0.376
        22 -11.1207    191.4252     10.5542   3.5258045029e+02   3.5507156613e+01    0.5275411    0.2517304 -14.71  0.002289052    3.238    0.691
        23 -10.4620     13.1852      8.4970   3.8409768897e+01   7.7139961217e+01    0.3191719    0.3117891 -50.90  0.001757981    1.326    0.246
        24 -11.6825    212.3902      9.2859   3.5103797568e+02   3.1144978453e+01    0.4481946     0.280059 -12.22  0.001601212    2.315    0.568
        25 -11.0312    218.6391      3.3800   3.4938972576e+02   3.0470427990e+01    0.2584956     0.189237 -89.62 0.0008713698    1.352    0.260
        26 -10.5881    223.5093      2.2437   3.4892670416e+02   2.9614619099e+01    0.2359817    0.1781657 -68.97 0.0007306461    1.124    0.110
        27 -10.9502    120.6967     11.6408   3.5976987281e+02   5.2661936661e+01     0.323047    0.2127812 -88.41 0.0008857343    1.466    0.318
        28 -10.2118      5.3856      9.4953   4.6245871662e+01   7.7915803282e+01     0.515703      0.15015 -50.40  0.002080222    3.209    0.688
        29 -11.9278    168.4016      9.6024   3.5398874669e+02   4.0918443881e+01    0.5266632    0.2417607  69.50  0.001974234    2.061    0.515
        30 -11.0621     64.1337      9.9533   1.1305753441e+01   6.7048234299e+01    0.3763528    0.2418509  50.44 0.0003075741    1.399    0.285
        31 -10.1527     62.4719      6.5120   9.8911095987e+00   6.7792250036e+01    0.2814712    0.1731962  49.37  0.001457089    1.458    0.314
        32  -9.6827    144.9286      9.8315   3.5619336738e+02   4.6655050381e+01    0.2000846    0.1639487  58.06 0.0006670856    1.339    0.253
        33 -11.5064    243.4942      3.4892   3.4839953235e+02   2.5717403685e+01    0.5509187   0.05183494 -48.41  0.002171927    3.731    0.732
        34 -11.5213    185.0514      6.6314   3.5198333852e+02   3.7336340442e+01    0.3611639    0.1905791 -51.15  0.001393599    1.559    0.358
        35  -9.8276      1.1409      7.3300   4.9081303438e+01   7.8737087771e+01    0.2154239   0.07254064 -52.15 0.0008419451    2.759    0.638
        36 -11.7409    155.0500      6.5225   3.5419538745e+02   4.4456730684e+01    0.4720964     0.247909  70.31  0.001362096    1.769    0.435
        37  -9.5956     77.9504      7.2133   5.8835333809e+00   6.3987554532e+01    0.2064742    0.1682167 -82.82 0.0007065383    1.303    0.232
        38  -9.8597     30.5249      5.3877   2.3409916833e+01   7.4756902409e+01    0.2855938    0.1174252 -35.61  0.001234455    2.549    0.608
        39  -9.9060     28.8323      1.4382   2.1442869949e+01   7.5558198887e+01     0.172675    0.1394145  40.08 0.0003761489    1.132    0.117
        40 -10.7701     41.3741      4.0041   1.6575648147e+01   7.2759316713e+01    0.4089037     0.214849  30.04  0.001878609    2.282    0.562
        41 -10.2212    148.9342      5.5122   3.5442632925e+02   4.6065229583e+01    0.2038203    0.1162272  78.19  0.001029275    1.586    0.370
        42 -10.9375    141.9802      3.4295   3.5440268931e+02   4.7995050401e+01    0.3419143    0.2388747 -65.87  0.001538778    1.292    0.226
        43 -10.2450    128.9586      4.7757   3.5621182678e+02   5.1180948610e+01    0.1973061    0.1744737 -80.00  0.001214629    1.040    0.039
        44 -11.7886    133.7342      2.5824   3.5492998164e+02   5.0155150925e+01    0.7157036    0.2723941  85.18  0.002807599    2.651    0.623
        45 -10.0750     71.3898      4.2901   6.0364531302e+00   6.5866873195e+01    0.3826093    0.1721255  27.41  0.001376114    3.741    0.733
        46 -11.0613    236.1041      4.1553   3.4881983459e+02   2.7009607058e+01    0.1610497    0.1395972 -59.17  0.001244759    1.239    0.193
        47  -9.4591    160.4387      1.4786   3.5225199354e+02   4.3607914737e+01     0.172072    0.1247348 -12.61 0.0008319243    1.757    0.431
        48 -11.3864    113.6401      2.2269   3.5713511076e+02   5.5336393018e+01    0.5127209    0.2468341  88.72  0.001669783    2.124    0.529
        49 -11.7342    206.6697      1.9723   3.4962331650e+02   3.3067280453e+01    0.5344812    0.1923716  85.89  0.002339417    2.786    0.641
        50 -10.4081    105.5353      1.9083   3.5813378213e+02   5.7449889218e+01    0.2714539    0.1966531 -78.43  0.001066191    1.342    0.255
        51 -10.0969      1.8559      2.0491   4.4526496964e+01   7.9599824534e+01     0.222299    0.1389483 -25.02  0.001287024    1.601    0.376
        52 -10.1680    152.6425      1.5567   3.5287728716e+02   4.5506011757e+01    0.2450561    0.1375057  85.37 0.0007811418    1.606    0.377
        53  -9.2204     52.6269      1.8542   1.0441517887e+01   7.0514531426e+01    0.1683457    0.1142378 -37.91 0.0003826991    1.650    0.394
        54  -9.6105     12.3657      2.0036   3.4120854792e+01   7.8269781716e+01     0.169696    0.1421224 -15.37 0.0006096581    1.128    0.113
        55  -9.5874    124.0426      1.4514   3.5557161050e+02   5.2726263032e+01    0.2063329    0.1169974  78.17  0.001017874    1.560    0.359
        56  -9.2150     82.1202      1.0000   1.8074110861e+00   6.3490002241e+01    0.2111718   0.06817788  69.91 0.0004822098    2.736    0.635
        57 -12.0264      2.8125    111.4497   7.4243048130e+01   5.3373661618e+01    0.4362014    0.3446184  81.76  0.001243165    1.159    0.137
        58 -10.4642    249.5086    250.0275   3.3177174896e+01  -6.0232757834e+00    0.1611109     0.127362 -33.37  0.001355149    1.953    0.488
        59  -9.3003    239.3505    250.2909   3.4696394299e+01  -5.1587738317e+00    0.1039595   0.05589323  -1.99 0.0006237015    1.671    0.401
        60 -11.6094      3.2054    105.8943   7.3553756836e+01   5.4846071492e+01    0.5031183    0.4044781  25.55  0.002387047    1.350    0.259
        61  -9.8355     79.2889    114.6320   4.5571681775e+01   4.3134425323e+01    0.2963559    0.1934624 -52.23  0.001042788    1.528    0.346
        62  -9.9872     58.6515    115.1413   5.2942601439e+01   4.6422483141e+01    0.2444793    0.1974706  51.70 0.0003232468    1.234    0.189
        63 -11.0702     35.3308    102.9147   5.9616693152e+01   5.2830803635e+01    0.6751992    0.2998879  13.41 0.0001581802    3.257    0.693
        64 -11.7363     22.4354    114.0254   6.6694052802e+01   5.1172971760e+01    0.5914441    0.3312267   3.33  0.002301624    2.389    0.581
        65 -12.2994     27.4291    112.1467   6.4429847270e+01   5.1197883575e+01     1.269097     0.582987  81.89  0.004353238    3.186    0.686
        66 -11.8447     25.9908    107.0052   6.4213178749e+01   5.2737216347e+01    0.7914816      0.34765 -58.38  0.003201048    2.059    0.514
        67 -11.3569    249.3965    111.1081   9.8633516205e+00   1.1425954119e+01      0.36422   0.09519235 -33.37  0.001407288    3.340    0.701
        68 -10.0239     48.7520    111.7429   5.5966738911e+01   4.8755197145e+01    0.2711526    0.2355319  46.70 0.0006156245    1.150    0.130
        69 -11.9561     79.3022    108.0177   4.3974284558e+01   4.4791407756e+01    0.5680709    0.4203676  13.58  0.001455314    1.785    0.440
        70 -10.0360    105.5325    107.5142   3.5539201214e+01   3.9762167198e+01    0.1551096    0.1496603 -89.28  0.000223647    1.004    0.004
        71 -11.4312     49.7019    101.2171   5.3366221807e+01   5.1410652112e+01     0.808719    0.4485548 -29.22  0.002939747    2.876    0.652
        72 -10.2113     91.5552    102.1710   3.8397266826e+01   4.3865744856e+01    0.4343922    0.3109009 -18.87  0.001818646    2.079    0.519
        73  -9.7133     86.0027    103.2951   4.0508689998e+01   4.4690129970e+01    0.2181646    0.1992965  46.90 0.0004632457    1.098    0.089
        74  -9.6714     57.2049    103.2316   5.0867285368e+01   4.9765048957e+01    0.2175618    0.1744916  74.71 0.0006603223    1.362    0.266
        75 -10.8456     17.2097    100.4120   6.6916171178e+01   5.5326335559e+01    0.3366902      0.18621 -72.89 0.0008233914    1.661    0.398
        76 -12.0155     22.3455     94.0993   6.3616179129e+01   5.6568000431e+01    0.5800669    0.4397022  48.47  0.001605927    1.369    0.269
        77 -10.0152     18.5961     86.2017   6.3918822154e+01   5.9010549825e+01    0.4465736    0.3735584 -40.82  0.002500519    1.217    0.178
        78 -10.3583     35.7874     92.7104   5.7339261399e+01   5.5493334005e+01    0.5946656    0.2985179 -89.80  0.002029894    3.223    0.690
        79  -9.8063     38.8284     90.3693   5.5469527262e+01   5.5730118050e+01    0.2669741     0.204436  -9.07 0.0006529284    1.611    0.379
        80 -11.2598      9.4423     96.9396   6.9840604680e+01   5.6856217120e+01    0.5510393    0.4170618  69.29  0.001557614    1.337    0.252
        81 -12.0404    210.4298     98.1240   1.1849694707e+01   1.9764671504e+01    0.2284301    0.1966117 -44.33 0.0002832731    1.026    0.025
        82 -11.9775     67.8559     94.8183   4.4673734071e+01   5.0145339024e+01    0.7344118    0.3763898  35.54  0.001721749    2.003    0.501
        83 -10.7369     77.0409     96.7159   4.1822997341e+01   4.8003630347e+01    0.4701719     0.276517  48.43 0.0004266581    1.747    0.428
        84 -11.1838     79.0412     93.0453   4.0093679539e+01   4.8511604670e+01    0.7434009    0.6073225  50.52  0.003681854    1.225    0.183
        85 -11.4375    249.1091     95.9985   6.9099766517e+00   1.3542973539e+01    0.2607888    0.1376581 -23.79   0.00137716    2.078    0.519
        86 -10.1607     30.2948     96.4179   6.0516987016e+01   5.5140194983e+01    0.2797894    0.1539098 -56.92 0.0007408276    1.684    0.406
        87 -10.3633     42.4038     94.0944   5.4774204862e+01   5.4289114815e+01    0.3855146    0.3150414  35.09  0.002006151    1.255    0.203
        88  -9.7113     43.5640     90.3361   5.3386262566e+01   5.5112198195e+01    0.2062781     0.170582 -55.62 0.0004284892    1.170    0.145
        89 -11.4372     28.0906     84.9819   5.9158531632e+01   5.8404926849e+01    0.6079807    0.4732788  27.65  0.001269466    1.347    0.257
        90 -10.2902     98.3268     90.6977   3.3033264545e+01   4.5112917357e+01    0.2656459    0.2269248  59.47 0.0005309351    1.175    0.149
        91 -10.0388     49.9688     91.2721   5.0881461959e+01   5.3956492941e+01    0.2957436    0.1931011  28.90  0.001341664    1.615    0.381
        92 -11.4980      6.4030     88.4264   7.0081268646e+01   5.9333710174e+01    0.7273399     0.369703  20.70  0.003331855    2.088    0.521
        93 -10.8850      2.3036     80.2045   7.0929109683e+01   6.1745348275e+01    0.6993271     0.271561  84.66  0.002440837    3.414    0.707
        94 -11.1252      2.0654     71.0266   6.9665296180e+01   6.4145810262e+01      2.72983    0.4900595 -45.76  0.007630345    5.241    0.809
        95 -12.4563      7.5684     63.3050   6.5133861069e+01   6.5785773730e+01    0.5305195    0.2563101 -44.56 0.0005740129    1.966    0.491
        96 -12.5946      4.2820     61.0457   6.6580902064e+01   6.6561243973e+01    0.5987703    0.2820299 -42.39  0.000320787    2.045    0.511
        97  -9.9574     66.6701     88.2834   4.3314309404e+01   5.1967868803e+01    0.3212906    0.2232205  -9.23 0.0008361123    2.326    0.570
        98  -9.8553     90.6335     86.0153   3.4073437266e+01   4.7802623720e+01     0.377957    0.2938533 -77.28  0.001766022    1.504    0.335
        99 -10.0137     52.1684     86.8782   4.8803629328e+01   5.4741104684e+01    0.2228323    0.1979406  85.93 0.0003733291    1.181    0.154
       100 -11.3659     44.7307     84.0171   5.1268509371e+01   5.6571007138e+01     0.539984    0.4378589  80.09  0.002105389    1.390    0.281
       101  -9.5730     37.3016     85.4558   5.4987859143e+01   5.7201573266e+01    0.2594868    0.1483716  22.32  0.001021673    1.936    0.484
       102 -10.5652    113.5033     83.4900   2.6479718426e+01   4.3290089165e+01    0.5433334    0.3525138 -89.22  0.002065196    2.534    0.605
       103 -10.1058     81.3082     83.5789   3.6491177157e+01   5.0286608544e+01    0.5039038    0.3247124  27.70  0.002106659    1.940    0.485
       104 -11.6006     75.3481     78.4176   3.7019682656e+01   5.2662464913e+01    0.6318491    0.5499861 -88.15  0.001787359    1.256    0.204
       105 -10.3252     67.2579     81.2872   4.1010616252e+01   5.3545477521e+01    0.3826071    0.2947996  13.08  0.001795377    1.643    0.391
       106 -12.5902     60.9247     83.3919   4.4177061657e+01   5.4170853706e+01    0.3393716    0.2915066  49.13 0.0003805649    1.177    0.150
       107 -10.3218     58.1857     77.8742   4.3649388969e+01   5.5975305808e+01    0.2812737    0.2369664  86.94 0.0009045284    1.347    0.258
       108  -9.1607    143.4888     84.4174   1.9590857302e+01   3.6171573481e+01    0.1476925    0.1403014 -74.16 0.0002168444    1.021    0.020
       109  -9.7645    162.3284     81.1303   1.5047878952e+01   3.2456411912e+01    0.1932484    0.1626461 -52.72   0.00028313    1.096    0.087
       110 -10.7264     89.2320     77.0777   3.1717490396e+01   5.0074934575e+01    0.4888418     0.303515  52.07  0.001450552    1.631    0.387
       111 -10.5776     94.5373     75.1949   2.9388240420e+01   4.9311498905e+01    0.4619242    0.3392698 -73.61  0.001755044    1.672    0.402
       112 -10.9233     53.2206     76.1372   4.5248871623e+01   5.7225075696e+01    0.4651397    0.3764733 -87.50  0.002307043    1.437    0.304
       113  -9.3737    118.9792     78.2329   2.3430030586e+01   4.3080161047e+01    0.2053854    0.1928268 -74.76 0.0004038096    1.024    0.023
       114 -12.2847    247.9079     75.5037   2.8922694812e+00   1.6487807196e+01    0.4117515    0.2474592 -59.00  0.002494719    1.685    0.406
       115 -10.9950     14.2163     74.1739   6.3757589136e+01   6.2523677701e+01    0.4340356    0.2778149 -77.90  0.001945083    1.556    0.357
       116  -9.8293     13.0362     67.6938   6.3004054679e+01   6.4276820126e+01    0.4824667    0.2054435   9.18  0.001883825    2.914    0.657
       117 -10.1410     63.7004     74.8919   4.0414365578e+01   5.5700304075e+01    0.4780364    0.2523966  45.84  0.001731527    1.936    0.484
       118 -11.4866     27.4904     73.4121   5.6704052243e+01   6.1451542660e+01    0.4636869    0.3141043  -8.01  0.001124932    1.858    0.462
       119 -10.7225     35.0554     71.5088   5.2372179738e+01   6.1022031755e+01    0.3916104    0.2410929  44.24  0.001215673    1.735    0.424
       120 -10.4133     40.5733     72.9132   5.0082503080e+01   5.9933593418e+01    0.3855096    0.2672264  13.78  0.001230297    1.705    0.413
       121 -10.8456     40.5395     68.8341   4.8859737682e+01   6.0931689293e+01    0.3163631    0.2733346  44.08  0.000804648    1.201    0.167
       122  -9.9679     46.8160     74.9416   4.7757725659e+01   5.8525506659e+01    0.4399903    0.2329867 -31.27  0.001603269    2.847    0.649
       123 -10.2800     80.2990     71.0050   3.2753218425e+01   5.3291107032e+01    0.5288861    0.3165521 -61.66  0.001878022    2.043    0.510
       124 -11.0718    122.8471     68.3995   1.9380271326e+01   4.4027796007e+01    0.4008525    0.2589058  48.68 0.0009769258    1.597    0.374
       125 -10.2134    219.4259     67.1252   3.8073133865e+00   2.2655146992e+01    0.3419898    0.1529873  65.82  0.001649804    2.621    0.618
       126 -10.4281    102.1276     66.6188   2.4210010838e+01   4.9305527192e+01    0.2975894    0.2349217 -36.44   0.00146077    1.347    0.258
       127 -10.0361    202.0765     63.0676   4.7242872736e+00   2.6664297116e+01    0.2602066    0.1605699 -36.80 0.0009208263    1.431    0.301
       128 -11.6152     46.4892     59.4522   4.2769824336e+01   6.2212741877e+01    0.7795182    0.2972777  46.23  0.002715818    3.024    0.669
       129 -11.6715     43.0589     60.5078   4.4841634346e+01   6.2516402245e+01    0.4825439    0.2644693 -57.32  0.001028038    1.864    0.464
       130 -11.3506     39.6875     56.5611   4.5137642349e+01   6.3925726124e+01    0.3285846     0.239637  33.62   0.00088866    1.385    0.278
       131  -9.9872    158.9103     62.7341   1.0517634699e+01   3.6310073336e+01    0.2818355    0.1701702  52.29 0.0008034849    1.788    0.441
       132  -9.9361    105.9859     63.2646   2.1969094487e+01   4.9029231092e+01     0.305816    0.1647423  37.16  0.001146204    2.447    0.591
       133 -10.8551     92.5189     62.4828   2.5644656527e+01   5.2336567688e+01    0.4077221    0.2632229  68.45 0.0008758764    1.870    0.465
       134  -9.8361     58.3257     62.3851   3.8375350311e+01   5.9512182370e+01    0.3071049    0.2206507  83.57  0.001357699    2.079    0.519
       135  -9.4012    150.8259     60.8064   1.1319426208e+01   3.8546912852e+01    0.1966483    0.1529378 -63.06 0.0005287398    1.248    0.199
       136  -9.8986    113.5096     60.5783   1.9068694210e+01   4.7703536035e+01    0.2766117    0.2069084 -50.81 0.0007159823    1.340    0.254
       137  -9.2615     84.6339     61.3107   2.7788949887e+01   5.4350561729e+01    0.1581429    0.1183055  89.52            0    1.759    0.431
       138  -9.5575     21.4811     57.5330   5.5533173582e+01   6.6020722592e+01    0.3087693    0.1842435 -73.06 0.0007778785    1.875    0.467
       139  -9.7768     29.7418     60.0107   5.1649036129e+01   6.4485103911e+01    0.4221653    0.1772216 -63.20  0.001623474    2.509    0.601
       140  -9.9371     25.7232     59.4216   5.3691171064e+01   6.5103404687e+01    0.3954216    0.1913786  20.89  0.001291373    2.287    0.563
       141 -10.5668     25.5163     55.4722   5.2540932027e+01   6.6065568469e+01    0.3747053    0.2803323 -29.56  0.001051327    1.394    0.283
       142  -9.7245    219.2186    248.5670   3.7560486812e+01  -3.0849248711e+00    0.1424924   0.07615526  14.23 0.0008670862    1.620    0.383
       143  -9.6246    124.8816     56.4317   1.4999570471e+01   4.5621384567e+01    0.9195557    0.3755185  52.28  0.003410782    2.415    0.586
       144 -10.0693    242.6751    246.6685   3.3708135238e+01  -5.0752981347e+00    0.1052482   0.05603389  -4.87 0.0007050713    1.706    0.414
       145 -11.7078    116.8410     47.6682   1.3762262159e+01   4.9043262304e+01    0.7633457    0.5322267 -24.67  0.001955149    1.698    0.411
       146 -10.6240    116.5925     43.2417   1.2229297541e+01   4.9786024274e+01    0.3141024    0.2612295  20.90  0.001152591    1.537    0.349
       147 -11.8807     75.5173     55.7771   2.8914138816e+01   5.7436771261e+01    0.6922477    0.4235778 -41.05  0.003101851    1.689    0.408
       148 -10.0012    106.5028     58.1091   2.0022683806e+01   4.9844176723e+01    0.2770014    0.2022669  75.88 0.0005780643    1.514    0.340
       149 -10.1907     88.0000     56.0086   2.4688885771e+01   5.4605928157e+01    0.4172522    0.1749895 -36.62  0.001127547    2.655    0.623
       150 -10.6638     88.5669     51.1739   2.2643680987e+01   5.5355077994e+01    0.5981126    0.2343049 -41.77  0.002159332    2.592    0.614
       151  -9.5439     50.9059     56.4947   3.9539307792e+01   6.2121761121e+01    0.2194016     0.140814  36.80  0.001023127    1.563    0.360
       152 -10.0147    157.1472     53.8178   8.2159314586e+00   3.8110889235e+01    0.2299027    0.1774059 -69.93  0.000925118    1.263    0.208
       153  -8.8216      3.3182     54.2949   6.5707292254e+01   6.8293887751e+01    0.1408726   0.08470084 -38.01 0.0003671886    1.608    0.378
       154 -10.8988     60.1930     51.1446   3.3186405850e+01   6.1513476502e+01    0.6069435    0.3084534 -60.22  0.002233378    2.912    0.657
       155 -10.3990     61.5819     46.6328   3.0686013443e+01   6.2114626356e+01    0.3944667    0.2346816 -30.07  0.001712824    2.041    0.510
       156 -10.6732     32.0694     52.6156   4.7805986982e+01   6.5902521953e+01    0.4755155    0.2510096  17.61  0.001984622    2.391    0.582
       157 -11.1735    243.7347     51.0444   3.5819256322e+02   2.0334290041e+01    0.2042521    0.1474537 -58.21 0.0003394383    1.184    0.156
       158  -9.0600    202.3112     52.3425   2.0966017605e+00   2.8111170893e+01    0.1200507    0.1013372  13.27 0.0004741253    1.699    0.412
       159 -10.0113    126.7554     50.5135   1.2615799127e+01   4.6112343567e+01    0.4325167    0.1853406 -23.60  0.001370558    3.832    0.739
       160  -9.4910     54.5394     51.3225   3.5785718581e+01   6.2557048026e+01    0.3533751    0.2111344 -18.36   0.00131951    3.030    0.670
       161  -9.9056    145.2887     49.6072   8.8641013730e+00   4.1634937874e+01    0.3068524    0.2084724  25.79  0.000932648    2.344    0.573
       162 -10.4617    145.9048     43.3722   6.8121071385e+00   4.2389742623e+01    0.5183235    0.1056541 -44.80  0.001437175    4.601    0.783
       163  -9.2345     97.5860     49.8155   1.9421114140e+01   5.3446190030e+01     0.194946    0.1363622 -51.83 0.0003136332    1.502    0.334
       164  -9.9098    155.0981     48.5165   6.9615527655e+00   3.9390562387e+01    0.2525303    0.1919075 -19.11 0.0006053812    1.616    0.381
       165 -10.3198     82.8302     47.0242   2.2839504945e+01   5.7418053820e+01     0.374289    0.2400871 -17.50  0.001433869    2.286    0.562
       166  -9.7821    228.6816     48.6779   3.5884606410e+02   2.3356802641e+01    0.1078921   0.09308565   6.02 0.0005258005    1.668    0.400
       167 -12.3632     41.7083     44.1599   3.9095988664e+01   6.6275326345e+01     1.027442    0.3816053  37.86  0.003459979    2.670    0.626
       168 -10.3730     22.7709     37.0724   4.7213082315e+01   7.0507397701e+01    0.4117022    0.1858568  41.64  0.001485488    2.471    0.595
       169 -10.5007     20.4294     45.7584   5.2231579528e+01   6.8883030939e+01    0.2734085    0.2141432 -28.34 0.0007311913    1.269    0.212
       170 -11.2540     25.9947     42.5050   4.7459411856e+01   6.8939879214e+01    0.5474995    0.2931717  42.60  0.001659218    2.065    0.516
       171 -10.2660     13.6378     46.0841   5.6742520108e+01   6.9491714053e+01    0.3873609    0.1752552 -35.07  0.001495631    2.530    0.605
       172 -10.8422     18.0925     40.6412   5.1811848022e+01   7.0281974189e+01    0.3191964    0.2022386 -38.97  0.000671165    1.533    0.347
       173 -10.0280    138.6912     44.1668   8.2594495072e+00   4.4076785633e+01    0.3174196     0.189863  34.81  0.001119132    2.523    0.604
       174  -9.9067    156.0115     42.4753   5.0185088791e+00   4.0023921694e+01    0.2469359    0.2018035 -13.90  0.001341942    1.540    0.351
       175 -10.0820     56.6858     41.8839   3.0726250639e+01   6.3984849055e+01    0.2667391    0.2010378  54.58 0.0005608903    1.392    0.281
       176  -9.3327     99.3328     41.6291   1.5762571528e+01   5.4349366497e+01    0.1590623    0.1087478 -71.78 0.0007028371    1.837    0.456
       177 -11.3853     72.6333     46.4833   2.6207698382e+01   5.9810140238e+01    0.7208912    0.3023581 -45.54  0.002715947    2.515    0.602
       178 -10.7588     78.7030     37.3649   2.0103808974e+01   5.9982374542e+01    0.5087556    0.3359507 -69.98   0.00221208    2.190    0.543
       179 -11.0240     78.9343     33.6630   1.8372806267e+01   6.0500274992e+01    0.6263154    0.4358593  17.57   0.00289843    2.029    0.507
       180 -11.0966      3.7279     36.3060   6.0450263546e+01   7.2527770051e+01    0.5250199    0.3351581 -56.81  0.002361167    1.410    0.291
       181 -10.7832     10.0326     30.5919   5.3465765570e+01   7.3277625129e+01     0.401837    0.2962337 -37.23  0.001937097    1.248    0.199
       182 -10.4055    249.7536     38.9546   3.5529790815e+02   2.0750390651e+01    0.1954083    0.1365952 -66.65 0.0003812802    1.311    0.237
       183  -9.8759    230.4773     36.4886   3.5603951723e+02   2.4520568170e+01    0.1570603    0.1064942  62.98 0.0003063599    1.800    0.445
       184  -9.3469     70.5212     33.5296   2.1209916433e+01   6.2463684158e+01    0.1969362     0.140493 -18.38 0.0009595955    1.703    0.413
       185  -9.4600     67.2834     31.9784   2.1675541446e+01   6.3432281374e+01    0.4002685    0.1957474  34.29  0.001504284    2.797    0.642
       186  -9.8716     60.5461     36.5237   2.6550831844e+01   6.4150600245e+01    0.2595328    0.2090983 -58.53 0.0007777368    1.428    0.300
       187 -10.1058     62.2638     33.5225   2.4396879005e+01   6.4286091977e+01    0.2975575    0.2178014  34.54 0.0007556142    1.413    0.292
       188  -9.5130     12.6736     36.7978   5.4052966739e+01   7.1681937745e+01    0.1707764     0.118425 -69.62 0.0009130323    1.612    0.380
       189 -10.4519    153.2402     35.7688   3.3706692737e+00   4.1606128592e+01    0.2423779    0.2059739  85.40 0.0005146856    1.112    0.101
       190 -10.3366    175.6301     34.3473   2.4621472932e-01   3.6401090082e+01    0.3226396    0.1699989 -57.07 0.0009369618    1.806    0.446
       191 -10.7190    171.4144     30.3362   3.5958060606e+02   3.7891118173e+01    0.4444443    0.2154147  84.92  0.001957079    2.259    0.557
       192 -11.4286    125.6570    240.5463   5.3792185149e+01   8.6553824032e+00    0.2877249    0.1683253  51.06  0.001566807    2.106    0.525
       193 -11.5931    149.2445     22.2081   3.5966432758e+02   4.4260402747e+01     1.011261    0.2428709  70.15  0.003285337    3.760    0.734
       194 -11.3751    157.4988     29.0346   7.7731780726e-01   4.1408307211e+01    0.3935848    0.2715729 -81.32   0.00121748    1.402    0.287
       195 -11.3213     72.4981    238.3250   6.5120749727e+01   1.5609585997e+01    0.3701976    0.2332803  19.21  0.002116171    1.611    0.379
       196 -10.5760    103.2819     32.6829   1.1220280434e+01   5.4668703324e+01    0.2590389    0.2147836 -60.86 0.0005067455    1.238    0.192
       197 -12.5441    105.7275     20.0212   5.5710074966e+00   5.5633628392e+01    0.3945565    0.2932529 -74.18 0.0003918898    1.411    0.291
       198 -11.4492    107.3959     30.8674   9.5702422410e+00   5.3870727260e+01    0.5604502    0.3489252  16.59  0.002267084    2.830    0.647
       199 -12.1840    113.0256     25.0267   6.1428978696e+00   5.3171703465e+01    0.7493385    0.3109984  60.73  0.003027796    2.144    0.534
       200 -10.6980    240.2475     32.4631   3.5454180144e+02   2.3187067803e+01    0.2177149    0.2061995  26.74  0.001521031    1.545    0.353
       201 -10.2470    217.0545     32.1068   3.5601086693e+02   2.7658393246e+01    0.1657713     0.150854 -50.28 0.0003240895    1.227    0.185
       202 -11.3645    146.9536    237.6817   4.9092318884e+01   6.4446169588e+00    0.3820936    0.2693559  43.55  0.002432401    1.567    0.362
       203 -11.8591     58.2502     29.3415   2.3994012015e+01   6.5810584472e+01    0.4034743     0.312064  21.21  0.002152466    1.460    0.315
       204 -11.3462     48.8300     30.2235   2.8748736238e+01   6.7587029095e+01    0.6673233    0.2739416  39.86  0.002070357    2.489    0.598
       205 -11.7433     26.5600     27.7716   4.0195067341e+01   7.1853664255e+01    0.4763029    0.3371489 -56.77  0.002135409    1.635    0.388
       206 -10.9025    131.7499    240.5492   5.2530719802e+01   7.8939723347e+00    0.2284847   0.09931666  26.88 0.0009298988    1.988    0.497
       207 -12.1954    127.1920     28.4142   4.8713551619e+00   4.9117983674e+01    0.7940822    0.3890151  77.48  0.002300847    2.155    0.536
       208  -9.9508    177.6620     28.9727   3.5856208001e+02   3.6589815333e+01    0.1917252    0.1521144 -49.56 0.0005925227    1.131    0.116
       209 -11.3007    230.0907     26.9164   3.5397752862e+02   2.5712267912e+01     0.265998    0.2198742 -85.14  0.001304535    1.280    0.219
       210 -10.5168    189.2654     27.0234   3.5697269237e+02   3.4171213085e+01    0.3162741    0.2320728  40.56  0.001607748    1.920    0.479
       211 -10.7544    183.3555     25.7709   3.5716357121e+02   3.5656467068e+01    0.3718539     0.155854 -48.29  0.001686013    2.023    0.506
       212  -9.6860     97.5054     25.9651   9.8163803233e+00   5.7014026350e+01    0.2359393    0.1765787  65.26 0.0007686951    1.235    0.190
       213 -10.6088    169.5229     23.1698   3.5774778091e+02   3.9191190536e+01    0.2678703    0.2220196  83.06 0.0006480644    1.180    0.153
       214 -10.6531     46.2392     24.3139   2.6853370134e+01   6.9053769854e+01    0.3189013    0.2332083   9.58 0.0006840795    1.681    0.405
       215 -10.0372     46.7409     19.8982   2.4092852739e+01   6.9622421472e+01    0.2352318    0.2089072  35.99  0.001217684    1.047    0.045
       216 -10.1215    201.3135     23.6740   3.5516531594e+02   3.1915471621e+01    0.2303278    0.1251034  52.68  0.001166714    2.401    0.583
       217 -11.6855    246.0656     21.2381   3.5189565672e+02   2.3403930146e+01    0.4937484    0.1702193  61.03  0.002416644    3.653    0.726
       218  -9.6342    233.3535    234.3185   3.3359814563e+01  -2.8458398631e+00    0.1105646   0.06092642  -3.70 0.0007046731    1.746    0.427
       219 -10.5252    186.8011     15.0117   3.5404864100e+02   3.6076718107e+01      0.22589    0.1728505  81.03 0.0007543735    1.303    0.233
       220  -9.2406     15.4973    233.5203   7.7648923985e+01   2.2674594671e+01     0.118161   0.09354126  49.16 0.0002468578    1.055    0.052
       221 -10.0099    246.4942    230.4889   3.0855252003e+01  -3.6736334516e+00     0.102082   0.07234129  -7.09 0.0008104753    1.021    0.020
       222 -10.5529    248.7059    223.8394   2.9558350764e+01  -3.1386013689e+00     0.166681   0.09451995 -15.46 0.0009124863    1.449    0.310
       223  -9.3128     86.0637     23.3237   1.1542540652e+01   6.0205743525e+01    0.1915464     0.162965  63.94 0.0003365566    1.085    0.078
       224 -10.0403     13.6132     22.9062   4.6988950580e+01   7.4481497874e+01    0.2206197    0.1727278  23.28  0.000518336    1.267    0.211
       225 -10.6120     68.5658     20.5068   1.5489940834e+01   6.4769547634e+01    0.3704168    0.2739826 -40.39  0.001661056    1.455    0.313
       226 -10.1304     10.0000    217.9559   7.8304544993e+01   2.6371377838e+01    0.1821567   0.06388794 -82.80 0.0008015711    2.936    0.659
       227  -9.6063     39.7666    205.9688   7.0365578930e+01   2.5996836787e+01    0.1630306    0.1044014 -79.09 0.0008865263    1.658    0.397
       228 -11.2788      4.5405    203.3161   7.9064236573e+01   3.0034644732e+01    0.4637468    0.1197368 -65.72  0.001767148    3.971    0.748
       229  -9.1004    135.4593    196.4821   4.5754599574e+01   1.5016927102e+01    0.1318345    0.1184351  19.10 9.262231e-05    1.010    0.010
       230  -9.3733    233.6825    195.6747   2.7351645361e+01   1.8587466729e+00    0.1156686   0.06983895  -7.35 0.0007044812    1.673    0.402
       231  -9.3114     53.5132     21.5070   2.1875230083e+01   6.7989342478e+01    0.1365511    0.1236126  29.73 9.159043e-05    1.049    0.047
       232  -9.5145    216.6003     19.7925   3.5321433318e+02   2.9163133306e+01    0.1743973   0.08316433 -43.48 0.0003794565    1.600    0.375
       233  -9.9578     16.0405    190.7726   7.5539623345e+01   3.1892833974e+01    0.1826244    0.1510155  55.51 0.0004790679    1.028    0.028
       234  -9.5810     74.8858     19.0877   1.2727146876e+01   6.3452637910e+01     0.223368    0.1531893  30.28  0.001004856    1.697    0.411
       235 -12.4622      6.5121    186.0074   7.7839292511e+01   3.3857776971e+01    0.8485597    0.3104973  75.29  0.003418606    2.843    0.648
       236 -11.7392    237.0466     16.3675   3.5133529382e+02   2.5569876659e+01    0.2646447    0.1744058 -86.54  0.001782532    1.520    0.342
       237 -10.2750     15.9590    173.9447   7.4562746692e+01   3.5964502011e+01    0.2388744    0.1252149  57.29  0.001141578    1.714    0.417
       238  -9.6043     50.9902    171.3269   6.4145905863e+01   3.2841933924e+01    0.3379055    0.1431413 -85.53  0.001178382    3.293    0.696
       239 -12.0788      9.2889    166.8914   7.6067347770e+01   3.8303500019e+01    0.4869179    0.2804482  32.56  0.002500887    1.615    0.381
       240 -12.7042     13.2631    160.2995   7.4456060965e+01   3.9643334118e+01    0.6399763    0.4760412 -37.42  0.001955556    1.695    0.410
       241 -10.5987     18.0301    165.6129   7.3389462019e+01   3.7865616190e+01    0.3112659    0.1671582 -68.01  0.001486079    1.825    0.452
       242  -9.3163     80.5873    165.1812   5.4759722941e+01   3.0246176326e+01    0.2026898    0.1323617 -50.51 0.0009459978    1.648    0.393
       243  -9.8283    205.0713    162.9848   2.6109038623e+01   1.0301957782e+01    0.1916019    0.1605841 -21.20 0.0006350654    1.024    0.024
       244  -9.5039    214.8098    161.4087   2.4237929421e+01   9.1301051498e+00    0.1535923    0.1084146  20.49 0.0003477689    1.548    0.354
       245 -10.2466     28.5260    160.5020   6.9780293718e+01   3.8154382079e+01    0.2520766    0.1223344  86.52 0.0008741231    2.265    0.558
       246  -9.8698    104.8014    154.4651   4.6173032370e+01   2.8858323020e+01    0.2822884    0.2106106 -57.38  0.001394406    1.391    0.281
       247 -10.8625      9.6015    154.7930   7.5215952075e+01   4.1365648652e+01    0.2556158    0.1567305  82.96  0.001289037    1.508    0.337
       248 -11.5505     16.8353    147.6258   7.2358520229e+01   4.2630494547e+01    0.5761392    0.1941476 -78.59  0.002102506    2.825    0.646
       249  -9.4994    196.2123     14.3674   3.5322398935e+02   3.4050379851e+01    0.1699865   0.09973919 -81.35 0.0004193092    1.607    0.378
       250 -11.7730     21.4229    150.4784   7.1113205050e+01   4.1462972730e+01    0.4694161    0.2949653 -38.23  0.000537434    2.040    0.510
       251 -11.4314     24.0038    147.9917   7.0040527299e+01   4.1872300227e+01    0.3221828    0.2896273 -86.00 0.0006538004    1.090    0.082
       252 -11.1025      4.5360    153.4235   7.6715826114e+01   4.2111429961e+01    0.2885398     0.177466  35.77  0.001244056    1.531    0.347
       253  -9.9227    148.1528     15.6689   3.5771935194e+02   4.5252093516e+01    0.3301356    0.1361658  67.58  0.001219173    2.199    0.545
       254  -9.3604     55.5136    152.5283   6.0410765031e+01   3.7027705413e+01    0.1453391    0.1370011  68.70 0.0005146905    1.039    0.038
       255 -11.1793     46.9502    147.5215   6.2464074783e+01   3.9445157626e+01    0.6476581    0.3770134 -50.59  0.002885761    1.866    0.464
       256  -9.4419     64.6624    149.7027   5.7121466552e+01   3.6480356662e+01    0.1479976     0.115438 -23.82 0.0003877537    1.655    0.396
       257  -9.8487    104.1772    147.5877   4.5032002457e+01   3.0577404635e+01    0.2443871    0.2021859 -74.07 0.0005337441    1.314    0.239
       258 -10.7908     32.8568    143.9343   6.6672225319e+01   4.2042115961e+01     0.308594    0.2607815 -89.11  0.000692917    1.109    0.098
       259 -12.2024      4.1449    142.3736   7.6152533672e+01   4.5021731342e+01    0.8002632    0.3694481  49.09  0.003592327    1.986    0.496
       260 -10.6736     40.8174    138.4563   6.3282130060e+01   4.2599745603e+01    0.4162423    0.3170452 -83.59  0.001346923    1.275    0.215
       261 -11.2978     23.9133    137.6313   6.9015707839e+01   4.4640822859e+01    0.6610455    0.2997796 -47.71  0.002616709    2.552    0.608
       262 -11.2218     20.6233    133.8840   6.9768909704e+01   4.5956200862e+01    0.3616353    0.2832492  70.87  0.001391906    1.194    0.162
       263 -10.6514     30.4068    132.5564   6.6140304109e+01   4.5354018033e+01    0.3416305    0.2576593 -36.32 0.0008369543    1.572    0.364
       264  -9.4536     26.2689    131.3203   6.7467369331e+01   4.6110595904e+01     0.202556     0.179905  53.30 0.0001665135    1.099    0.090
       265 -11.9932     12.4575    135.2282   7.2771720689e+01   4.6293781496e+01    0.6704775    0.3164313 -50.75   0.00284265    2.300    0.565
       266  -9.6910     72.1665    133.9972   5.2019862108e+01   3.9386691722e+01    0.4032502    0.2214949   2.71  0.001112599    5.141    0.805
       267  -9.0105    103.7528    130.6587   4.1631605828e+01   3.4669616579e+01    0.1507591    0.1187795 -24.50 0.0002148279    1.567    0.362
       268 -11.1305     11.0713    125.2490   7.2356767300e+01   4.9085409876e+01    0.5606019    0.2820481 -42.98  0.001910048    2.345    0.574
       269  -9.5159     26.5312    127.1208   6.6855185412e+01   4.7221013704e+01    0.2121626    0.1339749 -77.40 0.0003687234    1.497    0.332
       270 -10.0342     22.9925    126.3844   6.8068046341e+01   4.7763342510e+01    0.1934628    0.1790277  52.81  0.000383967    1.097    0.088
       271 -10.1142      2.1276    125.1986   7.5646576049e+01   4.9721241257e+01     0.294443    0.1701714  80.60  0.001415296    1.630    0.386
       272 -10.4882    104.6988    122.5195   3.9504554571e+01   3.6419882229e+01    0.2933481     0.280476  58.05  0.000924514    1.034    0.033
       273  -9.8400     49.2679    122.5097   5.7795537114e+01   4.5804948923e+01    0.3268457    0.2182187  -5.18  0.001379968    2.223    0.550
       274 -10.4471     43.5439    117.4688   5.9028664236e+01   4.7909344476e+01    0.6083705    0.2489358 -78.09  0.001979031    3.199    0.687
       275 -11.6336     15.2686    109.0747   6.8930080612e+01   5.3140289356e+01     0.650313    0.4734838 -32.92  0.002072932    1.577    0.366
       276 -12.3451      8.0250    114.7689   7.2492393801e+01   5.2139655545e+01     0.299409    0.2867358 -72.25 0.0003974892    1.105    0.095
