#   1 NUMBER                 Running object number                                     
#   2 MAG_AUTO               Kron-like elliptical aperture magnitude                    [mag]
#   3 X_IMAGE                Object position along x                                    [pixel]
#   4 Y_IMAGE                Object position along y                                    [pixel]
#   5 X_WORLD                Barycenter position along world x axis                     [deg]
#   6 Y_WORLD                Barycenter position along world y axis                     [deg]
#   7 A_WORLD                Profile RMS along major axis (world units)                 [deg]
#   8 B_WORLD                Profile RMS along minor axis (world units)                 [deg]
#   9 THETA_WORLD            Position angle (CCW/world-x)                               [deg]
#  10 FWHM_WORLD             FWHM assuming a gaussian core                              [deg]
#  11 ELONGATION             A_IMAGE/B_IMAGE                                           
#  12 ELLIPTICITY            1 - B_IMAGE/A_IMAGE                                       
         1 -12.5486    184.4902     22.4259   7.3397634295e+01   3.6192273251e+01     1.062564    0.9085051   5.82  0.004596218    1.202    0.168
         2 -12.1928    194.1629      7.2294   6.7446383504e+01   3.5237567269e+01     1.328053    0.7788347  18.45  0.005960822    2.173    0.540
         3  -9.7793     59.1175      3.4952   9.4761574621e+01   6.8671608024e+01    0.2259103    0.1836788 -34.54  0.001306181    1.353    0.261
         4  -8.4300    208.4967    243.4848   1.1963602622e+02   1.9775464982e+00    0.1070989   0.07345254  18.94 0.0001641629    1.016    0.016
         5 -10.2042    162.9129    249.2784   1.2792593685e+02   7.0384837556e+00    0.2619653    0.1550362  30.76  0.001862116    1.231    0.188
         6  -9.9258    164.0000    244.5575   1.2721837248e+02   7.4344624893e+00    0.2329266    0.1176069 -46.36  0.001482569    2.726    0.633
         7 -11.0200    142.2319    248.9091   1.3142963473e+02   9.6396649972e+00    0.4412737    0.1912852  31.73  0.002636624    1.798    0.444
         8 -19.3197     14.4631    126.1509   1.4753814137e+02   4.6222677777e+01      16.9626     1.652055 -77.54   0.03913605    9.498    0.895
         9  -9.3371     66.6759    247.6556   1.4441438644e+02   1.8497379564e+01    0.1843552    0.1008997  41.70 0.0007972392    1.321    0.243
        10 -10.1033    142.7654    240.9213   1.3052297374e+02   1.0547430859e+01    0.2143217    0.1193819  37.90 0.0006763007    1.365    0.268
        11 -10.6415    115.0000    245.9859   1.3589808908e+02   1.3310567205e+01    0.2847344    0.1748992 -72.44  0.001966484    2.474    0.596
        12  -9.3364    120.4569    238.4978   1.3425455340e+02   1.3641509138e+01    0.1062364   0.08093575  35.95   0.00080908    1.011    0.011
        13 -10.9493    151.9801    229.1714   1.2757334898e+02   1.0843625340e+01    0.4010499    0.1728367  35.23   0.00224821    1.790    0.441
        14  -8.9870     64.8284    229.5648   1.4364305446e+02   2.1367712123e+01    0.1747721    0.1256925  71.25 0.0007798226    1.362    0.266
        15 -10.0326    163.4752    225.9919   1.2510994380e+02   9.7192198837e+00     0.197686    0.1470618 -36.41  0.001433294    1.662    0.398
        16 -10.4131     48.2340    217.6719   1.4598460873e+02   2.4981804415e+01    0.4035618    0.1867731  37.20  0.002536293    1.719    0.418
        17  -8.4876    227.4830    203.4439   1.1064921907e+02   3.6052679805e+00    0.1549341    0.1428811  12.12 0.0005660974    1.617    0.382
        18  -8.5830     77.2873    200.3571   1.3901642011e+02   2.4790266024e+01    0.1028201   0.08535782 -21.38 0.0007023673    1.678    0.404
        19 -10.5548     81.5051    190.5511   1.3720620770e+02   2.6035060256e+01    0.3965985     0.260898 -44.68  0.002420709    1.934    0.483
        20 -10.2604     85.0769    184.2967   1.3578351083e+02   2.6743047702e+01    0.2495072    0.2222732 -29.53 0.0009016148    1.396    0.284
        21 -10.8556    110.0410    247.2284   1.3687123849e+02   1.3734869130e+01    0.3882442    0.2111131 -62.85  0.002649681    2.522    0.604
        22  -9.1311    114.5003    174.0582   1.2797882359e+02   2.4642920762e+01    0.1768549    0.1251005 -55.95  0.001029618    1.580    0.367
        23  -9.7727     92.1108    173.0269   1.3289861765e+02   2.7966879397e+01    0.2324077    0.2163889  30.77 0.0004293572    1.121    0.108
        24  -9.5284    108.4785    173.4568   1.2924402050e+02   2.5623395633e+01    0.2698851    0.1115115  35.46  0.001211477    2.182    0.542
        25 -10.8034     96.9132    165.3753   1.3078335743e+02   2.8803396808e+01    0.5598421    0.3933157 -28.89  0.001641943    1.922    0.480
        26  -8.7854     73.3593    164.0528   1.3618390830e+02   3.2151025252e+01     0.172174    0.1505426  87.38 0.0009727966    1.121    0.108
        27 -10.5723     96.6562    147.8345   1.2824832438e+02   3.2399362173e+01    0.2725111    0.2421091   4.94  0.000612949    1.275    0.216
        28  -8.7868    107.4916    148.0004   1.2557753011e+02   3.0745461391e+01     0.296687    0.2158179 -22.70  0.001553106    1.791    0.442
        29  -8.2870    109.6970    143.9308   1.2432652683e+02   3.1236225604e+01    0.2635334    0.1084199 -42.07 0.0009786757    2.910    0.656
        30  -8.8566    115.1548    134.8972   1.2127252912e+02   3.2219516944e+01    0.3140564    0.1711061 -43.90 0.0008709396    1.917    0.478
        31  -9.3376    103.4373    131.6341   1.2367829693e+02   3.4805790927e+01    0.2750043    0.2279969 -12.15 0.0006746938    1.435    0.303
        32 -10.7858     66.0031    131.3253   1.3379331370e+02   4.0138009375e+01    0.3460674    0.2086054 -54.53  0.001793471    1.629    0.386
        33 -10.6162     73.1481    125.1133   1.3081582607e+02   4.0654634432e+01     0.392605    0.1813685 -48.64  0.001700918    2.230    0.552
        34  -8.2192    110.6378    122.1524   1.1985341024e+02   3.5662022172e+01    0.1940607    0.1746998 -41.04 0.0005849398    1.112    0.101
        35  -8.2119    168.8792    113.7975   1.0367452618e+02   2.6245291060e+01    0.1889522    0.1793171 -84.26 0.0007146424    1.357    0.263
        36 -10.2648    105.6142    245.8012   1.3752857682e+02   1.4443257545e+01    0.2379065    0.1958247  54.48 0.0006093821    1.220    0.180
        37 -10.9017     81.0228    246.9929   1.4190505185e+02   1.7062415281e+01     0.519798    0.2014958  50.67  0.002382123    2.241    0.554
        38 -10.6154     83.2273    243.9300   1.4131389250e+02   1.7249034434e+01     0.374517    0.2136733  72.80  0.002057295    2.245    0.555
        39  -9.2526    163.8116     47.5999   8.5126070608e+01   3.8292343513e+01    0.2937522    0.1175686 -24.31  0.001002407    2.571    0.611
        40  -8.6356    115.0000     43.9681   9.5140373382e+01   5.0683159627e+01    0.2574728   0.08363252 -33.48 0.0008043679    2.956    0.662
        41  -9.4194     73.6749    249.7508   1.4334326006e+02   1.7469445347e+01    0.1775181    0.1476936   8.76  0.001139632    1.630    0.386
        42 -10.4230     69.0615    243.6272   1.4376549339e+02   1.8822103306e+01    0.3292835    0.2146341  17.30  0.001869345    1.996    0.499
        43 -11.2662    176.3363     29.0797   7.6731064773e+01   3.7519215585e+01     0.436241    0.3805323 -17.20  0.001223935    1.101    0.092
        44 -10.5049    134.1586    246.5512   1.3259867938e+02   1.0918636656e+01     0.317283    0.1582515 -55.70  0.002022768    2.848    0.649
        45 -11.7183    100.2753    246.8041   1.3854259614e+02   1.4928180348e+01    0.5390891    0.4289668 -58.57  0.003631097    1.660    0.398
        46  -9.6796     64.2252    250.5679   1.4499456253e+02   1.8340833650e+01    0.3210982    0.1275865  30.89  0.001882585    2.215    0.548
