#   1 NUMBER                 Running object number                                     
#   2 MAG_AUTO               Kron-like elliptical aperture magnitude                    [mag]
#   3 X_IMAGE                Object position along x                                    [pixel]
#   4 Y_IMAGE                Object position along y                                    [pixel]
#   5 X_WORLD                Barycenter position along world x axis                     [deg]
#   6 Y_WORLD                Barycenter position along world y axis                     [deg]
#   7 A_WORLD                Profile RMS along major axis (world units)                 [deg]
#   8 B_WORLD                Profile RMS along minor axis (world units)                 [deg]
#   9 THETA_WORLD            Position angle (CCW/world-x)                               [deg]
#  10 FWHM_WORLD             FWHM assuming a gaussian core                              [deg]
#  11 ELONGATION             A_IMAGE/B_IMAGE                                           
#  12 ELLIPTICITY            1 - B_IMAGE/A_IMAGE                                       
         1 -13.0522     81.5609    142.9300   9.6263217632e+01   3.5808773635e+01     3.729618     1.834002 -60.17   0.01509411    1.991    0.498
         2 -14.7356    135.7687    129.7224   7.8325363706e+01   2.9027351563e+01     4.914952     2.981024 -59.88   0.01971567    1.987    0.497
         3 -14.2533      4.9929     78.6990   1.0910886009e+02   5.9411223432e+01     4.708572     1.282985 -68.02   0.01770794    3.333    0.700
         4 -13.7510     29.1444     77.2431   9.9354444836e+01   5.8025989922e+01     1.808853     1.415575  10.63  0.006895246    1.401    0.286
         5 -13.9904    134.3451     80.6619   6.5385139310e+01   3.9610389451e+01     1.878004     1.701999  38.68   0.01003973    1.095    0.087
         6 -13.8012    106.0661     30.2749   5.5983201122e+01   5.3861325988e+01     1.986222     1.743868 -20.91   0.01206906    1.221    0.181
         7 -11.2356    243.9518     11.7567   3.1562814853e+01   2.4234820414e+01    0.5862735    0.3689278 -60.63  0.003279306    1.309    0.236
         8 -12.1007     40.6412      6.2195   6.7675085945e+01   6.8970581098e+01     1.023443    0.6053196   7.86  0.005252155    1.756    0.431
         9 -11.1781    213.0780      6.9689   3.2915720888e+01   3.1259393205e+01    0.3621166    0.2178407 -11.89  0.001880571    2.689    0.628
        10 -11.3743     51.4737      6.3923   6.3250762642e+01   6.7224663824e+01    0.6836522    0.3938314  32.36   0.00353012    1.496    0.332
        11  -9.0891      1.4793      2.4615   8.6547331035e+01   7.4036001289e+01    0.2112442   0.08741976 -41.15  0.001191349    2.102    0.524
        12 -11.6049     67.1387    148.2461   1.0136070245e+02   3.6586558461e+01    0.8796009    0.7295226 -56.09  0.004290039    1.151    0.131
        13 -10.0122    150.2204    249.7184   9.7012705066e+01   1.8706947005e+00    0.3049569    0.2299666  26.30  0.001906194    1.164    0.141
        14 -11.7678    106.6255    225.2051   1.0293342704e+02   1.2995263661e+01     1.214387    0.9847802  56.25  0.004691946    1.150    0.131
        15 -13.3191     40.0051    227.6457   1.1726103101e+02   2.1508869047e+01     1.636358     0.641765  66.36  0.006847454    3.206    0.688
        16 -13.2190     17.0989    248.2591   1.2290349951e+02   1.9930949203e+01      1.86465    0.3918425  39.77  0.008523404    3.139    0.681
        17 -13.7580      5.0749    226.3054   1.2394741599e+02   2.5409709485e+01     1.643318    0.7943557  78.10  0.009494767    1.821    0.451
        18 -13.6472     18.1319    220.3953   1.2110631483e+02   2.5369814022e+01      1.89334    0.6360675  59.05    0.0083611    2.950    0.661
        19 -15.3191      6.5131    183.8022   1.2106539089e+02   3.4461818234e+01      2.61384     1.037134 -81.60  0.008784741    2.201    0.546
        20 -14.2007     28.7551    182.2064   1.1584059223e+02   3.2796187432e+01     1.192675    0.9566541  86.25  0.004491535    1.055    0.052
        21 -15.1443     57.0496    180.7043   1.0882104762e+02   2.9944964566e+01     2.788825     1.646716 -80.00  0.009876585    1.734    0.423
        22 -10.8111     79.8637    209.6880   1.0696041136e+02   2.0210115804e+01    0.6322827    0.2866714  44.23  0.002864421    1.982    0.495
        23 -10.7931     32.9507    207.2708   1.1710884670e+02   2.6645510131e+01    0.4277032    0.2257633  78.96  0.001632022    1.950    0.487
        24 -10.1460     21.1080    207.7653   1.1964981302e+02   2.7769455915e+01      0.22833    0.1931032 -48.70 0.0007780464    1.554    0.357
        25 -12.7062    133.3110    200.1378   9.3253196134e+01   1.3793954750e+01     2.451737     1.106901  41.17   0.01012254    2.052    0.513
        26 -11.7496    169.7069    197.4136   8.4605534007e+01   7.9943265513e+00     1.195805    0.6054499 -21.82  0.004008685    3.940    0.746
        27 -12.0634    176.7771    185.1781   8.0753125223e+01   9.0978089611e+00     1.007998    0.5648248  31.09  0.004171331    1.844    0.458
        28 -13.2946    206.1358    171.8513   7.2006511765e+01   6.3312859945e+00      1.62318     1.214074 -59.87   0.00789755    1.792    0.442
        29 -13.1342     55.4509    206.5995   1.1211844021e+02   2.4164716260e+01     1.662172    0.5908367  52.30  0.006583652    2.946    0.661
        30 -11.6283     55.7177    161.4170   1.0658722908e+02   3.4803398022e+01    0.5191251    0.2682712 -40.18  0.001573233    2.556    0.609
        31 -11.6283    116.5580    201.0729   9.7292330649e+01   1.6419400706e+01    0.9297609    0.6300058  35.36  0.003516699    1.406    0.289
        32 -13.0745    190.1163    169.0880   7.4660407695e+01   9.7687171221e+00      1.62391    0.6880351 -38.60  0.006258446    2.346    0.574
        33 -11.3624    108.4330    158.8236   9.1958524949e+01   2.7467332831e+01    0.7127843    0.5686952 -46.88   0.00245367    1.266    0.210
        34 -11.5788     29.1587    157.3070   1.1312421414e+02   3.8737047628e+01     1.001737    0.4535567  46.87  0.004605808    2.316    0.568
        35 -10.4651     40.9281    157.8080   1.1005807576e+02   3.7413957447e+01    0.5760564    0.3894462  78.15  0.002816485    1.569    0.363
        36 -10.8617     33.8501    240.6849   1.1938849341e+02   1.9588840411e+01    0.4711799    0.2608593 -83.73  0.002837129    1.735    0.424
        37 -13.2184      6.2946    127.4690   1.1597036512e+02   4.7851267673e+01     1.368298    0.8415293  81.51   0.00506612    1.704    0.413
        38 -12.4042     81.7207    247.7213   1.1062921751e+02   1.2250856567e+01      1.33165    0.6865893  46.81  0.006001202    1.600    0.375
        39 -13.7528    112.6281    247.7234   1.0439470975e+02   7.8463605279e+00     3.107597    0.5654411  39.50   0.01025491    4.041    0.753
        40  -9.8306     85.2125    231.4538   1.0826528727e+02   1.4902302624e+01     0.253402    0.2118769  58.48 0.0008452947    1.032    0.031
        41 -11.0323    204.7773    144.8585   6.6473463345e+01   1.1616677475e+01    0.3630348    0.3126378 -35.77  0.001759991    1.088    0.081
        42 -13.0725     94.3908     68.8944   7.2962810633e+01   5.0347218967e+01     1.350917     1.025182  17.10  0.004824961    1.442    0.306
        43 -11.9120    206.5784     55.8236   4.4988339271e+01   2.6693543393e+01    0.4687289    0.4311651 -24.77  0.002875376    1.261    0.207
        44 -10.1386    221.9680    229.3018   7.9787020774e+01  -5.6074167325e+00    0.3066402    0.1471477 -21.73  0.001424325    2.514    0.602
        45 -12.0050    217.5967     33.7037   3.8481248035e+01   2.7210741958e+01    0.4533284    0.3721526  18.08  0.002717768    1.814    0.449
        46 -10.8885    225.5569     28.0611   3.6439703986e+01   2.6173189227e+01    0.3801093    0.2320071  42.85  0.001473522    2.397    0.583
        47  -9.7892     87.1220    224.6834   1.0710656705e+02   1.5997942024e+01    0.2730103    0.1959088 -82.68 0.0006709766    1.522    0.343
        48 -11.5137    146.6022    209.5051   9.1795837466e+01   9.6364608910e+00    0.8191867    0.6776734 -89.44   0.00349865    1.602    0.376
        49 -10.2275    140.2182    213.4066   9.3839174619e+01   9.9459804130e+00    0.5818616    0.3412066  29.69   0.00277536    1.691    0.409
        50  -9.0610     53.3302    247.2128   1.1614177925e+02   1.6037643419e+01    0.2242412    0.1036932  55.71 0.0009149836    1.904    0.475
