#   1 NUMBER                 Running object number                                     
#   2 MAG_AUTO               Kron-like elliptical aperture magnitude                    [mag]
#   3 X_IMAGE                Object position along x                                    [pixel]
#   4 Y_IMAGE                Object position along y                                    [pixel]
#   5 X_WORLD                Barycenter position along world x axis                     [deg]
#   6 Y_WORLD                Barycenter position along world y axis                     [deg]
#   7 A_WORLD                Profile RMS along major axis (world units)                 [deg]
#   8 B_WORLD                Profile RMS along minor axis (world units)                 [deg]
#   9 THETA_WORLD            Position angle (CCW/world-x)                               [deg]
#  10 FWHM_WORLD             FWHM assuming a gaussian core                              [deg]
#  11 ELONGATION             A_IMAGE/B_IMAGE                                           
#  12 ELLIPTICITY            1 - B_IMAGE/A_IMAGE                                       
         1 -14.0539    128.8746    102.5846   8.9703707293e+01   3.6396177684e+01     1.311622    0.7162348 -26.01  0.004582547    2.867    0.651
         2 -12.2158     21.6438     52.1259   1.1760095364e+02   6.7140400664e+01    0.6114322    0.4164551  59.24  0.003069149    1.970    0.492
         3 -12.8816      3.1038     25.7012   1.2182024561e+02   7.4478094642e+01    0.6348055    0.1482275 -57.29   0.00246137    3.057    0.673
         4 -11.7290      2.8010      4.0963   1.1152153334e+02   7.8834807125e+01    0.2878059    0.1690307 -65.04  0.001529508    2.329    0.571
         5  -9.5943    105.9827      2.4788   5.9772677600e+01   5.7684316688e+01     0.212085    0.1194747  70.62 0.0005395082    1.525    0.344
         6 -10.1242    167.5482    242.5071   1.0742406126e+02   3.7839146887e+00    0.1192837   0.09014374  15.35 0.0001315758    1.010    0.010
         7 -11.0966    237.6574    240.0510   9.4655919602e+01  -3.9812168569e+00      0.20824    0.1179716  14.47 0.0009024763    1.430    0.301
         8 -10.7509     18.6838    239.1106   1.3933826223e+02   2.2365812109e+01     0.218647    0.1482299  26.82  0.001040755    1.402    0.287
         9 -11.8036     49.9337    236.0344   1.3227051817e+02   1.9733486998e+01    0.3382374    0.2308879  19.57  0.001112505    1.524    0.344
        10 -12.8930     13.8059    222.8326   1.3981248003e+02   2.5976025565e+01    0.6036274    0.2759651 -77.64  0.003254619    2.331    0.571
        11 -12.3879      3.1996    213.7099   1.4193818414e+02   2.8750980054e+01    0.4251968    0.3032982 -73.51  0.002810372    1.588    0.370
        12 -11.2063      9.5065    228.5129   1.4097415431e+02   2.5234167792e+01    0.2354948    0.1569639  51.65 0.0009269155    1.131    0.115
        13 -10.5520     68.4638    231.2492   1.2768601225e+02   1.8480719245e+01    0.2413999    0.1455459  31.82  0.001136998    1.342    0.255
        14 -11.2863     29.8955    228.8628   1.3641058991e+02   2.3239976841e+01    0.3717424    0.2072648 -88.35  0.002150498    1.959    0.490
        15 -10.3246     73.6407    228.8208   1.2628014057e+02   1.8304093594e+01    0.2513895    0.1497791  55.81 0.0009926916    1.668    0.401
        16 -11.1754     48.6898    227.0118   1.3196717807e+02   2.1604961576e+01    0.2639414    0.2135425 -50.77  0.001179152    1.602    0.376
        17 -11.3632    163.3910    226.2180   1.0602172379e+02   6.6613248602e+00    0.4232046    0.2604854  24.91  0.001842112    1.339    0.253
        18 -10.5353     99.0122    226.6145   1.2016766807e+02   1.5430995312e+01    0.3076333    0.1036742  30.45  0.001251007    2.445    0.591
        19 -10.8647      5.8531    230.8734   1.4184680360e+02   2.5093313215e+01     0.268527    0.2045265  40.69  0.001287859    1.141    0.124
        20 -11.1177     49.6513    218.5241   1.3114956244e+02   2.3192049931e+01    0.4267315    0.2263117 -87.59  0.002187972    2.255    0.557
        21 -11.8026     53.0159    214.7823   1.3005227747e+02   2.3571675212e+01    0.2726759    0.2588314  78.02  0.001113093    1.210    0.174
        22 -11.2693    126.2126    220.8344   1.1326046843e+02   1.2703953159e+01    0.2181747    0.1775681  33.92 0.0005349083    1.102    0.093
        23  -9.4161     35.6421    221.7028   1.3469611333e+02   2.4075466231e+01    0.1126699   0.09209636 -14.96 0.0006702167    1.703    0.413
        24  -9.7361     75.3310    219.7047   1.2505396508e+02   1.9849412867e+01    0.1369542   0.07948246  52.18  0.000418606    1.636    0.389
        25 -10.7524     28.6250    218.6080   1.3618243564e+02   2.5422854420e+01    0.2797835    0.1476333  89.70  0.001492152    2.041    0.510
        26  -9.8334    143.7602    216.9901   1.0884544449e+02   1.0857822342e+01    0.1502226    0.1084635 -43.04 0.0008823724    1.611    0.379
        27 -10.4179    131.3859    214.7463   1.1127919406e+02   1.3026280526e+01    0.1696285    0.1175751 -33.96 0.0009491529    1.675    0.403
        28 -11.4725     28.2526    211.3731   1.3588310944e+02   2.6964116253e+01    0.4611044    0.2837016  37.27  0.002693351    1.325    0.245
        29 -11.2823     33.4577    208.9918   1.3446741158e+02   2.6940306084e+01    0.4845721    0.3686593  82.29  0.003069639    1.318    0.241
        30 -10.7775     57.8326    227.7265   1.2988256641e+02   2.0419959966e+01    0.1961624     0.148271  13.95   0.00111636    1.486    0.327
        31 -10.2432     12.7993    203.1678   1.3926604776e+02   3.0168175315e+01    0.1470701    0.1417562 -71.16 0.0004944927    1.309    0.236
        32 -10.6702     73.8338    201.8461   1.2363845321e+02   2.3698697465e+01    0.2016808    0.1782092  14.41 0.0009724147    1.235    0.190
        33 -11.1771     88.9829    199.4607   1.1948735788e+02   2.2124390039e+01    0.2502814    0.1864858  75.65  0.001289368    1.613    0.380
        34 -11.6105    126.4621    197.3610   1.0991896035e+02   1.6949342294e+01    0.3268234    0.2213758   9.88  0.001648365    1.706    0.414
        35 -10.5643     15.7445    197.5401   1.3827647950e+02   3.1140281577e+01    0.2831377    0.1852903 -34.45  0.001534514    2.262    0.558
        36 -11.9458    173.2479    195.3483   9.9205360943e+01   1.0085169901e+01    0.4481085    0.2563711 -37.21   0.00170579    1.818    0.450
        37 -10.0281    112.3515    197.6696   1.1338322636e+02   1.9052663531e+01    0.1442083   0.09662667  57.44 0.0007047424    1.773    0.436
        38  -9.7149     43.7817    194.1996   1.3077630748e+02   2.9070191773e+01    0.2388582   0.09418971  57.27 0.0009403237    2.734    0.634
        39 -10.6050     59.9620    192.2264   1.2628245759e+02   2.7592726528e+01    0.2285449    0.1898033 -81.59 0.0007534918    1.300    0.231
        40  -9.8583    124.3182    191.6959   1.0956957125e+02   1.8381237707e+01    0.1378199     0.101412  57.80 0.0003390803    1.627    0.385
        41  -9.9168     27.5872    190.7921   1.3482683691e+02   3.1548070884e+01    0.1799226     0.108798  78.71 0.0006660662    1.644    0.392
        42 -10.4686    139.1893    190.0016   1.0576101945e+02   1.6341002006e+01    0.2079673      0.16301  81.34  0.001078893    1.989    0.497
        43 -10.0681    204.3294    188.6521   9.2065711531e+01   6.5592721935e+00    0.1080853    0.1017819 -87.62 0.0007049371    1.760    0.432
        44 -10.2468    156.3965    188.2103   1.0156351855e+02   1.3914729375e+01    0.1725163    0.1308562 -54.14 0.0009476694    1.651    0.394
        45 -11.2734    120.7086    186.5128   1.0964475743e+02   1.9987620226e+01    0.3617321    0.1788728 -65.04  0.001417853    3.090    0.676
        46 -12.2132     95.2031    186.9682   1.1624570516e+02   2.3872313360e+01    0.4100811    0.2720115  65.88  0.001780855    1.894    0.472
        47 -10.6960    109.2344    185.8339   1.1243442455e+02   2.1951231146e+01    0.2412321    0.1384596  64.08 0.0009504124    2.822    0.646
        48 -10.3839     66.1979    185.2037   1.2384356604e+02   2.8381657420e+01    0.2041038    0.1438066  56.61 0.0009943312    1.365    0.268
        49  -9.8773    212.5853    183.1828   8.9638885764e+01   6.1873471245e+00    0.1718201   0.09987365 -23.05 0.0009398285    1.654    0.395
        50 -10.0068    197.6783    183.3343   9.2333577470e+01   8.3211838542e+00    0.1114156    0.1040435  88.51 0.0007050121    1.705    0.414
        51 -10.0747     26.6988    181.5087   1.3445022625e+02   3.3783739584e+01    0.2322447    0.1125001 -79.33  0.001088129    2.088    0.521
        52 -10.0342    147.9963    181.4854   1.0228051014e+02   1.6505312896e+01    0.1933474    0.1096034  53.94 0.0008093962    2.463    0.594
        53  -9.5364     61.3203    181.6669   1.2479948554e+02   2.9832750631e+01    0.1512752   0.09084257  58.10 0.0004294088    1.699    0.411
        54 -12.6628     76.9539    175.5083   1.1965084991e+02   2.9136814724e+01    0.5050135    0.3051353  56.88  0.002106089    1.778    0.438
        55 -10.7986    105.4991    175.0003   1.1172282950e+02   2.4867560237e+01    0.3116129    0.1515227  58.84  0.001041395    3.524    0.716
        56 -13.4004     68.1851    152.7722   1.1901236672e+02   3.5879538762e+01    0.8871694    0.4617617  65.05  0.003238818    2.762    0.638
        57 -12.4605     48.5204    154.5588   1.2545085863e+02   3.8027424341e+01    0.7886094    0.2603302 -65.25  0.002850384    2.884    0.653
        58 -13.7634     55.1767    146.5392   1.2225188938e+02   3.9232979970e+01    0.8453308    0.5865036  45.57  0.003843592    1.357    0.263
        59 -10.6946    208.0503    170.0108   8.8010022757e+01   8.7968201876e+00    0.2684714    0.1413875  31.00   0.00136355    1.956    0.489
        60 -11.6282    121.9029    169.2157   1.0644151602e+02   2.3371198922e+01    0.4095067    0.2585189 -76.20  0.001695098    2.631    0.620
        61 -12.4715     54.1573    166.6012   1.2515622479e+02   3.4339393929e+01    0.5477386    0.4326796 -40.89  0.002958705    1.506    0.336
        62  -9.6423    214.6659    165.3152   8.5987573992e+01   8.5051169039e+00    0.1117051    0.1003802 -67.29  0.000704682    1.689    0.408
        63 -10.5365    139.2750    165.1390   1.0134886165e+02   2.1175409531e+01    0.2836463    0.1830634  59.18   0.00124591    2.127    0.530
        64 -12.3400     45.3819    170.2496   1.2815806628e+02   3.4503041914e+01      1.05025    0.2638013 -57.57  0.003503876    3.823    0.738
        65 -11.7074     70.4776    163.4773   1.1987613586e+02   3.2920410012e+01    0.3220916    0.2355177  57.76  0.001145032    1.367    0.268
        66  -9.9665    151.5033    160.9854   9.7652019075e+01   1.9811398823e+01    0.1911026    0.1298638 -72.52 0.0008102521    2.555    0.609
        67 -11.4579     93.0537    160.3854   1.1276715848e+02   3.0206213020e+01    0.3410225    0.2448153  80.94  0.001585415    1.812    0.448
        68 -12.5306    105.8165    157.0471   1.0855679026e+02   2.8831422639e+01    0.5998296    0.4022409 -80.90  0.002605535    2.142    0.533
        69  -9.7956    196.9827    158.4824   8.7763356011e+01   1.2350828149e+01    0.1679633    0.1173889  65.47 0.0008099453    2.509    0.601
        70 -11.2131     99.2255    166.1119   1.1197914507e+02   2.7874918543e+01     0.307983    0.1677035  53.75  0.001248459    2.139    0.532
        71 -12.7583     81.7303    153.1485   1.1489934296e+02   3.3749165708e+01    0.5357513    0.3492948 -73.63  0.002436364    1.777    0.437
        72 -11.5439    133.3515    152.2861   1.0028800466e+02   2.4900144876e+01    0.4868819    0.2899007 -64.99  0.001970225    2.456    0.593
        73 -10.5278    190.6891    150.5348   8.7326273006e+01   1.4726138285e+01    0.2460627    0.2360327  86.64  0.001328686    1.354    0.261
        74 -11.3202     98.4960    151.0948   1.0954679744e+02   3.1475464760e+01    0.2566445    0.2034644  56.18 0.0008972343    1.302    0.232
        75 -11.7933     91.3177    149.4990   1.1137195725e+02   3.3074455738e+01    0.3341216    0.2667196 -73.64  0.001677966    1.390    0.280
        76 -10.0241    200.4068    149.1779   8.5273571042e+01   1.3285453817e+01    0.1839527    0.1152745 -45.24 0.0006968988    1.691    0.408
        77 -12.1133     33.9591    130.1977   1.2729954186e+02   4.5955100891e+01    0.5938333    0.3173022  15.33  0.002554568    2.163    0.538
        78 -12.5562     38.1687    136.1208   1.2657323974e+02   4.3959282625e+01    0.6981849    0.3894187 -81.85  0.003090952    1.887    0.470
        79 -11.9456    107.6063    145.5777   1.0585263624e+02   3.1148065368e+01    0.6068971    0.3332218  68.42  0.001854142    4.115    0.757
        80 -10.9477    149.1147    145.1563   9.4947552525e+01   2.3375377462e+01    0.3839902    0.2670051  85.87  0.001544793    2.808    0.644
        81 -12.4224     87.9209    143.5256   1.1129986772e+02   3.5088436285e+01    0.4809463    0.3246836 -79.95  0.002116838    1.879    0.468
        82 -10.9560    125.1013    143.2025   1.0053690646e+02   2.8409462172e+01    0.3981524    0.2507273 -84.42  0.001379057    3.443    0.710
        83 -13.5265     73.1699    126.1020   1.1270963257e+02   4.1857366504e+01     1.070274    0.5697565 -38.62  0.004061157    2.427    0.588
        84 -12.0431     60.5269    125.4845   1.1701137778e+02   4.3933932730e+01    0.7723826    0.3957473  65.12  0.002651521    3.096    0.677
        85 -13.7254     68.2032    135.9824   1.1625664174e+02   4.0112009905e+01     1.128296    0.5704372 -77.49  0.004135658    2.688    0.628
        86 -12.3464     59.6067    129.6626   1.1808599219e+02   4.2982266829e+01    0.5387574     0.305549  51.43  0.001479941    1.872    0.466
        87 -11.7617    100.0397    140.5284   1.0704036177e+02   3.3699418535e+01    0.4384254    0.2077319 -50.46  0.001684205    2.192    0.544
        88 -11.5656     23.5134    139.0508   1.3195307098e+02   4.4632197917e+01     0.610159    0.2674074  57.77    0.0023704    2.476    0.596
        89  -9.7448    182.3163    141.6744   8.7067541760e+01   1.7744351413e+01     0.132573    0.1115585 -78.40 0.0005625243    1.671    0.402
        90  -9.9454    134.6684    171.3549   1.0362463986e+02   2.0728371212e+01    0.1452552    0.1115072  68.99  0.000704491    1.786    0.440
        91 -11.9698     81.0131    139.0221   1.1262193701e+02   3.7340707276e+01    0.3877893    0.2385584 -61.06  0.001598987    1.701    0.412
        92 -12.3283     96.2191    136.3671   1.0734087124e+02   3.5379349158e+01    0.4982593    0.3284016   4.78  0.001961131    2.401    0.583
        93 -12.9844     99.9430    129.2076   1.0467069915e+02   3.6408303016e+01    0.6941116    0.4868294  68.75   0.00228359    1.851    0.460
        94  -9.8864    197.5160    137.5161   8.3353233461e+01   1.5693289064e+01    0.1332024    0.1209023 -18.73 0.0008100674    1.030    0.029
        95 -12.1210     57.8554    136.5781   1.1985132974e+02   4.1435825459e+01    0.3545394    0.2564787 -15.33  0.001640462    1.864    0.464
        96 -12.3153     84.6229    132.6404   1.1021941314e+02   3.8321066366e+01    0.6429197    0.3603792  62.04  0.002115295    2.550    0.608
        97 -12.1742    132.4330    132.5308   9.6258255325e+01   2.9279380715e+01    0.5032564    0.3205083 -66.05  0.002064279    2.201    0.546
        98 -11.6667    112.7422    133.6440   1.0186784548e+02   3.2931520007e+01    0.4085256    0.2467998  67.65  0.001480156    2.752    0.637
        99  -9.7677    179.3509    133.6778   8.5901626127e+01   1.9713312014e+01    0.1385639    0.1129495 -81.90 0.0007048249    1.749    0.428
       100 -10.8894    142.8217    131.7007   9.3459937738e+01   2.7350764840e+01     0.285168     0.203509 -74.77  0.001235084    2.095    0.523
       101 -12.8236     39.5347    145.8724   1.2731142704e+02   4.1279952483e+01    0.9444977    0.4659281 -73.70  0.004024862    2.029    0.507
       102  -9.7570    193.3152    130.6439   8.2613776574e+01   1.7602743383e+01    0.1353935      0.10639 -68.51 0.0007044942    1.744    0.427
       103 -10.1997    168.7904    130.1870   8.7249825433e+01   2.2408441144e+01    0.2361452    0.1625926 -82.85 0.0009508728    2.833    0.647
       104 -10.6076    153.1740    129.9935   9.0618082512e+01   2.5589699307e+01    0.2433814    0.1748534 -71.81   0.00107912    2.034    0.508
       105 -11.3238     12.0681    127.0909   1.3484958862e+02   4.8650295693e+01    0.5851728    0.2228991 -89.97  0.002189792    2.845    0.648
       106 -13.1578    118.3154    124.7348   9.8243557167e+01   3.3847581429e+01    0.8197299     0.516839 -66.13  0.003331082    2.110    0.526
       107 -13.5974    109.3045    116.1369   9.8761178484e+01   3.7632700708e+01    0.9171879    0.6926332  65.63  0.004176826    1.555    0.357
       108 -13.1592     42.1852    119.6885   1.2274506426e+02   4.7830041344e+01     1.499631    0.6908946  77.60   0.00455823    4.229    0.764
       109 -12.3850     28.8271    122.7353   1.2822037924e+02   4.8426758465e+01    0.8338447    0.3003224  62.53  0.002308911    5.153    0.806
       110 -10.1366    179.9661    124.9967   8.3823092960e+01   2.1134821586e+01    0.2247198    0.1774267 -77.12   0.00114011    1.769    0.435
       111 -13.4965    130.1808    119.8257   9.3827337599e+01   3.2465832285e+01    0.9809482    0.4840687 -57.44  0.003487024    2.668    0.625
       112 -10.4074    158.7266    121.9685   8.7480489263e+01   2.6011145639e+01    0.2581095    0.1658086  85.01 0.0008931118    3.558    0.719
       113 -12.1499    141.9065    119.7260   9.0831965364e+01   3.0001714715e+01    0.5046586    0.3355311 -67.44  0.002006175    2.139    0.533
       114 -12.0948     71.0063    117.5836   1.1169691801e+02   4.4369107011e+01    0.5580234    0.3780306 -53.75  0.002558487    1.491    0.329
       115 -12.1133     92.6767    112.3769   1.0303703405e+02   4.1816326679e+01    0.7853502    0.4140276 -59.68  0.003001048    2.153    0.536
       116 -10.0514    193.4891    116.0035   7.9294579836e+01   2.0022142787e+01    0.1993581    0.1073204 -55.66 0.0008101763    2.541    0.606
       117  -9.7930    186.0000    115.9864   8.0611317064e+01   2.1506204383e+01      0.23297   0.07527298 -38.17 0.0006671984    2.918    0.657
       118 -10.7374    165.8242    115.6184   8.4432334986e+01   2.5723741674e+01    0.2775374    0.2261735  -5.66 0.0007876735    1.430    0.301
       119 -12.1383     78.7715    111.8379   1.0764509830e+02   4.4506231863e+01    0.6398616    0.3463172 -76.68  0.002157996    3.108    0.678
       120 -11.8540     76.9859    105.0107   1.0662454327e+02   4.6511894003e+01    0.3557828    0.3235657 -74.60  0.001848252    1.144    0.126
       121 -11.5616     53.0164    112.4190   1.1730296284e+02   4.8378474887e+01    0.5813534    0.2617087 -42.01  0.001906845    2.737    0.635
       122 -10.1078    174.5043    111.5204   8.1697491454e+01   2.4644212648e+01    0.2708465    0.1234659 -48.58  0.001034695    2.403    0.584
       123 -10.7799    159.2085    112.2052   8.4989469125e+01   2.7774189549e+01    0.2083606    0.1763852 -70.95 0.0007700241    1.373    0.272
       124 -11.9256     66.2155    110.7582   1.1194940535e+02   4.6871119302e+01    0.4306906    0.2909832 -82.32  0.001872226    1.841    0.457
       125 -11.5282     14.4521    110.2491   1.3227261270e+02   5.2905823904e+01    0.5033981    0.2751894  66.92  0.002157472    2.026    0.506
       126  -9.5969      9.4853    111.5006   1.3437899928e+02   5.2902919227e+01    0.1350424    0.1224485  89.90 9.749846e-05    1.010    0.010
       127 -12.3069    133.5820    108.9831   9.0189012804e+01   3.4020798724e+01    0.4469097    0.3189424 -59.45  0.002022733    1.605    0.377
       128 -12.0390    246.6901    248.0758   9.4403311421e+01  -5.7112988316e+00     0.344842    0.1991752  23.13  0.002388156    1.508    0.337
       129 -11.1573     68.9786     85.2969   1.0435236955e+02   5.2722905606e+01    0.4214084    0.2875831  16.82  0.001838204    1.809    0.447
       130 -12.7940     62.6547     94.0886   1.0932627850e+02   5.1644868548e+01     1.228486    0.4855591 -62.87  0.004075322    2.985    0.665
       131 -11.2424     77.2386     98.3313   1.0480921857e+02   4.8102633688e+01    0.3565418     0.255364  -8.71  0.001197964    2.032    0.508
       132 -11.0533     95.0423     96.3590   9.8007338360e+01   4.5109459922e+01    0.3094851    0.2382501 -58.38 0.0009577526    1.383    0.277
       133 -13.3309    139.8963     92.0616   8.4020826607e+01   3.5983311997e+01    0.8311033    0.5168499 -68.75  0.003187683    2.487    0.598
       134 -11.6520     44.6449     92.9086   1.1659666246e+02   5.4536609713e+01    0.5513258    0.3374623 -24.64  0.002308102    2.207    0.547
       135 -11.1694     21.1712     92.4027   1.2696327160e+02   5.7100918437e+01    0.3658692     0.217759 -47.61  0.001748042    1.636    0.389
       136 -11.5380    157.8785     92.1392   8.0056455293e+01   3.1795907960e+01     0.303097    0.2460502 -89.79  0.001096072    1.451    0.311
       137  -9.7231     15.3038     93.2988   1.2974824923e+02   5.7304223367e+01    0.1433797   0.09267122 -40.95 0.0002087335    1.586    0.370
       138 -11.3749      3.3086     90.4273   1.3479396327e+02   5.8743391068e+01    0.3222494    0.1482372  59.72  0.001345877    2.559    0.609
       139 -11.1170     34.5762     88.8769   1.2019241336e+02   5.6758381284e+01    0.4382737    0.2725356 -89.50  0.001934684    2.010    0.502
       140 -10.7069     35.0805     83.6417   1.1880001688e+02   5.8045930538e+01    0.4189853    0.3210948 -83.33  0.001500836    1.427    0.299
       141 -11.8146    104.8954     83.5531   9.1016311958e+01   4.5802835494e+01     0.609814    0.3894565 -46.09   0.00253331    1.617    0.382
       142 -10.5298     85.9336     86.1588   9.8164785771e+01   4.9298946605e+01    0.3369974    0.2319745 -74.25  0.001402868    2.014    0.503
       143 -10.8242     47.8200     84.0086   1.1302003774e+02   5.6373266613e+01    0.3334871    0.2855804 -87.71 0.0008207203    1.295    0.228
       144 -10.9580     48.9753     78.1709   1.1090527837e+02   5.7653762102e+01    0.4987251    0.2571994 -32.71  0.001859229    2.656    0.623
       145 -11.0652      8.0989     84.1160   1.3178744248e+02   6.0137196275e+01     0.215442    0.1640355 -45.46  0.000522899    1.264    0.209
       146 -14.0295    112.7633    100.9581   9.3744298149e+01   4.0311213393e+01     1.748213     1.128211  80.67  0.006278152    2.841    0.648
       147 -12.6852    119.2251     78.9182   8.5381888807e+01   4.3420588665e+01    0.5625012    0.4625347 -12.49  0.002715246    1.494    0.330
       148 -12.2410    127.3794     75.1058   8.2045662782e+01   4.2185168476e+01    0.4465117    0.3564461 -75.94  0.001961232    1.463    0.317
       149 -10.6776     23.8606     80.1487   1.2344059442e+02   6.0049450164e+01    0.3602787    0.1886387 -83.85  0.001491324    2.329    0.571
       150 -14.1329    122.1624     92.5531   8.8688601698e+01   3.9995616839e+01     1.153428    0.8746105  88.66  0.005152964    1.756    0.431
       151 -11.3203     61.9267     77.5903   1.0496532148e+02   5.5769466389e+01    0.4562736    0.2746637  51.90  0.001925804    1.927    0.481
       152  -9.4858    184.3353     77.6696   7.1440428887e+01   2.8196491486e+01      0.14931    0.1016611 -66.82 0.0007052123    1.729    0.422
       153 -10.1309    197.6730    108.3304   7.6823142777e+01   2.0462983078e+01    0.1385943    0.1027695 -66.47 0.0007051082    1.708    0.415
       154 -10.8546    217.5490     73.7111   6.5974584394e+01   2.1743772730e+01    0.2514336    0.1176276 -29.60  0.001140751    2.094    0.522
       155 -11.8339     63.2860     66.2363   1.0064193243e+02   5.8125144405e+01    0.7029442    0.1481826 -49.35  0.001864896    4.703    0.787
       156 -11.0594     26.5975     72.5072   1.2036447558e+02   6.1734002848e+01    0.4892645    0.2303589 -19.00  0.001692138    3.586    0.721
       157 -11.8487    116.0652     72.1981   8.4098795334e+01   4.5469571380e+01    0.3641524    0.3163169 -64.30  0.001480317    1.229    0.186
       158 -12.6389     45.9014    103.2166   1.1828487367e+02   5.1709160668e+01    0.8226706    0.4993913  68.46  0.003418867    2.202    0.546
       159 -11.3025    105.8944     71.8251   8.6919892520e+01   4.7959139723e+01     0.396308    0.2917687  73.50    0.0015377    1.650    0.394
       160 -11.2995    106.0105     67.4953   8.5416393192e+01   4.8768090573e+01     0.336338    0.2973457 -81.74  0.001720032    1.248    0.199
       161 -10.6909     82.6115     66.5945   9.2937404980e+01   5.4238800833e+01    0.5467152     0.217185 -32.87  0.001572087    4.162    0.760
       162 -11.1199     94.6898     67.4869   8.8994860174e+01   5.1401165361e+01    0.6407727    0.3056488 -41.21  0.002436575    2.199    0.545
       163 -12.1239    150.6608    103.6498   8.4682552839e+01   3.1287118613e+01    0.4692046    0.3086343 -65.24  0.001978807    2.064    0.515
       164 -11.5295     51.2595     65.7284   1.0598910568e+02   6.0264041964e+01    0.8509089    0.2286724 -51.13  0.002655748    3.496    0.714
       165 -11.6819     22.4188    101.9723   1.2790903077e+02   5.4485161317e+01     0.662922    0.2710633  66.74  0.002066785    4.248    0.765
       166 -10.6681     17.7251     63.2505   1.2292771117e+02   6.4800114045e+01    0.3846635   0.09390475 -52.52  0.001322983    3.127    0.680
       167 -10.8576     81.8321    100.3257   1.0366843768e+02   4.6773831867e+01    0.3736304    0.2222586 -72.08  0.001408128    2.397    0.583
       168 -11.0483    120.5403     65.2063   8.0588204789e+01   4.5662363886e+01    0.4155146    0.3321054 -26.55  0.001949765    1.405    0.288
       169 -10.7110    100.7078     60.5366   8.4577871561e+01   5.1330243381e+01    0.3584008    0.2272092 -57.80  0.001505942    1.955    0.488
       170 -10.7015    100.6743     54.7524   8.2457544903e+01   5.2375946497e+01    0.3624377    0.2928565 -12.51  0.001402433    1.496    0.331
       171 -10.8367    130.1836     56.8722   7.5467450581e+01   4.4658299158e+01    0.3234198    0.2212346 -38.76 0.0008522126    1.506    0.336
       172 -11.6525    119.2827     55.8026   7.7695632750e+01   4.7591945168e+01    0.5008562    0.2784267 -45.27   0.00209033    1.894    0.472
       173 -10.9022    166.3977    249.0156   1.0849248789e+02   3.0463361287e+00    0.2399192    0.1085436  17.20  0.001159366    2.402    0.584
       174 -11.1624     53.4068     49.7209   9.8985764445e+01   6.3389800915e+01     0.597007    0.2168181 -44.46  0.002151323    2.796    0.642
       175 -10.6185    213.9707     50.0686   6.0821093437e+01   2.5641064986e+01    0.1910968    0.1735026 -52.21 0.0005661278    1.098    0.090
       176 -11.4548    129.2348     48.4150   7.2813587153e+01   4.6220042553e+01    0.4843641    0.2811059  39.33  0.002010313    2.074    0.518
       177 -11.3138    111.7817     46.0062   7.6061077778e+01   5.1058088265e+01    0.3105217    0.2201646 -34.91  0.001487077    1.505    0.335
       178 -12.2773    122.2998     43.7978   7.2719043268e+01   4.8693495341e+01    0.5084877    0.3014642 -19.28  0.002130927    2.217    0.549
       179 -10.3907     82.0000     45.0189   8.4779764951e+01   5.8457133099e+01    0.3307978     0.214754 -41.63  0.001534922    1.640    0.390
       180 -10.8972     83.3192     41.3420   8.2747326391e+01   5.8767027723e+01    0.2990348    0.2503242  11.17  0.001563467    1.355    0.262
       181 -10.8923     92.0527     43.8926   8.0892814389e+01   5.6285275922e+01    0.3563446    0.2106056 -19.57  0.001240027    2.328    0.570
       182 -10.9739    223.8108     43.8048   5.8454717796e+01   2.4394659426e+01     0.175318    0.1615086 -47.07 0.0007494627    1.168    0.144
       183 -11.7366     56.9591     39.5080   9.2795476591e+01   6.4715537523e+01    0.8013133     0.409608 -59.53  0.002832053    3.610    0.723
       184 -10.6341     50.8223     29.9351   9.1185604725e+01   6.7560694592e+01    0.4009627     0.229674 -42.36  0.001895012    1.864    0.463
       185 -11.8755    106.5102     39.4490   7.4915578887e+01   5.3381863557e+01    0.5147867    0.3609014 -32.15  0.002497037    1.545    0.353
       186 -11.2946    111.4854     32.8630   7.1099561784e+01   5.3019120537e+01    0.4024594    0.2865358  27.99  0.001918021    1.735    0.424
       187 -11.4057     95.8563     36.1150   7.6505178184e+01   5.6547881912e+01    0.5142134     0.328568  -8.26  0.002199275    2.280    0.561
       188  -9.9630     80.5070     35.3973   8.1124266939e+01   6.0362854132e+01    0.2847466    0.1457027 -34.06  0.001194137    2.107    0.525
       189 -10.9839    119.6535     31.6575   6.8831551466e+01   5.1046175164e+01     0.336183    0.1828726 -29.79  0.001463279    1.994    0.499
       190 -11.4737     12.4378     29.6713   1.1591510141e+02   7.2970501815e+01    0.3540415    0.1353274 -67.87   0.00131506    3.614    0.723
       191 -11.2784     27.6617     29.2029   1.0464355328e+02   7.1427676349e+01     0.424354     0.115058 -40.89  0.001367177    4.111    0.757
       192 -10.9055     11.8512    243.7392   1.4094769280e+02   2.2137592180e+01    0.3372864     0.100661  45.95  0.001704379    2.145    0.534
       193  -9.8720     73.3210     59.8367   9.4064057033e+01   5.7555800570e+01    0.2970361    0.1361905 -52.37  0.001081288    2.568    0.611
       194 -10.5623    129.8106     26.1726   6.4874209020e+01   4.9045051323e+01    0.2041815    0.1571368  48.03 0.0005389159    1.347    0.258
       195  -9.8912    132.2852     22.3808   6.3106900390e+01   4.8824441798e+01    0.2953718    0.2060315 -17.21 0.0009595755    1.727    0.421
       196 -12.6440      4.5218     39.7881   1.2521832847e+02   7.1252327041e+01    0.5755117    0.2339617 -78.16  0.002297041    3.097    0.677
       197 -12.2289     12.8720     21.3779   1.1184179532e+02   7.4642455313e+01    0.2877108    0.2242127  19.83  0.001236813    1.285    0.222
       198  -9.8987     40.7851     14.2197   8.7753212376e+01   7.1895260647e+01    0.1869458    0.1385776  17.32 0.0004216214    1.350    0.259
       199 -11.3767    250.0723    240.9502   9.2871331121e+01  -5.3081876302e+00     0.246831    0.1184617 -31.33  0.001645771    1.971    0.493
