#   1 NUMBER                 Running object number                                     
#   2 MAG_AUTO               Kron-like elliptical aperture magnitude                    [mag]
#   3 X_IMAGE                Object position along x                                    [pixel]
#   4 Y_IMAGE                Object position along y                                    [pixel]
#   5 X_WORLD                Barycenter position along world x axis                     [deg]
#   6 Y_WORLD                Barycenter position along world y axis                     [deg]
#   7 A_WORLD                Profile RMS along major axis (world units)                 [deg]
#   8 B_WORLD                Profile RMS along minor axis (world units)                 [deg]
#   9 THETA_WORLD            Position angle (CCW/world-x)                               [deg]
#  10 FWHM_WORLD             FWHM assuming a gaussian core                              [deg]
#  11 ELONGATION             A_IMAGE/B_IMAGE                                           
#  12 ELLIPTICITY            1 - B_IMAGE/A_IMAGE                                       
         1  -8.1369     30.0199     16.0198   9.7228753232e+01   6.9885644287e+01    0.1679285    0.1414097 -72.14 0.0006178853    1.656    0.396
         2  -8.6043     55.8111     10.1405   8.2622146879e+01   6.7489302091e+01     0.185658    0.1581539 -36.81  0.000669668    1.273    0.214
         3  -7.8415     47.5633     10.0752   8.6102978455e+01   6.8724815072e+01    0.1639312   0.09844378 -54.25 0.0008055015    2.415    0.586
         4  -7.8737     90.9645      9.0253   6.9772610166e+01   6.1171305214e+01    0.2040525    0.1579733 -53.56 0.0007383997    1.645    0.392
         5  -7.7041    101.4802      8.4388   6.6585706967e+01   5.8960845456e+01    0.1362631    0.1264625   6.30 0.0001044108    1.041    0.039
         6  -7.8980      5.6446      7.7284   1.0645402990e+02   7.3472808520e+01    0.1158047   0.06416851 -31.67 0.0004194035    1.640    0.390
         7  -8.7926     33.4064      5.1650   9.0134227315e+01   7.1346694180e+01    0.2884391    0.1854381 -60.32  0.001455878    2.648    0.622
         8  -8.4935     79.2439      4.3053   7.0979823726e+01   6.4118839789e+01    0.2613855    0.1554336 -34.46  0.001338754    1.666    0.400
         9  -7.6736     44.7035      3.3340   8.3726693618e+01   7.0139979652e+01    0.1125595   0.09192633 -51.47 0.0007029363    1.646    0.392
        10  -7.8882     15.7213      3.3261   9.8607910772e+01   7.3491682719e+01    0.1008031   0.08399259 -62.89  0.000252359    1.592    0.372
        11  -7.6018    115.3366      2.6579   6.0621239218e+01   5.6353813901e+01    0.1443112    0.1033233 -57.03  0.000705025    1.764    0.433
        12  -8.3738     62.4981      1.5978   7.5348668435e+01   6.7553363210e+01    0.1777103    0.1558266  78.13 0.0006227064    1.720    0.419
        13  -7.6017     39.2943      1.6351   8.5279026440e+01   7.1134847805e+01    0.1124219   0.08972461 -52.35 0.0007029741    1.713    0.416
        14  -9.2720      9.5766    243.3843   1.3363433107e+02   2.5937926643e+01    0.2655371     0.079857  78.00  0.001463909    3.272    0.694
        15  -9.5819    232.1447    250.6194   9.9713062589e+01  -4.4221021793e+00    0.2037731   0.08394232  41.75 0.0002853599    1.851    0.460
        16  -8.5308    232.4733    247.4507   9.9245910959e+01  -4.1956239578e+00    0.1731413    0.1520366  13.55 0.0008144574    1.355    0.262
        17  -8.0755    191.5971    249.8208   1.0577814636e+02   1.4517156051e+00    0.1119116    0.1012423 -68.64 0.0004592911    1.690    0.408
        18  -8.4736     93.9571    249.5921   1.2117112180e+02   1.5405867349e+01    0.2312142   0.09653234  62.87  0.001272025    2.600    0.615
        19  -7.4079     86.2995    250.6731   1.2244285982e+02   1.6249739442e+01    0.1052487   0.05545841  63.54 0.0003578651    1.636    0.389
        20  -8.1421     25.6691    250.3298   1.3155156486e+02   2.3313077870e+01    0.1031013      0.04229  62.46 0.0003026607    1.717    0.418
        21  -8.5584     67.4896    245.0125   1.2499764260e+02   1.9414693867e+01    0.1863029   0.08690687 -82.52  0.001196641    2.452    0.592
        22  -9.3783    248.5629    242.4158   9.6177710904e+01  -5.9953824183e+00    0.2067567    0.1703672 -24.57 0.0009705613    1.687    0.407
        23  -8.8275    201.9828    242.7589   1.0329323798e+02   6.4390449401e-01    0.2182696     0.153944 -37.37  0.001053689    1.897    0.473
        24  -8.4910    169.0496    243.4940   1.0860153867e+02   5.4857331150e+00    0.1655906    0.1399974  77.73 0.0005485229    1.553    0.356
        25  -7.7572    139.3770    244.6558   1.1350194853e+02   9.7415442376e+00    0.1131471   0.06580909  63.05 0.0007007916    1.893    0.472
        26  -9.1056     77.9759    243.7537   1.2327210538e+02   1.8298731902e+01    0.2305417   0.09889666  64.24   0.00133982    2.300    0.565
        27  -7.6782     34.6606    244.3350   1.2998046804e+02   2.3266037490e+01    0.1066399   0.04505294  62.80 0.0004215669    1.753    0.429
        28  -9.0010    194.1981    240.1818   1.0419276469e+02   2.0746228399e+00    0.2609255    0.1511847 -41.07  0.001115843    2.312    0.567
        29  -9.2937    160.4697    240.7925   1.0968054280e+02   7.0941438060e+00    0.2967044    0.2006757 -89.24  0.001584984    2.687    0.628
        30  -8.4074     88.2901    242.5811   1.2155044610e+02   1.7142401236e+01    0.1632981    0.1028025  85.63 0.0007627308    1.697    0.411
        31  -7.9697     49.5130    242.9907   1.2766229821e+02   2.1831974453e+01    0.1395983   0.05728007  73.74 0.0008098464    2.535    0.606
        32  -9.1998    183.1359    240.0374   1.0593728633e+02   3.7587265987e+00    0.3581531    0.2403134  71.16  0.001799936    2.575    0.612
        33  -7.7936    153.4259    242.2060   1.1097709982e+02   7.9759914660e+00    0.1245466   0.09934171 -86.68 0.0009376854    1.700    0.412
        34  -8.2658    178.6389    241.7172   1.0685914963e+02   4.2486894517e+00    0.1094447   0.06866611  25.58 0.0005936815    1.677    0.404
        35  -8.5187    146.8981    240.2597   1.1183101123e+02   9.1928346076e+00     0.268756    0.1422623  68.09  0.001349234    3.292    0.696
        36  -8.0996    240.4887    240.0791   9.7044538528e+01  -4.6793602392e+00    0.1323414   0.09500783 -15.65 0.0007367363    1.562    0.360
        37  -7.8602     41.0000    239.9245   1.2881320120e+02   2.3249459456e+01    0.1325189   0.04748505 -77.02 0.0006468076    2.848    0.649
        38  -8.1575    208.8425    238.4672   1.0166465002e+02   5.9817783354e-02    0.1480391    0.1328874 -49.75 0.0008137523    1.686    0.407
        39  -8.8110    135.3466    238.9928   1.1359108694e+02   1.1068814408e+01    0.1907646    0.1149068  58.27 0.0007301004    1.520    0.342
        40  -7.9005    129.4779    238.9946   1.1455463721e+02   1.1928437507e+01     0.135454   0.08264288  81.24 0.0008025355    2.430    0.589
        41  -8.7653    230.7494    237.2051   9.8110512349e+01  -3.0360334729e+00    0.2004379    0.1764386  66.76 0.0009139209    1.920    0.479
        42  -8.1992     13.2259    238.3805   1.3293507720e+02   2.6353028791e+01    0.1381003    0.0522638  50.74 0.0009467555    1.749    0.428
        43  -9.1481    247.9417    235.0659   9.5222415565e+01  -5.2906247311e+00    0.2147386     0.197348  47.75  0.001775132    1.750    0.429
        44  -9.0704    246.4647    229.3958   9.4612070719e+01  -4.5857310819e+00    0.2133855    0.1658936 -20.59 0.0009060037    1.543    0.352
        45  -8.5023     25.6352    236.7757   1.3101535455e+02   2.5367515570e+01    0.2183196   0.07220132  73.29  0.001168287    3.099    0.677
        46  -9.8585    214.6876    233.1311   1.0002892697e+02  -2.7522775564e-01    0.4096088    0.3080721 -75.18  0.002485759    3.247    0.692
        47  -8.0837    214.2960    227.7052   9.9333978411e+01   3.4122152771e-01     0.117802   0.08514203  26.84 0.0002599609    1.109    0.098
        48  -8.9458    203.2125    234.3157   1.0200227045e+02   1.3359034675e+00    0.2848721    0.1655402 -43.07  0.001388624    2.373    0.579
        49  -9.6632    175.7359    233.4231   1.0632547787e+02   5.6527705686e+00    0.3507589    0.2120246 -60.38  0.002124248    2.757    0.637
        50  -8.2692    170.1898    236.0845   1.0755518529e+02   6.1872154756e+00    0.1406576    0.1107598  58.35 0.0005326936    1.342    0.255
        51  -8.0237     57.9593    237.0000   1.2600869282e+02   2.1763442439e+01    0.1622736   0.04424195  40.45  0.000804871    2.959    0.662
        52  -9.9409    149.6502    226.1887   1.0981088723e+02   1.0622721906e+01    0.5544467    0.3230864 -86.87  0.002522238    4.446    0.775
        53  -9.3395    108.6025    234.3567   1.1756798756e+02   1.5574651183e+01    0.3240546    0.1626994  60.61  0.001121523    1.903    0.475
        54  -8.5605     99.4964    234.4793   1.1908771510e+02   1.6823765031e+01    0.2317331    0.1128196  65.57  0.001054317    2.245    0.555
        55  -9.1224     78.7309    234.4902   1.2250137757e+02   1.9584267786e+01    0.2053411     0.112599  71.76 0.0009943119    1.762    0.433
        56  -8.1480    122.7005    234.0778   1.1519601077e+02   1.3593758398e+01    0.1613095    0.1143955  73.84 0.0007278217    1.500    0.333
        57  -9.4705     68.1924    232.4873   1.2407884827e+02   2.1222254646e+01    0.3810871    0.1652728  70.68  0.002115765    2.587    0.613
        58  -9.2035    236.0144    231.0038   9.6427498027e+01  -3.2260787203e+00    0.2528194    0.1720576 -13.64  0.000728116    1.603    0.376
        59  -8.5646    194.5075    232.7033   1.0318255554e+02   2.8406114577e+00    0.1709165    0.1625206 -33.36  0.001127503    1.426    0.299
        60  -8.2369    145.0104    233.5100   1.1141737471e+02   1.0353192796e+01    0.1610955   0.07269477  57.15   0.00080987    2.485    0.598
        61  -8.7785    140.2020    230.1171   1.1185278824e+02   1.1538934029e+01    0.2835197    0.1435375  63.92  0.001069509    2.756    0.637
        62  -8.1788    132.4905    232.9261   1.1344564435e+02   1.2312315304e+01    0.1329652    0.1079616 -70.20  0.000727906    1.537    0.349
        63  -8.3033     92.3789    232.0374   1.2006486543e+02   1.8158057947e+01    0.2830997    0.1079853  61.73  0.001335998    3.161    0.684
        64  -9.3696    186.4923    230.6831   1.0421944332e+02   4.3081472840e+00    0.2622682    0.2042359 -85.41  0.001274004    2.232    0.552
        65  -7.8612    157.6722    231.5966   1.0909149914e+02   8.6679859195e+00    0.1531453     0.105871 -50.43 0.0007148068    1.898    0.473
        66  -8.9492      2.0127    231.1586   1.3436124325e+02   2.8530352678e+01    0.2134732   0.08069927  65.59  0.001008709    1.855    0.461
        67  -8.0029    229.6273    228.8172   9.7091168664e+01  -2.0805773158e+00    0.1250221   0.09944011 -31.35  0.000627441    1.663    0.399
        68  -8.8164    162.5427    228.2151   1.0787535183e+02   8.3465421766e+00    0.2960824    0.1758156  66.50  0.001165304    2.489    0.598
        69  -8.7590    128.0026    227.4669   1.1363634442e+02   1.3749712667e+01    0.2503054    0.1406456  61.23  0.001166026    1.802    0.445
        70  -8.2315    120.0022    227.9513   1.1504678979e+02   1.4866181451e+01    0.1794617    0.1079753  66.12  0.001070511    1.733    0.423
        71  -8.0860    223.5181    226.7191   9.7738362627e+01  -9.5927048470e-01    0.1842766    0.1028493 -21.74  0.001088902    2.169    0.539
        72  -8.9132    206.1153    225.2736   1.0030036370e+02   1.8625893324e+00     0.285958    0.1648221 -35.46  0.001678921    2.158    0.537
        73  -8.5123    199.7866    226.3524   1.0147494365e+02   2.7296448822e+00    0.1618586    0.1368462 -47.73 0.0006379842    1.658    0.397
        74  -7.3826    177.6550    227.2891   1.0523681582e+02   6.0928018824e+00     0.109872   0.07651429  60.14 0.0002523697    1.654    0.395
        75  -7.8972     59.6548    227.7083   1.2515941449e+02   2.3017673382e+01   0.08460705     0.078925  39.19 0.0004779246    1.660    0.398
        76  -8.1102     49.0235    226.7623   1.2683876430e+02   2.4418289128e+01    0.1806641   0.09729271  77.54  0.000872273    1.642    0.391
        77  -8.8161    180.6816    224.3784   1.0435411039e+02   5.9701724866e+00    0.2324837     0.160964  63.53 0.0005649896    1.853    0.460
        78  -8.9085    104.7630    223.7302   1.1724393747e+02   1.7706163488e+01    0.2877375    0.1577466  74.17  0.001611379    2.284    0.562
        79  -8.9929     94.1281    224.2296   1.1911204563e+02   1.9119216262e+01    0.3186145    0.1410542  64.04  0.001643625    2.577    0.612
        80  -7.8957     38.4390    224.9503   1.2845355484e+02   2.5897239087e+01    0.1439264   0.05781354  74.03 0.0008065786    2.471    0.595
        81  -9.0874    216.5597    223.1582   9.8322034469e+01   4.7026198685e-01     0.276217    0.2018904 -22.21  0.001828504    1.594    0.373
        82  -8.5614    173.0196    223.1644   1.0548005818e+02   7.3387444198e+00    0.1865422    0.1597462 -76.40 0.0006722219    1.614    0.380
        83  -7.8526    113.9542    224.0043   1.1568931744e+02   1.6337788885e+01    0.1726149    0.1064552  66.07 0.0006121943    1.605    0.377
        84  -8.1346     59.5978    223.8244   1.2491517113e+02   2.3650598337e+01    0.1402352   0.07843916  83.36 0.0005625736    1.709    0.415
        85  -9.0153    160.3203    221.3514   1.0740617514e+02   9.5966060994e+00    0.4266625    0.1891566  58.00  0.001708361    3.143    0.682
        86  -8.0644    140.5296    222.7507   1.1097444298e+02   1.2514130824e+01    0.1329248    0.1042162 -88.43 0.0009302041    1.574    0.365
        87  -8.8305    239.0674    221.6456   9.4571063013e+01  -2.7919649292e+00    0.1719826    0.1697899  84.07 0.0008872933    1.703    0.413
        88  -9.1809    225.5206    221.7747   9.6698193560e+01  -7.6289512713e-01    0.2141117    0.1664838  46.97  0.001035829    1.458    0.314
        89  -9.3201      7.8630    222.1325   1.3317494002e+02   2.9445989494e+01    0.2491422   0.05595415  44.81  0.001410327    2.704    0.630
        90  -9.3214    120.6168    219.5170   1.1407499235e+02   1.6029544190e+01    0.4100544    0.1973271  64.53  0.001826383    2.765    0.638
        91  -8.5013     82.6453    220.5857   1.2077223811e+02   2.1253306699e+01    0.2198666    0.1105189  67.20  0.001168678    2.003    0.501
        92  -8.6705     72.8591    220.7244   1.2245945233e+02   2.2507883853e+01    0.2111776    0.1051058  74.18  0.001224529    2.171    0.539
        93  -8.2721     27.5772    220.8119   1.2999869222e+02   2.7731849509e+01    0.1692557   0.07741733 -75.25  0.001128562    2.110    0.526
        94  -8.1117    202.7037    220.1959   1.0013447430e+02   2.9654031425e+00    0.1452473    0.1409706  46.92 0.0006717115    1.371    0.270
        95  -9.1954     17.5794    218.5642   1.3150412331e+02   2.9110454602e+01    0.3018919    0.1285649 -61.19  0.001795421    3.137    0.681
        96  -9.1891    248.4811    217.6553   9.2518434068e+01  -3.8044039241e+00    0.3140149    0.2627469  84.30  0.002047358    2.796    0.642
        97  -8.2690    210.1873    219.2165   9.8772257634e+01   1.8912497590e+00    0.1395356    0.1221272  45.66  0.000472703    1.335    0.251
        98  -9.3163    132.8608    215.9878   1.1153505087e+02   1.4689521990e+01    0.4052125    0.2328714  78.40  0.002020122    3.022    0.669
        99  -8.7197     62.3399    217.6292   1.2402830891e+02   2.4336799738e+01    0.2712719    0.1193898  61.65  0.001573333    1.987    0.497
       100  -8.8545     51.5916    217.4009   1.2583964019e+02   2.5661407409e+01    0.2305534    0.1097998  69.23 0.0007518728    1.890    0.471
       101  -7.5442    229.2992    217.2934   9.5426702116e+01  -8.8359011876e-01    0.1139112   0.06992957  18.87 0.0004420226    1.567    0.362
       102  -8.8645    232.3935    214.7132   9.4541595488e+01  -1.0952720986e+00    0.2778636    0.1916261 -20.41  0.001558801    1.591    0.371
       103  -8.3507    179.4498    217.0668   1.0357846862e+02   7.0800624238e+00    0.1469968    0.1160148 -38.64  0.001023979    1.587    0.370
       104  -8.8686    169.1330    215.8425   1.0517918130e+02   8.9152323784e+00    0.2848588    0.1961488 -65.62  0.001439703    2.185    0.542
       105  -8.5656    142.9697    216.6202   1.0983156716e+02   1.3010667840e+01     0.231247    0.1569489  79.51  0.001358381    2.019    0.505
       106  -8.0616    111.7414    217.1818   1.1538903867e+02   1.7709955941e+01    0.1743328    0.1188137  73.66   0.00100183    1.505    0.336
       107  -8.5510    185.7139    214.6323   1.0217533182e+02   6.3686425854e+00    0.1843716    0.1588263 -60.65 0.0007021605    1.596    0.373
       108  -8.1058    154.6062    215.2584   1.0762545856e+02   1.1347401426e+01    0.1760453    0.1223447  70.31 0.0008640541    1.798    0.444
       109  -9.1585     93.5942    214.2342   1.1830616274e+02   2.0791915201e+01    0.4052151    0.1781588  60.95  0.002084008    2.366    0.577
       110  -7.7432     41.3853    215.6709   1.2745317553e+02   2.7114782656e+01    0.1177307   0.05157518  63.39 0.0007009776    1.870    0.465
       111  -9.4300    214.0740    212.3128   9.7106469048e+01   2.0440067768e+00    0.3375045    0.2148704  57.91  0.001474485    2.155    0.536
       112  -9.5264     73.1747    212.1645   1.2173384731e+02   2.3889063500e+01     0.555216    0.1756088  59.01  0.002331512    3.678    0.728
       113  -8.3192    224.9092    212.7447   9.5422005658e+01   2.7551008129e-01    0.1693391    0.1437268 -37.09 0.0007922248    1.603    0.376
       114  -8.8050    161.6776    212.6140   1.0604454096e+02   1.0569751130e+01    0.2171058     0.171786  57.37 0.0007271364    1.235    0.190
       115  -8.3265    106.4694    212.9731   1.1589433743e+02   1.9152721305e+01    0.1473887    0.1063851 -76.49 0.0007308631    1.542    0.352
       116  -9.3209    192.3514    221.3277   1.0200029465e+02   4.4808701682e+00    0.2320833    0.1981106  80.76  0.000878904    1.721    0.419
       117  -8.9994    204.3475    210.8060   9.8480972570e+01   3.7914398264e+00    0.2397387    0.1851382 -59.87 0.0009493784    2.064    0.516
       118  -9.4657    175.6070    210.1492   1.0327714736e+02   8.6126898790e+00    0.3638155    0.2512038  77.29  0.001515687    2.462    0.594
       119  -9.0769      6.5388    209.0573   1.3290151920e+02   3.1760693421e+01     0.460621    0.1148394  74.48  0.001831463    5.227    0.809
       120  -8.4942    192.3200    210.6285   1.0047621977e+02   5.7861505861e+00    0.1781415    0.1392928 -52.97 0.0009400846    1.760    0.432
       121  -8.7510    148.1084    210.6632   1.0818608489e+02   1.3057116539e+01    0.2383017    0.1644271  74.55  0.001432876    1.880    0.468
       122  -9.0931    116.2444    210.5518   1.1388572413e+02   1.8084611884e+01     0.247021    0.1489705  67.65 0.0008697789    1.783    0.439
       123  -8.0980     32.2997    210.1778   1.2867464129e+02   2.9039050770e+01    0.2406004   0.07404597 -87.64  0.001087645    3.925    0.745
       124  -8.5043     85.5645    209.5969   1.1931110373e+02   2.2674168969e+01     0.286161    0.1292984  66.81  0.001416836    2.651    0.623
       125  -8.2850     46.6729    209.6965   1.2618548424e+02   2.7542711443e+01    0.2171079   0.09290051  77.12  0.001169726    2.515    0.602
       126  -9.4765    246.3409    207.3339   9.1192164178e+01  -2.4872194942e+00    0.2427901    0.1719913 -31.10 0.0006246163    1.711    0.415
       127  -9.2550    243.1762    200.9277   9.0620335497e+01  -1.3463253609e+00    0.2593915    0.1814522 -33.59 0.0009301688    1.745    0.427
       128  -9.0380    236.4639    208.4035   9.2902217273e+01  -1.0752313919e+00    0.2310892    0.2142024 -70.15   0.00121188    1.849    0.459
       129  -9.9448    124.3322    206.2872   1.1193502771e+02   1.7521003244e+01    0.2834813    0.1709573  68.33 -0.0001541599    1.917    0.478
       130  -8.2176    228.9615    208.3454   9.4081291119e+01   1.0779276185e-01    0.1647628     0.116369  32.32 0.0004636386    1.134    0.118
       131  -7.9984    156.4539    208.2063   1.0637937113e+02   1.2051569077e+01    0.1419981    0.1127589 -76.71 0.0009333336    1.650    0.394
       132  -8.4369    139.2476    208.1146   1.0945137211e+02   1.4868510741e+01    0.2192236    0.1274974  63.12 0.0007912455    1.963    0.491
       133  -9.1600     99.3077    206.1715   1.1649356449e+02   2.1315942923e+01    0.3175189    0.1818382  77.20  0.001473707    2.105    0.525
       134  -8.7871     11.9582    207.2847   1.3194076531e+02   3.1566868048e+01    0.1418665   0.09833267  65.23 0.0009759852    1.094    0.086
       135  -8.6202     56.4403    205.4552   1.2417961084e+02   2.7138165785e+01    0.2471437    0.1074518  66.93 0.0008331397    2.287    0.563
       136  -9.2325    194.9728    203.8940   9.9010526914e+01   6.1933456047e+00    0.3120314    0.2075868  60.62  0.001120772    1.952    0.488
       137  -9.3673    192.6914    197.6580   9.8431678155e+01   7.3905430141e+00    0.3245694    0.2586465 -86.05  0.001185004    2.058    0.514
       138  -8.9278    183.9209    204.1684   1.0096199323e+02   8.0200188678e+00     0.285724     0.189407  65.95  0.000983219    2.169    0.539
       139  -8.8496    131.3242    204.0101   1.1038143161e+02   1.6778010069e+01    0.2714907     0.173119  78.48 0.0009260189    2.139    0.532
       140  -8.0944    109.1452    205.1852   1.1458887669e+02   2.0029485675e+01    0.1633462    0.1142832  70.81 0.0005503531    1.380    0.275
       141  -8.3796     25.0000    204.9686   1.2963861461e+02   3.0702419994e+01    0.1508763   0.04792508 -78.25 0.0004789017    2.863    0.651
       142  -7.7372    218.2533    203.9326   9.5108333738e+01   2.3209319862e+00    0.1330345   0.09800016 -26.71 0.0008763535    1.542    0.351
       143  -9.5686    164.0606    203.1315   1.0432129295e+02   1.1516911913e+01    0.4096282    0.2049326  56.22  0.001126481    2.245    0.555
       144  -9.3699    250.1075    202.0078   8.9729925629e+01  -2.5301424671e+00    0.2870566    0.1550369 -24.67  0.001271455    1.935    0.483
       145  -8.7030     48.5711    202.2337   1.2535248471e+02   2.8636541553e+01    0.2322953      0.10562  86.28  0.001289151    2.319    0.569
       146  -8.0155     41.2867    202.9547   1.2669367726e+02   2.9332973084e+01    0.1687458   0.06001931  81.20 0.0006541802    4.064    0.754
       147  -8.0868    222.1783    201.9655   9.4146872164e+01   1.9043906800e+00     0.158452    0.1336208 -63.92 0.0006867203    1.982    0.495
       148  -8.3976    210.9563    201.9807   9.6003871856e+01   3.7541776332e+00    0.1655102    0.1426982  71.65 0.0005635258    1.693    0.409
       149  -8.7835    140.3161    201.0237   1.0834839533e+02   1.5792124004e+01    0.2780295    0.1835012  84.35  0.001035501    2.238    0.553
       150  -8.6213     79.9961    201.6315   1.1959505081e+02   2.4803808727e+01    0.2480393    0.1311163  72.14  0.001381645    2.038    0.509
       151  -7.3810     73.3253    202.6551   1.2091019522e+02   2.5510818494e+01    0.1220697    0.0658417  67.37 0.0007050455    1.741    0.426
       152  -8.1475     10.1830    202.6202   1.3203851310e+02   3.2546377382e+01    0.1189371   0.08662024  38.95 0.0009504947    1.668    0.400
       153  -8.9012    237.0719    198.5532   9.1180973014e+01  -1.2769073318e-01    0.2486668     0.162025 -31.53  0.001206403    1.750    0.428
       154  -9.5424    149.6132    198.7355   1.0632830940e+02   1.4604258661e+01    0.3477343    0.2331413  81.00  0.001340755    2.250    0.556
       155  -9.0406    124.1953    199.5607   1.1115023936e+02   1.8634553879e+01    0.2540233    0.1640801  71.17  0.001104176    1.765    0.434
       156  -9.1376    112.9006    198.6303   1.1315181655e+02   2.0558253859e+01    0.3838438    0.2027587  67.20  0.001650781    2.369    0.578
       157  -9.2725     88.6053    198.5407   1.1769913768e+02   2.4160583055e+01    0.3355694    0.1899664  84.50  0.001628463    2.101    0.524
       158  -8.3120    176.9191    199.0956   1.0143285081e+02   9.9040823583e+00    0.1770962    0.1475367  60.10 0.0004788783    1.306    0.234
       159  -8.6452    132.9033    196.0775   1.0907668599e+02   1.7801709173e+01     0.195335    0.1573966 -88.94 0.0006659791    1.395    0.283
       160  -9.4699     61.6657    197.2860   1.2259958918e+02   2.7957675149e+01    0.3819431    0.1710321  68.08  0.001964326    2.370    0.578
       161  -8.3268    202.5252    198.1246   9.6809102779e+01   5.6484982027e+00    0.1892157    0.1527523  54.78  0.001063875    1.414    0.293
       162  -8.5546     12.6872    197.7191   1.3139549221e+02   3.3185433948e+01    0.2148592   0.07856254  75.31  0.001170359    2.492    0.599
       163  -8.6961    215.8517    195.6302   9.4146656973e+01   3.6984790986e+00    0.1991729    0.1571173 -54.44  0.000827756    1.906    0.475
       164  -9.6953    245.8201    193.7906   8.8988667524e+01  -1.0125197128e+00    0.2459694    0.2276067 -87.98  0.001216935    1.887    0.470
       165  -9.1561    160.6798    194.3020   1.0365575421e+02   1.3399261247e+01    0.2682891    0.1991691  70.68 0.0009515577    1.639    0.390
       166  -9.0467     43.6806    193.3472   1.2561671398e+02   3.0806398873e+01    0.3592854     0.155022  76.42  0.001878212    2.489    0.598
       167  -8.0904    230.9603    194.3096   9.1438734060e+01   1.3347977233e+00    0.1660581    0.1300129  25.94  0.000492771    1.044    0.042
       168  -8.8591     76.9841    193.8267   1.1942612367e+02   2.6605726315e+01    0.1892585    0.1431363  88.61 0.0006388749    1.220    0.180
       169  -8.7274    224.4913    194.1620   9.2467870933e+01   2.4237101053e+00    0.2283337    0.1812946 -52.85  0.001049483    1.924    0.480
       170  -7.7783    205.2376    191.9570   9.5331381183e+01   5.9703515932e+00    0.1392558    0.1019637 -31.25  0.000486058    1.552    0.356
       171  -8.0756    199.0835    191.8559   9.6378797437e+01   7.0522101275e+00    0.1757079    0.1520094  49.70 0.0005340788    1.252    0.201
       172  -8.0390    179.0605    191.9720   9.9947070864e+01   1.0542027776e+01     0.180107    0.1432837  73.23 0.0005232576    1.640    0.390
       173  -8.5905    172.3582    191.8239   1.0113917805e+02   1.1738817140e+01     0.232008    0.1724324  63.01  0.001003317    1.532    0.347
       174  -9.0969    139.4466    190.7255   1.0711344028e+02   1.7593283637e+01    0.3084521    0.2095573  80.51  0.001079319    1.991    0.498
       175 -10.4837     92.1109    188.7150   1.1599526558e+02   2.5424019709e+01     0.850493    0.2181071  51.13  0.003124693    3.860    0.741
       176  -8.4662     21.2705    191.1514   1.2955584507e+02   3.3563105492e+01    0.2270029   0.07955673  58.23  0.001243003    2.295    0.564
       177  -8.7599      6.4481    190.9942   1.3217560404e+02   3.4967055499e+01    0.1526236   0.07640815 -86.87 0.0006958281    1.609    0.379
       178  -8.4631    148.3896    189.2413   1.0520413101e+02   1.6311145985e+01    0.2232653    0.1662876  75.85 0.0007480915    1.621    0.383
       179  -8.9074    129.3053    188.7514   1.0878187279e+02   1.9618851484e+01    0.2741407    0.1800643  75.27  0.001031897    1.896    0.473
       180  -8.7157    237.1433    188.1135   8.9364493585e+01   1.0176384317e+00    0.2499773    0.1600209 -24.02 0.0009019508    1.627    0.385
       181  -8.8753    216.6878    188.0023   9.2707829482e+01   4.4912482469e+00    0.2352024    0.2012744 -49.45 0.0008678907    1.601    0.375
       182  -8.8293    191.7540    187.7014   9.6977345468e+01   8.9037513464e+00    0.3058693    0.2216852 -83.03  0.001261685    2.701    0.630
       183  -9.4100    156.0662    187.6296   1.0351347552e+02   1.5236342590e+01     0.307279    0.2098411 -65.10 0.0009544115    1.929    0.481
       184  -9.9040    120.9346    186.8076   1.1014325776e+02   2.1327211004e+01    0.4578585    0.2502828 -78.95  0.002124371    2.920    0.658
       185  -8.7923     34.2587    188.0676   1.2699719207e+02   3.2817204582e+01    0.2881407    0.1193189  73.30   0.00118631    2.448    0.592
       186  -8.8085    185.3123    194.8096   9.9277995830e+01   9.0508005154e+00    0.2243832    0.1845593  73.99 0.0007881283    1.611    0.379
       187  -8.1109    230.6009    187.7244   9.0352831356e+01   2.1535174777e+00    0.1475656    0.1104052 -34.97 0.0007828917    1.593    0.372
       188  -8.8632    164.9250    187.1488   1.0177862883e+02   1.3752361676e+01    0.2913783    0.1964751  68.88   0.00105608    1.981    0.495
       189  -9.2276     54.5466    186.6613   1.2306324578e+02   3.0793894988e+01     0.379051    0.1782437  78.38  0.001973942    2.367    0.577
       190  -9.2077    109.6131    186.1544   1.1227306566e+02   2.3248294924e+01    0.3242585    0.1920067  69.80  0.001109578    1.945    0.486
       191  -8.5708    249.1580    185.6865   8.7035256267e+01  -6.7664177286e-01    0.1891183    0.1473438 -24.49 0.0007303714    1.414    0.293
       192  -8.6631    182.8680    185.2200   9.8161644062e+01   1.0841599830e+01    0.1891393    0.1843811   2.68 0.0008236567    1.170    0.145
       193  -8.9652    210.1865    184.1677   9.3145266866e+01   6.1138393518e+00    0.2384249    0.1731834 -29.72 0.0005574942    1.521    0.342
       194  -8.6511    202.7711    184.9076   9.4559632393e+01   7.3286832511e+00    0.1956068     0.175084 -67.29 0.0008203459    1.554    0.356
       195  -9.1295     66.7459    184.5654   1.2051721440e+02   2.9675549576e+01    0.3315852    0.1653366  63.25   0.00135134    1.912    0.477
       196  -8.5842    224.1303    183.6568   9.0695747296e+01   3.7433210494e+00    0.1865283    0.1606309 -26.89 0.0005844588    1.345    0.257
       197  -8.4173    197.1474    183.5310   9.5311319531e+01   8.5192869242e+00    0.2041988    0.1491645 -65.58  0.001108022    2.227    0.551
       198  -9.0413    174.1549    183.4018   9.9460168262e+01   1.2677412142e+01     0.265792    0.2072431 -73.75 0.0007563019    1.805    0.446
       199  -8.0366      1.7759    183.7936   1.3268859370e+02   3.6695252860e+01    0.1471419   0.08039773  65.48 0.0009466737    1.349    0.259
       200  -9.0348     44.4418    182.2928   1.2465472541e+02   3.2801377815e+01    0.3280525    0.1641727  73.84  0.001309619    1.897    0.473
       201  -9.4852    240.7524    180.8016   8.7470328084e+01   1.2519299585e+00    0.2501182    0.1534544 -36.39  0.001440798    1.889    0.471
       202  -9.2379    147.6175    180.8258   1.0408583622e+02   1.7830032263e+01    0.3202165    0.2221319  78.56  0.001139641    1.966    0.491
       203  -9.9609     25.1030    179.0218   1.2813146879e+02   3.5473459625e+01     0.596303    0.2188043  66.67   0.00298425    2.685    0.628
       204  -9.7201    248.7619    177.1969   8.5540303770e+01   3.2669491687e-01    0.4397857    0.2745718 -47.60  0.002351084    2.574    0.612
       205  -8.6362    250.5093    172.9083   8.4460985591e+01   5.2106310096e-01    0.1722117    0.1496024   2.90 0.0004807504    1.150    0.131
       206  -8.4922    137.8527    179.5656   1.0580260238e+02   1.9751070586e+01    0.2816837     0.183417  73.77  0.001353228    2.024    0.506
       207  -9.4306    191.5292    178.3318   9.5411553444e+01   1.0270979023e+01    0.2841182    0.2335188  72.97 0.0005181173    1.611    0.379
       208  -8.0820    169.0823    178.9959   9.9678931695e+01   1.4275750585e+01     0.188724    0.1501966  80.20 0.0005986564    1.635    0.388
       209  -9.2297     35.8083    176.7814   1.2591317410e+02   3.4812469029e+01    0.4571895    0.1679026  79.79   0.00191591    3.735    0.732
       210  -8.5696    231.1347    177.2205   8.8366398387e+01   3.3175633624e+00    0.2363882    0.1619038 -32.18 0.0007585439    1.595    0.373
       211  -8.6115    217.6158    177.1110   9.0606981239e+01   5.7124311795e+00    0.2335633    0.1465409 -43.26 0.0007777967    1.974    0.493
       212  -8.7436    205.0403    177.5566   9.2863584099e+01   7.9170226290e+00    0.2193569    0.1762689 -53.23  0.001018806    1.659    0.397
       213  -8.4921    129.1703    177.5455   1.0722461401e+02   2.1597326753e+01    0.2584277    0.1797778  84.69 0.0009976367    1.813    0.448
       214  -9.2374    183.1208    176.1817   9.6572433536e+01   1.2133537748e+01    0.2490616    0.2091285 -61.29 0.0005330113    1.511    0.338
       215  -8.0538     97.9733    177.2943   1.1348625251e+02   2.6680764737e+01    0.1740505    0.1414916  58.79  0.000614499    1.079    0.073
       216  -9.1591     89.0154    176.8329   1.1525086252e+02   2.8101274991e+01    0.2463502    0.1649332  78.22 0.0008305118    1.496    0.331
       217  -9.9820     57.2505    173.2926   1.2134280967e+02   3.3054189339e+01    0.7168025    0.2902598  77.99  0.002712278    4.318    0.768
       218  -9.0070     12.5677    176.5284   1.3035765615e+02   3.7132436153e+01    0.2492584   0.09370371  65.55  0.001130887    2.324    0.570
       219  -9.3438    158.8815    175.2157   1.0100103946e+02   1.6744367664e+01    0.3534442    0.2330495  74.30  0.001607877    2.276    0.561
       220  -9.5849    104.3527    174.7855   1.1186248909e+02   2.6172240490e+01    0.4789484    0.2338213  65.27  0.001696843    2.759    0.638
       221 -10.7821     75.8811    170.2611   1.1719097050e+02   3.1243245452e+01     1.074301    0.3899544 -77.77  0.003847792    4.531    0.779
       222  -9.5349     81.5942    154.7973   1.1404618805e+02   3.3586720225e+01    0.4603153    0.2527635  89.37  0.001572257    2.347    0.574
       223  -8.1817    241.4351    174.5022   8.6191048356e+01   1.8695031303e+00    0.2072518    0.1079357  42.72  5.47624e-05    1.764    0.433
       224  -8.4754    224.3886    174.2645   8.8935428441e+01   4.8713310653e+00    0.1592984    0.1148544 -37.74 0.0006705614    1.611    0.379
       225  -9.3453    175.7138    172.3502   9.7284199437e+01   1.4098431095e+01    0.2920786     0.216515 -45.65  0.001073243    1.540    0.350
       226  -8.3167    143.0621    172.8520   1.0372755932e+02   2.0004367775e+01    0.1997922    0.1578975  71.53 0.0005735876    1.353    0.261
       227  -8.6834    134.5912    171.8602   1.0527275742e+02   2.1679721075e+01    0.2467537    0.1787201  69.29 0.0007758865    1.493    0.330
       228  -9.6264    121.5180    170.4910   1.0773133130e+02   2.4183057997e+01    0.3853143    0.2481754 -86.52  0.001119624    2.097    0.523
       229  -9.0665     44.8878    170.9551   1.2364194160e+02   3.4969660046e+01    0.3220752    0.1576319  80.24  0.001130876    2.096    0.523
       230  -8.5452    205.8318    170.2999   9.1389718864e+01   8.7768818661e+00    0.2016074    0.1730578 -41.51 0.0005729971    1.381    0.276
       231  -8.7245     79.2516    158.5748   1.1505939290e+02   3.3139239747e+01    0.2729377    0.1196009  36.47  0.001112105    2.468    0.595
       232  -8.3579    237.2519    169.5349   8.5918452090e+01   3.1888231741e+00    0.2180293     0.158803 -22.78 0.0006715027    1.380    0.275
       233  -8.8801    230.0742    169.2105   8.7030866177e+01   4.4990489306e+00    0.3558271    0.1530092 -40.44  0.001583137    2.753    0.637
       234  -8.5957    198.4932    170.1199   9.2667108832e+01   1.0170124863e+01    0.1933294    0.1759426  59.97 0.0007121033    1.282    0.220
       235  -9.2376    167.1967    168.7554   9.8280409818e+01   1.6271229660e+01    0.3504974    0.2358396  71.72  0.001147824    2.134    0.531
       236  -8.7331    149.7509    169.4319   1.0183121786e+02   1.9392696778e+01    0.2631328     0.197215 -72.54 0.0009442003    1.658    0.397
       237  -8.3835    244.3080    169.2134   8.4726678026e+01   2.0017774443e+00    0.2028866     0.161462  30.70 0.0005449314    1.165    0.142
       238  -8.5032     88.7607    168.6506   1.1430281748e+02   2.9732945895e+01    0.2421664    0.1536616 -83.15  0.001263289    1.666    0.400
       239  -8.1449    218.7085    168.4004   8.8788289977e+01   6.6607934359e+00    0.1702433    0.1501894  76.88 0.0006431471    1.616    0.381
       240  -7.7989    211.4101    168.2245   9.0016703742e+01   8.0303212590e+00    0.1662121    0.1201191 -44.25 0.0009355371    1.671    0.402
       241  -8.9822    184.9822    166.7039   9.4516004005e+01   1.3233028515e+01    0.2617216    0.1812638 -51.39 0.0007647753    1.762    0.432
       242  -8.8038    111.6760    167.3958   1.0931849520e+02   2.6408726066e+01    0.3154007    0.1943119  79.24  0.001122256    2.150    0.535
       243  -8.3527     94.4646    167.5638   1.1296188129e+02   2.9095086647e+01    0.1789861    0.1466524 -67.87   4.2607e-05    1.281    0.220
       244 -10.2805     94.3903    162.6506   1.1231650872e+02   3.0083030742e+01    0.7711291    0.4480831 -89.72  0.003355129    2.224    0.550
       245  -9.0609    191.8529    166.3961   9.3181637583e+01   1.1972941549e+01    0.2805354    0.1871112 -44.98 0.0009133612    1.731    0.422
       246  -9.0567     20.6613    166.3388   1.2817323753e+02   3.8386714428e+01    0.3304547    0.1272551  64.65  0.001123277    2.453    0.592
       247  -9.9532    136.7911    164.2190   1.0359076456e+02   2.2678276932e+01    0.5809344      0.36471  65.59  0.002399964    1.887    0.470
       248  -8.6618    239.8963    164.4046   8.4495042180e+01   3.3525112618e+00    0.2189742     0.164196  -7.02 0.0005151647    1.266    0.210
       249  -8.4016    233.8363    165.0775   8.5610358055e+01   4.3479184602e+00    0.1778616    0.1684757 -26.82 0.0007326385    1.329    0.248
       250  -8.6961    159.5746    164.4180   9.9006254857e+01   1.8434115322e+01    0.2635839    0.2063446  72.93 0.0008627209    1.505    0.335
       251  -9.3767     60.2140    160.8020   1.1945735403e+02   3.5212183107e+01    0.3988783    0.2187967 -63.76  0.001799748    1.765    0.433
       252  -9.4935     33.3630    163.3886   1.2537351826e+02   3.7734382700e+01    0.4645595    0.1596784  59.98  0.002109071    3.019    0.669
       253  -8.5216    212.9601    163.7692   8.8887469569e+01   8.3581238725e+00    0.2098066    0.1785722 -22.83 0.0004842156    1.234    0.190
       254  -8.7814    246.0109    162.8572   8.3217025317e+01   2.4660000388e+00    0.2068438    0.1639948 -14.46 0.0005069111    1.201    0.167
       255  -8.4647    204.8470    162.7416   9.0121372789e+01   1.0038476426e+01    0.2362648    0.1765074 -45.99 0.0007036334    1.600    0.375
       256  -9.4433      3.3357    162.3916   1.3137790879e+02   4.0675811869e+01    0.3425513    0.1224913  58.32  0.001891184    2.330    0.571
       257  -7.6667    222.2257    161.9396   8.6931190943e+01   6.8769578890e+00    0.1579689    0.1030568 -30.22 0.0004391361    1.588    0.370
       258  -7.8612    200.2943    162.6711   9.0927341675e+01   1.0917959646e+01    0.1229366    0.1060162 -88.64 0.0007023225    1.630    0.386
       259  -8.9246    151.6527    161.0448   9.9996958180e+01   2.0515465283e+01    0.2673401    0.2042415  84.43  0.000757004    1.669    0.401
       260  -9.0777    177.3960    160.5853   9.4809032207e+01   1.5662912528e+01    0.2541532    0.2201424 -84.95 0.0008353369    1.457    0.314
       261  -9.8500    250.1817    157.8962   8.1574870250e+01   2.3334993301e+00    0.3222581    0.1653106 -27.83 0.0009329328    1.887    0.470
       262  -8.7121    243.0963    159.3539   8.2980821101e+01   3.4072619785e+00    0.3560439    0.1570576  29.00  0.001322993    2.763    0.638
       263  -8.4783    227.3698    159.0505   8.5487466274e+01   6.3073610204e+00    0.2529681    0.1823325 -47.51  0.001275271    1.811    0.448
       264  -9.7634    105.8478    157.8299   1.0913942633e+02   2.9239600673e+01    0.4627529    0.3020815  88.28  0.001245392    1.869    0.465
       265  -8.8117    236.9955    158.9664   8.3883196815e+01   4.5521799093e+00    0.1760098     0.159919 -64.98 0.0005933013    1.611    0.379
       266  -9.1499    167.7550    157.5038   9.6108980704e+01   1.8049598375e+01    0.3435576    0.2515286 -85.79  0.001034576    2.084    0.520
       267  -8.2205    128.2101    159.1100   1.0453441657e+02   2.5171242916e+01    0.2515368    0.1570094  68.05 0.0009487358    1.963    0.491
       268  -8.5070    196.6525    158.0471   9.0687000772e+01   1.2313842552e+01    0.2160128    0.1787854  54.17  0.000668568    1.285    0.222
       269  -8.6603    188.1618    157.7765   9.2214622903e+01   1.4014601898e+01    0.2173401     0.179064 -48.39 0.0004519959    1.396    0.284
       270  -8.5198    217.9767    156.4963   8.6570899807e+01   8.4219458979e+00    0.2334622    0.1783363 -46.10 0.0007804469    1.602    0.376
       271  -9.0464    157.6471    155.9599   9.7847877213e+01   2.0277031816e+01    0.3263096    0.2306241 -59.31  0.001114611    1.663    0.399
       272  -9.4430    119.6610    155.3054   1.0573477900e+02   2.7412789519e+01    0.4314637    0.2694598 -81.53   0.00184812    2.202    0.546
       273  -9.1584     49.8558    155.4207   1.2113596142e+02   3.7576521835e+01    0.4132859    0.1785751  63.55  0.001936591    2.577    0.612
       274  -8.4995     22.9382    156.3642   1.2700176333e+02   4.0193362994e+01    0.1462327   0.09293672  -9.83 0.0007035905    4.442    0.775
       275  -8.7540    242.8231    154.8762   8.2118371955e+01   4.0137054804e+00    0.1961875    0.1762927  43.02 0.0004284396    1.320    0.242
       276  -7.9806    204.5650    155.5277   8.8742390937e+01   1.1149300287e+01    0.1323813    0.1208265  23.30 8.800682e-05    1.038    0.036
       277  -8.4238    144.5845    154.8263   1.0033395780e+02   2.2975958955e+01    0.2434594    0.1980207  85.00 0.0008565277    1.409    0.290
       278  -9.7784    132.7347    152.8516   1.0249072797e+02   2.5553787836e+01    0.4419838    0.3227195  82.99  0.001273699    1.683    0.406
       279  -9.1157    133.3302    148.3523   1.0154888689e+02   2.6314157764e+01     0.274829    0.2182434 -22.43  0.001478939    1.715    0.417
       280  -9.5474     67.9577    153.5610   1.1692481951e+02   3.5725338379e+01    0.4290216    0.2292682  81.28  0.001490047    2.279    0.561
       281  -8.8104    150.8895    136.1680   9.5338497015e+01   2.5255628747e+01    0.4366609    0.2630597  20.49  0.001679451    3.010    0.668
       282  -8.6377    151.6515    152.8593   9.8497002960e+01   2.1990668130e+01    0.2420987    0.1936442 -58.51 0.0008753766    1.373    0.271
       283 -10.3099    149.0550    145.0844   9.7544765131e+01   2.3934304524e+01    0.6227616    0.4057102 -85.79  0.001879502    2.691    0.628
       284  -9.1074     20.1785    152.8723   1.2732475547e+02   4.1167268235e+01    0.1768349    0.1124227  72.83 0.0005953748    1.278    0.218
       285  -8.2425      8.8121    153.3794   1.2975124886e+02   4.2043402761e+01    0.1211947    0.1037258  27.67 0.0009477781    1.665    0.399
       286  -8.3702    182.4836    151.5032   9.2050047779e+01   1.6147587173e+01    0.2218819    0.1282823 -51.52 0.0006373219    2.133    0.531
       287  -8.9565     98.4048    150.8795   1.0971992659e+02   3.1852872133e+01    0.2912593    0.1919708  85.72 0.0009485595    1.773    0.436
       288  -9.7126     29.3137    150.6445   1.2517686903e+02   4.0771188835e+01    0.4353232    0.1720771  70.81   0.00190542    3.008    0.668
       289  -9.5876    248.8214    149.5107   8.0070233249e+01   3.6005492114e+00    0.3146584     0.185881 -27.35 0.0008083844    1.620    0.383
       290  -8.9212    246.9890    143.8432   7.9164192399e+01   4.6478149116e+00    0.2834504    0.1689318 -17.59 0.0006989919    1.675    0.403
       291  -9.7748    242.6994    150.0348   8.1140462963e+01   4.6485123733e+00    0.2857068    0.2548543  45.96  0.001830375    1.332    0.249
       292  -8.8094    189.6003    150.2365   9.0431893124e+01   1.4928064673e+01    0.2777327    0.2203684 -70.05 0.0007225401    1.744    0.427
       293  -8.2500    162.7990    150.7219   9.5796240367e+01   2.0199377737e+01    0.2484898    0.1796212 -78.13  0.001164048    2.011    0.503
       294  -8.7160    237.1895    150.4066   8.2101602393e+01   5.6189000344e+00     0.164086    0.1216567  51.91  0.000313096    1.535    0.348
       295 -10.1809    234.0176    146.5009   8.1798949694e+01   6.7314137867e+00    0.5322163    0.2323824 -20.29  0.002112749    2.926    0.658
       296  -8.8595      2.5990    149.8286   1.3083130289e+02   4.3260015513e+01    0.1612769   0.07481014  85.42 0.0007622564    1.734    0.423
       297  -8.4762    198.8556    149.0735   8.8462147309e+01   1.3255690186e+01    0.1967286    0.1832449 -84.40 0.0005110297    1.339    0.253
       298 -10.0806     89.1715    146.1925   1.1109984144e+02   3.4269834135e+01    0.6199472    0.3277852  84.82  0.002464997    3.229    0.690
       299  -9.9099     39.9261    147.6695   1.2255111825e+02   4.0316376392e+01     0.513425    0.2480528  75.33  0.002466774    2.254    0.556
       300  -9.2119     77.9081    147.0989   1.1382213353e+02   3.5731865326e+01    0.2656199    0.1604444  88.81 0.0009189585    1.868    0.465
       301 -10.4874     54.7010    144.0847   1.1878852953e+02   3.9413395324e+01    0.8575338    0.3932623  80.25  0.002933277    3.205    0.688
       302  -9.4402     57.2205    135.5907   1.1712659598e+02   4.0957277824e+01    0.2675072    0.1869634  15.97  0.001484841    2.271    0.560
       303  -8.2724    223.4729    147.0710   8.3678606574e+01   8.6806127401e+00    0.1909617    0.1872765 -84.04 0.0005999006    1.310    0.236
       304  -9.8472    139.0644    144.6745   9.9611262641e+01   2.5946620632e+01    0.4935453    0.2937658 -68.95  0.001266083    2.371    0.578
       305  -9.2744    140.4682    137.1840   9.7822587422e+01   2.7133098284e+01    0.3014396    0.2029528  21.34  0.001357182    2.195    0.544
       306 -10.3296    106.6627    144.2863   1.0677878398e+02   3.1867871028e+01     0.695815    0.4174957  87.38  0.002296911    2.509    0.601
       307  -9.3589     13.3020    146.1929   1.2831516592e+02   4.3154514083e+01    0.3242457    0.1439037  69.28  0.001341374    2.109    0.526
       308  -8.1245    206.7005    146.5605   8.6506171933e+01   1.2068009155e+01    0.1747524    0.1279033  54.47 0.0004061657    1.476    0.322
       309  -8.3199    175.4849    146.0768   9.2313410016e+01   1.8467180020e+01    0.1984047    0.1375313 -43.51 0.0008078719    1.547    0.353
       310  -8.6315    240.3728    145.2857   8.0513847375e+01   5.6925939448e+00    0.1966643     0.161708   8.31 0.0004512761    1.088    0.081
       311  -9.9252    242.7191    143.3781   7.9735217158e+01   5.5014239338e+00    0.5099268    0.2038926 -19.14  0.001858663    3.490    0.713
       312  -9.9398    125.1523    142.5698   1.0228308803e+02   2.8968197599e+01    0.6047918    0.3683487 -70.47  0.001610548    2.086    0.521
       313 -11.0815     69.6339    141.0551   1.1490501775e+02   3.8171840623e+01    0.6360218    0.4398116 -75.44  0.002269474    1.315    0.239
       314  -7.7710    194.2940    143.6847   8.8178413317e+01   1.5026662325e+01    0.1314253    0.1112105 -83.08 0.0002321714    1.600    0.375
       315  -9.4426      2.6241    141.6202   1.3032910266e+02   4.4949432022e+01    0.3702676    0.1421272  79.16  0.001672214    2.459    0.593
       316  -8.1846    181.9846    141.9495   9.0169151991e+01   1.7839680618e+01     0.210942    0.1722502 -83.38 0.0005643761    1.652    0.395
       317  -8.4422    250.4953    140.9523   7.8006282714e+01   4.3681360028e+00    0.1905678    0.1165093 -27.63 0.0005706362    1.542    0.352
       318  -9.7704     23.4711    138.2664   1.2540405252e+02   4.3948241846e+01    0.4727393     0.204002  70.25  0.002165247    2.509    0.601
       319  -7.7929    218.6347    138.8373   8.2736629292e+01   1.0815151958e+01     0.182487    0.1218881 -40.15 0.0003949798    1.609    0.379
       320  -8.7196    172.2740    138.4466   9.1352876610e+01   2.0451538693e+01    0.2863919    0.2176204  88.34 0.0008674041    1.878    0.468
       321  -8.3804     89.1136    138.2477   1.0986382778e+02   3.5973487114e+01    0.2872835    0.2015965 -17.35  0.001319161    2.933    0.659
       322  -8.8865    165.6728    144.0835   9.3878748655e+01   2.0804107486e+01    0.2963268    0.2234515  76.35 0.0007044797    1.719    0.418
       323  -8.5139    207.4921    137.6345   8.4438091503e+01   1.3265296147e+01    0.2581376    0.1335715 -35.26 0.0007355377    1.966    0.491
       324  -8.6029    197.6171    137.5047   8.6219068685e+01   1.5330025844e+01    0.2523879    0.1989668 -63.87 0.0008140849    1.686    0.407
       325 -10.4718     83.3241    133.1384   1.1042108841e+02   3.7958589401e+01    0.6240586     0.332877 -65.97  0.001825334    1.817    0.450
       326  -8.7486     84.4043    123.1371   1.0842937711e+02   3.9999806009e+01    0.4045197    0.2833164   4.01  0.001868397    2.794    0.642
       327  -8.1256    162.8069    136.7612   9.2936527270e+01   2.2711906363e+01    0.1950559    0.1644838  78.48 0.0007490524    1.369    0.269
       328 -10.6754    132.6742    130.5872   9.8213462798e+01   2.9967920791e+01    0.8851891    0.5489292 -59.53  0.002532346    1.771    0.435
       329 -10.1902    131.3066    118.8472   9.5978357823e+01   3.2633862576e+01    0.6469367    0.4070306  89.07  0.002021921    2.952    0.661
       330  -9.1456     39.1958    136.3175   1.2153219021e+02   4.2839314821e+01    0.2750027    0.1466783  70.34 0.0008428638    1.934    0.483
       331  -9.0324    248.2233    135.3435   7.7141467639e+01   5.5087177570e+00    0.2741725    0.1878712 -35.00  0.000726021    1.495    0.331
       332  -8.4638    246.9891    130.4678   7.6255829566e+01   6.3795208446e+00     0.222315    0.1630815 -31.75 0.0006622029    1.348    0.258
       333  -7.8943    187.6298    135.7646   8.7731017269e+01   1.7703741290e+01    0.1866971    0.1310852 -46.84 0.0003620566    1.565    0.361
       334  -8.3092    212.9023    149.9040   8.6102882432e+01   1.0342811772e+01     0.220332    0.1758198 -36.23 0.0003558853    1.353    0.261
       335  -8.1674    231.4039    133.8155   7.9475300902e+01   8.9745045742e+00    0.1829091    0.1215964 -14.94 0.0002947818    1.558    0.358
       336  -8.6889    179.2846    133.6065   8.8889121487e+01   1.9830300826e+01    0.2879771    0.2233141 -61.11  0.000977391    1.571    0.363
       337  -9.2101    112.7995    133.3425   1.0338104604e+02   3.3096295471e+01    0.3298245    0.2326824  81.89  0.000854712    1.721    0.419
       338  -9.2217    143.1470    131.7390   9.6097019715e+01   2.7670155318e+01    0.3405094    0.2327854 -66.58 0.0007407917    1.782    0.439
       339 -10.5668     98.2151    129.3199   1.0612256323e+02   3.6452923522e+01    0.9253963    0.2718169 -56.89  0.003203917    3.364    0.703
       340  -9.3102    250.6907    129.4946   7.5476430880e+01   5.7990396799e+00    0.4736568    0.1130766 -29.35  0.001496557    4.013    0.751
       341  -9.1762    168.3309    129.7361   9.0248013337e+01   2.2837784486e+01    0.3013949    0.2313068 -73.52 0.0009648585    1.712    0.416
       342  -9.6923    153.0147    129.2538   9.3390549805e+01   2.6141002420e+01    0.4109453    0.2543772 -57.89 0.0009528513    1.904    0.475
       343  -9.9773     12.8183    128.7984   1.2707263390e+02   4.6890322150e+01    0.5137649    0.2135786  82.11  0.002522037    2.456    0.593
       344  -8.0312    220.5947    129.8278   8.0388647724e+01   1.1737190278e+01    0.1898464    0.1242914 -40.73 0.0008346664    1.624    0.384
       345  -7.8385    204.4742    130.2561   8.3331029439e+01   1.5042948991e+01    0.1914434    0.1302896 -46.21 0.0009190969    1.648    0.393
       346 -10.2182     73.3660    128.3504   1.1209969627e+02   4.0449291841e+01     0.586683    0.2610388 -61.66  0.002010776    2.051    0.512
       347 -10.7891     44.8811    123.7372   1.1861806110e+02   4.5014376952e+01     1.028304    0.4647069  78.34   0.00395637    3.485    0.713
       348  -8.4627     25.6399    129.9716   1.2411050009e+02   4.5549095414e+01    0.1760698    0.1305011  -4.04 0.0009024325    2.328    0.570
       349  -7.8566      1.5076    130.0021   1.2981308414e+02   4.7471936475e+01    0.1608158   0.06489467  76.26  0.000808148    2.382    0.580
       350  -8.3724    211.4537    129.2655   8.1851140140e+01   1.3725610302e+01    0.1886623     0.129348 -43.00 0.0007161596    1.581    0.367
       351 -10.5552     60.1193    125.3843   1.1497623844e+02   4.2862582050e+01    0.6934993    0.3494327  77.09  0.002385776    2.981    0.665
       352 -10.1183    118.1870    125.3372   1.0050803080e+02   3.3805171089e+01     0.604001    0.3933634 -78.04  0.001838234    2.038    0.509
       353  -8.9284     59.1868    115.5518   1.1368521839e+02   4.5193887128e+01    0.3508695    0.2159429 -26.51  0.001473251    3.254    0.693
       354  -7.9604    228.4831    125.9149   7.8169811854e+01   1.0682828159e+01    0.2062508    0.1291691 -29.21 0.0007383096    1.541    0.351
       355  -8.8396    179.2694    124.8918   8.6909635522e+01   2.1354886949e+01    0.2618997    0.2358069  81.10 0.0007299689    1.271    0.213
       356 -10.1733     28.5238    122.6536   1.2262899178e+02   4.6897792154e+01    0.7105625    0.2928416  76.00  0.002895381    3.501    0.714
       357  -9.1603     27.0095    114.0000   1.2202088595e+02   4.8965514824e+01     0.450514    0.1395471  25.10  0.001835467    4.483    0.777
       358  -8.3985    192.8763    130.3332   8.5507143718e+01   1.7495660861e+01    0.2393484    0.1910788 -47.44 0.0006510708    1.376    0.273
       359  -8.5243    234.2396    123.7578   7.6737249670e+01   9.8130459011e+00     0.241214    0.1466646  14.41  0.001070617    2.179    0.541
       360  -8.0192    188.4928    124.0786   8.4902700105e+01   1.9488661609e+01     0.211466    0.1411413 -37.92 0.0005158593    1.525    0.344
       361  -9.4976    158.8190    121.1885   9.0299422927e+01   2.6454488803e+01    0.4717355    0.2955932 -48.54  0.001549684    1.669    0.401
       362  -7.7749    203.2081    122.2282   8.1697958062e+01   1.6590711692e+01    0.2221904    0.1010299 -44.18 0.0004490987    2.427    0.588
       363  -8.6134    172.0997    121.7039   8.7618506343e+01   2.3483830451e+01    0.2358144    0.1978773 -55.04 0.0004645019    1.293    0.227
       364 -10.2266    141.6358    118.0383   9.3388965000e+01   3.0697673995e+01    0.6780143    0.3209603 -50.99  0.001386203    2.237    0.553
       365  -9.2933     71.1990    120.0684   1.1128050055e+02   4.2599337503e+01    0.3072486    0.1964256  87.91 0.0007761769    1.781    0.438
       366  -8.0498    247.6745    120.3171   7.3857798721e+01   7.5913025679e+00    0.1295635    0.1040567 -57.59  0.000704467    1.673    0.402
       367  -9.7277      3.3470    117.6868   1.2845072228e+02   4.9991652615e+01    0.4609074    0.1841709  65.51   0.00230812    2.645    0.622
       368  -8.0882    102.9708    119.0000   1.0293068193e+02   3.7893198916e+01    0.2262448   0.07804617  41.81 0.0008068549    2.973    0.664
       369  -7.4451    231.5315    117.5255   7.5719471732e+01   1.1255042739e+01    0.1373131    0.1280412 -15.98 0.0001122834    1.094    0.086
       370  -7.7796    219.3101    116.6670   7.7535178652e+01   1.3971841100e+01    0.1400801    0.1115686 -64.29 0.0002708143    1.674    0.403
       371  -8.5289    185.8057    116.0651   8.3507419514e+01   2.1453348354e+01    0.2215871    0.1937093 -62.41 0.0005354534    1.306    0.234
       372 -10.0106    109.3237    114.2750   1.0032437432e+02   3.7793994451e+01    0.5427481     0.320366 -72.65  0.001414462    2.281    0.562
       373  -9.1623    109.2142    107.5727   9.8838957729e+01   3.9265362585e+01    0.3634109    0.2610435  20.63  0.001722693    1.985    0.496
       374  -8.2535    193.1875    115.2014   8.1872779720e+01   1.9951448818e+01    0.1961211    0.1699741 -59.28 0.0004540934    1.322    0.243
       375  -7.7730    153.2592    115.6459   9.0200276642e+01   2.8711657026e+01    0.1476958    0.1145439 -76.29 0.0005101975    1.613    0.380
       376 -10.1792     92.6245    112.4615   1.0423406053e+02   4.1075379405e+01    0.5504666    0.3085364 -71.64  0.001557346    2.147    0.534
       377  -8.8756     93.1938    105.1955   1.0251927347e+02   4.2596478326e+01    0.3407658    0.2234694 -21.62  0.001434814    2.794    0.642
       378 -10.0414     78.7428    112.4599   1.0790987209e+02   4.3236633885e+01     0.625378    0.3605628  88.79  0.002649682    2.624    0.619
       379  -9.0196     77.8795    105.7377   1.0680825732e+02   4.4881399795e+01    0.3986629    0.2684132  14.41  0.001897836    2.446    0.591
       380 -10.2543     66.3664    109.8348   1.1076121089e+02   4.5568053983e+01    0.6486555    0.3260603 -73.13  0.002443353    2.126    0.530
       381  -7.9258    167.0639    114.4999   8.6935098317e+01   2.5909797310e+01    0.2246464    0.1439399  50.12 0.0007158946    1.544    0.352
       382  -9.9550    121.9037    112.5965   9.6810719195e+01   3.5788678730e+01     0.370012    0.2741241 -74.80 0.0008540076    1.567    0.362
       383  -9.8995    118.9268    106.8490   9.6194945996e+01   3.7584163593e+01    0.3656297    0.2139678 -46.44  0.001439174    1.688    0.408
       384 -10.2603    133.5502    109.4771   9.3243948877e+01   3.4105511143e+01      0.65224    0.3396849 -54.85   0.00207967    2.108    0.526
       385  -9.7724     14.0991    111.1988   1.2510820153e+02   5.0650470752e+01    0.4253602    0.1948375  78.70  0.001678666    2.358    0.576
       386  -8.5595    174.7622    111.9199   8.4696127726e+01   2.4661498640e+01    0.2662184    0.1977241 -56.70 0.0006879751    1.544    0.352
       387  -8.6320    159.2664    111.7934   8.7939011684e+01   2.8141602237e+01     0.267233    0.2139327 -69.01 0.0006643995    1.471    0.320
       388  -9.0474     43.1913    109.6664   1.1708409597e+02   4.8372460237e+01    0.2641818    0.1616973  21.06  0.001428248    2.313    0.568
       389 -10.3604    249.1715    107.7465   7.0702263814e+01   8.9772516495e+00    0.4152607    0.2203209 -31.10  0.001953486    1.708    0.415
       390  -7.9902    182.8351    109.3650   8.2428357490e+01   2.3287577443e+01    0.2038182    0.1777695 -44.63  0.000656893    1.180    0.152
       391  -8.0812    189.3516    108.2202   8.0866807164e+01   2.1999679061e+01    0.2109658    0.1322195 -44.13 0.0004999791    1.654    0.395
       392  -8.1783      5.1915    108.6701   1.2719948381e+02   5.1840408736e+01    0.1254769    0.1082565   0.96 0.0007378419    1.700    0.412
       393  -9.5709    150.5982    103.1768   8.7679704059e+01   3.1718214937e+01    0.4875295    0.3029177 -63.87  0.001312671    2.209    0.547
       394  -9.6575    139.9224    104.3018   9.0439722086e+01   3.3820109708e+01    0.4755746    0.3016278 -53.30  0.001389115    1.652    0.395
       395 -10.6081     45.5902    102.4136   1.1526848452e+02   4.9770053224e+01     0.733387     0.367316  77.23  0.003034769    3.180    0.686
       396 -10.6410     22.7965    102.6575   1.2175975792e+02   5.1879583526e+01    0.7106543    0.3256645  76.01  0.003033216    2.869    0.651
       397  -8.5212    166.7299    104.2634   8.4422371031e+01   2.7880456898e+01    0.2683885    0.2214597 -83.76 0.0005839121    1.489    0.329
       398  -8.9708      6.6878    102.9709   1.2624874833e+02   5.3001055120e+01    0.2891773    0.1459437  67.55  0.001276524    2.060    0.514
       399 -10.3239    128.4769    102.2265   9.2672127770e+01   3.6645534822e+01    0.3960933    0.3058552 -84.36  0.001203345    1.602    0.376
       400  -8.2612    130.3627     97.4024   9.0957228203e+01   3.7249481067e+01    0.2905729    0.1300325  34.55 0.0009528667    3.298    0.697
       401  -7.7403    175.4991    102.4665   8.2128973637e+01   2.6193111739e+01    0.1491208    0.1453619 -74.05 7.488902e-05    1.078    0.072
       402 -10.7506    109.2010     99.1234   9.6811810637e+01   4.1096212539e+01    0.7736073    0.4430722  70.25  0.001745415    3.029    0.670
       403  -8.2858    159.8342    101.1497   8.5091966679e+01   3.0033452568e+01    0.2317489    0.2001463 -77.20 0.0005110612    1.322    0.243
       404  -9.3623     81.9844    100.0152   1.0444904147e+02   4.5553418336e+01    0.3528386    0.2359569 -80.91 0.0007550625    1.758    0.431
       405 -10.4132     63.9130     96.5383   1.0888060065e+02   4.8922737577e+01    0.6873796    0.3718023 -77.63  0.002039714    2.246    0.555
       406  -8.7790     64.2732     88.2906   1.0700171638e+02   5.0752341192e+01     0.481023    0.2636494 -23.53  0.001618985    4.964    0.799
       407  -8.7296    169.7853     97.0261   8.1863225333e+01   2.8503722530e+01    0.3918867    0.2575911  21.11  0.001402654    2.191    0.544
       408  -9.1858     95.1227     97.1969   1.0013989945e+02   4.4044302217e+01    0.3184645    0.2220913 -72.37 0.0006804978    1.589    0.371
       409  -8.3959    151.0617     95.9122   8.5645835307e+01   3.3024702964e+01    0.2517346    0.1897785   6.12  0.001129321    1.851    0.460
       410  -8.2903    176.5446     93.3084   7.9464361288e+01   2.7579126969e+01    0.2752047    0.1417101 -41.28 0.0006521951    1.923    0.480
       411  -8.4999    164.8520     94.1026   8.2110561481e+01   3.0191644547e+01    0.2364044    0.2031392 -70.35 0.0005134072    1.315    0.239
       412  -9.3282    139.2393     92.5819   8.7495500404e+01   3.6316829027e+01    0.4213307    0.2886384 -87.35 0.0008621155    2.334    0.572
       413  -7.4876    188.3109     93.6875   7.7260381018e+01   2.4717708696e+01    0.1525539    0.1187017 -69.92 0.0007029211    1.630    0.386
       414 -10.5832    123.9938     91.4067   9.0947025040e+01   3.9812558960e+01     0.607536     0.498784  40.53  0.001921923    1.291    0.225
       415  -9.0838     46.3480     92.7535   1.1334793217e+02   5.1898756315e+01    0.3475969    0.1863112  18.99  0.001653115    2.862    0.651
       416  -9.2570      5.2877     92.1816   1.2549366940e+02   5.5490511606e+01    0.2882838     0.130165  71.30  0.001196646    2.607    0.616
       417  -8.2849    157.8459     92.0675   8.3069845393e+01   3.2202646330e+01    0.2289567    0.2059588 -67.48 0.0004508469    1.189    0.159
       418  -9.7904     34.8308     90.1016   1.1636434570e+02   5.3675628488e+01    0.4811809    0.2323745 -84.59   0.00178488    2.471    0.595
       419  -9.1702     23.0068     90.3147   1.1999129241e+02   5.4658552367e+01    0.2518491    0.2170577  20.14  0.001579294    1.530    0.346
       420  -8.9942    225.2041     89.9420   6.9892000690e+01   1.6662506454e+01    0.2559039    0.2018177  38.53 0.0003932476    1.315    0.240
       421 -10.1234     86.4825     86.2017   9.9854262651e+01   4.7924426685e+01     0.618472    0.3846572 -62.00  0.001630265    1.610    0.379
       422  -7.7997    163.7201     87.3219   8.0459501508e+01   3.1702197539e+01    0.1540584    0.1193473 -69.64  0.000281776    1.586    0.369
       423  -8.0376    151.1021     89.2006   8.3778336602e+01   3.4304584107e+01    0.2109239    0.1781452 -71.69 0.0004171107    1.341    0.254
       424  -9.8474     48.4288     84.0245   1.1098282362e+02   5.3663441905e+01     0.525887    0.3082367 -85.59  0.002294784    2.116    0.527
       425  -7.8019    179.2603     85.6460   7.6791250790e+01   2.8266471402e+01    0.1561638    0.1161776 -61.95 0.0003194702    1.615    0.381
       426  -9.9472    104.9017     83.3434   9.3809050664e+01   4.5292007824e+01    0.4843416    0.3226237 -73.35  0.001116765    2.038    0.509
       427  -8.5264    157.9334     83.8581   8.0719217532e+01   3.3710931585e+01    0.2657235    0.2137473 -36.05 0.0003458179    1.230    0.187
       428  -9.5280     10.1389     81.5874   1.2270334543e+02   5.7557904218e+01    0.4168178    0.2120339  74.50  0.001666175    2.352    0.575
       429  -9.0111    250.0000     82.5022   6.4425763991e+01   1.2202017432e+01    0.3248712   0.07223026 -28.59 0.0009477581    4.041    0.753
       430  -7.2789    170.3578     83.6729   7.8022005793e+01   3.0766877002e+01    0.1621023    0.1206096 -73.86 0.0007044117    1.781    0.439
       431  -9.1196    140.8636     82.4919   8.4234494577e+01   3.7936094026e+01    0.3723408    0.2092586 -46.82 0.0009327563    1.786    0.440
       432  -9.7605     24.6905     80.6277   1.1791837532e+02   5.6721672199e+01    0.4447325    0.2328259  86.54  0.001349284    2.374    0.579
       433  -9.0145    107.8238     92.6314   9.5523290338e+01   4.2754003535e+01     0.437457      0.27259  25.27  0.001850114    2.374    0.579
       434  -8.7323    150.0632     80.5336   8.1505976896e+01   3.6185108559e+01     0.294367    0.2070286 -55.21 0.0006944163    1.567    0.362
       435  -8.9282    119.3710     80.3752   8.9021081883e+01   4.3038627309e+01    0.3320815    0.2378853 -63.68 0.0007937729    1.605    0.377
       436  -8.8094     74.5674     80.3904   1.0193591021e+02   5.1077717331e+01    0.3070949     0.210763 -75.23 0.0008931363    1.674    0.403
       437  -8.2061    166.6908     79.8977   7.7684675208e+01   3.2324182830e+01    0.2185249    0.1883771 -37.50 0.0004010484    1.141    0.123
       438  -7.8303    184.0000     78.0832   7.3712464830e+01   2.8388434472e+01    0.2498557   0.08585399 -33.16 0.0006835143    2.849    0.649
       439 -10.0288     63.6695     74.5099   1.0386034834e+02   5.3933032529e+01    0.6615957     0.286384 -67.65  0.002423901    3.197    0.687
       440  -9.5820    128.2518     74.6051   8.4973110045e+01   4.2291828037e+01     0.621177    0.2635873 -40.38 0.0009566544    2.284    0.562
       441  -8.7209    140.3028     75.3349   8.2219512890e+01   3.9434888820e+01    0.3424335      0.21461 -53.57  0.001038734    1.774    0.436
       442  -9.8445     82.3228     72.7917   9.7450007242e+01   5.1534152246e+01    0.4348072    0.2962293 -76.47  0.001101446    1.952    0.488
       443  -8.2834    163.5363     73.2615   7.6361532411e+01   3.4263214031e+01    0.2895159    0.1432917 -39.67 0.0009023408    1.960    0.490
       444  -9.0961    115.6693     72.4337   8.7609843615e+01   4.5412676706e+01      0.38516    0.1838439 -46.83  0.001098176    2.034    0.508
       445  -9.5842    105.8958     71.6387   9.0078083284e+01   4.7544641284e+01    0.4231934     0.199587 -49.63  0.001372028    2.088    0.521
       446  -9.5807     95.1251     71.0267   9.3025624819e+01   4.9704399084e+01     0.462053    0.2259813 -57.22   0.00140885    2.358    0.576
       447  -8.1906     42.8146     73.1132   1.1043414032e+02   5.6745352719e+01     0.194518    0.1536615 -84.95 0.0006413597    1.295    0.228
       448  -7.7464    175.4946     72.5232   7.3711551477e+01   3.1428492657e+01    0.1527989    0.1497568 -16.22 -2.819316e-05    1.008    0.008
       449  -9.4563     51.3872     69.6021   1.0668283419e+02   5.6577587540e+01    0.4538795    0.2174507 -70.35  0.001629716    2.520    0.603
       450  -9.0533     29.2933     70.4292   1.1446554453e+02   5.8642800498e+01    0.4704641     0.216833 -32.21  0.001968822    3.612    0.723
       451  -8.2121    169.8551     70.7143   7.4285102069e+01   3.3138870490e+01    0.2134844    0.2001011  67.21  0.001118404    1.107    0.097
       452  -9.2094     16.5947     69.8796   1.1873666012e+02   5.9756583401e+01    0.3371898    0.1691036 -83.00  0.001392794    2.038    0.509
       453  -7.9793    157.0000     69.9165   7.6727890557e+01   3.6452068019e+01    0.2510306   0.08668638 -35.18 0.0005991592    2.843    0.648
       454  -8.9695    147.1502     68.4427   7.8461188515e+01   3.9099085686e+01      0.29294    0.2372469 -54.36 0.0006241729    1.301    0.231
       455  -8.9791    138.4205     66.1182   7.9765038500e+01   4.1588135742e+01    0.3306815    0.2099648 -53.72  0.001111737    1.781    0.439
       456  -9.0159    121.6378     66.1510   8.4008278710e+01   4.5376752935e+01     0.324252    0.2279874 -61.35  0.000756086    1.698    0.411
       457  -7.4334    203.3096     66.7070   6.7024869110e+01   2.5380905079e+01    0.1533311    0.1141306 -63.35 0.0002416173    1.586    0.370
       458  -8.9630     64.3970     63.7380   1.0063889222e+02   5.6195236453e+01    0.4125306    0.2330386 -22.33  0.001617973    3.354    0.702
       459  -8.7003     37.2764     64.3137   1.1029390791e+02   5.9276806756e+01    0.3066009    0.1888144 -82.14 0.0009267975    1.927    0.481
       460  -9.1026    110.1195     63.3539   8.6227162007e+01   4.8354737357e+01    0.4135605    0.2204353 -43.74  0.001075882    1.775    0.437
       461  -7.8264    158.0097     61.9304   7.3979745294e+01   3.7579574055e+01    0.1837458    0.1761287 -30.91 0.0003561207    1.024    0.023
       462  -8.0092     51.3500     62.3158   1.0476295856e+02   5.8189930678e+01    0.1342912   0.09019837 -30.78 0.0007047239    1.730    0.422
       463  -9.4405     97.6109     60.6929   8.8976572381e+01   5.1352918375e+01    0.2872269    0.2545555  50.97  0.000886571    1.230    0.187
       464  -9.7470     73.2031     59.4375   9.6338375858e+01   5.5817828818e+01    0.4264187    0.2307746 -59.89    0.0011799    2.058    0.514
       465  -8.3233     89.1098     59.6484   9.1237989959e+01   5.3127936803e+01    0.2539026    0.1758894 -53.05 0.0008565909    1.417    0.294
       466  -8.3990    146.9887     59.0168   7.5434027597e+01   4.0796150044e+01    0.2417067    0.1838956 -66.25 0.0005654172    1.598    0.374
       467  -9.9121     23.4371     56.5604   1.1354413456e+02   6.2213773548e+01    0.4727848     0.253967 -89.99   0.00220065    2.813    0.645
       468  -8.6403    130.6745     58.0869   7.8990679442e+01   4.4843532923e+01    0.2432429    0.1750186 -50.65 0.0005775978    1.462    0.316
       469  -9.8659      7.4950     56.7524   1.1960814416e+02   6.3250105461e+01    0.3755368    0.1915322 -82.12  0.002006273    1.923    0.480
       470  -9.4446    119.2835     55.5610   8.1055125259e+01   4.7873334720e+01    0.4449007     0.235367 -50.32  0.001224063    2.116    0.528
       471  -9.4782     54.3300     55.6860   1.0176260832e+02   5.9255551342e+01    0.3598115     0.207792 -65.51  0.001236723    1.912    0.477
       472  -9.1264    139.8631     56.1043   7.6091117248e+01   4.3023314381e+01     0.236742    0.1990816 -58.65 0.0005222455    1.292    0.226
       473  -8.6737    105.7304     53.2690   8.4009276018e+01   5.1180484583e+01    0.3102498    0.2167234 -57.18 0.0008819537    1.647    0.393
       474  -8.8549     43.9565     54.9183   1.0536128822e+02   6.0643052105e+01    0.3738499    0.1660939 -64.49  0.001395885    2.391    0.582
       475  -9.4568     92.3956     50.5197   8.7030297695e+01   5.4317918958e+01    0.4535296    0.2259178 -49.60  0.001354025    2.072    0.517
       476  -8.4739     92.7312     43.0719   8.4137673327e+01   5.5633169472e+01    0.3447165    0.2115008  -7.15  0.001360437    2.805    0.644
       477  -7.7540     74.3202     52.3028   9.3586805331e+01   5.7107376286e+01    0.1371945    0.1019966 -16.07 0.0007027339    1.629    0.386
       478  -9.1571    145.0026     49.2759   7.2559699604e+01   4.2906894259e+01    0.2075102    0.2052161  77.27 0.0005633071    1.050    0.048
       479  -8.2399    129.9926     49.0485   7.5993409935e+01   4.6572632246e+01    0.2402583      0.18005 -66.58 0.0006058241    1.694    0.410
       480  -9.0996    120.8817     47.5946   7.7776922554e+01   4.8923045933e+01    0.2755602    0.2027255 -39.38 0.0005609051    1.315    0.239
       481  -8.7450    112.1521     46.7830   7.9824049466e+01   5.0997763668e+01    0.2561891    0.1880706 -47.55  0.000647277    1.397    0.284
       482  -9.3659     81.8389     46.1951   8.8849605218e+01   5.7051359566e+01    0.3477834     0.198256 -47.56  0.001004207    1.668    0.400
       483  -8.4395     45.0945     44.6599   1.0174386917e+02   6.2681834382e+01    0.2169047    0.1507645 -58.59 0.0005937868    1.335    0.251
       484  -9.0772     16.6867     44.8779   1.1336449786e+02   6.5254012917e+01    0.2145509    0.1535711 -88.22 0.0008524388    1.610    0.379
       485  -8.8466    132.9682     43.5176   7.3264279362e+01   4.6771566965e+01    0.2906839    0.1956366 -48.20 0.0007477844    1.593    0.372
       486  -9.0017     58.1109     42.5039   9.5944698327e+01   6.1473798082e+01    0.2985121    0.1915662 -66.03  0.001089587    2.042    0.510
       487  -9.4461      5.2026     42.3292   1.1754350922e+02   6.6509454928e+01    0.2844118    0.1679671 -80.01 0.0009891916    1.659    0.397
       488  -8.5511    105.9817     41.3016   7.9476863697e+01   5.3264049534e+01    0.3122764    0.1829898 -43.33 0.0007889574    1.687    0.407
       489  -8.0973    140.4268     41.5114   7.0812460559e+01   4.5263337405e+01    0.1496473    0.1446685 -15.70 0.0001031022    1.011    0.011
       490  -8.3517     36.6820     40.5903   1.0379131915e+02   6.4437471266e+01    0.2387668    0.1320699 -57.51 0.0009013084    1.580    0.367
       491  -8.7505     95.2265     37.7864   8.1280868157e+01   5.6072320515e+01    0.2559498    0.1753674 -44.67 0.0009588969    1.457    0.313
       492  -8.0571     80.6181     36.7949   8.5604809774e+01   5.8997887448e+01    0.1948641    0.1182214 -47.37 0.0005252683    1.653    0.395
       493  -9.4939     26.2010     35.5830   1.0660243913e+02   6.6462880772e+01     0.275994    0.1762214 -66.58 0.0008686276    1.576    0.365
       494  -9.3439     69.5458     41.6050   9.1378514584e+01   5.9963285267e+01    0.3566098    0.2245956 -59.05  0.001092035    1.913    0.477
       495  -8.1691    125.9885     35.7367   7.2011875290e+01   4.9651752209e+01    0.1996049    0.1890616  42.60 0.0003272269    1.079    0.073
       496  -8.7729    111.8819     34.4215   7.5113324077e+01   5.3104952021e+01    0.3318225    0.1711682 -40.92 0.0009182426    1.923    0.480
       497  -7.9589     88.5299     34.5273   8.2059069853e+01   5.7932937372e+01    0.1396333    0.1265525 -21.41 2.501097e-05    1.010    0.010
       498  -8.9793     48.5424     33.5109   9.6325501304e+01   6.4493209670e+01    0.2381449    0.2005766 -61.73 0.0006332418    1.345    0.256
       499  -8.3208    119.0106     33.0656   7.2700725732e+01   5.1692729017e+01    0.2275007    0.1705808 -58.18 0.0005478653    1.619    0.382
       500  -8.7171     60.6952     32.4993   9.1069837262e+01   6.3018333569e+01    0.2767357    0.1856749 -52.47 0.0006302515    1.552    0.356
       501  -9.0673     72.1505     31.3883   8.6323843521e+01   6.1411874924e+01    0.2590993    0.1599319 -52.28 0.0006762786    1.851    0.460
       502  -9.0959     13.0111     30.5340   1.1094744976e+02   6.8518770032e+01    0.3521325    0.1671411 -70.58  0.001654777    2.283    0.562
       503  -7.6232    139.2975     31.6634   6.7402388689e+01   4.6988997831e+01    0.1546806      0.11285 -60.01 0.0007031938    1.654    0.395
       504  -8.3040    101.4616     29.4800   7.5993169395e+01   5.6138194562e+01    0.2381959    0.1842563 -60.60 0.0005708699    1.646    0.392
       505  -8.9013     81.4374     27.4123   8.1362073704e+01   6.0445727027e+01    0.3004836    0.2082674 -51.08  0.000989147    1.675    0.403
       506  -8.7753      3.7190     27.8895   1.1453925350e+02   6.9621994097e+01    0.2044653    0.1315232 -76.44 0.0007040793    1.581    0.367
       507  -8.7155    221.3510     41.5895   5.7197239193e+01   2.4342515489e+01    0.2941584    0.1737039 -24.35  0.001315377    1.654    0.395
       508  -8.9890     91.7294     26.5426   7.7648175804e+01   5.8599553055e+01    0.2957126    0.2002762 -42.65 0.0007918719    1.509    0.337
       509  -7.7795    167.5062     24.0012   5.9310240598e+01   4.0648463540e+01    0.2228164    0.1459592 -25.60 0.0006966721    1.528    0.346
       510  -8.0491    104.5744     22.8203   7.2259517205e+01   5.6444061137e+01    0.1939748    0.1255114 -38.14 0.0005127731    1.541    0.351
       511  -8.0878     34.6717     23.3418   9.8227361498e+01   6.8047495115e+01     0.167536    0.1416297 -83.92 0.0009224669    1.711    0.415
       512  -8.9398     63.5338     21.0168   8.4919168203e+01   6.4575501176e+01     0.291589    0.1987287 -55.42 0.0009622393    1.920    0.479
       513  -8.9192     48.2811     21.8068   9.1502231160e+01   6.6682851730e+01    0.2294912    0.1925291 -49.94 0.0006914206    1.313    0.238
       514  -8.8978     74.0724     19.6507   8.0374474126e+01   6.3005759716e+01    0.2780168    0.1672962 -45.74 0.0006866778    1.815    0.449
       515  -8.2554     19.7426     21.5678   1.0461771132e+02   6.9807906823e+01    0.1338878    0.1104343  37.04 0.0004911336    1.585    0.369
       516  -7.5211    127.2893     19.6820   6.5306440937e+01   5.1556611908e+01    0.1459104    0.1098303 -57.89 0.0002402438    1.596    0.374
       517  -8.0167     87.8312     17.7945   7.4909691327e+01   6.0669366807e+01    0.1753578    0.1554698 -46.79 0.0003369746    1.300    0.231
       518  -7.9045    112.7036     16.9735   6.7582827629e+01   5.5381722757e+01    0.1994942    0.1711037 -15.90 0.0003428774    1.124    0.110
       519  -9.0611    175.6470    247.7481   1.0803549283e+02   4.0215150813e+00    0.2365566    0.1801245  75.21  0.001201202    1.922    0.480
       520  -8.1794     17.1603     14.2050   1.0293260510e+02   7.1419797697e+01    0.1460958    0.1272021 -62.92 0.0006941404    1.371    0.271
       521  -7.6737    119.7240     11.3786   6.3498417414e+01   5.4382960892e+01    0.1469946    0.1037177 -52.44 0.0007003478    1.703    0.413
       522  -8.8627    132.1299    247.8533   1.1497425954e+02   1.0380574359e+01    0.2181735    0.1435947  69.58 0.0006748814    1.697    0.411
       523  -8.2303    113.0165    248.7103   1.1809497755e+02   1.2957590311e+01    0.1688739    0.1153374  85.94  0.001255639    1.722    0.419
       524  -7.9407      7.6111     15.7998   1.0861287924e+02   7.1814100033e+01    0.1568493   0.09149169 -65.57 0.0006912549    1.694    0.410
       525  -9.2085    104.1168    247.2522   1.1938833741e+02   1.4372845560e+01    0.3267484    0.1721874  87.40   0.00183526    2.899    0.655
       526  -8.0528     50.3226    249.3143   1.2786702246e+02   2.0801515282e+01   0.07806683   0.07162013  52.48 0.0005814547    1.659    0.397
       527  -8.4679    242.8113    247.5506   9.7729647901e+01  -5.6325804033e+00    0.1558045    0.1290975 -34.66 0.0009669742    1.885    0.469
       528  -8.2279    218.5083    248.0263   1.0142185539e+02  -2.2729756595e+00    0.1246609   0.09876659 -16.09 0.0004864722    1.532    0.347
       529  -8.6239    156.0401    247.8804   1.1116046955e+02   6.9017447785e+00    0.1586927    0.1406689  58.98 0.0006062846    1.259    0.206
       530  -9.9922    224.0963    244.0744   1.0005690119e+02  -2.7097726065e+00    0.3346084    0.2123154 -35.72   0.00241686    2.121    0.528
       531  -9.1636    211.0334    246.4240   1.0235731478e+02  -1.0459115054e+00    0.1612197    0.1498895  -7.52 0.0008532995    1.435    0.303
       532  -8.9425    147.1777    246.3771   1.1242087324e+02   8.3849153296e+00    0.2298126    0.1328284  62.54  0.001445363    1.987    0.497
       533  -9.0852    120.3236    245.5767   1.1665700581e+02   1.2357451139e+01    0.2814899    0.1632911  74.46  0.001582067    2.255    0.556
