#   1 NUMBER                 Running object number                                     
#   2 MAG_AUTO               Kron-like elliptical aperture magnitude                    [mag]
#   3 X_IMAGE                Object position along x                                    [pixel]
#   4 Y_IMAGE                Object position along y                                    [pixel]
#   5 X_WORLD                Barycenter position along world x axis                     [deg]
#   6 Y_WORLD                Barycenter position along world y axis                     [deg]
#   7 A_WORLD                Profile RMS along major axis (world units)                 [deg]
#   8 B_WORLD                Profile RMS along minor axis (world units)                 [deg]
#   9 THETA_WORLD            Position angle (CCW/world-x)                               [deg]
#  10 FWHM_WORLD             FWHM assuming a gaussian core                              [deg]
#  11 ELONGATION             A_IMAGE/B_IMAGE                                           
#  12 ELLIPTICITY            1 - B_IMAGE/A_IMAGE                                       
         1 -12.8395      3.7845    123.6525   1.2771370292e+02   4.8263665027e+01     3.619468    0.7208896 -73.54   0.01414781    3.606    0.723
         2 -11.6412    169.9527     45.4022   6.4332287888e+01   3.6990940133e+01     1.631774    0.9850169   5.47  0.006087631    2.678    0.627
         3 -10.6496    187.7754     14.6793   5.1679160876e+01   3.6174114166e+01    0.8016137    0.4942418 -58.60  0.003642925    1.849    0.459
         4  -9.6828    182.4235     15.2995   5.2607210453e+01   3.7522202406e+01    0.3917527    0.2450253 -14.46  0.001784653    1.835    0.455
         5  -8.7540    120.4771      8.9354   6.1343871158e+01   5.3927116406e+01    0.2272471    0.1764994  51.54  0.001252163    1.217    0.178
         6  -7.2975    144.2598      8.6748   5.6449927490e+01   4.8144850473e+01    0.1378694    0.1049441 -56.49 0.0002439564    1.556    0.357
         7  -8.3415     10.3243    224.4456   1.3295861625e+02   2.7869944434e+01    0.1300983   0.06801598 -89.56 0.0005269403    1.516    0.340
         8 -12.4350    176.8128    222.6608   1.0423724398e+02   4.6359857425e+00     1.838133    0.4296657 -47.27  0.006441954    5.784    0.827
         9 -13.5385    185.4049    223.4258   1.0282548588e+02   3.0619589559e+00     2.850997     1.319296 -52.25   0.01357137    3.295    0.697
        10 -10.3592    188.9276    176.5740   9.4349126058e+01   9.3979861733e+00    0.4345815    0.2757478 -55.29  0.001506566    2.098    0.523
        11 -10.1975    140.8130    176.5726   1.0402288041e+02   1.8671227766e+01    0.3699468    0.2847908 -35.17  0.002049461    1.615    0.381
        12 -10.8638    142.9683    170.8772   1.0260177231e+02   1.9350664423e+01    0.6632482    0.4761289  20.60  0.003313079    1.910    0.476
        13  -9.4311    153.1817    185.3738   1.0296957054e+02   1.4763716188e+01    0.2677946     0.184719 -51.60  0.001070288    1.635    0.388
        14  -9.9370    134.3817    172.8031   1.0473396059e+02   2.0577394327e+01    0.4169104    0.3732957  54.33  0.001436489    1.053    0.050
        15  -8.9299    235.5544    172.9808   8.5052619719e+01   9.8155046129e-01    0.2405159    0.1745848  35.19  0.000317605    1.262    0.208
        16 -11.1930    191.6431    191.6768   9.6587987679e+01   6.4960138636e+00    0.6288041    0.4128363 -68.48  0.002913147    2.870    0.652
        17  -9.2635    165.7804    249.7251   1.0966051917e+02   2.8726605467e+00    0.2003305    0.1614585  43.35 0.0006076103    1.078    0.072
        18  -8.0468    216.4841    220.5008   9.6960788447e+01  -1.8305376786e+00    0.1222949    0.0963174  28.08 -0.0001208752    1.005    0.005
        19  -7.4118    245.6030    167.7508   8.2268347761e+01  -1.4744088672e-01      0.13893   0.08748643  19.06  0.000694574    1.687    0.407
        20 -10.0955    203.9504    165.4961   8.9281601865e+01   8.2083980616e+00    0.2639236    0.2358493  48.78 0.0004184526    1.184    0.155
        21  -9.8536    139.2579    214.7204   1.0995981655e+02   1.2246979932e+01    0.6588213    0.3012612  41.17  0.003257785    1.915    0.478
        22  -8.3800    235.9815    168.0586   8.3978652220e+01   1.5872505679e+00    0.2007479    0.1686451  14.35 0.0003229275    1.041    0.040
        23 -10.9711      3.3698    157.6220   1.3049150266e+02   4.1121352121e+01    0.9261618    0.4553212 -39.24    0.0043797    4.739    0.789
        24 -11.4865      4.8120    149.0761   1.2959537801e+02   4.2779171263e+01    0.9830232    0.4900656 -45.04  0.005364329    3.113    0.679
        25  -9.2236    211.0014    247.4618   1.0189058386e+02  -4.0115811409e+00      0.24512    0.1349089 -28.54   0.00112267    2.326    0.570
        26 -10.2918    154.5779    154.9254   9.7149586372e+01   2.0163747861e+01    0.3817283    0.3097043  39.92 0.0008608102    1.203    0.169
        27  -9.7322    151.9769    150.6457   9.6850907577e+01   2.1529373209e+01    0.4001513    0.2481393 -64.77  0.001740755    2.126    0.530
        28  -9.2481    151.6970    145.8988   9.5932706245e+01   2.2529707618e+01    0.2605514    0.2225588  -4.35 0.0006903607    1.453    0.312
        29  -9.7494    107.0185    187.2518   1.1254645000e+02   2.2491014195e+01    0.6363387    0.3254691 -75.55  0.002890244    2.636    0.621
        30 -10.6113    133.5471    146.3588   1.0009223840e+02   2.6063015303e+01     1.050972    0.3397366 -55.44  0.003297499    3.836    0.739
        31  -8.6549    223.5256    148.1982   8.1957096793e+01   6.9756629816e+00    0.2234853    0.1823316  39.14 0.0003440692    1.197    0.165
        32  -8.1171    169.2890    190.2479   1.0061016613e+02   1.0918033165e+01    0.1805356    0.1453671  66.78  0.001043691    1.383    0.277
        33  -7.7346    209.3930    147.1341   8.4334941575e+01   1.0082845966e+01    0.1941856     0.131395 -46.73 0.0004497437    1.678    0.404
        34 -10.4332     30.2727    141.4020   1.2339137351e+02   4.2246961727e+01    0.2359478    0.2120056  12.16  0.001006985    1.619    0.382
        35 -10.0388    168.8587    217.7438   1.0496099202e+02   6.7077669644e+00    0.4308723    0.1374217  46.98  0.001656931    2.660    0.624
        36  -7.9194    131.8276    189.6237   1.0790317488e+02   1.7859809796e+01    0.1761364    0.1363981  55.32 0.0004001402    1.131    0.116
        37  -9.3927    156.7429    140.5470   9.3675098536e+01   2.2547353531e+01    0.2723245    0.2378147 -20.93 0.0006441504    1.297    0.229
        38  -7.3854    250.3769    136.2477   7.4673025947e+01   3.3802477227e+00    0.1415143   0.09576058  18.47 0.0005467226    1.640    0.390
        39  -9.1576    126.8112    137.0025   9.9749731798e+01   2.9338183591e+01    0.2702233     0.182241  61.42  0.001270878    1.634    0.388
        40  -8.5348    131.6950    155.3388   1.0223526021e+02   2.4562688716e+01    0.2206765    0.1713063 -82.20  0.001155299    1.463    0.317
        41 -11.1903    182.6685    207.3446   1.0087272345e+02   5.7978188184e+00     0.634199    0.2664712 -38.34  0.002537394    2.932    0.659
        42  -9.3554    119.9964    128.0155   9.9479795351e+01   3.2580539355e+01    0.2256859    0.2148993 -87.68 0.0008384201    1.008    0.008
        43  -7.7719    241.4445    123.0434   7.3080594626e+01   7.1587951311e+00    0.2062641    0.1303729 -31.24 -2.028753e-05    1.484    0.326
        44  -7.6439    180.1494    122.8577   8.4496023635e+01   2.0838737351e+01    0.2020748    0.1733851  17.87 0.0002516839    1.262    0.208
        45  -9.1421    108.3415    123.4355   1.0138180236e+02   3.5736014472e+01    0.2517309    0.2141363 -50.21  0.000630473    1.175    0.149
        46  -9.1592    246.7906    182.7771   8.5070774951e+01  -2.3293437384e+00    0.2738235    0.2521631  85.23  0.001367532    1.732    0.423
        47  -9.8136     28.8195    118.5913   1.2103243696e+02   4.7437524086e+01    0.2342893    0.1589289 -52.65  0.001080251    1.485    0.327
        48  -8.3413    248.9573    200.8936   8.8112051735e+01  -4.8969432376e+00    0.1810368    0.1425764  16.20 0.0003816421    1.008    0.008
        49 -10.7555    150.4260    171.3236   1.0112288838e+02   1.7846482850e+01     0.778245    0.3266816 -36.55  0.002775264    3.668    0.727
        50 -11.2157    156.4496    168.8276   9.9419000764e+01   1.7145895583e+01    0.7732402    0.3952789 -37.32  0.001239956    2.439    0.590
        51  -7.9732    168.5979    114.3490   8.4845890154e+01   2.5119527507e+01    0.2857338    0.1455435 -44.41 0.0007755412    1.994    0.499
        52 -10.3514     57.6601    111.3217   1.1229325239e+02   4.6093305043e+01    0.4603871    0.1678565 -46.00   0.00176066    3.161    0.684
        53 -10.5828    161.0415    175.3974   9.9669817677e+01   1.5051801587e+01    0.5056341    0.3457496 -69.44  0.001782429    2.011    0.503
        54 -10.2692     62.8892    107.9329   1.1022387460e+02   4.6223406017e+01    0.4301751    0.2297817 -69.09  0.002043362    1.841    0.457
        55 -10.3614     64.7346    104.3918   1.0900657587e+02   4.6795550127e+01    0.3953217    0.2631994  70.32   0.00202407    1.924    0.480
        56  -8.6807    166.0560    100.0029   8.1621327823e+01   2.8501455039e+01    0.2243893    0.2204599   3.96  0.001192278    1.020    0.019
        57  -8.2083    128.9333     98.2342   8.9998314158e+01   3.7218411013e+01    0.2206773    0.1986655 -82.52 0.0005239809    1.210    0.173
        58  -8.7167     14.4682     96.9840   1.2192831755e+02   5.3391537398e+01    0.1855283      0.17542 -24.35 0.0007386269    1.381    0.276
        59  -8.1368     16.1731     93.0863   1.2088339142e+02   5.4136600227e+01    0.2158991    0.1211995 -53.63 0.0005093903    1.529    0.346
        60  -9.7357    204.4421    199.3616   9.5569150585e+01   3.0161893502e+00     0.360617    0.2043662  -9.82  0.001557605    3.125    0.680
        61  -8.1537     85.8000     93.4974   1.0051772061e+02   4.6237556536e+01    0.1917822    0.1402846  40.37  0.001003603    1.505    0.335
        62  -8.0567    226.9713     89.5662   6.7135528829e+01   1.5640517980e+01    0.2297067    0.1893855 -29.39 0.0004236466    1.152    0.132
        63  -7.5475    127.9867     90.4945   8.8097861696e+01   3.9030745159e+01    0.2112341    0.1507089  45.88 0.0009829211    1.446    0.308
        64  -9.6323    222.3264     93.4743   6.8918618224e+01   1.6107687015e+01    0.2673199    0.2421097  -2.89  0.000305952    1.120    0.107
        65  -8.4979    109.8922     80.0590   8.9937906844e+01   4.4874663963e+01    0.2134958     0.200275 -38.73 0.0002908793    1.006    0.006
        66  -9.1412    234.9094    177.7511   8.6115352896e+01   4.4642450045e-01    0.2628925    0.1959666  40.96  0.000714639    1.309    0.236
        67  -7.3568    249.0200     75.7787   6.0328029751e+01   1.2651712829e+01    0.1723209    0.1186364  60.78 0.0003559667    1.594    0.373
        68  -7.7016    166.7261     73.4636   7.3816655852e+01   3.3268961764e+01    0.2078117    0.1466133  42.13 0.0004512964    1.460    0.315
        69 -10.0259    156.7485     61.1922   7.2149652764e+01   3.7878984264e+01    0.4611901    0.3756469  80.99  0.001195235    1.451    0.311
        70  -7.7442    140.6556     62.7060   7.6358788838e+01   4.1534865783e+01    0.2491442    0.2071667  24.08 0.0006746696    1.292    0.226
        71  -8.9252    143.5157     60.0031   7.4783829856e+01   4.1323522214e+01    0.2954278    0.2296892  36.64  0.001426173    1.328    0.247
        72 -10.2757    123.3474     58.5492   7.9360378026e+01   4.6232685761e+01    0.2656249    0.2498057 -11.09 0.0002428972    1.020    0.019
        73  -9.5033    205.5880    246.7818   1.0268587114e+02  -3.0915689274e+00    0.1947374    0.1138975 -36.81   0.00123633    2.203    0.546
        74  -9.2323    219.2512     45.1224   5.6291844665e+01   2.4202169476e+01    0.3965512    0.2670549 -19.30  0.001093332    1.628    0.386
        75  -7.7168    192.8055     37.2181   5.7838141176e+01   3.2128146874e+01    0.1968987    0.1697047  23.27 0.0002975639    1.289    0.224
        76  -8.1356    134.8420     55.8018   7.5476430546e+01   4.4098844239e+01    0.2263445    0.1973115  15.01 0.0004636398    1.198    0.165
        77  -7.5300    165.9061     27.1702   5.9067704752e+01   4.0508921345e+01    0.1964901    0.1637721  24.34 0.0003038942    1.281    0.219
        78 -18.2856     59.1474    225.9256   1.2526926523e+02   2.2206604278e+01     4.148571     2.936454  76.52   0.01353023    1.116    0.104
        79  -9.7946    185.6381     19.7877   5.3553049411e+01   3.6174593562e+01    0.6821209     0.325283  73.32  0.002685577    2.221    0.550
        80  -8.3053    246.0453    243.2551   9.5623904114e+01  -8.8998287298e+00    0.1625061    0.1254196  11.21 0.0002846643    1.152    0.132
        81 -10.5522    170.1782    240.9907   1.0785508259e+02   3.2815936223e+00    0.3045318    0.2065128  48.00  0.001560839    1.189    0.159
