#   1 NUMBER                 Running object number                                     
#   2 MAG_AUTO               Kron-like elliptical aperture magnitude                    [mag]
#   3 X_IMAGE                Object position along x                                    [pixel]
#   4 Y_IMAGE                Object position along y                                    [pixel]
#   5 X_WORLD                Barycenter position along world x axis                     [deg]
#   6 Y_WORLD                Barycenter position along world y axis                     [deg]
#   7 A_WORLD                Profile RMS along major axis (world units)                 [deg]
#   8 B_WORLD                Profile RMS along minor axis (world units)                 [deg]
#   9 THETA_WORLD            Position angle (CCW/world-x)                               [deg]
#  10 FWHM_WORLD             FWHM assuming a gaussian core                              [deg]
#  11 ELONGATION             A_IMAGE/B_IMAGE                                           
#  12 ELLIPTICITY            1 - B_IMAGE/A_IMAGE                                       
         1 -10.3958    140.3568     27.4534   7.7582049864e+01   4.6666259273e+01    0.4760623    0.3623042  64.50  0.002645138    1.260    0.206
         2 -10.8746    114.0133     25.6397   8.2859633110e+01   5.2812164223e+01    0.3465263    0.2309822 -14.00  0.001230375    1.672    0.402
         3 -11.9145     76.6394     25.2932   9.3284804054e+01   6.0062724865e+01    0.3433087    0.2575801  -3.62 0.0004067443    1.246    0.198
         4  -9.6413     88.5058      7.0308   8.2602408669e+01   5.9886835841e+01    0.1671135    0.1136841 -15.01 0.0004042316    1.520    0.342
         5 -11.3374     90.2119     16.0316   8.5608624317e+01   5.8679402669e+01     0.335739    0.2051276 -11.66 0.0004097619    1.765    0.434
         6 -10.2991     87.2314     11.7953   8.4815353639e+01   5.9674411589e+01    0.2972462    0.2095889  -7.45  0.001119636    1.429    0.300
         7 -11.0602     13.3177     20.8372   1.1601621423e+02   6.8515238421e+01    0.3286431    0.2538913 -14.71  0.001504535    1.108    0.097
         8 -10.5429     19.8768     16.8132   1.1156443562e+02   6.8557910434e+01    0.2431071    0.1515275  13.51  0.001310904    1.563    0.360
         9 -10.6636     12.7634     15.9155   1.1437718159e+02   6.9283168281e+01    0.3153794    0.1718724  24.32   0.00116596    1.978    0.494
        10 -10.4212     26.4000     16.6192   1.0865241849e+02   6.7970115003e+01    0.2520712    0.2076924   3.55  0.001397993    1.255    0.203
        11 -10.4869    100.2129     18.9261   8.3966018808e+01   5.6418511794e+01    0.3236889    0.2788053 -76.63  0.001995563    1.675    0.403
        12 -11.2291     42.1111     18.3738   1.0288629282e+02   6.5992475664e+01    0.4991867    0.2579713  15.95  0.002695178    2.212    0.548
        13 -10.2782     46.9585      4.7901   9.5168000636e+01   6.6967387448e+01    0.5275972     0.147799  34.98  0.001993056    3.539    0.717
        14 -10.8149     38.9489      2.2133   9.7141875499e+01   6.8303666447e+01    0.4155513    0.2322257 -28.07  0.002497558    1.684    0.406
        15 -11.6341     30.0881      7.2590   1.0308835621e+02   6.8788777279e+01    0.3130286    0.2290701   1.97  0.001308031    1.089    0.082
        16 -11.6544     34.8309     13.0768   1.0361771684e+02   6.7535618146e+01    0.3969299     0.245685 -37.38  0.001844759    1.695    0.410
        17 -11.6793     39.6627     10.5673   1.0056719224e+02   6.7269547238e+01    0.3392028     0.205647 -21.49 0.0001941308    1.432    0.301
        18 -10.7053    156.4130     14.0385   7.0549793791e+01   4.4270703864e+01    0.2549189    0.2276621  63.24 0.0008839224    1.029    0.028
        19 -10.4918    212.1807     11.8679   6.2606029796e+01   3.0920784836e+01    0.2402961    0.1561785 -57.64 0.0008414484    1.499    0.333
        20 -10.3676    210.2532      7.6767   6.1837283730e+01   3.1834524539e+01     0.259166     0.142725 -37.56  0.001325019    1.890    0.471
        21 -10.3438     69.1781     12.0024   9.0405670811e+01   6.2840911401e+01    0.2615233    0.1755828 -33.60 0.0009082389    1.691    0.409
        22  -9.6811    119.0251     11.9868   7.6963647048e+01   5.3149496626e+01    0.1574737    0.1319627  44.62 0.0003178222    1.026    0.026
        23 -11.2050     22.1158      9.4469   1.0751683895e+02   6.9345719123e+01    0.2841629    0.1690116  -5.73 0.0008414973    1.561    0.359
        24 -11.1407     93.0110      8.5221   8.1965326784e+01   5.8881073600e+01    0.4098163    0.1798726 -25.15 0.0005722597    2.404    0.584
        25 -12.0104     56.1494      6.3270   9.2457903283e+01   6.5484902372e+01    0.5361521    0.4456725  21.56  0.002619946    1.210    0.174
        26  -9.8365     60.9855      3.0000   8.9334631575e+01   6.5069533029e+01    0.1669158    0.1214202  34.07 0.0003919933    1.254    0.202
        27  -9.8001     10.1297      1.4890   1.0954082080e+02   7.1444206980e+01    0.1407616    0.0857681  15.36  0.000920776    1.548    0.354
        28 -11.4635     10.5296      6.7440   1.1165125001e+02   7.0732269205e+01    0.4810168    0.3398691  31.92  0.002805359    1.954    0.488
        29 -11.9837      4.1288      8.8649   1.1556061647e+02   7.0925426128e+01    0.3101415    0.2473324 -47.97  0.001554329    1.743    0.426
        30 -10.8108      1.8376      3.1553   1.1428938223e+02   7.1866508403e+01      0.21008    0.1035807 -31.32   0.00116593    1.521    0.342
        31 -11.8174    150.9297      7.9059   6.9629496594e+01   4.6174557039e+01      0.37454    0.3171278  49.74  0.002185215    1.105    0.095
        32 -11.8488     80.3316      1.8417   8.2820558697e+01   6.1870785425e+01    0.5116845    0.2005273  38.33  0.001498905    2.240    0.554
        33 -11.4551     70.7365      6.7582   8.7732737033e+01   6.3112580342e+01    0.2982906    0.2716256  38.15  0.001422276    1.362    0.266
        34 -11.0729     65.5054      6.5234   8.9329078902e+01   6.4003226897e+01    0.3640267    0.1890492  21.70  0.001607915    2.045    0.511
        35 -10.9554    217.5531      7.2343   6.0998953911e+01   3.0152840281e+01    0.2862488    0.1361948  86.23  0.001307457    2.155    0.536
        36 -11.0853    145.2127      5.2711   6.9776827690e+01   4.7766327844e+01    0.3521792    0.2149386   7.36 0.0005067335    2.285    0.562
        37 -11.2696    194.6434      3.7572   6.2587871886e+01   3.5982469633e+01    0.3065493    0.1908657 -73.85  0.001624534    1.680    0.405
        38 -11.7703    130.0587      3.3900   7.1855743625e+01   5.1439515834e+01    0.4467716    0.2478165  78.44  0.002127219    2.215    0.549
        39 -10.2314    120.5436      4.1761   7.3970516338e+01   5.3508394232e+01     0.263492    0.1505745  55.28  0.001097319    1.460    0.315
        40 -10.6889    244.2470      2.0673   5.7555531899e+01   2.4623591367e+01    0.2243336    0.2040789  58.33  0.001300825    1.459    0.314
        41  -9.2293     16.6878      3.2738   1.0726195647e+02   7.0641525623e+01    0.1479853    0.1040958  -9.33 0.0001992965    1.041    0.039
        42 -10.3716     20.0873      2.1223   1.0518494093e+02   7.0454793348e+01    0.1932294    0.1367779  -3.56  0.001091889    1.070    0.065
        43 -10.1088    160.6226      3.5625   6.6877164822e+01   4.4240866006e+01    0.2240607    0.1188626   2.32 0.0009564101    3.243    0.692
        44  -9.3304    204.2679      1.3376   6.0979405372e+01   3.3910934551e+01    0.1196827    0.0904725  44.45 0.0002064709    1.595    0.373
        45  -9.5548     32.8789      1.0000   9.9077805223e+01   6.9184092551e+01    0.2618583   0.05409741  38.20   0.00082726    4.739    0.789
        46  -9.5893     21.3856    126.1865   1.3799294969e+02   4.7085380182e+01    0.1757063    0.1283231 -71.42 0.0004117557    1.096    0.087
        47 -12.4864      5.3262    240.6390   1.5123287077e+02   2.4243672715e+01    0.7471368      0.26719  68.19  0.003992766    2.511    0.602
        48 -11.8116      6.2863    247.2854   1.5142948518e+02   2.2927993549e+01    0.3151289    0.1435686 -87.64  0.002009617    1.770    0.435
        49 -11.0234      1.8221    248.7741   1.5216848940e+02   2.3113777932e+01    0.3589948    0.1745824 -87.43  0.002441576    1.608    0.378
        50 -11.9056     23.8818    121.9005   1.3671147861e+02   4.7850180269e+01    0.4541305    0.2458509 -89.16 0.0006253577    2.251    0.556
        51 -10.2872      3.2039    118.8839   1.4171525195e+02   5.0019018708e+01    0.1758423    0.1310663 -88.30 0.0006659949    1.250    0.200
        52  -9.6414      2.3321    114.2864   1.4135119905e+02   5.1080690575e+01     0.116028   0.06783387 -47.02 0.0002446462    1.620    0.383
        53 -10.1302    248.9919    111.9893   8.0930833889e+01   7.3774380431e+00    0.1760112    0.1548676 -44.86  0.001006932    1.025    0.024
        54 -11.0658      9.1637    111.8861   1.3919792863e+02   5.1179643567e+01    0.1715555    0.1333209 -87.17 0.0002541371    1.256    0.204
        55 -11.7630      5.0779    108.9005   1.3988408301e+02   5.2092347846e+01    0.2850417    0.2294037  -6.87  0.001775272    1.632    0.387
        56 -10.6459     58.6291    107.5309   1.2426173912e+02   4.7573221502e+01    0.2675962    0.1723929 -36.56 0.0008896498    1.644    0.392
        57  -9.8777     65.9778    110.7064   1.2280143188e+02   4.5915257354e+01    0.1880951    0.1752429 -61.42   0.00115829    1.059    0.056
        58  -9.6706     79.2671    106.9580   1.1806189799e+02   4.4879565172e+01    0.1999433    0.1701136 -49.89 0.0003839046    1.070    0.065
        59  -9.2943     34.2965    107.3302   1.3136810142e+02   5.0225499549e+01    0.1304104   0.07957362 -40.59 0.0002050839    1.637    0.389
        60 -10.3392     19.6088    106.0085   1.3537643776e+02   5.1743621434e+01    0.2631665    0.1290762  64.59 0.0009220899    3.913    0.744
        61  -9.8166     66.6430    101.8711   1.2059334532e+02   4.7812010183e+01    0.1981948    0.1189894 -63.51 0.0009427349    1.735    0.424
        62 -10.5768     57.8829    101.1465   1.2306741864e+02   4.9092808928e+01    0.2015136    0.1770085 -81.17  0.001233985    1.255    0.203
        63 -10.1147     62.0465     99.0071   1.2130800633e+02   4.9046036251e+01    0.2099867    0.1625682  84.30 0.0009511445    1.726    0.421
        64 -10.4470     38.4816     96.6509   1.2800437944e+02   5.2196400756e+01     0.336307    0.1801897 -75.12  0.001058645    2.402    0.584
        65  -9.4883     38.4744     92.4422   1.2710528555e+02   5.3111843082e+01    0.1267232    0.1041487 -48.27 -2.472889e-06    1.025    0.024
        66 -11.4749     17.3154     95.0209   1.3414147914e+02   5.4309292035e+01    0.3643442    0.2205026 -41.62  0.001567503    1.532    0.347
        67 -10.0938     20.4927     91.4884   1.3251187322e+02   5.4839654206e+01    0.2300634   0.08969731 -58.70 0.0006508286    1.929    0.482
        68 -10.3737     78.9105     94.9640   1.1517592727e+02   4.7571940843e+01    0.2077504    0.1852447 -36.65 0.0003054624    1.039    0.037
        69 -10.2142      3.0869     95.0818   1.3838211529e+02   5.5190680676e+01    0.1712257    0.1207924  81.79 0.0007883337    1.672    0.402
        70  -9.3984     99.8672     94.1579   1.0875242664e+02   4.4255489017e+01    0.1935968    0.1635896 -14.76  0.001023893    1.290    0.225
        71 -10.6819     84.0076     94.0300   1.1339388774e+02   4.6979967535e+01    0.3118103    0.2090219  26.14   0.00149643    1.718    0.418
        72 -11.1708     27.9548     91.2343   1.3014222562e+02   5.4311083146e+01    0.5093628    0.2710445  51.23   0.00253771    2.801    0.643
        73 -10.4489     25.4805     85.0231   1.2962993425e+02   5.5832962676e+01    0.3332978    0.1682199 -56.00  0.001063778    1.553    0.356
        74 -10.1937     58.1393     91.7443   1.2076787089e+02   5.1115293866e+01    0.2639652    0.1448573 -33.46 0.0008881501    2.049    0.512
        75 -11.5238     11.1924     87.8796   1.3471237154e+02   5.6241587461e+01    0.5555544    0.1968558 -63.34  0.002210603    2.183    0.542
        76  -9.8805     16.0244     89.4751   1.3351130937e+02   5.5586804194e+01    0.2194488    0.1532066 -18.12  0.001347956    1.696    0.410
        77  -9.5108     19.0088     87.0288   1.3210435423e+02   5.5897080287e+01    0.1925909    0.1287609 -46.23 0.0009384136    1.239    0.193
        78 -10.5917     76.3645     89.2407   1.1444250999e+02   4.9173090521e+01    0.2407258    0.2229989 -29.07  0.000421516    1.034    0.033
        79  -9.9975     44.1012     89.6214   1.2469523150e+02   5.3157476524e+01    0.2525985    0.1410644  40.68  0.001308883    2.163    0.538
        80 -10.4825      1.8251     89.7361   1.3789501748e+02   5.6391859792e+01    0.2065146    0.1238551 -65.86 0.0002322989    1.292    0.226
        81  -8.9581    250.6731     87.7133   7.5252912004e+01   1.1163061018e+01    0.1295055    0.1098212  14.24 0.0002461659    1.610    0.379
        82  -9.7340    123.9322     86.8923   9.9993205224e+01   4.1001789772e+01    0.2273466    0.2025574   0.78 0.0005995998    1.214    0.176
        83 -10.4077    104.0107     87.5275   1.0569816272e+02   4.4863448964e+01    0.1968723    0.1278419  67.09 0.0005144514    2.434    0.589
        84 -10.7586     54.5820     84.5987   1.2011081155e+02   5.3059739407e+01    0.3661888    0.1966728 -50.11  0.001254641    1.597    0.374
        85 -10.5655      3.8886     82.9341   1.3609222022e+02   5.7704009671e+01    0.2451245    0.1235987 -57.09 0.0009770575    1.439    0.305
        86  -9.5107     78.2280     83.3506   1.1224697014e+02   5.0113419497e+01    0.1756742    0.1265546  45.04 0.0002813447    1.578    0.366
        87 -11.6924     63.7780     80.2788   1.1598889392e+02   5.2800338702e+01    0.4946996    0.3827489 -53.64  0.002884534    1.272    0.214
        88  -9.7702    250.3699     80.8179   7.3756841444e+01   1.2363816079e+01    0.1903033    0.1245793 -30.82 0.0005725781    1.640    0.390
        89 -10.0834     89.3753     80.4867   1.0798833269e+02   4.8893862013e+01    0.2643349    0.1640016 -47.81  0.000672041    1.573    0.364
        90  -8.8704    124.4548     79.4269   9.7663784336e+01   4.2332192072e+01    0.1456373    0.1421492 -88.82  0.000197521    1.105    0.095
        91  -9.6302     19.3234     79.6685   1.3048855680e+02   5.7415273592e+01    0.1110579    0.0866425  83.03 0.0004732042    1.702    0.413
        92 -10.0866    176.6718     77.1072   8.4889071385e+01   3.0486617814e+01     0.311844    0.2211328  49.88  0.001457834    1.396    0.284
        93  -9.5973     74.9703     75.6826   1.1107532606e+02   5.2143083922e+01    0.1749726    0.1609637   2.07 0.0001987583    1.101    0.091
        94 -11.0687     55.6474     75.5628   1.1736057289e+02   5.4784330425e+01    0.2760283     0.236097  -3.66 0.0006730017    1.209    0.173
        95 -10.5217     15.3672     75.8759   1.3098553356e+02   5.8468243972e+01      0.16706    0.1587527  19.70 0.0007441351    1.333    0.250
        96  -9.5972     65.9584     75.2158   1.1385675208e+02   5.3524973826e+01    0.1623695    0.1587063 -76.44  0.001048294    1.244    0.196
        97 -11.7172     34.0175     72.8932   1.2397170499e+02   5.7610744694e+01    0.4790291    0.3195349  11.51  0.002899612    1.766    0.434
        98  -9.6838    224.0178     74.2734   7.5949809749e+01   1.9399818320e+01    0.1931464    0.1724319  89.79 0.0002901611    1.078    0.073
        99  -9.8905    136.5493     74.0965   9.2970880204e+01   4.0640518143e+01    0.2195054    0.1977619  43.11   0.00050248    1.086    0.079
       100 -11.1680      3.6840     73.7639   1.3443213963e+02   5.9595381938e+01    0.2786919    0.1931437  14.37  0.001101624    1.803    0.445
       101  -9.1833     95.6916     73.2983   1.0392491730e+02   4.9181402785e+01    0.1327275     0.113585 -86.44 0.0004606677    1.595    0.373
       102 -10.0923     81.2192     72.5999   1.0816862643e+02   5.1774354926e+01    0.2641811    0.1767946 -60.91 0.0009889841    1.951    0.487
       103  -9.5494    216.8211     72.2045   7.6539605393e+01   2.1452011569e+01    0.1855352    0.1743006  16.38 0.0005282158    1.299    0.230
       104 -10.1563    105.8819     71.5039   1.0037952817e+02   4.7606776434e+01     0.233915    0.1944531 -32.47 0.0005151556    1.174    0.148
       105  -9.2994     92.4749     72.4718   1.0464160256e+02   4.9909635715e+01    0.1378396    0.1296356 -18.84 0.0001001173    1.046    0.044
       106  -9.2991     90.5596     69.4344   1.0428568620e+02   5.0811294393e+01    0.1358128    0.1271613 -16.41 0.0001209006    1.048    0.046
       107 -10.2746     46.0783     69.2265   1.1884550880e+02   5.7138515205e+01    0.2706034     0.197531  31.75  0.001284212    1.577    0.366
       108 -10.2899     10.2382     68.7510   1.3117276299e+02   6.0231239156e+01    0.2590814    0.1151417 -51.48  0.001447723    1.632    0.387
       109  -8.8781     57.3249     67.6423   1.1453197310e+02   5.6131011024e+01    0.1216456     0.102202 -87.72 0.0007044535    1.775    0.437
       110  -9.2033    114.4677     66.4934   9.6398506164e+01   4.6784410272e+01    0.1406963    0.1371592   4.10 4.548848e-05    1.057    0.054
       111 -11.8254     34.2494     65.1114   1.2184881004e+02   5.9126728750e+01    0.2518326     0.192948 -27.04 0.0004096516    1.174    0.148
       112 -11.4579     39.7097     61.8930   1.1900233385e+02   5.9216951569e+01    0.6241602    0.2236941 -37.44  0.002298645    2.797    0.642
       113 -11.1214     16.9761     64.2792   1.2777511515e+02   6.0678432140e+01    0.3015532    0.2597205  -0.08  0.002256265    1.326    0.246
       114 -11.3055     10.9651     48.9988   1.2604878790e+02   6.3964999861e+01    0.5006908    0.2716618  19.03  0.003138781    2.138    0.532
       115 -11.1722     16.4992     44.8071   1.2269878468e+02   6.4345390755e+01    0.3232749    0.2916445 -16.00  0.001845414    1.256    0.204
       116 -12.7895     20.9643     57.7242   1.2465090545e+02   6.1651791694e+01    0.4194371    0.3657891  81.68  0.002712202    1.684    0.406
       117 -10.9843     20.3753     50.7630   1.2293799969e+02   6.2988903530e+01    0.3999524    0.1644781 -48.08  0.001335191    1.858    0.462
       118 -10.2987    130.1485     63.9008   9.1460353233e+01   4.3854454227e+01    0.2983736    0.2559146  68.59  0.001006685    1.297    0.229
       119  -9.6594     72.9886     63.9689   1.0815316227e+02   5.4663295169e+01    0.2245634    0.1396723 -62.88 0.0009884727    2.555    0.609
       120 -11.4503      7.5505     63.2981   1.3088720736e+02   6.1464768744e+01    0.2666357    0.1583004 -26.58  0.001693969    1.685    0.406
       121 -11.2521      7.6934     56.0268   1.2910937438e+02   6.2855265735e+01    0.2377095    0.1985973 -49.00  0.001077501    1.163    0.140
       122 -10.4612     52.1938     60.4878   1.1415183118e+02   5.8105249272e+01    0.4503479    0.2969115 -73.49  0.001804665    2.998    0.666
       123 -10.8498     54.5474     57.3392   1.1234006536e+02   5.8392605166e+01    0.4560215      0.24479 -55.35  0.002213342    2.260    0.558
       124 -10.8159      2.7423     60.2131   1.3189743733e+02   6.2325715247e+01    0.2257118    0.1797726  75.59  0.001609736    1.830    0.454
       125  -9.4711     66.9689     60.5096   1.0906114223e+02   5.6169461783e+01    0.1785536    0.1245771  30.04 0.0004860487    1.503    0.335
       126  -9.5679    118.6398     58.8430   9.2835440741e+01   4.7202565187e+01    0.1975819     0.128472 -45.48 0.0004244096    1.680    0.405
       127 -11.4822     83.4539     56.9684   1.0249081712e+02   5.4238094680e+01    0.2954919    0.2383634 -23.54  9.04705e-05    1.155    0.134
       128 -11.5771     87.4745     54.0000   1.0022959770e+02   5.4047782986e+01    0.4220281    0.2575246  38.44  0.001160148    1.637    0.389
       129  -9.4257     71.4408     57.7029   1.0665094881e+02   5.6016365555e+01    0.1702943    0.1127442 -29.58 0.0002977334    1.422    0.297
       130 -10.3148     60.3856     57.6133   1.1038566385e+02   5.7593374590e+01    0.2187417    0.2082033 -34.02 0.0008044298    1.251    0.201
       131  -9.5919    157.9933     56.2036   8.2746392229e+01   3.8541389100e+01    0.2369244    0.1648873 -86.89 0.0005684713    1.973    0.493
       132 -10.8675    114.9259     53.9726   9.2246131834e+01   4.8766184962e+01    0.3379186    0.2660078  34.89  0.001443018    1.222    0.182
       133  -9.9505    106.5665     53.6088   9.4426643988e+01   5.0535254559e+01    0.3409468    0.2301079 -69.07  0.001468256    2.762    0.638
       134 -12.1231     66.5555     52.4961   1.0657372931e+02   5.7630430123e+01    0.6029279    0.2368597  33.95   0.00217411    2.720    0.632
       135  -9.9464     34.6791     53.1290   1.1824255346e+02   6.1334241523e+01    0.2364754    0.1353105 -27.85 0.0008381008    1.674    0.403
       136  -9.9796      1.4444     54.4863   1.3104353323e+02   6.3485493371e+01    0.1108649   0.08216777 -46.15 2.769351e-05    1.022    0.021
       137 -10.5086     62.8715     62.2503   1.1100120601e+02   5.6420481978e+01    0.2525846    0.1647776 -34.72  0.000832819    1.378    0.275
       138  -9.2855    176.1931     52.3367   7.8117507780e+01   3.4620927202e+01    0.1995318    0.1303417  70.60 0.0003440243    1.566    0.362
       139  -9.1968    169.5696     52.5671   7.9404448352e+01   3.6236590236e+01    0.1446377    0.1352418  71.69 9.201702e-05    1.005    0.005
       140 -10.0613     46.5314     49.3179   1.1263640022e+02   6.0763324419e+01    0.3995262    0.1228558 -35.64  0.001476439    3.609    0.723
       141  -9.2622    147.6220     49.8086   8.3018054692e+01   4.2009493073e+01     0.194073    0.1308745 -45.23 8.965855e-05    1.613    0.380
       142 -10.8855     77.6410     46.4815   1.0078438881e+02   5.6912581175e+01    0.4134913    0.2677082  -2.85  0.002103808    1.898    0.473
       143  -9.7064     38.1529     49.0389   1.1566454647e+02   6.1719541210e+01    0.1898328    0.1289405 -24.03  0.001180472    1.314    0.239
       144  -9.1408    212.0120     48.7758   7.1480511588e+01   2.6249544377e+01    0.1765827    0.1093199  67.09            0    1.542    0.351
       145  -9.9155     53.6434     48.2476   1.0968300745e+02   6.0090687338e+01    0.2002536    0.1354167  -2.48 0.0005759084    1.607    0.378
       146 -10.1320     68.6323     46.8351   1.0392134830e+02   5.8261367524e+01    0.2040637    0.1588118  21.40 0.0002555156    1.255    0.203
       147  -9.5943     64.6731     46.2680   1.0508743514e+02   5.8932034472e+01    0.1865833    0.1220175  36.13 0.0004576204    1.612    0.380
       148 -10.0500     31.0544     46.9230   1.1768749041e+02   6.2779510129e+01    0.2516782    0.1723972 -40.36  0.001639784    1.211    0.174
       149  -9.4504     91.2008     44.7517   9.5896023767e+01   5.4836658399e+01    0.1807841    0.1406009   4.34  0.000451572    1.297    0.229
       150 -10.9005     19.6245     31.7365   1.1723288406e+02   6.6320292267e+01     0.460601    0.2223996  -3.20  0.002335164    2.906    0.656
       151 -10.1289     26.0643     30.5421   1.1414122457e+02   6.5954959613e+01    0.1903074    0.1733166 -87.43 0.0009044926    1.980    0.495
       152 -10.9375     25.5023     43.0745   1.1862127704e+02   6.3940867197e+01    0.2743837    0.2174172 -55.46  0.001311683    1.502    0.334
       153 -10.6568     22.8054     38.6095   1.1824800864e+02   6.4928044640e+01    0.2161887    0.1949245  28.90 0.0009161605    1.527    0.345
       154 -11.0472     26.3960     35.3638   1.1570531431e+02   6.5155052461e+01    0.3254179    0.1816587 -27.70  0.001298488    1.566    0.361
       155 -10.5400     70.4135     41.3966   1.0138367559e+02   5.8842207765e+01    0.3464507    0.2029154 -31.21  0.001859615    1.608    0.378
       156 -10.9647    182.1770     40.6287   7.3865025491e+01   3.4783995938e+01    0.3530786    0.2513694  50.70  0.001811596    1.388    0.280
       157 -11.0275    139.6205     40.1635   8.1757525232e+01   4.5254965277e+01    0.4072535    0.2135405 -37.33  0.001598681    2.026    0.506
       158 -10.4746      2.7733     41.8160   1.2728136441e+02   6.5739455581e+01    0.3097019    0.1546125 -21.86  0.001857176    2.058    0.514
       159 -10.1876     36.2351     40.6054   1.1360443411e+02   6.3351354686e+01    0.3409558    0.1651494 -33.92  0.001838067    1.804    0.446
       160 -10.6723     13.0752     38.3035   1.2209045925e+02   6.5719461924e+01    0.3440481    0.1059244 -48.48  0.001687728    2.389    0.581
       161 -11.9769    121.3734     36.5540   8.4791834437e+01   4.9880383110e+01    0.5053602    0.4331238 -86.03  0.002893195    1.499    0.333
       162 -10.1586    130.9579     37.4595   8.2825770779e+01   4.7616014698e+01    0.2547171    0.2164146  22.53 0.0006421147    1.194    0.162
       163 -11.1271    134.2927     33.9606   8.0943515626e+01   4.7297140079e+01    0.2332604    0.1738204  44.85 0.0003037034    1.227    0.185
       164  -9.2690    163.5570     37.4175   7.6156358126e+01   3.9837848835e+01     0.141202    0.1268415  57.64  6.48017e-05    1.044    0.042
       165 -11.8118    145.0100     33.0066   7.8381562945e+01   4.4899970676e+01    0.2655902    0.2552002 -68.54  0.001623534    1.141    0.124
       166 -10.1720    195.0007    249.7598   1.1829722080e+02  -5.6677294713e+00    0.1698868   0.08783499  40.27  0.000743743    1.595    0.373
       167 -11.0481     50.3429     33.9040   1.0579836542e+02   6.2791276806e+01    0.2532044    0.1959601  10.94 0.0004677422    1.202    0.168
       168  -9.9820    166.7330     31.8788   7.3997384924e+01   3.9755049535e+01    0.3826196    0.1334607 -41.02  0.001417275    3.014    0.668
       169 -10.1569     69.9975     35.3711   9.9316166140e+01   5.9795742209e+01    0.3470196    0.1757992 -20.68  0.001619175    2.325    0.570
       170 -11.5887     43.9892     29.1518   1.0642839425e+02   6.4276093147e+01    0.4575869     0.287151 -20.62  0.001933782    1.430    0.301
       171  -9.6100    187.5793     29.6882   7.0101177852e+01   3.4851463626e+01    0.2456677    0.1622696  57.96  0.001259731    1.399    0.285
       172  -9.6909    151.2259     29.7790   7.6172636434e+01   4.3801034541e+01    0.1979682    0.1488252  39.40 0.0008769709    1.337    0.252
       173  -9.7670    103.6236     29.7665   8.6992109135e+01   5.4485397759e+01    0.3345889     0.160368  31.13  0.001411719    2.484    0.597
       174 -10.5097     69.5493     28.1621   9.6734412074e+01   6.0857317512e+01    0.2657805     0.208849 -41.88  0.001064485    1.583    0.368
       175 -11.5539     16.8971    249.2523   1.4992180537e+02   2.1444387503e+01    0.2060249     0.140955  34.40     0.001464    2.107    0.525
       176  -9.9274      7.5959     28.0398   1.2107019125e+02   6.7795689801e+01     0.175887    0.1358753  24.80   0.00092618    1.667    0.400
       177  -9.0952    229.6637    247.7021   1.1161977730e+02  -1.0977868460e+01    0.1248781   0.07916152  12.81 0.0005965593    1.654    0.395
       178 -10.7143     74.6977     21.6818   9.2503180444e+01   6.0830698334e+01    0.2572646    0.2018147   3.33  0.000804603    1.125    0.111
       179  -9.7691    218.8447     25.8549   6.5120669773e+01   2.7685062534e+01    0.1940044    0.1365738 -69.93 0.0007053487    1.357    0.263
       180 -10.3520    154.5273     25.9930   7.4420355755e+01   4.3445281524e+01    0.4044614    0.1941567  69.52  0.001691436    2.198    0.545
       181 -10.1315     59.0596     24.3803   9.8914615134e+01   6.2943536047e+01    0.2297417    0.1437736 -13.95 0.0009586488    1.564    0.361
       182 -10.0690    192.9046     23.9025   6.7852270924e+01   3.4232185790e+01    0.1938596    0.1694622  61.67  0.001163589    1.154    0.134
       183 -10.5059     51.0088     22.8320   1.0126055749e+02   6.4267612537e+01      0.26658    0.2118961  11.14  0.001175082    1.127    0.113
       184  -9.6841     84.8477     21.3292   8.9203423769e+01   5.9094733203e+01    0.2509127   0.08991689  42.75 0.0007589172    2.498    0.600
       185 -10.1691     89.1329     21.8070   8.8119284953e+01   5.8249725184e+01     0.299963    0.1709883 -33.31  0.001595798    1.870    0.465
       186 -11.1021     33.7254    247.2488   1.4715240506e+02   1.9888722130e+01    0.2135133    0.1483494  36.05  0.001249257    1.938    0.484
       187  -9.1555    136.3208    245.6698   1.2878559138e+02   5.0081308791e+00    0.1308581   0.08609376  68.27 0.0004131332    1.693    0.409
       188  -9.7588    217.4629    245.0000   1.1339567281e+02  -8.6984972275e+00    0.2791532   0.05968447  41.20 0.0009414387    3.989    0.749
       189 -10.9909     37.5196    241.8344   1.4616455608e+02   2.0442907560e+01    0.3571303    0.1039806  58.76   0.00153097    3.366    0.703
       190  -9.6659    202.4942    240.0721   1.1537979022e+02  -5.5350905171e+00    0.1667633    0.1246667 -35.17 0.0006755133    1.535    0.349
       191  -9.2073     60.4909    241.0000   1.4218999620e+02   1.7652805411e+01    0.2400718   0.05686966  40.21 0.0009254811    3.860    0.741
       192 -10.1724    124.9004     21.3524   7.8859277526e+01   5.0900946372e+01     0.198919    0.1769791 -34.23 0.0002845463    1.275    0.216
       193  -9.9098      1.5510     21.3186   1.2143527251e+02   6.9241600513e+01    0.1890733   0.08767548 -53.18  0.001119802    2.099    0.524
       194 -10.3552     30.9992     20.0018   1.0807498115e+02   6.7033996670e+01    0.2222954    0.1511261 -37.06 0.0008821016    1.455    0.313
       195 -11.5155     15.0484    239.2406   1.4964001312e+02   2.3492607459e+01    0.2306655    0.1036107  67.76  0.001185505    1.833    0.454
       196  -9.1904    213.2938     20.3211   6.4457664983e+01   2.9686471827e+01    0.1256016   0.09766723  41.98   0.00026931    1.612    0.380
       197  -9.9664    175.4973     20.4796   6.9403011357e+01   3.8923736069e+01    0.1366393    0.1194026  69.86 4.331351e-05    1.027    0.026
       198 -10.8132      2.4216     34.7492   1.2538992083e+02   6.6990266332e+01    0.3498146    0.1421803 -43.91  0.001759481    1.738    0.425
       199 -12.6659     25.6629    235.8929   1.4771938374e+02   2.2959906237e+01    0.4032195    0.3069541  48.61  0.002655146    1.496    0.332
       200 -12.1617      2.1995    221.7811   1.5069743698e+02   2.8135534968e+01    0.7524841    0.1545536 -77.45  0.003064764    4.098    0.756
       201  -9.5792    148.5932     18.7941   7.3314854742e+01   4.5665105329e+01    0.1672708    0.1237097 -42.59 0.0003452328    1.521    0.343
       202 -10.5522    199.9136     17.0698   6.5241616022e+01   3.3301111483e+01    0.2040526    0.1724893 -84.66 0.0005210157    1.061    0.057
       203  -9.5319    108.1863     16.6735   8.1117775032e+01   5.5017867383e+01    0.1697829    0.1398969  35.33 0.0003672773    1.044    0.043
       204 -10.1622     85.9696     17.2594   8.7301053454e+01   5.9343223080e+01    0.1762253    0.1378595  34.94 0.0003731985    1.142    0.124
       205 -13.2966      9.7634    229.2430   1.4990120486e+02   2.5944269222e+01      0.63148    0.3140584 -86.12  0.003113777    1.600    0.375
       206  -8.7634    155.7041    235.3449   1.2365030337e+02   3.4003284964e+00    0.1305623   0.09464948  71.69 0.0007032803    1.669    0.401
       207  -9.8161    249.1544    234.1473   1.0585056791e+02  -1.2202961565e+01    0.1838747    0.1346625  10.90 0.0005298126    1.185    0.156
       208  -8.8927     80.3136    231.6854   1.3773739941e+02   1.6634642081e+01    0.1310274   0.07695209  69.94 0.0007033983    1.640    0.390
       209  -9.6528    140.0899    227.0673   1.2553920518e+02   7.6532880630e+00     0.215404    0.1451556  69.39  0.000700887    1.713    0.416
       210  -9.5134    109.6898    226.6676   1.3152214002e+02   1.2984996918e+01    0.1165347    0.1046447  -3.28 0.0007042728    1.673    0.402
       211  -9.8755     76.0737     14.7073   8.9295181511e+01   6.1387277435e+01     0.171681    0.1281734  26.23 0.0004248466    1.144    0.126
       212 -10.2282    190.5971     14.1787   6.5670212599e+01   3.5895932678e+01    0.1612296    0.1320459  -8.02 0.0005950506    1.606    0.377
       213 -10.0030    144.1140     14.4929   7.2800898433e+01   4.7168610929e+01     0.198265    0.1164195  61.75 0.0004335747    1.488    0.328
       214 -10.1144     32.9218    225.0083   1.4572513660e+02   2.4251101850e+01    0.2737017   0.09380644  50.81  0.001367864    2.425    0.588
       215 -10.0459     25.5160    225.0252   1.4700608304e+02   2.5090522890e+01    0.1648999   0.08886632 -79.70 0.0007168723    1.557    0.358
       216 -11.5599      7.7697    217.6095   1.4952717675e+02   2.8417681718e+01    0.2658504     0.185128 -86.92  0.001247276    1.161    0.139
       217  -9.4599    246.4985    216.5167   1.0315267154e+02  -9.4136544007e+00    0.1281724    0.1044027   6.28 0.0008099787    1.048    0.046
       218 -11.7423      4.2612    232.5951   1.5096935443e+02   2.5856676797e+01    0.2933696     0.173254  72.27 0.0006511427    1.237    0.192
       219  -9.6832    209.4907    212.0144   1.0921617990e+02  -2.4336829882e+00    0.1920889    0.1307367 -35.42  0.001024003    1.568    0.362
       220 -10.8733     16.0380    211.7079   1.4771572320e+02   2.8777195946e+01    0.1580618     0.118045  75.21 0.0006901287    1.094    0.086
       221  -9.8169    246.8385    206.9326   1.0129680116e+02  -8.0853928463e+00    0.1990979    0.1520236  -4.83  0.001196307    1.236    0.191
       222  -9.5630    197.2468    203.9990   1.1014781573e+02   1.1795666141e+00    0.1695811    0.1181006 -39.96 0.0005209327    1.543    0.352
       223 -11.2006      9.1798    203.4087   1.4835136843e+02   3.1153785946e+01    0.2266087    0.1734999  67.51 0.0009032334    1.213    0.176
       224  -8.9693    181.5105    199.4861   1.1250836927e+02   5.0156000432e+00     0.141532    0.1305256  42.21 7.351193e-05    1.036    0.035
       225  -9.4739     23.4870    197.4927   1.4527013176e+02   3.0967709557e+01    0.1188818   0.08819886  84.68 -5.040823e-06    1.015    0.014
       226  -9.4289      6.5301    191.4766   1.4798327428e+02   3.3884697724e+01    0.1155062    0.0817616  84.72  2.70462e-05    1.049    0.047
       227  -9.6043     15.3742    185.1889   1.4580536608e+02   3.4410518020e+01    0.1698356   0.08542714 -87.15 0.0009416648    1.693    0.409
       228  -9.0543    250.3120    183.3264   9.6052559868e+01  -5.0466144996e+00    0.1376455   0.09528625   0.54 0.0006165883    1.663    0.399
       229  -9.3573      1.1916    183.1118   1.4837027852e+02   3.6114070570e+01    0.1488195   0.06570601 -75.61 0.0005929115    1.722    0.419
       230 -10.6825      4.8263    167.5101   1.4641418023e+02   3.9172731589e+01    0.2792868    0.1534411  61.41  0.001427878    1.806    0.446
       231  -9.4360    111.7829    162.6297   1.2120528413e+02   2.6455347441e+01      0.19535    0.1310201  53.06 0.0002707252    1.499    0.333
       232  -9.2438     41.6735    158.3222   1.3735262149e+02   3.7752602469e+01    0.1332404    0.0840326  75.12 0.0007048109    1.687    0.407
       233  -9.1828    247.4613    155.5285   9.0760446084e+01   7.8402672378e-02    0.1382517     0.125049 -21.80 0.0001127715    1.005    0.005
       234  -9.7869     14.8223    150.8040   1.4264287730e+02   4.2057964121e+01    0.1663451    0.1159023  81.42  0.001065953    1.325    0.245
       235  -9.6300      8.7204    148.6664   1.4379697466e+02   4.3023944068e+01    0.1163959   0.07074156 -54.21 0.0002546819    1.610    0.379
       236 -10.2347     22.0175    143.2175   1.4008676667e+02   4.3162156825e+01    0.2277156     0.145027 -73.53  0.001290235    1.251    0.201
       237  -9.8503      2.5425    138.5823   1.4415566916e+02   4.5711436720e+01    0.2278697   0.09602823  33.65  0.001240033    2.739    0.635
       238 -10.8342     12.6533    130.5221   1.4079140897e+02   4.6788373095e+01    0.3915419    0.1888925  61.73  0.001459854    2.785    0.641
       239 -10.0148    248.3322    129.6672   8.4973936806e+01   4.4170388908e+00    0.1442741    0.1064536 -68.40 0.0007052205    1.728    0.421
