#   1 NUMBER                 Running object number                                     
#   2 MAG_AUTO               Kron-like elliptical aperture magnitude                    [mag]
#   3 X_IMAGE                Object position along x                                    [pixel]
#   4 Y_IMAGE                Object position along y                                    [pixel]
#   5 X_WORLD                Barycenter position along world x axis                     [deg]
#   6 Y_WORLD                Barycenter position along world y axis                     [deg]
#   7 A_WORLD                Profile RMS along major axis (world units)                 [deg]
#   8 B_WORLD                Profile RMS along minor axis (world units)                 [deg]
#   9 THETA_WORLD            Position angle (CCW/world-x)                               [deg]
#  10 FWHM_WORLD             FWHM assuming a gaussian core                              [deg]
#  11 ELONGATION             A_IMAGE/B_IMAGE                                           
#  12 ELLIPTICITY            1 - B_IMAGE/A_IMAGE                                       
         1 -14.7429     68.4019    144.4344   1.0435927362e+02   3.7249757424e+01      4.98663     2.517551  70.45  0.002947224    4.250    0.765
         2 -14.3048    216.8480     24.4268   3.8927551369e+01   2.8278029227e+01     1.410581    0.9760653  35.51  0.007577678    2.014    0.503
         3 -14.4072    203.6946     37.7802   4.3728998601e+01   2.9717956317e+01     2.111972     1.493116  32.32  0.008385945    1.894    0.472
         4 -10.9780      2.3013      3.8021   9.1521843406e+01   7.3779861804e+01    0.3587662    0.1100592 -47.86  0.001677344    3.062    0.673
         5 -12.3463    241.8832      2.5129   3.1964309369e+01   2.5175301416e+01    0.6651993    0.2579651  77.12  0.003162536    2.460    0.593
         6  -9.8454     53.4779      4.4628   6.5567616457e+01   6.7466540363e+01    0.1226954   0.09834641  12.59 0.0001246563    1.048    0.045
         7  -9.8095     17.2369      1.9975   8.1728839439e+01   7.2717626769e+01    0.1445447   0.07825463 -31.94  0.000674232    1.597    0.374
         8 -11.3296    193.2103    194.9817   8.3386176745e+01   4.5503360151e+00    0.9547919    0.5163882 -63.72   0.00269185    6.858    0.854
         9 -13.9975     86.3997    226.3718   1.1110771699e+02   1.6222436539e+01     1.286773     1.049901  84.95  0.003139052    1.223    0.182
        10 -15.6532      5.1231    157.3350   1.2251045476e+02   4.0510797522e+01     5.886925     1.259503 -75.05   0.02134129    3.689    0.729
        11 -13.5675     38.6428    203.7151   1.1889239789e+02   2.6977422633e+01    0.5851372    0.5411294 -37.43   0.00150058    1.493    0.330
        12 -14.9975     48.3915    193.3685   1.1584508756e+02   2.8140379034e+01     2.151921     1.419642  81.97   0.00990996    1.456    0.313
        13 -16.1201     49.5657    247.5363   1.2009231369e+02   1.6998409590e+01     9.075438     2.756609  27.26   0.01311427   10.315    0.903
        14 -10.2979    109.9652    201.3190   1.0285041666e+02   1.7764890865e+01    0.1882909    0.1621661  47.77 0.0002266357    1.062    0.058
        15  -9.0664     69.8186    183.8639   1.0983151932e+02   2.7608053468e+01    0.1827209    0.1392271  73.43  0.000394445    1.287    0.223
        16 -10.8116    144.2917    179.5777   9.1227453513e+01   1.6423041607e+01    0.4558466    0.3391601  88.48  0.002108589    2.016    0.504
        17  -9.7730     99.4748    180.9160   1.0224539872e+02   2.3916257120e+01    0.2369165    0.1973968  17.93 0.0006914759    1.402    0.287
        18  -9.6295    150.1635    178.5759   8.9664663995e+01   1.5542778169e+01    0.2432588    0.1985195 -61.59 0.0006844383    1.410    0.291
        19 -12.1348     64.8604    177.0049   1.1014535705e+02   2.9856531762e+01    0.4004961    0.2946805 -32.90  0.002139967    1.836    0.455
        20 -12.0761     69.7941    171.6300   1.0820491671e+02   3.0468285407e+01    0.3821637    0.3398838  19.72  0.001371663    1.337    0.252
        21 -11.1798     62.1354    199.7302   1.1344981632e+02   2.5050512363e+01    0.3942836     0.220161 -68.40  0.000974172    1.738    0.425
        22 -16.3486      8.7021    240.4266   1.2685158952e+02   2.2695214013e+01     3.239195     2.849395  -3.46    0.0257044    1.987    0.497
        23  -9.3442    188.4931    174.9903   8.0398805356e+01   9.0224894042e+00    0.1902184    0.1293314 -65.25 0.0008089613    2.421    0.587
        24 -12.9357     86.0094    155.5803   1.0147987939e+02   3.1990102591e+01     1.601689    0.7816842 -62.54  0.001687261    2.061    0.515
        25 -12.3535     79.0471    162.2674   1.0443913855e+02   3.1411437764e+01    0.5256637    0.3858194  58.43 0.0004234174    1.418    0.295
        26 -13.7857     67.2093    157.7770   1.0684500269e+02   3.4141539839e+01    0.7724207    0.6179368   2.70  0.004200303    1.658    0.397
        27  -9.4137    173.5120    243.4972   9.5546841034e+01  -1.0460097634e-01    0.1748325    0.1237167 -40.88 0.0006413139    1.677    0.404
        28 -10.4401     34.6567    171.7262   1.1681885543e+02   3.4598964673e+01    0.2656631    0.1672371  64.07  0.001030097    1.573    0.364
        29  -9.3250    157.6486    160.0900   8.4140354561e+01   1.7989434455e+01     0.236586    0.1922442 -68.32  0.001151796    1.519    0.341
        30 -10.1974    236.4844    158.5092   6.7568997166e+01   3.1875988563e+00    0.1389315    0.1182732 -14.18 0.0008104144    1.005    0.005
        31 -11.2769     33.2840    156.2964   1.1548016185e+02   3.8394624494e+01    0.3294346    0.2450885 -82.41 0.0009538698    1.164    0.141
        32 -12.3411     55.3571    146.5099   1.0831534427e+02   3.8394764387e+01    0.8103454    0.4313137 -62.55   0.00381565    1.666    0.400
        33 -11.0592    133.5735    143.9360   8.6501031809e+01   2.6340048965e+01     1.168659     0.298345 -53.89  0.002696747    5.828    0.828
        34 -10.1481    174.6715    148.5753   7.7657886010e+01   1.6939451795e+01    0.3632495    0.2681151 -69.04  0.001424225    1.926    0.481
        35  -9.3242     36.0044    145.0339   1.1338652300e+02   4.0855793433e+01    0.1570004    0.1354844 -79.22 0.0004989402    1.015    0.015
        36 -10.9860     28.4149    144.7608   1.1538907731e+02   4.1632146166e+01    0.2952255    0.1651562  60.07  0.001475748    2.024    0.506
        37 -10.9740    100.7388    140.5204   9.4556987534e+01   3.3248346403e+01     0.611985    0.3806327 -24.18  0.002404173    2.484    0.597
        38 -12.2582     87.8669    140.5236   9.8161428455e+01   3.5367452116e+01    0.2938754    0.2539878 -45.59 0.0003902761    1.154    0.133
        39 -10.3706     81.5418    141.5111   1.0013734204e+02   3.6098834721e+01    0.3250628    0.2216774  65.21 0.0004818043    1.813    0.448
        40  -9.7831     29.5730    136.8875   1.1408197012e+02   4.3442421307e+01    0.1814772    0.1657961 -87.64 0.0005343739    1.102    0.093
        41 -14.3060     24.0974    225.6754   1.2333791099e+02   2.3991771316e+01     1.443679    0.5749444  68.46  0.007076181    2.603    0.616
        42 -10.4343    106.1052    130.6597   9.0889041664e+01   3.4669291820e+01    0.4228539    0.3018021 -57.48  0.001971469    1.412    0.292
        43 -10.3832    110.2297    130.6204   8.9719602836e+01   3.3925420808e+01    0.3537295    0.2597468  16.43 0.0009354493    1.681    0.405
        44 -10.9980    135.8304    128.4456   8.2258896028e+01   2.9394888295e+01    0.6709376    0.1162542 -46.84  0.001485569    5.782    0.827
        45 -11.5255     67.3224    126.8090   1.0142848894e+02   4.1745317381e+01    0.6325879    0.3084292 -63.81  0.002619476    2.018    0.505
        46 -11.4384    120.8884    173.1370   9.5662929111e+01   2.2072106166e+01    0.5066454    0.2087993  39.65  0.001903924    2.323    0.569
        47 -10.1388    160.5013    128.4927   7.6124197576e+01   2.4131983588e+01    0.4109204    0.2080799 -50.70  0.001518967    2.182    0.542
        48 -15.4900      9.4447    207.9888   1.2505102982e+02   2.8988414611e+01     2.780654     1.323939 -53.35   0.01495035    2.736    0.634
        49 -10.9466     97.6262    126.8455   9.2445848745e+01   3.7079055488e+01    0.3191829    0.2684481 -17.09  0.001115765    1.354    0.261
        50 -10.1344    116.6322    124.7232   8.6524790616e+01   3.4100205621e+01    0.2464041    0.1827347 -12.73 0.0008768599    1.774    0.436
        51 -10.3568     29.8148    122.5915   1.1200126080e+02   4.6912317491e+01    0.2855759    0.1270589  48.78  0.001227555    2.797    0.643
        52 -10.1071    107.0773    119.3190   8.7909269054e+01   3.7175601068e+01    0.2423496    0.2077224 -43.60 0.0003724752    1.126    0.112
        53  -9.2646     86.2617    119.6544   9.4165347587e+01   4.0704229902e+01    0.1473847    0.1158256  89.32 0.0002270416    1.601    0.375
        54 -10.7460    135.0000    112.5506   7.8394323174e+01   3.3101948956e+01    0.5122234   0.08891159 -44.39  0.001129906    5.674    0.824
        55 -10.3029     39.8843    113.1514   1.0732702563e+02   4.8292318702e+01    0.1999398    0.1716458 -89.95 0.0005382244    1.229    0.186
        56 -12.1733     18.1220    111.5643   1.1392116188e+02   5.0501324887e+01    0.3885607    0.2763117  79.35  0.002263115    1.560    0.359
        57  -9.9798    234.0275    113.0000   5.7814604712e+01   1.1347855624e+01    0.2136008   0.08164421  51.83  0.000802425    2.942    0.660
        58 -10.1258    205.4884    110.1758   6.2008758156e+01   1.7810910397e+01    0.3146754    0.2142513  40.16 0.0009526549    1.595    0.373
        59  -9.1541    114.5005    109.9968   8.3368793675e+01   3.7904041321e+01    0.2311994    0.1295441 -26.53 0.0008106514    2.586    0.613
        60 -10.6983    138.6278    170.1724   9.0765350721e+01   1.9493534834e+01    0.4753123     0.296572  55.82  0.002049476    1.901    0.474
        61  -9.5341    168.0119    113.0059   7.0411449505e+01   2.5673833948e+01    0.2587579    0.1997317 -79.84   0.00114001    1.806    0.446
        62  -9.8689     51.3367    104.3157   1.0183672120e+02   4.9223500152e+01    0.1468368   0.09515448 -31.75 0.0004436141    1.696    0.410
        63 -10.9867     41.4335    103.1803   1.0490620863e+02   5.0554739052e+01     0.537455    0.1945666  47.61  0.001798642    4.480    0.777
        64 -11.8404    241.4437    100.1346   5.3728747931e+01   1.2007490048e+01    0.3539807    0.1689329 -43.98 0.0008464176    1.898    0.473
        65  -9.6849     33.0051     96.9787   1.0651494482e+02   5.2827541484e+01    0.2018302     0.152226  76.00 0.0007042658    1.679    0.404
        66 -10.7496     12.3803     93.2808   1.1291878793e+02   5.5219645100e+01    0.2097715    0.1869428  78.37 0.0006198102    1.295    0.228
        67 -10.5073     53.0609     91.2537   9.8217009619e+01   5.2114043709e+01     0.273715    0.1911521 -59.83 0.0007963602    1.368    0.269
        68 -10.1023     41.6330     91.8690   1.0240667919e+02   5.3221209595e+01    0.2068379    0.1720418 -22.09 0.0003911521    1.241    0.194
        69  -9.6519    159.4971     81.9464   6.3723068427e+01   3.3671359805e+01    0.2330794    0.1513813 -36.13 0.0004674675    1.539    0.350
        70  -8.9921    110.3862     80.1898   7.5932430998e+01   4.5135279268e+01    0.2119147    0.1398278 -51.77 0.0005388804    1.693    0.409
        71 -10.5232    243.6113     76.8261   4.8102868292e+01   1.5243503258e+01    0.2006433    0.1047659 -44.96 0.0006110856    1.691    0.409
        72 -10.1951     50.7262     63.6048   9.1306387129e+01   5.8475631732e+01    0.3005041    0.2029399  48.49  0.001432588    2.052    0.513
        73 -10.6909     13.5088     59.9620   1.0563393547e+02   6.2658985060e+01    0.2409449    0.1766963 -50.76 0.0004311627    1.103    0.093
        74 -10.2507    171.4893    239.5216   9.5363166705e+01   8.1115175661e-01    0.3100422    0.2089866 -64.38  0.001656892    2.479    0.597
        75 -12.3369    195.0658     43.5578   4.6393134026e+01   3.1030265920e+01    0.6557556    0.4951071  61.14  0.001269589    1.300    0.231
        76  -9.9372     66.0474    194.4810   1.1199167207e+02   2.5704500772e+01    0.2712751    0.2367693  14.10 0.0009614995    1.473    0.321
        77 -10.8823    138.4698     44.3337   5.6702878225e+01   4.4873452288e+01    0.2917994    0.2518052 -88.21  0.000216405    1.350    0.259
        78 -10.1209    142.1991     39.7404   5.4379983959e+01   4.4590829479e+01    0.2309546    0.2161835  66.16  0.000510517    1.076    0.071
        79  -9.5733    189.6949     14.9917   3.9505742776e+01   3.5737204616e+01    0.1795214    0.1647339 -62.36 0.0005972809    1.111    0.100
        80  -9.7119    152.3443    197.3763   9.2619990978e+01   1.1353698415e+01    0.2890478     0.179547 -55.65  0.001364888    1.907    0.476
        81 -10.3713    208.5118    196.9490   8.0677973460e+01   1.5968506564e+00    0.2003227    0.1268092 -35.27 0.0007219412    1.583    0.368
        82  -9.5057     72.0706    188.2385   1.0985238957e+02   2.6303808965e+01    0.1811968    0.1554316  71.33 0.0004072968    1.059    0.055
