#   1 NUMBER                 Running object number                                     
#   2 MAG_AUTO               Kron-like elliptical aperture magnitude                    [mag]
#   3 X_IMAGE                Object position along x                                    [pixel]
#   4 Y_IMAGE                Object position along y                                    [pixel]
#   5 X_WORLD                Barycenter position along world x axis                     [deg]
#   6 Y_WORLD                Barycenter position along world y axis                     [deg]
#   7 A_WORLD                Profile RMS along major axis (world units)                 [deg]
#   8 B_WORLD                Profile RMS along minor axis (world units)                 [deg]
#   9 THETA_WORLD            Position angle (CCW/world-x)                               [deg]
#  10 FWHM_WORLD             FWHM assuming a gaussian core                              [deg]
#  11 ELONGATION             A_IMAGE/B_IMAGE                                           
#  12 ELLIPTICITY            1 - B_IMAGE/A_IMAGE                                       
         1 -13.2072    162.6241     90.1264   7.4094925686e+01   3.1162537038e+01     3.121374     1.884979 -37.69   0.01297741    1.626    0.385
         2 -12.5823    171.1093     60.2681   6.3263749043e+01   3.4345326471e+01     2.598499     1.492008 -70.17  0.008753672    3.248    0.692
         3 -12.3551     81.7815     45.2957   8.1320651540e+01   5.7013225913e+01     1.420104    0.9120271   7.08  0.003535705    2.093    0.522
         4 -11.4728     18.1932     35.0020   1.0276414360e+02   6.6894813452e+01      1.37965     0.781639 -67.73  0.007230623    2.415    0.586
         5 -10.5080      8.9225     25.4183   1.0371377843e+02   6.9340129717e+01    0.5611355    0.3908361 -13.14  0.003904793    1.425    0.298
         6 -10.4615      3.0781     18.1473   1.0392711314e+02   7.1017758957e+01    0.5433423    0.2484926 -46.25  0.001867924    1.553    0.356
         7 -10.9563    218.2248     32.2700   4.7798946980e+01   2.6297735844e+01     1.544669    0.4652439 -53.78  0.003897502    6.124    0.837
         8 -11.1651     67.9413     30.0096   7.9990612007e+01   6.1860915333e+01    0.8648464    0.5304073 -46.54  0.004398372    1.936    0.484
         9 -10.0406     63.5647     22.6976   7.8396404094e+01   6.3661030781e+01     0.614145    0.3585671 -16.03  0.003128343    1.788    0.441
        10 -10.5564     76.0065     19.3375   7.2381459932e+01   6.1996856001e+01    0.6552282    0.3468576 -43.50  0.003045802    2.376    0.579
        11 -10.2940     47.0515     16.0801   8.1942881870e+01   6.7067072948e+01    0.6339839    0.3128284  31.75  0.003306422    2.110    0.526
        12  -9.6879     53.2360     11.0912   7.6922931555e+01   6.6857615968e+01    0.4260027    0.2249093 -42.54  0.002085222    2.341    0.573
        13 -10.8231     44.9368      7.2056   7.8423168633e+01   6.8569714726e+01    0.7215883     0.564705  23.79  0.004781962    1.305    0.234
        14 -10.4951    128.7014     15.3448   5.6431008723e+01   5.1093477538e+01    0.2979534    0.2592857 -79.17 0.0007742291    1.379    0.275
        15 -11.9420    130.1924     11.1132   5.4519789273e+01   5.1155554212e+01    0.4990222    0.3639401   7.56 0.0006909989    1.497    0.332
        16  -9.2166     81.0206     12.9026   6.7769259352e+01   6.1847660716e+01    0.3983538    0.2313828 -38.37  0.001703804    1.965    0.491
        17  -9.9141    142.1728     12.4212   5.2732834573e+01   4.8056228125e+01    0.2673715    0.2492083  20.02 0.0005637369    1.087    0.080
        18  -9.0410     91.4901      7.5821   6.2200614785e+01   6.0317787224e+01     0.372497    0.2641049  37.01    0.0019686    1.254    0.203
        19  -9.3878     15.5541      6.8850   9.2456113942e+01   7.1989640865e+01    0.2914698    0.1868411 -38.14  0.001952735    1.329    0.248
        20  -9.4586    143.5350      2.9700   4.9127614889e+01   4.8578708779e+01     0.302916    0.2275101  -2.58   0.00130032    1.484    0.326
        21  -8.7865     86.4954      3.1297   6.1566719577e+01   6.1776315610e+01    0.3399554    0.1738237 -44.91  0.001496293    2.925    0.658
        22  -8.3458    186.0441      2.5608   4.3245727690e+01   3.7728926783e+01    0.2044582    0.1024035 -77.72 0.0008072751    2.606    0.616
        23  -7.5805    170.3407      2.3111   4.5047680565e+01   4.1788430214e+01    0.1470578   0.09203737  41.09 0.0007045572    1.695    0.410
        24  -8.7766    110.4859     76.4981   8.3258764622e+01   4.5672443112e+01    0.1511125    0.1421072 -24.59 8.455237e-05    1.002    0.002
        25  -7.2892    214.6984    250.6985   9.7207993852e+01  -6.2689479151e+00    0.1151842   0.07171064  16.52 0.0002199998    1.587    0.370
        26  -9.7534    132.8640    249.0936   1.1130117401e+02   6.6781105967e+00    0.4266354      0.18975  52.80  0.002202487    2.058    0.514
        27 -11.2860    112.4093    243.4301   1.1430994205e+02   1.0667019033e+01    0.7163715    0.5134972 -54.26   0.00394673    1.774    0.436
        28 -10.6755     78.5323    249.5788   1.2069693695e+02   1.4504228261e+01    0.6962818    0.1925656  45.60  0.003320946    2.618    0.618
        29 -10.5210     44.5713    247.8443   1.2611899213e+02   1.9077111495e+01    0.4563189     0.239372  34.63  0.002835293    2.304    0.566
        30 -11.6468    101.5372     69.4780   8.3627367957e+01   4.8856252691e+01     0.920473    0.4878649 -29.02  0.003427521    2.209    0.547
        31 -11.2166    143.6425     80.3497   7.5623576425e+01   3.7591021199e+01    0.5091359    0.3687177 -55.24  0.001769585    1.553    0.356
        32  -9.4018    110.0346     70.2343   8.1361299305e+01   4.7011760728e+01    0.2812565    0.1890292 -24.41  0.001008098    1.639    0.390
        33 -11.0549    125.3957     67.4780   7.6167101623e+01   4.4234670054e+01    0.5951138      0.41481  68.47  0.001809697    1.909    0.476
        34 -10.7695     93.5161     68.0364   8.5620378014e+01   5.0655448367e+01    0.4089758    0.2342052 -43.71  0.001833069    1.637    0.389
        35  -8.4984    206.8387     82.5317   6.3176229611e+01   2.1663928101e+01    0.2384595     0.220556  89.25 0.0004652167    1.162    0.140
        36  -8.6178      6.2053     65.9867   1.1580032632e+02   6.1239726455e+01    0.3731843          nan -52.01 0.0009619939    7.245    0.862
        37 -10.6824    133.1954     82.3799   7.8884996859e+01   3.9606119623e+01     0.516118    0.3371823   3.81  0.001764159    2.663    0.624
        38 -10.0177    134.9998     67.6237   7.3721253673e+01   4.2006820516e+01    0.3042577    0.2276976 -33.97 0.0005258488    1.314    0.239
        39 -12.2788     67.4438     60.2111   9.1703248297e+01   5.6518573681e+01     1.010975    0.6966245   6.72  0.005168671    1.826    0.452
        40  -7.5616    147.4828    231.3678   1.0653172267e+02   7.0415960592e+00    0.1234588   0.09733814  43.80 4.500874e-05    1.042    0.040
        41  -9.8108    136.4053     60.8598   7.1119150288e+01   4.2875386724e+01    0.3623959    0.2591133 -60.48  0.001612508    1.784    0.439
        42 -10.5365     95.2753     52.9306   7.9795203966e+01   5.3187126235e+01    0.3862815    0.3171799 -63.73  0.001217706    1.595    0.373
        43 -10.9497    128.5025     48.2625   6.8715223916e+01   4.6825311812e+01    0.4561615    0.3964006  69.27    0.0014221    1.307    0.235
        44  -8.6223     58.3197     49.3261   9.1258807011e+01   5.9935183047e+01    0.1390508   0.09150352 -17.71 0.0007046581    1.680    0.405
        45 -11.5691     89.5235    229.1950   1.1700325958e+02   1.6432028056e+01    0.6517399    0.2658279  49.18  0.003326011    1.990    0.498
        46 -10.5677     11.9065    207.1265   1.2919091332e+02   2.9952483214e+01    0.4612076    0.2750511  45.56  0.003252417    1.610    0.379
        47  -9.5564      1.9571     22.4584   1.0606920189e+02   7.0297892301e+01    0.2995704    0.2016487  -4.41  0.001394467    1.600    0.375
        48  -9.8004      7.4859    208.0000   1.2999625401e+02   3.0200082966e+01    0.2563289    0.1507977  42.86  0.001810226    1.709    0.415
        49 -10.9934    133.1318     78.0803   7.7563544715e+01   4.0467078851e+01    0.4094049    0.3202085  34.35  0.001710408    1.346    0.257
        50 -10.3943    138.8436     40.2294   6.3390206078e+01   4.5540124100e+01    0.5840297    0.5267756 -85.66  0.001807827    1.279    0.218
        51  -9.4512     13.2297    198.4832   1.2846271828e+02   3.1515905516e+01     0.205127    0.1465184  84.02 0.0005927389    1.060    0.056
        52 -10.0706    101.2782     37.7072   7.2151205652e+01   5.4495351503e+01    0.5411304    0.1766179  42.77  0.001869406    3.110    0.678
        53  -7.7719    189.6876     36.8224   5.2882196109e+01   3.2962852727e+01    0.2046861    0.1236257 -38.57  0.000461817    1.625    0.384
        54 -10.3718    249.3919    187.3885   8.0321560706e+01  -3.9495869683e+00    0.4402417    0.2532119 -22.68  0.002350681    1.668    0.401
        55  -8.2968      1.4017    190.1620   1.3011826652e+02   3.4233397297e+01    0.1503896   0.07403992  84.89 0.0003428404    1.601    0.375
        56  -8.6450    139.9369     29.0159   5.9143288642e+01   4.6765440741e+01    0.2089877    0.1953933  30.22            0    1.020    0.020
        57 -10.0138     55.3334     25.7763   8.2991534982e+01   6.4450576136e+01    0.4353123    0.2677804  -4.95  0.002247251    1.912    0.477
        58  -9.4082      8.9797    178.5108   1.2800387778e+02   3.5965953487e+01    0.1507915   0.09927803  43.55  0.001040626    1.615    0.381
        59  -7.9275     84.8972     21.1630   7.0266891572e+01   6.0094290480e+01     0.182142    0.1712554 -16.80 0.0004588563    1.231    0.188
        60 -11.3889     74.6942    149.5855   1.1033420682e+02   3.5068736147e+01     0.807192    0.5518918  86.97  0.004215187    1.579    0.367
        61 -10.6394     74.3751    142.8679   1.0932958045e+02   3.6681053372e+01    0.4034312    0.3742558 -59.19  0.002499651    1.178    0.151
        62 -11.1259     72.1281    161.8740   1.1276938404e+02   3.2608001589e+01    0.8988944    0.6751391  74.57    0.0052291    1.277    0.217
        63  -8.0837    236.2309    145.7258   7.3796832499e+01   4.5242678380e+00    0.1944812    0.1503953   8.52 0.0007100648    1.330    0.248
        64  -7.4303    234.4224    132.5150   7.1073019810e+01   7.0143778470e+00    0.1445096    0.1276277 -12.44 0.0001339718    1.024    0.023
        65  -8.3416    189.9095     15.4633   4.6547874162e+01   3.5452047765e+01     0.203761    0.1871339 -40.31 0.0006118833    1.137    0.121
        66  -7.6681    250.2511    117.3501   6.4932433505e+01   6.2524854976e+00    0.1412486     0.101252  -3.75  0.000324469    1.591    0.371
        67  -8.9314    203.6021    111.5350   7.1484788039e+01   1.7345489753e+01    0.3481256    0.2506145  22.28 0.0006813136    1.689    0.408
        68  -8.0804    244.9687    107.5331   6.3403467269e+01   8.8805578249e+00    0.2036497    0.1116178  29.75 0.0008097524    2.609    0.617
        69  -9.3555    206.8276    247.7300   9.8127308219e+01  -4.7379769206e+00    0.2488363    0.1603688 -22.69 0.0009265181    1.852    0.460
        70 -11.8526    182.8085     76.4439   6.5851792324e+01   2.8666586492e+01     1.121955    0.6722294  78.16  0.003133287    2.537    0.606
        71  -8.2693    187.7651    232.9781   9.9339893190e+01   1.4782900982e-01    0.1376193    0.1024312 -34.59 0.0002748463    1.608    0.378
        72 -10.3184    122.6243     82.7900   8.1821351658e+01   4.1854819001e+01    0.3669679    0.2540019  65.37  0.000576271    1.887    0.470
        73  -9.5228    240.6789     78.5070   5.6881675739e+01   1.4374658533e+01    0.2701401    0.1215977 -32.70  0.001087637    2.015    0.504
