#   1 NUMBER                 Running object number                                     
#   2 MAG_AUTO               Kron-like elliptical aperture magnitude                    [mag]
#   3 X_IMAGE                Object position along x                                    [pixel]
#   4 Y_IMAGE                Object position along y                                    [pixel]
#   5 X_WORLD                Barycenter position along world x axis                     [deg]
#   6 Y_WORLD                Barycenter position along world y axis                     [deg]
#   7 A_WORLD                Profile RMS along major axis (world units)                 [deg]
#   8 B_WORLD                Profile RMS along minor axis (world units)                 [deg]
#   9 THETA_WORLD            Position angle (CCW/world-x)                               [deg]
#  10 FWHM_WORLD             FWHM assuming a gaussian core                              [deg]
#  11 ELONGATION             A_IMAGE/B_IMAGE                                           
#  12 ELLIPTICITY            1 - B_IMAGE/A_IMAGE                                       
         1 -14.4463    156.4769     55.6726   8.1129848594e+01   3.9020991858e+01       1.3572     1.194199  44.89  0.001047031    1.130    0.115
         2 -14.7366    169.0297     40.3814   7.4376577959e+01   3.8114677778e+01     1.188486     1.066517  13.79   0.00435193    1.325    0.245
         3 -14.7745    186.7304      8.1724   6.3223405804e+01   3.7502869478e+01     1.704659    0.8142244  62.26  0.006443923    1.775    0.437
         4 -11.7693    157.3730    199.7205   1.1598257838e+02   9.5195066794e+00    0.3241386    0.2487857  63.11 0.0008298572    1.392    0.282
         5 -19.9203     65.0408    170.0165   1.3209816923e+02   3.2244378408e+01     18.92433     6.333272 -65.86   0.07042755    2.853    0.649
         6 -11.8182    153.8139    195.2545   1.1594842562e+02   1.1122708773e+01    0.3998584    0.2680095 -67.31  0.001858358    1.845    0.458
         7 -10.1541    139.1382    200.2771   1.2002126498e+02   1.2898830425e+01    0.1984084    0.1587875  75.65  0.001044275    1.344    0.256
         8 -10.0877    121.7690    198.7691   1.2357043391e+02   1.6440028548e+01    0.1825963    0.1472408 -89.37 0.0004450517    1.286    0.223
         9 -10.5196    112.4080    196.5840   1.2528670724e+02   1.8592170029e+01    0.4099905    0.2805644  11.08  0.001747697    2.795    0.642
        10 -13.5285    165.3003    188.7176   1.1223580003e+02   1.0196448017e+01    0.6466371    0.4292293  44.13  0.003077605    1.431    0.301
        11 -13.8980    174.1051    187.9769   1.1019795952e+02   8.5832160925e+00    0.7734841    0.5684038 -22.83  0.003734798    1.696    0.410
        12 -10.5131    103.5509    194.4751   1.2692307930e+02   2.0597458398e+01     0.368722    0.2312573  25.03  0.001592465    2.324    0.570
        13 -12.4414    180.6272    193.4012   1.0986847282e+02   6.2160183809e+00    0.3018194    0.2770975  74.71    0.0013119    1.212    0.175
        14 -11.5633    153.9068    186.4682   1.1430215146e+02   1.2940580457e+01    0.2809644    0.2115822 -72.15 0.0009596758    1.575    0.365
        15  -9.8766     16.4626    250.5132   1.4910331120e+02   2.1016403351e+01    0.1073705   0.07658359  77.13 0.0008084148    1.068    0.064
        16 -10.4633     27.6945    184.1892   1.4210149447e+02   3.3467277229e+01    0.1779633    0.1596644  53.49 0.0005637714    1.360    0.264
        17 -12.6773    206.2401    178.0284   1.0152762846e+02   4.0827134123e+00    0.5195546    0.4351932 -19.73  0.002811543    1.231    0.188
        18 -12.1639    202.3854    170.2100   1.0065527637e+02   6.3529938444e+00    0.7674326    0.2607971 -49.42  0.002401671    3.576    0.720
        19 -11.6116    205.0264    168.2207   9.9699525492e+01   6.1990124228e+00     1.148832    0.3921058 -49.72  0.003565784    3.658    0.727
        20 -11.1296    150.7498    180.9801   1.1395678812e+02   1.4745269507e+01    0.2074938    0.1918186 -62.47 0.0004866673    1.113    0.101
        21 -10.4049    219.1786    224.1843   1.0790984809e+02  -6.1897428991e+00    0.1579971    0.1508902  47.29 0.0002340817    1.312    0.238
        22 -11.0004    199.1906    178.9234   1.0313236274e+02   5.3178494374e+00    0.2178669    0.2010528 -84.44 0.0005671871    1.274    0.215
        23 -10.3716    136.8976    179.4835   1.1681380434e+02   1.7824459470e+01    0.2163993    0.1424723  43.01 0.0003170197    1.482    0.325
        24 -12.4884    126.5948    172.8329   1.1794971151e+02   2.1325931400e+01     0.558986    0.3492199  60.99  0.001719949    1.817    0.450
        25 -12.9398    143.9821    173.2953   1.1399322366e+02   1.7791760484e+01    0.5649645    0.4158469 -19.08  0.001740949    1.982    0.496
        26 -13.7420    134.5935    169.5133   1.1542863653e+02   2.0520365032e+01    0.9244953     0.543107  63.39  0.003022164    2.195    0.544
        27 -12.0785    202.3012    224.0283   1.1110917335e+02  -3.2707267981e+00    0.1842787    0.1686085   7.05 0.0007533582    1.077    0.071
        28 -13.0477    195.1906    168.5950   1.0177756628e+02   8.1506442904e+00    0.5278587    0.4176933 -46.81 0.0008437172    1.288    0.224
        29 -11.9233    192.5125    163.9476   1.0132924051e+02   9.6402423288e+00     0.395767    0.3432882  20.19  0.001493718    1.235    0.190
        30 -10.3637     15.8120    217.9601   1.4716777897e+02   2.7444955799e+01    0.3707088    0.1928077 -78.95  0.002269269    1.565    0.361
        31 -12.3041    170.2865    183.1269   1.1006597008e+02   1.0338505002e+01    0.4356962     0.271786  45.43  0.001161785    1.542    0.352
        32 -11.7417    230.3649    167.0815   9.4596898935e+01   1.3922312076e+00    0.2886684    0.1712909 -50.89  0.001304451    1.909    0.476
        33 -11.0889     22.7090    166.5145   1.4136194354e+02   3.7975754272e+01    0.2458484    0.2002494 -10.55   0.00103627    1.923    0.480
        34 -11.5683    122.6784    165.7156   1.1751373572e+02   2.3717859732e+01    0.2835646    0.2330162  75.44 0.0002574099    1.274    0.215
        35 -10.6587    188.4764    158.5282   1.0098479004e+02   1.1600674742e+01    0.2723113    0.2103134   5.89 0.0009386537    1.699    0.411
        36 -10.9620     20.4461    218.3422   1.4637507289e+02   2.6875974773e+01    0.2151021    0.1458744  76.53  0.001281492    1.123    0.109
        37 -14.6436    133.8699    145.5512   1.1056753285e+02   2.6171324289e+01     1.759377    0.5310483 -52.46  0.005122797    3.545    0.718
        38 -12.1615    134.6113    109.1104   1.0147099441e+02   3.4209889403e+01     1.107288     0.147858 -44.87  0.002205605    7.374    0.864
        39 -13.6630    135.5630    127.8514   1.0600659916e+02   2.9864756355e+01     1.409788    0.3227817 -50.87  0.003371325    5.125    0.805
        40 -12.0177    120.7236    156.9277   1.1623846359e+02   2.6143735336e+01    0.2930409    0.2220343  53.97 0.0006264822    1.329    0.247
        41 -10.6820    189.0215    154.4864   9.9968985130e+01   1.2313472806e+01    0.2334049    0.1500903  46.33 0.0007155025    1.566    0.361
        42 -12.3345     15.7090    149.4818   1.4107473095e+02   4.2505912144e+01    0.4580386    0.2012396 -54.93  0.001589653    2.043    0.511
        43 -11.8423     13.3456    143.4546   1.4093728609e+02   4.4078154088e+01     0.221256    0.1554759 -67.94 0.0006907365    1.142    0.125
        44 -11.4648    174.2753    148.6668   1.0182548137e+02   1.6762731557e+01    0.3713648    0.2835702 -72.67  0.001315393    1.608    0.378
        45 -13.2172    144.4166    145.9420   1.0808985505e+02   2.3872000278e+01    0.6033524    0.4554816 -87.81  0.002703501    1.697    0.411
        46 -13.1757    142.5482    139.4625   1.0705213457e+02   2.5741237882e+01    0.5170628    0.4172517 -76.64  0.002193836    1.403    0.287
        47 -13.0412      6.6801    139.3079   1.4206225800e+02   4.5527720796e+01    0.4599598    0.3820321  89.14  0.001799524    1.147    0.128
        48 -10.6342    130.6889    213.4373   1.2394451249e+02   1.1746369378e+01    0.2208989    0.1548122 -75.72 0.0006867084    1.670    0.401
        49 -11.7834    152.6676    139.3156   1.0459002770e+02   2.3579512824e+01    0.3416489    0.2584209 -88.33  0.001310385    1.724    0.420
        50 -13.2757      3.1152    126.0576   1.4137761724e+02   4.8755621049e+01    0.9648245    0.2463718 -72.73  0.003712492    3.351    0.702
        51 -12.8182      4.0059    112.3519   1.3933843284e+02   5.1752281394e+01    0.4605646    0.3039834 -12.48  0.002898387    2.100    0.524
        52 -10.2815    112.1187    214.5393   1.2800187527e+02   1.4795962610e+01    0.1277105   0.08191592 -75.74 0.0006197279    1.760    0.432
        53 -11.9971    160.6144    128.0100   1.0000248426e+02   2.4291758741e+01    0.4124109    0.3252667 -66.71  0.001555146    1.407    0.289
        54 -12.2017    207.4453    212.6658   1.0807284021e+02  -2.3173916421e+00    0.2790036    0.1604833  37.35  0.001366448    1.618    0.382
        55 -10.9950    167.9111    112.8841   9.4524722814e+01   2.5811861900e+01    0.4258441    0.2742257 -82.12  0.001530663    2.729    0.634
        56 -13.2119    117.6258    109.4643   1.0601429010e+02   3.7701463807e+01    0.4875073    0.3509976  37.06  0.002076747    1.475    0.322
        57 -10.8337    133.5815    249.1718   1.2833050059e+02   4.5255207729e+00    0.2568325    0.1211304 -51.23    0.0012523    2.528    0.604
        58 -12.3707    106.3816    205.3464   1.2791207072e+02   1.7725440185e+01    0.5862353    0.3331036 -62.61  0.001025763    1.812    0.448
        59 -10.9257    205.4603    110.1586   8.6195032917e+01   1.7505245177e+01    0.3266806    0.2206303  44.78 0.0009019856    1.598    0.374
        60  99.0000     16.5736    233.4491   1.4806292441e+02   2.4257950722e+01    0.1096142   0.08079253  81.94 0.0001539372    1.086    0.079
        61 -10.5606    146.8925     80.5090   9.0486841332e+01   3.7147911258e+01    0.2317354    0.1470447  51.47 0.0009045884    1.547    0.354
        62 -11.3737     96.9039     80.2408   1.0368617775e+02   4.7782982389e+01    0.4901626    0.2088109  48.89    0.0016686    2.726    0.633
        63 -11.9733    125.0008    247.2677   1.2972491426e+02   6.2982918096e+00    0.2711186     0.161666 -59.05   0.00129711    1.941    0.485
        64 -11.4989     30.7399    204.9342   1.4340718407e+02   2.8568810120e+01    0.1782744    0.1638141  50.07 0.0005285908    1.455    0.313
        65 -12.8892    172.8055     33.1666   7.1741574741e+01   3.8111593262e+01    0.3794893    0.3420145  23.66 0.0009024056    1.310    0.237
        66 -10.8220     13.4309     59.7113   1.2614828871e+02   6.2176601056e+01    0.1825631    0.1557295 -38.05 0.0004362631    1.126    0.112
        67 -12.7759    162.5484    201.3775   1.1517369165e+02   8.1862515766e+00    0.6319354    0.3839352 -73.73   0.00204801    2.833    0.647
        68 -10.5906    134.4436     30.0098   7.7827309445e+01   4.7719258110e+01    0.2488627    0.1786963  74.93 0.0005995685    1.554    0.357
