#   1 NUMBER                 Running object number                                     
#   2 MAG_AUTO               Kron-like elliptical aperture magnitude                    [mag]
#   3 X_IMAGE                Object position along x                                    [pixel]
#   4 Y_IMAGE                Object position along y                                    [pixel]
#   5 X_WORLD                Barycenter position along world x axis                     [deg]
#   6 Y_WORLD                Barycenter position along world y axis                     [deg]
#   7 A_WORLD                Profile RMS along major axis (world units)                 [deg]
#   8 B_WORLD                Profile RMS along minor axis (world units)                 [deg]
#   9 THETA_WORLD            Position angle (CCW/world-x)                               [deg]
#  10 FWHM_WORLD             FWHM assuming a gaussian core                              [deg]
#  11 ELONGATION             A_IMAGE/B_IMAGE                                           
#  12 ELLIPTICITY            1 - B_IMAGE/A_IMAGE                                       
         1 -11.4669     69.8167     20.0324   9.3351660735e+01   6.3748348426e+01    0.4938174     0.129877 -37.37  0.001757049    3.748    0.733
         2 -11.6008     34.0398     17.8424   1.0741531104e+02   6.9291328977e+01    0.2892818    0.1951455 -32.17  0.001307502    1.254    0.202
         3 -11.4394     57.7015     19.0484   9.7537440294e+01   6.5892867466e+01    0.4119694    0.2200879 -22.49  0.001854294    1.907    0.476
         4 -11.8175     25.2273     14.6282   1.1026392243e+02   7.0748023174e+01    0.4895643    0.3022465 -48.73  0.002691431    1.780    0.438
         5 -11.7542     41.8651     14.1805   1.0198659934e+02   6.8866175647e+01    0.3941258    0.2011188 -36.08   0.00168249    1.778    0.438
         6 -10.9985    112.0026     14.6944   7.8428234314e+01   5.5688535562e+01    0.2284754    0.1913707 -29.58 0.0002881561    1.290    0.225
         7 -10.9727     51.5255     14.5135   9.7903578396e+01   6.7458820865e+01    0.2265593     0.107334 -32.96 0.0005331966    1.949    0.487
         8 -11.2084     12.9876     14.0715   1.1645767006e+02   7.1942028365e+01     0.264271    0.1512848 -35.00 0.0007161529    1.362    0.266
         9 -11.7911     16.2723      7.8416   1.1173160109e+02   7.2656922702e+01    0.3167312    0.1886211   4.26  0.001755735    1.779    0.438
        10 -11.5251     78.0407     12.2908   8.6897339586e+01   6.3189070603e+01    0.3343657    0.2120475 -18.68  0.001023223    1.558    0.358
        11 -10.6486     74.5270     10.4642   8.7199710375e+01   6.4062848782e+01    0.2977705    0.1599155 -26.17  0.001031363    1.828    0.453
        12 -11.4042    177.4861     12.2145   6.5997161943e+01   3.9426250217e+01    0.4376902    0.2415749 -74.32  0.001856926    2.262    0.558
        13 -12.0515    176.2541      7.3117   6.4676000599e+01   4.0232119160e+01    0.2827729    0.2565853  55.63 0.0003300068    1.140    0.123
        14 -10.8393     32.5366     12.0399   1.0534499128e+02   7.0340267846e+01    0.2655175    0.1509263  30.25  0.001582081    1.844    0.458
        15 -11.5302     48.0163      9.0000   9.6631801942e+01   6.8703126891e+01    0.3270361    0.2092434   6.43  0.001621506    1.624    0.384
        16 -11.1688     87.4044      7.4107   8.1740772784e+01   6.1837115958e+01    0.3111636    0.1251264 -17.47  0.001278767    2.849    0.649
        17  -9.6491    170.2703      8.6876   6.5858103763e+01   4.1656748561e+01    0.1399974   0.09711123 -63.20  0.000189478    1.550    0.355
        18 -11.8539    107.7276      7.4392   7.6451331348e+01   5.7392785460e+01    0.2803593    0.2231273  55.12 0.0005676507    1.181    0.153
        19 -11.7174     24.6916      6.6523   1.0658612376e+02   7.2000961756e+01    0.2762267    0.1573185 -39.82 0.0007708098    1.637    0.389
        20 -11.2682    209.1606      6.1072   6.0808509135e+01   3.1921760418e+01    0.1958098    0.1379367 -64.19 0.0005538054    1.333    0.250
        21  -9.9716     61.4944      6.4718   8.9872625757e+01   6.6853098985e+01    0.1263132    0.1006696   9.92 0.0002070507    1.059    0.056
        22 -11.4323    217.6028      3.3593   5.9356802692e+01   3.0108759962e+01    0.2447157    0.2231367  40.00 0.0007909143    1.363    0.266
        23 -10.8768    134.1740      3.9941   6.9739987669e+01   5.1341169165e+01    0.2307115    0.1766631  61.18 0.0003834139    1.162    0.139
        24 -11.3222     75.6317      3.2044   8.3322310327e+01   6.4608029504e+01    0.3701651    0.2631701  83.27  0.001434928    2.504    0.601
        25 -11.0844     69.1107      3.8236   8.5788360460e+01   6.5779963605e+01     0.175258    0.1222301  22.40 0.0004000327    1.302    0.232
        26 -10.7863     30.9848      3.8291   1.0184378887e+02   7.1668257645e+01    0.2005899    0.1380625 -24.66 0.0005208096    1.232    0.188
        27 -10.0553      1.7413      4.4525   1.1847223861e+02   7.4315695458e+01    0.1352134    0.0835861 -10.07  0.000651418    1.540    0.351
        28 -10.2069    233.2410      2.9696   5.8014027653e+01   2.6388968775e+01    0.1596831    0.1006102 -34.71 0.0004677064    1.563    0.360
        29 -10.5097    195.0123      3.4873   6.1480375377e+01   3.5758494614e+01    0.2042748    0.1207828  75.39 0.0004469503    1.522    0.343
        30 -10.7417    118.3303      2.9216   7.2300622663e+01   5.5306947182e+01    0.2051223    0.1738648  72.53 0.0003478486    1.217    0.178
        31 -11.3008     91.6265      2.6486   7.8389345043e+01   6.1396499484e+01    0.2128444    0.1896128  36.94 0.0002780767    1.087    0.080
        32 -10.8490    179.8916      1.8437   6.2622981783e+01   3.9798425988e+01    0.2156125    0.1745883  50.33 0.0004443668    1.284    0.221
        33 -11.2155    160.1581      1.8662   6.5043687122e+01   4.4902679416e+01    0.4348426    0.1438925  62.02   0.00167425    2.418    0.586
        34 -10.6939     37.1163      2.7172   9.8235218640e+01   7.1026265901e+01    0.2938341    0.1412816  37.75  0.001384324    2.131    0.531
        35 -10.6254    138.3189      1.4035   6.8103293318e+01   5.0519755909e+01    0.2392879    0.1116887  62.31 0.0004662758    1.815    0.449
        36 -10.3313     52.9771      1.3773   9.0529843209e+01   6.8831374889e+01    0.2639949    0.1052387  46.17  0.001151888    2.493    0.599
        37 -11.4548    156.2139    233.3447   1.2318042719e+02   5.7187757747e+00    0.2083894    0.1712956  50.64 0.0002553785    1.107    0.097
        38  -9.6130    182.6770    250.3026   1.2061018959e+02  -9.6694356100e-01    0.1119849   0.08102722  57.82 0.0003213795    1.634    0.388
        39 -11.0046    160.7696    249.4610   1.2441222757e+02   2.6262126097e+00    0.2343583    0.2154994  -7.87  0.001756798    1.364    0.267
        40 -10.9964    138.8596    249.2697   1.2833647934e+02   6.1359675223e+00     0.300915    0.2087283  70.73  0.001573351    1.701    0.412
        41 -11.1406    141.5503    247.5059   1.2764856157e+02   5.9718242372e+00    0.2169923    0.1650387  60.90 0.0005387621    1.279    0.218
        42 -11.6091    141.2749    242.8774   1.2715746144e+02   6.7118909344e+00    0.2890451    0.1915613  46.81  0.001160963    1.185    0.156
        43 -11.2251    136.8129    243.2260   1.2801781233e+02   7.3738359516e+00    0.2135759    0.1848699  17.74 0.0004348179    1.442    0.307
        44 -11.3724    128.0443    250.5427   1.3042127464e+02   7.6374101091e+00    0.3762271     0.232292  71.65  0.000447773    2.037    0.509
        45 -12.1767    121.8805    249.1546   1.3138204075e+02   8.8029730889e+00    0.3617874    0.2935238  39.51  0.002575001    1.249    0.199
        46 -11.9272    117.8356    249.3235   1.3212539069e+02   9.3973455877e+00    0.3061931    0.2172507  24.58  0.001907171    1.877    0.467
        47 -13.2585    130.6734    237.3124   1.2846763277e+02   9.2885354815e+00    0.7045028    0.6066729 -23.62  0.002594791    1.666    0.400
        48 -12.9638    108.2982    215.0502   1.3016527569e+02   1.6761907923e+01    0.7451023    0.4815115  37.03  0.002303916    1.549    0.354
        49 -13.0230    124.8987    224.8672   1.2808177649e+02   1.2303134487e+01    0.4587482    0.3633642 -84.50 0.0007567455    1.433    0.302
        50 -12.1381    117.6775    220.0036   1.2890073930e+02   1.4340183906e+01      0.56911    0.3058116 -83.85  0.001591928    3.243    0.692
        51 -12.3250    105.4158    238.2995   1.3326993785e+02   1.3082447245e+01     0.415702    0.3434398  76.02  0.001661461    1.182    0.154
        52 -11.9824    103.8967    208.5810   1.3027590089e+02   1.8692572422e+01    0.3405426    0.2254398 -70.58 0.0006945035    1.640    0.390
        53 -12.0159     98.1887    204.9228   1.3100478698e+02   2.0309995609e+01    0.4856521     0.228883  54.01  0.001629998    1.969    0.492
        54 -11.1946    101.8603    234.1769   1.3351317121e+02   1.4326301392e+01     0.185435    0.1607908  86.08 0.0003434233    1.231    0.188
        55 -11.7464    103.3910    229.5810   1.3275029462e+02   1.4895494590e+01    0.3032276    0.1930843  66.82 0.0008183043    1.521    0.342
        56 -13.0645    113.7481    239.3829   1.3184301203e+02   1.1623573896e+01    0.5336608    0.3111115  49.14  0.003177474    1.344    0.256
        57 -12.4812    118.9180    233.7387   1.3026500542e+02   1.1754429036e+01    0.5302233     0.286356 -74.58  0.001073227    2.633    0.620
        58 -12.7928     89.4190    244.3476   1.3674404217e+02   1.4425207742e+01    0.3884528    0.1630839  44.62 0.0003260315    1.844    0.458
        59 -13.8854    106.7353    224.7182   1.3158413347e+02   1.5241561508e+01    0.7752937     0.384648  64.59   0.00280147    2.445    0.591
        60 -11.6265    114.4498    223.4286   1.2994082343e+02   1.4249842651e+01     0.324871    0.2317297  38.30 0.0007248383    1.368    0.269
        61 -12.7690    106.4607    249.0451   1.3413189384e+02   1.1159437473e+01    0.4387645    0.2889698  59.10  0.002477721    1.252    0.201
        62 -12.0652    109.8702    244.7227   1.3309899772e+02   1.1343083605e+01    0.3625206    0.2345439  61.12  0.001182245    1.360    0.264
        63 -13.6144     95.0582    237.1763   1.3506803934e+02   1.4825633378e+01    0.7968973    0.4567102  63.43   0.00249221    1.619    0.382
        64 -12.6091     84.0514    237.1783   1.3708193455e+02   1.6420627482e+01    0.6077722    0.3602778  63.60  0.003424834    1.462    0.316
        65 -12.1623     95.6542    247.8293   1.3594204764e+02   1.2947566281e+01    0.3010566     0.203986  87.34  0.001228747    1.590    0.371
        66 -10.9225     91.6780    249.6839   1.3680647491e+02   1.3217384441e+01     0.178404    0.1645801 -41.60   0.00135805    1.688    0.407
        67 -10.3893     83.6686    250.7013   1.3829004592e+02   1.4181957688e+01    0.1432922     0.077356  48.11 0.0008773903    1.404    0.288
        68 -11.2042     52.6906    250.6161   1.4355519311e+02   1.8281488465e+01    0.1946053   0.06945247  53.96            0    2.084    0.520
        69 -13.3843     12.7958    177.6136   1.4615123965e+02   3.6763274474e+01     1.072515    0.6329322  45.21   0.00696446    1.646    0.392
        70 -13.4193     48.4638    199.4497   1.4059361722e+02   2.8387352775e+01     1.239107    0.5740774  58.14  0.005238968    1.924    0.480
        71 -12.8609      3.1082    189.8813   1.4879994005e+02   3.5065293760e+01    0.5350539    0.1618186  39.21  0.001849898    2.812    0.644
        72 -13.4735     47.8748    229.9330   1.4303270050e+02   2.2520159503e+01    0.3065001    0.1827206  57.43 0.0009417582    1.280    0.219
        73 -13.6488     43.0272    238.0692   1.4440644219e+02   2.1632641644e+01     1.007251    0.6303017  39.08  0.006423717    1.694    0.410
        74 -14.2810     37.0475    224.8514   1.4462250703e+02   2.4748403576e+01     1.530026    0.6726872  37.07  0.008594307    2.289    0.563
        75 -15.1214     11.7049    216.8297   1.4862600052e+02   2.8965761375e+01    0.9061244    0.5280284 -63.43  0.006090655    2.033    0.508
        76 -13.9862     19.4573    219.2811   1.4740029941e+02   2.7720633182e+01    0.5104709    0.2718267  42.08  0.003346778    1.759    0.432
        77 -14.6718     12.3918    237.9035   1.4948691207e+02   2.5038106173e+01    0.5880817    0.2987024  50.08  0.003624162    1.520    0.342
        78 -14.9352      6.4025    234.2458   1.5029642355e+02   2.6281966145e+01    0.8819301    0.6425998   4.31  0.005090752    3.501    0.714
        79 -15.3506      3.1383    245.4842   1.5124141288e+02   2.4640523289e+01    0.8776434    0.3479702 -81.45  0.005630479    2.205    0.546
        80 -16.1105     17.7424    248.3894   1.4909132992e+02   2.2667753509e+01     1.570329    0.5621226  39.75   0.00923307    2.434    0.589
        81 -15.1103     25.7908    245.1199   1.4766016119e+02   2.2364519864e+01       1.3442          nan  41.83  0.004653322    6.159    0.838
        82 -11.2518    160.9423    232.0023   1.2211070661e+02   5.1323560855e+00    0.2645845    0.1845547  47.85 0.0009234354    1.222    0.181
        83 -11.2664    250.1416    232.5973   1.0632709063e+02  -9.1332476387e+00    0.2171328     0.148242   6.26  0.001460014    1.285    0.222
        84  -9.9037    149.4421    233.5408   1.2448014774e+02   6.8155766871e+00    0.1243736    0.1002165  45.61 5.882128e-05    1.004    0.004
        85 -12.3857    142.5665    231.7713   1.2555267177e+02   8.2360276570e+00    0.3469626    0.1956207  40.45  0.001907616    1.476    0.323
        86 -10.2965    243.8858    231.0855   1.0711511571e+02  -8.0645859879e+00    0.1589548    0.1362403  18.53 0.0002849807    1.250    0.200
        87  -9.8738     58.5555    230.4631   1.4115741636e+02   2.1083744766e+01    0.1188888   0.08230717  66.43 0.0003002614    1.099    0.090
        88 -10.8809    171.8009    226.2392   1.1924854594e+02   4.1667697706e+00    0.2460448    0.1906166  87.09  0.001088314    1.951    0.488
        89  -9.5003    211.6989    227.7320   1.1213152097e+02  -2.7017727105e+00    0.1206565   0.07986993  16.64   0.00018449    1.525    0.344
        90 -10.4741    201.8667    226.9118   1.1377190427e+02  -9.8885123758e-01    0.1929773     0.140006  17.90 0.0006457091    1.331    0.249
        91  -9.7384    225.0130    224.9855   1.0933582374e+02  -4.4779140539e+00    0.1441435    0.1139155  20.88 0.0003618013    1.009    0.009
        92 -11.4574    162.7290    222.2365   1.2039624139e+02   6.3407270204e+00    0.3460643     0.247382  84.55  0.001309411    2.222    0.550
        93 -10.8909    162.6910    217.4541   1.1970038760e+02   7.1119472082e+00    0.2439423    0.1879482  31.33 0.0009976017    1.224    0.183
        94 -10.9424    158.6263    224.7793   1.2154842540e+02   6.6434130503e+00    0.2215994    0.1641933  50.93 0.0003407059    1.212    0.175
        95 -10.0462    250.4576    220.4839   1.0424766989e+02  -7.8214987693e+00    0.1583505   0.09844694 -15.21 1.260381e-05    1.588    0.370
        96 -11.6247    195.1945    206.4759   1.1166351916e+02   3.0813758031e+00     0.479124    0.3017443  10.64  0.002241152    2.215    0.549
        97 -11.8351    199.7048    204.8314   1.1052551635e+02   2.5294562162e+00     0.328642    0.2545791 -60.12 0.0003873876    1.848    0.459
        98 -11.9032    197.7355    219.5914   1.1336519064e+02   7.1412610830e-01    0.4550808    0.3353205  44.43  0.001953701    1.284    0.221
        99 -11.9336    193.5141    214.6510   1.1334998225e+02   2.1529571030e+00    0.4920547    0.3061862 -59.17 0.0004248687    2.645    0.622
       100 -10.0765    149.0374    223.4937   1.2321819897e+02   8.4890375731e+00     0.190241    0.1061099  42.14 0.0003713196    1.485    0.327
       101 -10.2487    180.8764    222.1582   1.1692303381e+02   3.2243112464e+00     0.169561    0.1299922  23.31 0.0003615723    1.267    0.211
       102 -10.6736     53.2835    220.7745   1.4138742399e+02   2.3564661596e+01    0.2166086    0.1394559  83.68  0.001279972    1.361    0.265
       103 -10.3228    221.6666    220.5218   1.0918467212e+02  -3.3796843509e+00    0.1636595    0.1455209 -51.86 0.0006096401    1.641    0.391
       104 -12.5101    128.6570    209.3404   1.2532237581e+02   1.4443298083e+01    0.4688683    0.3260048 -61.18 0.0002213919    1.643    0.391
       105 -11.2656    127.4661    217.4773   1.2664728724e+02   1.3173835621e+01     0.512291    0.2178433  57.85  0.001395896    3.006    0.667
       106 -10.4850    131.3668    221.2273   1.2636242721e+02   1.1861912661e+01    0.2323846    0.1684426 -77.42 0.0008436659    1.692    0.409
       107 -11.3356    132.9972    218.1528   1.2563927401e+02   1.2123005707e+01    0.4059077    0.2244397  57.14  0.001879348    1.830    0.453
       108 -10.0906    169.0868    220.4959   1.1891725103e+02   5.5141408873e+00    0.1828132    0.1074893  41.72 0.0009728977    1.417    0.294
       109  -9.9738    206.2607    218.9660   1.1169576468e+02  -6.3775663802e-01    0.1636447    0.1400853  22.68 0.0003196432    1.054    0.052
       110 -12.3216    176.8888    216.2775   1.1677281812e+02   4.8099819872e+00     0.324775    0.2336247  20.60 0.0005495934    1.504    0.335
       111 -11.4133    140.7221    218.2744   1.2412880021e+02   1.0786396674e+01    0.3515509    0.2153285  47.50   0.00111204    1.371    0.271
       112 -13.4124     74.9856    182.7939   1.3329070605e+02   2.8403946959e+01    0.6901116    0.5093243 -71.50  0.002353823    1.318    0.241
       113 -14.9961      5.3962    201.7177   1.4899048497e+02   3.2489229839e+01     1.150241    0.4326319 -84.89  0.005169338    2.219    0.549
       114 -10.6817    229.4000    216.6234   1.0716687819e+02  -4.1209001867e+00     0.215056    0.1654621  31.05 0.0006845247    1.164    0.141
       115 -10.5131    230.7659    212.0527   1.0613831915e+02  -3.7530938635e+00    0.2737766    0.1993849 -50.05  0.001614765    2.047    0.511
       116 -10.8951    145.9658    215.0029   1.2263362457e+02   1.0442741625e+01    0.2063149    0.1799567 -60.98 0.0004909059    1.344    0.256
       117 -11.6439    217.0186    212.6589   1.0868352667e+02  -1.5757899791e+00     0.255603    0.1891131  21.86 0.0008806621    1.187    0.158
       118 -10.6153    161.2334    212.7123   1.1927162097e+02   8.1455186147e+00    0.2290671    0.1498687  50.57 0.0007794445    1.404    0.288
       119 -12.0981     95.5195    211.6971   1.3233777007e+02   1.9405054305e+01    0.3108191    0.2465703  24.50 0.0006385763    1.695    0.410
       120 -10.5719    173.0877    211.7861   1.1680160155e+02   6.1899922748e+00    0.1795314    0.1516109  48.57 0.0003216826    1.136    0.120
       121 -10.4170    152.0534    210.9839   1.2083418623e+02   1.0064741320e+01     0.336363    0.1869126 -78.98  0.001141067    5.222    0.808
       122 -11.3346    237.8105    209.9715   1.0455138532e+02  -4.6131484540e+00    0.2841463    0.2187759  -8.91 0.0008520861    1.222    0.182
       123 -10.8470    188.2727    207.9055   1.1322806553e+02   4.0942927904e+00    0.3217214    0.1715634 -46.51  0.001577456    2.253    0.556
       124 -11.2045    211.3652    207.8997   1.0888863277e+02   4.4030685013e-02    0.4832431    0.1510634  49.96  0.001569915    4.541    0.780
       125 -11.9055    112.0716    205.2392   1.2817721457e+02   1.8010218076e+01    0.3544006     0.228844  64.92            0    1.569    0.362
       126 -10.8534    116.0572    204.7875   1.2729351568e+02   1.7434618100e+01    0.3692783    0.1452629  49.24  0.001231602    2.282    0.562
       127 -12.1326    183.4486    204.0037   1.1350401816e+02   5.5764471508e+00    0.4819818    0.2404526 -36.63  0.001474326    2.368    0.578
       128 -11.6383    192.8368    195.4535   1.1018320259e+02   5.2308186079e+00    0.3444461    0.2447362 -19.82  0.001855815    1.659    0.397
       129 -12.3019    188.2323    196.3512   1.1124143013e+02   5.9362151176e+00    0.2552468    0.2362446  35.56 0.0003979272    1.095    0.087
       130 -11.8496    188.7535    191.2691   1.1022425546e+02   6.6734278529e+00    0.2493816    0.2376637 -27.54 0.0003132982    1.174    0.148
       131 -10.7748    144.9826    205.7464   1.2147760077e+02   1.2240897313e+01    0.2200708    0.1910458 -35.46 0.0002969607    1.401    0.286
       132 -10.3575    145.6004    202.4880   1.2085662298e+02   1.2718183235e+01    0.2225828     0.117016  43.17 0.0004639653    1.652    0.395
       133 -12.0875     89.1735    202.4670   1.3257857708e+02   2.2191465207e+01    0.3654574    0.3436819  22.08 0.0003891225    1.451    0.311
       134 -11.9045    100.2432    198.6015   1.2979440392e+02   2.1244291868e+01    0.4836221    0.2521029  50.52  0.001037193    1.691    0.409
       135 -11.4021    107.2963    195.1393   1.2784106840e+02   2.0795648698e+01    0.3998024    0.2577474  46.58  0.001963615    1.376    0.273
       136 -11.9739    113.3078    194.2727   1.2643424032e+02   1.9963960969e+01    0.4126173    0.2722621  32.82  0.001019548    1.684    0.406
       137 -11.4844     93.8602    195.8698   1.3080276031e+02   2.2808898925e+01    0.3405687    0.2568494  19.76  0.001884344    1.932    0.482
       138 -10.2754     89.9397    194.0073   1.3140783713e+02   2.3800478394e+01    0.2167895    0.1596139 -87.09 0.0003559918    1.339    0.253
       139 -11.1480    208.9418    202.9342   1.0846277347e+02   1.1815344633e+00    0.1992685    0.1717261  24.48  0.000639763    1.038    0.037
       140 -11.5080    121.4413    200.2717   1.2555340218e+02   1.7392770227e+01    0.4464321    0.2187918 -62.00  0.001577545    2.384    0.580
       141 -15.1073     28.0472    204.3291   1.4494073220e+02   2.9729873249e+01     2.161948     1.036269  69.10    0.0123118    1.834    0.455
       142 -12.3985    241.3060    200.2887   1.0220526130e+02  -3.9224010272e+00    0.3305992    0.2798382 -38.55 0.0004909942    1.509    0.337
       143 -11.9197    247.1668    199.9359   1.0114606094e+02  -4.8144887448e+00    0.2647032    0.1860837  30.02 0.0003978339    1.282    0.220
       144 -11.5741     63.1472    199.0773   1.3758427973e+02   2.6593829131e+01    0.3683205    0.2005632  71.75   0.00193842    1.862    0.463
       145 -11.7018     57.3612    196.5287   1.3852618523e+02   2.7878130218e+01    0.3707352    0.2032856  73.51  0.001007929    1.815    0.449
       146 -12.7455     52.3231    192.6324   1.3919978239e+02   2.9330176960e+01    0.4360438    0.2183248  37.62  0.001129992    2.025    0.506
       147 -11.7794    214.0084    196.9506   1.0644553261e+02   1.1691939829e+00    0.3803931    0.1824438 -40.56  0.001782262    2.309    0.567
       148 -12.2535    216.7700    193.3715   1.0527526856e+02   1.2087887935e+00    0.3742321     0.340765 -23.64  0.001921539    1.226    0.185
       149 -12.0815    138.8551    197.8713   1.2154656267e+02   1.4785569186e+01    0.4101494    0.3352899  77.05  0.001801202    1.326    0.246
       150 -11.3352    139.7413    194.3318   1.2080841350e+02   1.5294881282e+01    0.2237425    0.1811783  44.23 0.0003373234    1.116    0.104
       151 -11.7871    206.5719    198.1323   1.0804443573e+02   2.3158523974e+00    0.4273452    0.2205551  50.27  0.001978985    2.115    0.527
       152 -11.2460    169.9936    197.1254   1.1500643607e+02   9.1943375978e+00    0.3700802    0.2010975 -43.05 0.0007092007    2.089    0.521
       153  -9.7127    117.2727    198.6752   1.2620723494e+02   1.8416442207e+01    0.1338786   0.09292423  73.03  0.000698031    1.578    0.366
       154 -12.3956    248.8093    184.3846   9.7927556222e+01  -3.0249130061e+00    0.6868385    0.2730424 -41.91  0.002922027    2.971    0.663
       155 -12.0530    250.5917    194.9821   9.9652108051e+01  -4.7191657104e+00    0.2446999    0.1365937 -29.23  0.000387703    1.739    0.425
       156 -12.9757    246.3219    190.9362   9.9604143615e+01  -3.4992840757e+00    0.3574238    0.3024774  49.60 0.0006716828    1.541    0.351
       157 -10.0210    198.9724    194.9916   1.0891595081e+02   4.1761655837e+00    0.1570745    0.1418634  13.93 0.0004054972    1.058    0.055
       158  -9.5254    178.3625    195.2741   1.1300409252e+02   7.9500253661e+00    0.1385945   0.09898809  16.91 0.0002262322    1.661    0.398
       159 -10.8993    233.8619    193.9636   1.0231893646e+02  -1.8401653885e+00    0.1929212    0.1672169   3.25 0.0006145648    1.068    0.063
       160 -12.3552    164.2427    191.0080   1.1512906915e+02   1.1351769039e+01    0.4847801    0.4148776  45.10  0.002850848    1.053    0.050
       161 -12.1239    154.6175    192.3327   1.1735529752e+02   1.2921840327e+01     0.262208    0.2410927  48.74   0.00031645    1.036    0.035
       162 -12.1839    149.2272    190.8726   1.1824303819e+02   1.4200926201e+01    0.2665994    0.2329037  84.95 0.0004731352    1.269    0.212
       163 -11.8884    178.1127    189.8936   1.1209779705e+02   8.9168597912e+00    0.2447449    0.2213439 -49.08 0.0002803367    1.261    0.207
       164  -9.7979     87.2954    191.3221   1.3164427357e+02   2.4764438898e+01    0.2837697    0.1501127 -54.77  0.001400516    2.093    0.522
       165 -11.0936     91.7781    188.1867   1.3027335193e+02   2.4731902930e+01    0.3191862    0.2000726  44.96  0.001707111    1.467    0.318
       166 -11.5260    120.5360    188.3644   1.2400796619e+02   1.9909745319e+01    0.4084482    0.1836792 -66.50  0.001445514    3.055    0.673
       167 -11.7132    122.8015    182.9561   1.2267121972e+02   2.0612012794e+01    0.3064869    0.1852103  45.31 0.0008002432    1.503    0.335
       168 -12.4124    106.6320    187.6152   1.2694018647e+02   2.2448383526e+01    0.4705669    0.2798217  59.98  0.001259972    1.699    0.411
       169 -11.7166    107.7679    181.6431   1.2581814876e+02   2.3509163636e+01    0.3909141    0.2656698 -72.35  0.002048834    1.573    0.364
       170 -12.5983    103.9361    178.9700   1.2628199835e+02   2.4724522879e+01    0.5763512    0.2823845 -53.78  0.001341733    2.160    0.537
       171 -11.2915     82.0909    189.5133   1.3254786172e+02   2.5927960599e+01    0.2812726    0.2104498 -48.19 0.0007179476    1.711    0.416
       172 -10.5891     35.9717    173.9888   1.4095431381e+02   3.5252706738e+01    0.2280755    0.1194639  75.77 0.0003054007    1.888    0.470
       173 -11.6126     31.2859    169.8131   1.4160340550e+02   3.6668715113e+01    0.3011606      0.18186  51.66  0.001034485    1.543    0.352
       174 -11.0484     34.6984    188.9831   1.4251068597e+02   3.2163457044e+01    0.3013393    0.2368131 -21.29  0.001882149    2.363    0.577
       175 -12.1406     32.9322    183.4467   1.4242496908e+02   3.3530943224e+01     0.447487    0.2593838  65.59  0.001907513    1.506    0.336
       176 -11.7331     26.9003    179.5456   1.4337029858e+02   3.4998324138e+01    0.3054417     0.200665  79.27  0.001161557    1.239    0.193
       177 -11.0556     35.5360    178.6830   1.4147000441e+02   3.4275379685e+01    0.2732942    0.1702272 -67.29 0.0009464472    1.529    0.346
       178 -12.1502     31.4736    175.6635   1.4207838520e+02   3.5365881377e+01    0.3519462    0.2015498  58.09 0.0001896575    1.563    0.360
       179 -11.1081    190.7383    186.7953   1.0900662262e+02   7.0433124752e+00    0.3159475    0.1900035  42.61  0.001556229    1.517    0.341
       180  -9.7012     58.6046    187.2126   1.3734809233e+02   2.9683864904e+01    0.1672512    0.1026684 -63.30 0.0009422201    1.651    0.394
       181 -11.3535     59.1155    181.9115   1.3668154571e+02   3.0761871133e+01    0.4110944    0.2136738  86.77  0.001977773    2.168    0.539
       182 -11.0702    234.0336    185.9777   1.0076702230e+02  -7.4675700328e-01    0.1945611    0.1667858   8.50 0.0003230482    1.009    0.009
       183 -10.7897    231.2839    182.6419   1.0060235416e+02   2.1540725503e-01    0.2106443    0.1772208 -31.38 0.0005735136    1.285    0.222
       184 -10.4228    229.3604    179.7019   1.0036528578e+02   9.9051551064e-01    0.1911478    0.1862345  73.18 0.0005508825    1.373    0.272
       185  -9.7284    199.4844    185.5249   1.0705717639e+02   5.5966359824e+00    0.1368968    0.1218401  23.09 0.0003265029    1.002    0.002
       186 -11.2509    175.7099    183.7604   1.1146596820e+02   1.0453904263e+01    0.3420863    0.1911294 -35.68  0.001241044    2.083    0.520
       187 -10.6401    209.4913    191.5019   1.0627731310e+02   2.7984865728e+00    0.1334345    0.1169693  20.30 0.0008105971    1.013    0.013
       188 -10.3932    140.2243    184.5917   1.1911849290e+02   1.7091737016e+01    0.1969224    0.1249692  33.83 0.0009381424    1.655    0.396
       189 -12.0870      1.4843    182.4907   1.4871058636e+02   3.6718724126e+01    0.3671196    0.1018934 -79.86    0.0014703    2.910    0.656
       190 -10.2215    225.8883    183.4900   1.0173067199e+02   1.0491375718e+00    0.2008172    0.1191353  38.19  0.001022836    1.578    0.366
       191 -11.5473    218.5821    179.9701   1.0237030802e+02   2.9103329209e+00     0.328258    0.3085687  19.10  0.001412428    1.138    0.121
       192 -10.8006    190.1223    180.2425   1.0788478577e+02   8.2720190140e+00    0.2418416    0.2027327 -51.31 0.0006241616    1.385    0.278
       193 -11.3609     48.3298    179.5471   1.3879003935e+02   3.2623557288e+01    0.3281578    0.2265056 -88.87  0.002018737    1.248    0.199
       194 -11.7215    118.4348    178.1600   1.2288038410e+02   2.2388973174e+01    0.3113133    0.2899021  16.73   0.00124634    1.314    0.239
       195 -10.8977    112.6743    177.0074   1.2399988830e+02   2.3648790869e+01    0.4085501    0.2410003 -89.61  0.001116071    2.641    0.621
       196 -11.0942     61.6672    178.8088   1.3577865529e+02   3.1106320857e+01    0.3396344    0.1685979  89.15  0.001526025    2.440    0.590
       197 -11.2585     41.4163    179.0218   1.4023757487e+02   3.3546759630e+01    0.3483852    0.2226435 -87.60  0.001519938    1.348    0.258
       198 -12.1249     82.2943    230.5349   1.3681050779e+02   1.7850221090e+01    0.4467269     0.238912  32.91  0.002262318    2.219    0.549
       199 -12.5477     92.8070    180.1361   1.2896341794e+02   2.6288853551e+01    0.4940272     0.284686 -45.33  0.001793366    2.263    0.558
       200 -11.9964    136.4111    176.3096   1.1853778382e+02   1.9468670977e+01    0.2630775    0.2491102 -46.74 0.0002596754    1.186    0.157
       201 -11.5972     69.4265    175.7690   1.3368117466e+02   3.0726919642e+01    0.2378226     0.226456  17.38 0.0002864992    1.434    0.303
       202 -11.3053     66.3953    176.5519   1.3446037185e+02   3.0970256859e+01    0.2400616    0.1898982  85.30 0.0005779724    1.092    0.084
       203 -10.6444    129.5783    175.6001   1.1994470343e+02   2.0895554724e+01    0.2791917    0.1866338  76.35 0.0009643605    1.971    0.493
       204 -12.5444     51.6347    171.1102   1.3717605668e+02   3.4086056323e+01    0.6565999    0.3773582  72.17  0.002546425    1.757    0.431
       205 -10.9313    204.4295    174.6509   1.0397873326e+02   6.4399848696e+00     0.248912    0.2283535 -63.81 0.0008432216    1.359    0.264
       206 -10.4646    194.9721    174.3062   1.0575724418e+02   8.3441413030e+00    0.2834573    0.1750057 -38.49  0.001367888    1.712    0.416
       207 -10.0778    125.6354    175.7356   1.2085635272e+02   2.1595459078e+01    0.1353799    0.1112431  11.24  0.000698631    1.646    0.392
       208  -9.9986    189.2285    174.3912   1.0692038337e+02   9.4624944495e+00    0.2050951    0.1268905  52.26 0.0009524446    1.699    0.411
       209 -11.8910    157.2857    172.8581   1.1331144044e+02   1.6108322058e+01    0.4355223    0.2916915  52.79  0.001517419    1.468    0.319
       210  -9.8542    152.5150    174.4863   1.1465528605e+02   1.6729638640e+01    0.1435216    0.1319449  51.33 0.0005718399    1.008    0.007
       211 -11.0827     60.0920    172.5725   1.3541960403e+02   3.2692619820e+01    0.3431071    0.1902175  83.06  0.001677222    2.003    0.501
       212 -10.9619     61.1349    167.2945   1.3454882619e+02   3.3741409590e+01    0.2492381    0.2015847 -81.02 0.0005168798    1.117    0.105
       213 -12.1012     87.3936    171.9946   1.2905612624e+02   2.8922586524e+01    0.3174327    0.2699352  22.57 0.0004264573    1.531    0.347
       214 -11.1368     24.1369    172.1632   1.4336364130e+02   3.6872314392e+01    0.2133946    0.1936967 -11.52 0.0009942687    1.715    0.417
       215 -10.8677    232.4915    171.5354   9.8171737473e+01   1.6485577384e+00    0.1348292    0.1171716   5.32 -9.489556e-08    1.019    0.019
       216 -12.1660    236.7845    173.7426   9.7868860867e+01   5.4616080954e-01    0.3639434    0.2532251 -27.46  0.002034151    1.385    0.278
       217 -11.5818    132.4765    169.6154   1.1823771434e+02   2.1599503073e+01    0.3673504    0.2474396  27.57 0.0005113705    1.822    0.451
       218 -11.7776    126.4561    169.9950   1.1968201318e+02   2.2652603468e+01    0.3672279    0.1896754  43.97   0.00159762    1.807    0.447
       219 -10.9118     72.0411    169.4097   1.3227478949e+02   3.1779376972e+01    0.3708127    0.1850583  57.14  0.001708532    2.070    0.517
       220 -13.2153     43.4862    211.2757   1.4250689187e+02   2.6604607302e+01    0.7016166    0.3322831  34.94  0.003816605    2.300    0.565
       221 -10.7263      3.5225    167.5074   1.4740507953e+02   3.9708746541e+01    0.2002414    0.1390094 -83.39 0.0006287757    1.160    0.138
       222 -10.7189      7.4913    169.4635   1.4670184675e+02   3.8964912746e+01    0.2020545    0.1263931  86.28 0.0008150269    1.234    0.189
       223 -12.1359      7.9675    165.9767   1.4636294672e+02   3.9677025695e+01    0.3172467    0.2533353 -24.44 0.0004990043    2.049    0.512
       224  -9.6175    108.6775    169.2768   1.2367765380e+02   2.6014907194e+01    0.1442241   0.09984264  70.60 0.0005684256    1.581    0.368
       225 -10.6796    177.2872    168.3463   1.0816231223e+02   1.2949347200e+01    0.1452595    0.1116398   2.78  0.000428513    1.653    0.395
       226 -10.3975    113.8855    168.1062   1.2226690673e+02   2.5352941250e+01    0.2073229    0.1729922  70.52            0    1.147    0.128
       227 -10.4960    216.9417    167.2743   1.0010704864e+02   5.2309064821e+00    0.1900141    0.1662116  19.73 0.0003702368    1.060    0.057
       228  -9.9340    182.3123    167.3447   1.0691574348e+02   1.2113932751e+01    0.1483606    0.1110675   5.70 0.0002393913    1.707    0.414
       229 -11.0686     49.1827    161.9388   1.3671144503e+02   3.6449595923e+01    0.3621404     0.106396  50.60  0.001338762    3.598    0.722
       230 -10.3243     36.4408    165.4732   1.4003865174e+02   3.7090855572e+01    0.1831722    0.1326035  58.77 8.304886e-05    1.282    0.220
       231 -12.3449     40.5558    166.0843   1.3916322928e+02   3.6504436618e+01    0.4004675    0.2205798  29.34 0.0003859756    2.231    0.552
       232 -10.4951     45.2180    162.0164   1.3765096494e+02   3.6895492486e+01    0.2666674    0.1465032 -74.33 0.0008604153    1.599    0.375
       233 -10.9835     24.0811    167.1378   1.4295766347e+02   3.7979603196e+01    0.1683568    0.1422035 -75.41 0.0005992131    1.263    0.208
       234 -10.5102     77.0666    166.1624   1.3065491909e+02   3.1789005621e+01     0.184244    0.1672469 -69.88 0.0003271601    1.208    0.172
       235 -10.3462    203.8412    164.7505   1.0206733547e+02   8.2251654601e+00    0.2508895    0.1977344 -32.51 0.0006845392    1.295    0.228
       236 -10.8120    139.7360    164.9093   1.1571179559e+02   2.1182771689e+01    0.2705222    0.2019135 -76.89  0.001326727    1.622    0.383
       237 -10.1275    119.8472    164.8234   1.2030288800e+02   2.4987503101e+01    0.1979237     0.155552  72.24 0.0004552147    1.320    0.242
       238 -11.3004    239.1318    164.1049   9.5489415519e+01   1.5597879726e+00    0.2084336    0.1627088   3.91 0.0002623113    1.264    0.209
       239 -11.0057    195.4820    164.2580   1.0360742342e+02   9.9941471249e+00    0.2675779     0.182108  44.06 0.0006061986    1.409    0.290
       240  -9.5137    150.6660    164.2879   1.1312064455e+02   1.9139431095e+01    0.1483599    0.1120296  75.27 0.0005059986    1.627    0.385
       241 -11.7751    101.0853    163.2478   1.2448282455e+02   2.8653750258e+01    0.2949547    0.2713217 -13.74  0.001523176    1.432    0.302
       242 -10.6614     99.0000    159.9963   1.2444628306e+02   2.9737306140e+01    0.3049973    0.1000906 -53.52  0.001081267    3.010    0.668
       243 -11.5483    186.1811    162.2817   1.0507511850e+02   1.2250962896e+01    0.2764876    0.1783463 -52.01  0.001275568    1.801    0.445
       244 -10.8899    178.7124    162.8157   1.0673526926e+02   1.3691295596e+01    0.2250579    0.1826926 -16.19 0.0005840228    1.413    0.292
       245 -10.4458    171.8455    163.6456   1.0835814497e+02   1.4948516741e+01    0.1993219    0.1295212  53.73 0.0009117628    1.590    0.371
       246  -9.6347    124.3221    163.3436   1.1898742780e+02   2.4477139161e+01     0.141867     0.116679  -8.64 0.0007050253    1.729    0.422
       247 -10.2164     73.1574    163.0689   1.3115500845e+02   3.3056825543e+01    0.1799618    0.1666789 -84.33 0.0004683033    1.161    0.139
       248 -11.4681     18.7185    161.3596   1.4366102114e+02   3.9758190046e+01    0.2918347    0.2382978 -11.36  0.001487493    1.982    0.495
       249 -11.6065    224.1602    161.4537   9.7566721167e+01   4.7776286946e+00    0.2562676    0.2364769  32.40 0.0005457331    1.143    0.125
       250 -11.2404    133.1991    162.4023   1.1674160675e+02   2.2986051649e+01    0.3584322    0.1566818  51.87   0.00133499    2.423    0.587
       251 -11.7326    193.8162    168.0549   1.0472431266e+02   9.6610627761e+00    0.3085994    0.2059493  43.30 0.0007019715    1.421    0.296
       252 -11.2992     36.2781    159.3601   1.3945623971e+02   3.8485559756e+01    0.4675165    0.1925834  58.36  0.002096072    2.647    0.622
       253 -11.5575     37.5857    154.4588   1.3862269006e+02   3.9463282374e+01    0.3752517    0.1881782 -79.21  0.001907129    1.791    0.442
       254 -10.8882    196.6209    159.4798   1.0237366935e+02   1.0608964929e+01    0.2408715    0.2289002   9.59 0.0005211754    1.023    0.022
       255 -10.7209    192.5326    159.9202   1.0328581058e+02   1.1371554064e+01    0.2093383    0.1419898 -37.47 0.0004797233    1.526    0.345
       256 -12.1471    107.5252    158.0794   1.2205005458e+02   2.8701225908e+01    0.4625414    0.2519912 -56.14 0.0003029078    1.845    0.458
       257 -11.9610    107.0085    154.7444   1.2158161454e+02   2.9544455919e+01    0.3270696    0.2389708 -46.06  0.001120553    1.519    0.342
       258 -10.2481     95.9159    157.7020   1.2481434724e+02   3.0772758120e+01    0.1969042    0.1658086  60.32 0.0003536155    1.121    0.108
       259  -9.7500     66.5013    158.4553   1.3212323642e+02   3.5042259693e+01     0.133914    0.1136216  84.28 0.0002327339    1.013    0.013
       260 -11.6294     16.0231    154.4675   1.4368891117e+02   4.1529923809e+01    0.3374527    0.2472555   8.11  0.001983835    2.133    0.531
       261 -10.7013     11.4951    156.4857   1.4488489974e+02   4.1462952378e+01    0.2377015    0.1604228 -84.89  0.001212616    1.153    0.133
       262 -11.2393      7.7966    156.2432   1.4569526518e+02   4.1816507755e+01    0.2295087    0.1572388 -55.15 0.0004487095    1.671    0.401
       263 -10.5091    205.0866    157.5006   1.0028944139e+02   9.2233705414e+00    0.2217379    0.1365771  45.10  0.001032764    1.590    0.371
       264 -10.5186    123.1297    155.8127   1.1786642934e+02   2.6347133633e+01    0.2824609    0.2059058 -52.69  0.001142917    1.416    0.294
       265 -11.1829    228.4667    155.3190   9.5487771315e+01   4.9286231524e+00    0.2291753    0.2093623  -8.17   0.00137086    1.037    0.036
       266 -11.0346    225.9864    152.0098   9.5212179441e+01   5.9475133792e+00    0.2372284    0.2017338 -40.22 0.0003522068    1.245    0.197
       267 -10.0547    199.2574    155.7854   1.0105790479e+02   1.0722435540e+01    0.1951279    0.1589631   6.21  0.000407025    1.350    0.259
       268 -10.2956    171.9822    156.4822   1.0683674393e+02   1.6303288185e+01    0.2088099    0.1276132  67.27 0.0008094735    2.467    0.595
       269 -10.9092    156.1483    155.9126   1.1019938426e+02   1.9727097306e+01    0.2226981    0.1981622  79.83 0.0004712005    1.217    0.179
       270 -11.0592    152.5453    152.0914   1.1021431953e+02   2.1262740741e+01    0.2943094    0.2362106  89.17 0.0005435163    1.526    0.345
       271 -11.3142    146.5875    155.2032   1.1222652208e+02   2.1843012082e+01    0.2839815    0.2628389 -70.70 0.0005207772    1.121    0.108
       272  -9.9090    139.6668    156.3028   1.1405108502e+02   2.3010866769e+01    0.1522012    0.1464308  40.40 0.0003839065    1.088    0.080
       273 -10.2682    136.5029    156.5034   1.1482983583e+02   2.3598741273e+01     0.252946    0.1399251  43.91 0.0007038952    1.730    0.422
       274 -11.0811    114.3635    154.6937   1.1977445066e+02   2.8231531223e+01    0.2974622    0.2222346  67.01 0.0007190561    1.406    0.289
       275 -10.1393    129.0049    153.7573   1.1606074282e+02   2.5668044810e+01    0.2091446    0.1833361  57.45  0.000884123    1.086    0.079
       276  -9.9338     85.7255    154.6446   1.2682404176e+02   3.3114318419e+01    0.1338085    0.1054741 -36.63 0.0007004132    1.646    0.393
       277  -9.9067     62.5086    154.5517   1.3256421124e+02   3.6479064602e+01    0.1341702    0.1121021  84.10 -0.0002439876    1.040    0.039
       278 -11.6353    248.5477    150.8639   9.1121236043e+01   1.8340201688e+00    0.3487111     0.256835 -34.94  0.001969505    1.307    0.235
       279 -10.9477    137.9814    151.8702   1.1354902902e+02   2.4297801569e+01    0.2205014    0.2064697  57.61 0.0003520134    1.025    0.025
       280  -9.6838      4.5163    152.5693   1.4615604628e+02   4.2880415308e+01    0.1159181   0.08651443  86.49 4.065605e-05    1.021    0.021
       281 -11.6509    178.1074    149.6794   1.0405451445e+02   1.6322256382e+01    0.2615398    0.2505377 -17.17 0.0003303504    1.069    0.065
       282 -11.4065    103.8047    149.3517   1.2139176988e+02   3.1336367101e+01    0.3568806    0.2510215  43.37  0.001791716    1.419    0.295
       283 -11.2709    228.4945    148.1493   9.3922541622e+01   6.0799515417e+00    0.2324225    0.1638643  49.57 0.0009967897    1.523    0.343
       284 -10.9096    202.3569    147.7918   9.8690856719e+01   1.1499092587e+01    0.3177174    0.2370305  77.91  0.001478011    1.977    0.494
       285 -10.0860     31.6856    148.3047   1.3937632961e+02   4.1480728871e+01    0.1288814   0.07810538  71.03 0.0002943003    1.620    0.383
       286  -9.7824    137.3028    147.2765   1.1275671008e+02   2.5427646825e+01    0.1428241     0.120138   3.52 0.0002175284    1.542    0.352
       287  -9.7866     91.6738    147.6925   1.2415552632e+02   3.3774403753e+01    0.1355843    0.1123638 -23.75 0.0002648036    1.652    0.395
       288  -9.9208     43.3609    147.2220   1.3636254503e+02   4.0506566051e+01    0.1712485    0.1032934 -82.54 9.280154e-05    1.507    0.337
       289 -11.0574     36.6295    146.3324   1.3793444454e+02   4.1434671398e+01    0.2858981     0.173295  59.65  0.001005412    1.651    0.394
       290 -12.1773     22.2967    142.5251   1.4106956482e+02   4.3687176253e+01    0.5437014    0.2453304  85.09  0.001660415    2.463    0.594
       291 -11.5158    161.9380    144.9674   1.0654162315e+02   2.0739075324e+01    0.4268092    0.1960215  56.78  0.001469986    2.761    0.638
       292 -11.1278    238.4442    145.8036   9.1694748341e+01   4.5110148798e+00    0.2570159    0.1092703  51.15  0.001028334    2.641    0.621
       293 -11.2247    230.8962    142.8612   9.2331956758e+01   6.4624204878e+00    0.3078586     0.145083 -37.76  0.001302675    2.023    0.506
       294 -12.4810    225.1879    142.9913   9.3361150140e+01   7.5896558288e+00    0.2761672     0.262301   3.65 0.0004019799    1.052    0.050
       295 -11.5114    219.5978    143.0835   9.4385090273e+01   8.7174466176e+00    0.2996678    0.2212161  54.26  0.001527717    1.497    0.332
       296 -11.9488    178.0159    142.9832   1.0257359716e+02   1.7641737763e+01    0.4127075    0.2968399 -33.49  0.001957649    1.474    0.321
       297 -11.1700    182.6852    140.8425   1.0109559988e+02   1.7033299043e+01    0.4244477    0.2015613 -35.57  0.001604709    2.298    0.565
       298 -10.6745    180.4235    136.9240   1.0066318719e+02   1.8291346914e+01    0.2890556    0.2201517  54.02 0.0005368046    1.343    0.255
       299 -12.8797    131.2119    140.4017   1.1276467909e+02   2.8170241348e+01    0.5626416    0.4503096  82.12  0.002781901    1.434    0.303
       300 -11.0909    243.0240    147.7476   9.1354892557e+01   3.3347083036e+00     0.184975    0.1669059   3.92 0.0003642682    1.052    0.049
       301 -10.3437     85.1147    143.9197   1.2517562611e+02   3.5705084193e+01    0.2120819    0.1689998  79.97 0.0002878821    1.254    0.203
       302  -9.2702      5.6630    143.3168   1.4516815639e+02   4.4849785060e+01     0.123033      0.06814  68.97 0.0003014778    1.700    0.412
       303 -11.3073    241.1713    141.4970   9.0291598407e+01   4.6620733478e+00    0.2625864    0.2062552  64.63  0.001426519    1.652    0.395
       304 -10.6359     60.2826    141.8798   1.3130388204e+02   3.9733994094e+01    0.2818942    0.2001019  52.05   0.00157772    1.423    0.297
       305 -11.9936     48.7490    140.1569   1.3405913369e+02   4.1549253873e+01    0.3634472    0.2187059  57.89  0.001188839    1.737    0.424
       306 -12.0560     38.2058    137.1922   1.3640906908e+02   4.3400261505e+01    0.3704118    0.2633881  34.72 0.0008086789    1.621    0.383
       307 -11.1298    168.9031    138.0014   1.0340633482e+02   2.0632496068e+01    0.2806315    0.2153426  44.96 0.0008892287    1.275    0.216
       308 -10.6930    100.6178    137.6529   1.1996441397e+02   3.4597058788e+01    0.3606333     0.230105  15.03 0.0009044743    2.818    0.645
       309 -10.8935    156.5100    136.1790   1.0577991818e+02   2.3733405123e+01    0.4258835    0.2886276  82.67  0.001692211    2.368    0.578
       310 -11.8364     58.7073    134.5854   1.3059301769e+02   4.1660656830e+01    0.4479109    0.2174906 -44.34  0.001451915    2.571    0.611
       311  -9.9493    195.4457    135.2318   9.7176137364e+01   1.5280017769e+01    0.2136245    0.1380984 -51.18 0.0009370397    1.728    0.421
       312 -11.2288     77.6405    135.0360   1.2556910738e+02   3.8943192485e+01    0.2462759    0.1989951  50.29  0.000272108    1.269    0.212
       313 -11.2524      8.0798    134.2790   1.4379204299e+02   4.6708852110e+01    0.2151523    0.1503494 -69.61 0.0006006407    1.223    0.183
       314 -10.2438    213.5486    133.9382   9.3397632044e+01   1.1563192710e+01    0.2161566    0.1391521 -35.77 0.0003710848    1.512    0.339
       315 -11.2996    143.6343    132.7430   1.0801738951e+02   2.7255437923e+01    0.2842266    0.2601843  64.82 0.0005439408    1.086    0.080
       316  -9.8345     98.9546    132.9706   1.1945833927e+02   3.5978918220e+01    0.1736512    0.1610566 -83.00 0.0004430265    1.008    0.007
       317 -10.6648     49.5256    131.9983   1.3267241297e+02   4.3385441220e+01    0.2464277    0.1884806  72.97   0.00086174    1.301    0.231
       318 -10.3394     50.8951    128.3442   1.3173471157e+02   4.4092636503e+01    0.1737128     0.165378 -88.41  0.001133071    1.155    0.134
       319 -10.8207    207.1226    138.0823   9.5564206506e+01   1.2214300672e+01     0.208214    0.2050375 -18.32 0.0003701114    1.069    0.065
       320 -11.3699     21.6704    130.7089   1.3994424459e+02   4.6463677189e+01    0.2170755    0.1749108  77.07 0.0008810706    1.166    0.142
       321 -10.2061    162.1667    130.1283   1.0305629164e+02   2.3735734218e+01     0.222254    0.2055987   6.62 0.0003115737    1.183    0.155
       322 -10.7348    128.5009    130.1058   1.1114400645e+02   3.1012217536e+01    0.2204906    0.1987274  54.49 0.0003753142    1.096    0.088
       323 -10.6316     86.4918    129.9324   1.2220589394e+02   3.8780604431e+01    0.1998604    0.1868806 -86.04 0.0004469418    1.036    0.035
       324 -10.7851     35.0287    128.8986   1.3615698789e+02   4.5666659327e+01     0.298674    0.1401734 -44.63  0.001348834    2.641    0.621
       325  -9.4772    184.6715    129.7465   9.8065574499e+01   1.8728004685e+01    0.1514536    0.1175777  17.81 0.0003380256    1.553    0.356
       326 -11.7916     61.4421    128.6440   1.2886750129e+02   4.2722007970e+01    0.2595904    0.2187074 -47.55 0.0006836607    1.293    0.226
       327 -10.9564    190.8118    126.2725   9.5963446626e+01   1.7996969313e+01     0.383995    0.2293311 -35.38  0.001113054    1.705    0.413
       328 -10.8639    247.9240    129.2863   8.6481314516e+01   5.2635679105e+00    0.2822275    0.2166566  80.81  0.001436895    1.932    0.482
       329  -9.7786    152.6495    125.8429   1.0422113570e+02   2.6757379663e+01    0.2190524    0.1418836 -55.24 0.0009040654    1.682    0.405
       330 -11.7707    206.4016    124.8081   9.2563976122e+01   1.4747183076e+01    0.3074067    0.2429177  54.84  0.001548643    1.333    0.250
       331 -11.8814    124.8317    124.4085   1.1075319672e+02   3.3038119589e+01    0.3205724     0.293213  49.74 0.0005272238    1.101    0.092
       332 -11.8284     69.0136    123.8976   1.2589718749e+02   4.2834051481e+01    0.2799399    0.2251639  45.94 0.0003489672    1.325    0.245
       333  -9.9197    120.0000    122.9544   1.1166705332e+02   3.4342344693e+01    0.2524152   0.08509273 -49.62 0.0008008428    2.931    0.659
       334 -10.0287    108.9988    123.4868   1.1471483876e+02   3.6358697826e+01     0.196142    0.1360326  11.98 0.0005627184    2.352    0.575
       335 -10.7246    238.6097    122.2277   8.6343359253e+01   8.2497629466e+00    0.2013419    0.1266483 -23.89 0.0007224162    1.631    0.387
       336 -10.2048     11.9668    121.9990   1.4154225179e+02   4.9231069352e+01    0.1832957    0.1157343  66.67 0.0005009617    1.627    0.385
       337 -10.8499     58.4398    119.1562   1.2804210479e+02   4.5363080437e+01    0.2264073    0.2146702  73.50 0.0009348936    1.137    0.121
       338 -10.3838     60.5167    116.4529   1.2693487861e+02   4.5741799421e+01     0.255825    0.1180214 -59.50 0.0006325751    1.888    0.470
       339 -11.6585     83.4587    120.0002   1.2102084573e+02   4.1610564254e+01    0.4287839    0.2906114  83.14  0.001273686    1.944    0.486
       340 -10.0615    170.6795    119.3297   9.8486342718e+01   2.3986677088e+01    0.1603756    0.1240943 -81.70  0.000562383    1.691    0.409
       341 -10.6808    106.6236    118.7259   1.1425875982e+02   3.7901115130e+01    0.4223444    0.2598109  13.21  0.001206655    3.410    0.707
       342 -11.2755     92.5280    118.0281   1.1802192756e+02   4.0584461178e+01    0.3022321    0.2440683 -57.12 0.0008822944    1.171    0.146
       343 -11.2634     49.0234    117.8616   1.3054136996e+02   4.6796693044e+01    0.4131474     0.279213  21.70  0.002244213    1.895    0.472
       344 -11.7115     19.8788    118.0151   1.3889802206e+02   4.9553851474e+01    0.3316118    0.1979532  32.82  0.001943138    1.951    0.487
       345 -10.5190      3.7210    118.2998   1.4336951778e+02   5.0630951675e+01    0.2780865    0.1286229  51.34  0.001213179    2.384    0.581
       346 -10.0089    163.0235    118.5354   9.9996212182e+01   2.5920254492e+01    0.2301009     0.152808  49.86 0.0004266723    1.499    0.333
       347 -10.8643    100.9028    116.6609   1.1535733659e+02   3.9431454951e+01     0.315275    0.1968994 -58.23 0.0007758627    1.581    0.368
       348 -11.3157     27.2231    117.7259   1.3678941918e+02   4.9011080596e+01    0.2393152    0.2140269 -40.19 0.0009181657    1.333    0.250
       349 -11.2684    182.9489    115.5778   9.4909604302e+01   2.1855678747e+01    0.2709204    0.2135041 -24.97 0.0008133196    1.372    0.271
       350 -10.7475    147.0939    116.0829   1.0310931726e+02   3.0068947570e+01    0.2339916    0.2256161  78.32 0.0004989645    1.035    0.034
       351 -10.4761    140.0948    116.2933   1.0488202106e+02   3.1583250468e+01    0.2211211    0.1917316  53.88 0.0005305308    1.153    0.132
       352 -11.9937     87.8987    114.8191   1.1862076432e+02   4.2111884066e+01    0.2877801     0.217892 -65.46 0.0003047536    1.281    0.220
       353  -9.9299    210.9830    115.0289   8.9329016605e+01   1.5456788271e+01    0.1782403    0.1681067 -29.64 0.0009732654    1.022    0.021
       354 -11.0057    126.0154    114.0657   1.0791268427e+02   3.5101434550e+01    0.2255977    0.2192301 -79.37            0    1.001    0.001
       355 -11.2317     79.1176    112.9433   1.2075474736e+02   4.3951665403e+01    0.4447528    0.1771949 -52.97  0.001691174    2.271    0.560
       356 -11.3929     26.5014    108.4813   1.3565855838e+02   5.1232739673e+01    0.1911598    0.1728034  87.16 0.0006549282    1.148    0.129
       357  -9.9271    140.9339    111.9578   1.0355618849e+02   3.2328690524e+01    0.1833985    0.1779183  60.07 0.0003777571    1.029    0.028
       358  -9.7494     95.3510    112.3294   1.1590707552e+02   4.1424255242e+01    0.1502402    0.1157214 -17.43 2.833244e-05    1.769    0.435
       359 -10.6062    104.8336    110.4345   1.1275717968e+02   4.0138567847e+01    0.2469611    0.1713197 -46.32 0.0006693469    1.414    0.293
       360 -11.0642      3.7956    109.6905   1.4243046915e+02   5.2582731514e+01    0.1988367    0.1635976  -0.29  0.001420336    1.667    0.400
       361 -10.6444    112.0010    108.4561   1.1025869233e+02   3.9207835485e+01    0.2856143    0.2065965 -65.97 0.0008529258    1.529    0.346
       362 -10.6722    152.8415    106.9321   9.9328923463e+01   3.0666305495e+01    0.4007011     0.228578 -57.37  0.001520877    2.161    0.537
       363 -10.8903     71.8042    109.3967   1.2214906914e+02   4.5875357879e+01    0.1791386    0.1377989  18.28 0.0004303797    1.637    0.389
       364 -10.7616     37.1003    108.1184   1.3241316138e+02   5.0355369302e+01    0.1928625    0.1531721 -50.55 0.0004433368    1.238    0.192
       365 -10.7540    209.9626    106.9597   8.7498792039e+01   1.7111932251e+01    0.2182479    0.2082882 -43.42            0    1.028    0.028
       366 -11.9295    164.4825    105.4688   9.6248480350e+01   2.8216961595e+01    0.3995078    0.2906549  66.01 0.0008668154    1.551    0.355
       367 -12.4113    166.4184    102.1450   9.4917261232e+01   2.8411230997e+01    0.2918784    0.2901294  69.14 0.0004098067    1.013    0.012
       368 -12.8906     19.9992    110.6745   1.3789371194e+02   5.1247989277e+01    0.5534223    0.4155138  -3.22  0.003507133    1.863    0.463
       369 -10.6180     43.3019    107.0727   1.3034284670e+02   4.9973098857e+01    0.2025883    0.1802716 -16.37  0.001027402    1.378    0.274
       370 -11.1001    172.2303    106.0113   9.4686366609e+01   2.6257239369e+01    0.2930959     0.226447  40.91 0.0004300322    1.340    0.254
       371 -10.1780     91.1951    104.7791   1.1528688436e+02   4.3889108400e+01    0.2460178    0.1557874  80.16 0.0009475368    2.775    0.640
       372 -10.9815    138.2892    104.0226   1.0210587646e+02   3.4610291227e+01    0.2356331    0.2276345 -72.54 0.0003681495    1.033    0.032
       373 -10.7076    135.7112    100.9875   1.0192952898e+02   3.5830652055e+01    0.2986389    0.2306477  41.55 0.0007808324    1.330    0.248
       374 -10.9939     82.4191    103.9004   1.1769256066e+02   4.5547142280e+01    0.2320453    0.2278422  42.53 0.0004410951    1.111    0.100
       375 -11.5287     84.9335     99.5631   1.1586092778e+02   4.6138296201e+01    0.3492716    0.3012267   4.60 0.0009895707    1.396    0.284
       376 -10.9129     77.6800    104.3231   1.1922759112e+02   4.6190384505e+01    0.2026227    0.1242149 -48.29  0.000618312    1.536    0.349
       377 -11.7074     75.5829    101.8416   1.1928265094e+02   4.7085235414e+01    0.3293026     0.262962  18.12  0.001350145    1.524    0.344
       378 -12.0719    233.6729    102.3357   8.2403486107e+01   1.2534626905e+01    0.2736269    0.2417935 -27.68 0.0002735617    1.077    0.071
       379 -10.1281     58.1950    102.6407   1.2486028490e+02   4.9298257058e+01    0.1710988    0.1307021  11.63 0.0005957767    1.693    0.409
       380 -12.7526     44.5738    101.0687   1.2881821451e+02   5.1247052684e+01    0.4154564    0.2760971 -32.83  0.001589004    1.816    0.449
       381 -10.2515     24.9606    101.6969   1.3507019967e+02   5.2938214799e+01    0.1595639    0.1447763 -75.86 0.0003279138    1.120    0.107
       382 -10.0204      1.3861    102.1442   1.4226325435e+02   5.4431743108e+01      0.15889    0.0883342 -85.92  8.55206e-05    1.572    0.364
       383 -10.1915    213.8029    100.5958   8.5214817592e+01   1.7325715412e+01    0.2020963    0.1799321 -23.94 0.0003934313    1.127    0.113
       384  -9.7653    189.7390    101.3332   8.9829284684e+01   2.2922853809e+01    0.1561027    0.1181807 -66.36 0.0002991704    1.574    0.365
       385 -10.9254    148.7340    100.9887   9.8692364999e+01   3.2845738782e+01    0.3404223    0.2969336  57.28  0.001701463    1.157    0.136
       386 -10.7338    122.0863     99.5112   1.0511111725e+02   3.9120287787e+01    0.2349286    0.1950825 -45.92 0.0005428081    1.183    0.155
       387 -10.7244    109.3879     99.8048   1.0871570839e+02   4.1654658265e+01    0.3635922    0.2511106  32.66 0.0009010818    1.637    0.389
       388  -9.6775    218.4544     99.5100   8.4152458520e+01   1.6432150724e+01    0.1476052    0.1395148 -39.74 0.0001624896    1.006    0.006
       389 -10.5654     33.0208     98.8081   1.3205216925e+02   5.2915238636e+01     0.222503    0.1517511 -67.30  0.000601384    1.226    0.184
       390 -10.6916      9.5998     99.4515   1.3946209424e+02   5.4559690157e+01    0.2417564     0.132086  60.50  0.001306752    2.229    0.551
       391 -10.5020    173.4094     95.3501   9.1536070866e+01   2.8024272868e+01    0.3100934    0.1546146 -33.13  0.001139601    2.159    0.537
       392  -9.6708    129.5172     96.5031   1.0228465781e+02   3.8155249149e+01    0.1549741    0.1493081 -77.91 0.0001167651    1.050    0.048
       393 -10.1691    118.6422     96.2438   1.0514332014e+02   4.0550813752e+01    0.2122161    0.1402928 -37.57 0.0003566576    1.571    0.364
       394 -11.7471     53.4747     93.4722   1.2435984136e+02   5.2008604526e+01     0.327407    0.2072043 -55.75  0.001554011    1.361    0.265
       395 -10.1596    154.5194     94.0122   9.5361613355e+01   3.2879342553e+01    0.2418225     0.153825 -42.27 0.0004825701    1.566    0.362
       396 -10.2278     83.9697     93.9478   1.1470936719e+02   4.7573198470e+01    0.2320377    0.1762706  85.58  0.001135958    1.736    0.424
       397  -9.8416      6.2770     94.3390   1.3979004242e+02   5.5922080511e+01    0.1227952    0.0676275 -51.06 0.0003274973    1.616    0.381
       398 -10.3185     16.4714     99.0182   1.3728635832e+02   5.4200581108e+01     0.166529     0.143388 -70.90 0.0003870861    1.086    0.079
       399 -10.9555    142.9349     92.0117   9.7571297931e+01   3.6027834452e+01    0.3178861    0.2153362  49.15 0.0006731594    1.478    0.323
       400 -11.3943    135.9331     91.2553   9.9113032805e+01   3.7802175246e+01    0.4606174    0.2622605 -50.84  0.001729148    1.868    0.465
       401 -10.9045    202.8793     90.2090   8.4422328844e+01   2.1721647903e+01    0.3733451    0.2469122 -16.72 0.0009715789    1.923    0.480
       402 -11.5034    113.8141     90.1700   1.0475915679e+02   4.2854615485e+01    0.4030487    0.3502245  82.35  0.001877777    1.323    0.244
       403 -11.1843     77.4717     88.8071   1.1539419822e+02   4.9770241937e+01    0.4389482    0.2256343 -34.47  0.001422006    2.493    0.599
       404 -10.7793     24.8213     91.2506   1.3334424076e+02   5.5358278412e+01    0.2086488    0.1129353  68.92 0.0009578574    2.806    0.644
       405 -10.6280    180.7222     90.2886   8.8623465983e+01   2.7162620738e+01    0.3697237    0.2356967  72.49  0.001261909    1.998    0.499
       406 -10.8394    180.8183     86.8337   8.7640186043e+01   2.7766818112e+01    0.3699341    0.2272786  44.09  0.001507566    1.719    0.418
       407 -10.4671      7.2491     89.6740   1.3881872602e+02   5.6919931476e+01    0.1948097    0.1286445  44.69  0.001228784    1.816    0.449
       408 -11.1986    123.8847     87.9778   1.0132476430e+02   4.1173629177e+01    0.3108434    0.2523119 -68.70  0.001506913    1.414    0.293
       409 -11.0379    191.2956     86.8856   8.5632457039e+01   2.5148931326e+01    0.3871607    0.2189832 -48.10   0.00101698    1.836    0.455
       410 -11.4931     69.9581     85.2850   1.1689732483e+02   5.1690404880e+01    0.2528157    0.2202819 -68.32 0.0003077609    1.175    0.149
       411 -11.9611     64.0967     86.5061   1.1916498685e+02   5.2242250614e+01    0.4309544     0.316773 -15.38  0.002250548    1.754    0.430
       412 -10.7986     65.0371     81.7539   1.1759250119e+02   5.3174403348e+01    0.2204207    0.2032299  13.13 0.0003869722    1.201    0.167
       413 -10.4434    131.0009     87.0252   9.9145385977e+01   3.9785172712e+01     0.227282    0.2248871  86.99 0.0003458125    1.019    0.019
       414 -10.6947    127.6269     85.7339   9.9650771169e+01   4.0805820311e+01    0.2979257    0.2319714 -52.48 0.0005892068    1.321    0.243
       415 -10.3308     10.7284     86.9609   1.3726761194e+02   5.7324637499e+01    0.1762265    0.1255769 -70.60 0.0006063518    1.123    0.109
       416 -11.2787     27.3612     85.2023   1.3135410791e+02   5.6532502319e+01    0.2304963    0.1851071 -41.74  0.000241711    1.232    0.189
       417 -10.7865     16.1789     85.7756   1.3525362179e+02   5.7240666809e+01    0.2203125    0.1369923 -67.49 0.0004177629    1.287    0.223
       418 -10.6528     19.4339     82.8845   1.3362809334e+02   5.7666548947e+01    0.2131532    0.1651477  29.99  0.001121366    1.573    0.364
       419 -10.2164    198.8085     84.8241   8.3700385185e+01   2.3647456209e+01    0.2082811    0.1716119 -63.99 0.0003165881    1.290    0.225
       420 -10.7388    154.7315     85.5424   9.2862949417e+01   3.4474788632e+01    0.2876641    0.1486006  47.52 0.0008890434    1.937    0.484
       421 -10.5248     98.5013     84.5363   1.0759962353e+02   4.7080622298e+01     0.267128    0.1311515 -36.78 0.0008456553    2.265    0.558
       422 -11.7509    119.6053     83.6978   1.0121582144e+02   4.2982831308e+01    0.3799591     0.288755  45.41  0.001377101    1.339    0.253
       423 -11.2258    115.6619     79.8020   1.0112584349e+02   4.4619633599e+01    0.4862055    0.2160184  50.93  0.001781967    2.428    0.588
       424 -10.2568    105.5123     84.5095   1.0549295358e+02   4.5731980108e+01    0.2665028    0.1814836 -71.45  -2.7576e-05    2.082    0.520
       425 -10.9266    103.9114     81.0854   1.0493539009e+02   4.6765729680e+01    0.2297267    0.2117366  44.87 0.0003101879    1.129    0.115
       426 -11.2075     79.5170     84.5076   1.1355345705e+02   5.0400613635e+01    0.3624396    0.1375372  40.27   0.00136046    2.817    0.645
       427 -11.4293    132.6274     82.4009   9.7329525145e+01   4.0340157069e+01    0.2641181    0.2505251  -5.51 0.0003246445    1.104    0.095
       428 -11.3772     85.3696     82.8421   1.1119509074e+02   4.9797978933e+01    0.2504842    0.2119807  43.21  0.001374946    1.270    0.213
       429 -11.2319     53.2653     82.7709   1.2188237862e+02   5.4470749360e+01    0.1931224    0.1682945 -68.00   0.00108256    1.140    0.123
       430 -10.8772     45.9345     81.2942   1.2405973047e+02   5.5642913603e+01     0.269784    0.1762135  50.53  0.001030823    1.909    0.476
       431 -11.8023    127.8349     80.7499   9.8081688234e+01   4.1758568215e+01    0.3539345     0.261167  28.13 0.0006780818    1.581    0.368
       432 -10.8677     94.3414     80.5942   1.0770119680e+02   4.8692426975e+01    0.2883444     0.229576 -20.52 0.0008484621    1.412    0.292
       433 -10.3795    154.9686     79.0513   9.0877187357e+01   3.5637451235e+01    0.1903892    0.1774682 -41.76 0.0005683817    1.077    0.071
       434 -10.3245    150.2652     79.1617   9.1994955815e+01   3.6772663368e+01    0.2652765    0.1691055  16.04 0.0005953846    2.759    0.638
       435  -9.6283    183.2879     80.6748   8.5421201582e+01   2.8243438192e+01    0.1596456    0.1181082 -68.26 0.0003286999    1.608    0.378
       436  -9.8312     36.7545     79.3118   1.2682181493e+02   5.7027291732e+01    0.1190274   0.09157573 -88.34 0.0002472682    1.509    0.337
       437 -10.6178    107.9058     77.9842   1.0279576910e+02   4.6603450995e+01    0.2195351    0.2088808 -28.78  0.001211012    1.023    0.022
       438 -12.2636     51.6282     76.9344   1.2095139197e+02   5.5964801905e+01    0.3624586    0.3614302  81.58  0.001082907    1.157    0.135
       439 -10.2530     14.0142     78.2966   1.3466319742e+02   5.9062342383e+01    0.1527979    0.1354222 -61.49  0.000445297    1.118    0.105
       440 -11.3766      4.3911     77.4903   1.3788643890e+02   5.9799446707e+01     0.275218    0.2024077 -16.52  0.001077874    1.673    0.402
       441 -11.5411      2.2817     72.3410   1.3777320951e+02   6.1038551508e+01     0.308034    0.1222331 -53.13 0.0009993408    1.885    0.469
       442 -10.6172    167.8496     76.9276   8.7433144140e+01   3.2803458825e+01      0.24121    0.2090114  22.47 0.0005241072    1.306    0.235
       443 -11.1812     62.7365     75.5837   1.1667041712e+02   5.4843261668e+01    0.3702964    0.2493508  69.66  0.001730713    2.423    0.587
       444 -12.0341     57.7429     73.4870   1.1783507740e+02   5.5960591132e+01    0.6149557    0.3403445 -68.05  0.001931636    2.375    0.579
       445 -11.1751    113.6184     74.2153   9.9947994020e+01   4.6168701648e+01    0.2942054    0.2299468  27.63 0.0005605174    1.414    0.293
       446  -9.8391     82.4664     75.5232   1.0995627964e+02   5.1851653089e+01    0.1417794    0.1308489 -35.66 -1.445498e-05    1.006    0.006
       447 -10.6660     68.9288     73.8581   1.1401822140e+02   5.4336604002e+01    0.1962293    0.1843534 -46.88 0.0004013882    1.069    0.065
       448 -11.3129     35.0004     71.8962   1.2568701119e+02   5.8836758953e+01    0.2919188    0.2261993 -46.04 0.0004966274    1.109    0.098
       449 -10.5783     36.0379     66.5105   1.2391838312e+02   5.9907819243e+01    0.2151042    0.1477937 -54.03  0.001266025    1.219    0.180
       450 -10.1353     17.7651     72.3826   1.3215979574e+02   6.0124392174e+01    0.1416775    0.1088725 -15.92 0.0002773951    1.524    0.344
       451 -10.6360    166.8540     70.7398   8.5792773243e+01   3.4140025128e+01    0.2755187    0.2163893 -16.03  0.001295094    1.478    0.323
       452 -10.7970    172.9377     70.3150   8.4436473232e+01   3.2661508165e+01    0.2165755    0.1932417  58.24 0.0002955058    1.110    0.099
       453 -11.0502    152.9668     69.8328   8.8506285866e+01   3.7800998046e+01    0.2453412    0.2195425 -43.42 0.0003071064    1.127    0.112
       454 -11.7444     87.9506     69.2835   1.0619421397e+02   5.2187577843e+01    0.2792062    0.2344292  62.38  0.001510774    1.432    0.302
       455 -10.9006     88.7147     63.9657   1.0418261670e+02   5.3103042069e+01    0.3783072     0.231332 -53.34   0.00173224    1.812    0.448
       456 -10.0309    205.4331     69.4892   7.8415633464e+01   2.4540778074e+01    0.1486818    0.1411538 -60.21 7.015099e-05    1.011    0.011
       457 -12.1296     80.8124     68.4979   1.0830044546e+02   5.3583713403e+01    0.4541181    0.2721556  38.28  0.001015519    1.782    0.439
       458 -10.7408    132.8587     68.0313   9.2744665228e+01   4.3015577269e+01    0.2567299    0.2149933  47.61  0.000401487    1.186    0.157
       459 -10.0150     65.0000     67.9688   1.1361316620e+02   5.6148226391e+01     0.224422   0.07048632 -50.31 0.0005204501    2.875    0.652
       460 -10.0663    156.8760     69.1722   8.7433870951e+01   3.6937268065e+01    0.2120667    0.1806642  28.42 0.0005635177    1.290    0.225
       461 -11.3639     52.8745     68.5979   1.1819363983e+02   5.7622390812e+01    0.4974562    0.2439327 -64.22  0.002006657    2.524    0.604
       462 -10.6915     14.9661     65.3799   1.3171781704e+02   6.1839289788e+01    0.2520776    0.1550088 -15.63  0.001470495    2.028    0.507
       463 -11.4533     28.7537     64.5089   1.2619342155e+02   6.0996919146e+01    0.2703106     0.214379  83.37 0.0009301567    1.629    0.386
       464  -9.6910    219.4356     64.4503   7.4963713261e+01   2.1870282713e+01    0.1445111    0.1346684 -59.00 0.0001450714    1.010    0.010
       465 -10.0528    110.4906     64.4660   9.7639245010e+01   4.8700839230e+01    0.1454761     0.142446 -21.12 2.427121e-05    1.038    0.037
       466 -10.3979    120.4013     63.2226   9.4430991274e+01   4.6758687721e+01    0.2100576    0.1371568 -48.11 0.0004305758    1.631    0.387
       467  -9.5098     75.3341     63.2580   1.0845680241e+02   5.5540279761e+01    0.1362483    0.1029742  -6.26 0.0002450421    1.571    0.363
       468  -9.8726     67.6404     62.2885   1.1085676688e+02   5.6927882772e+01    0.1294597    0.1079387  82.23 0.0004603252    1.687    0.407
       469 -10.3969     78.3546     60.5424   1.0649418143e+02   5.5579053541e+01     0.246823    0.1564469 -26.24 0.0007438146    1.767    0.434
       470 -11.1217      6.1512     60.0800   1.3400257844e+02   6.3493412092e+01    0.2296804    0.1497416 -48.40 0.0006877275    1.237    0.192
       471 -11.1538     95.8452     59.1195   1.0022240139e+02   5.2678798703e+01    0.2381549    0.1987668 -22.04  0.000261137    1.187    0.157
       472 -11.5632     93.6047     54.8202   9.9402824618e+01   5.3897566617e+01    0.3509875    0.2884557  45.10  0.001923998    1.281    0.219
       473 -10.6665     16.0379     59.2271   1.2988629065e+02   6.3086779636e+01    0.2127724    0.1407441 -55.48 0.0009054056    1.183    0.155
       474 -10.0796    173.5529     58.5372   8.0780377008e+01   3.4433006770e+01    0.1503438    0.1468134  69.45 0.0001623164    1.032    0.031
       475  -9.8107     60.4488     58.4877   1.1223539688e+02   5.8723346529e+01    0.1337477    0.1164819 -31.85 0.0003632144    1.007    0.007
       476 -11.4681     53.0328     56.9239   1.1453216819e+02   6.0019360461e+01    0.3518828    0.2315157 -69.42  0.001005171    2.149    0.535
       477 -10.2397     38.8299     58.3621   1.2054128751e+02   6.1351310534e+01    0.1601939    0.1147464   3.03 0.0005085001    1.649    0.394
       478 -10.4393    104.8501     56.7184   9.6612424585e+01   5.1297249327e+01    0.3796962    0.1834093  58.93  0.001351667    2.881    0.653
       479 -11.0514     44.6967     55.5195   1.1733724015e+02   6.1301150929e+01    0.2317549    0.2147675 -67.30 0.0007055919    1.272    0.214
       480 -11.5706     41.3094     51.3903   1.1736463975e+02   6.2504496935e+01    0.2777646    0.1831363 -39.57 0.0002489208    1.294    0.227
       481  -9.8761    136.7407     56.6617   8.8016194155e+01   4.4059473580e+01    0.1509176    0.1169498  11.22 0.0005591977    1.581    0.368
       482 -11.0467     28.2836     54.6230   1.2370118305e+02   6.3118071301e+01    0.2381247    0.1704015 -36.24 0.0007888637    1.234    0.189
       483 -10.3528     76.7643     53.7601   1.0466490848e+02   5.7136237996e+01    0.1778249    0.1652304 -74.40 0.0009172772    1.339    0.253
       484 -12.4203     10.6645     49.1040   1.2958227464e+02   6.5537899401e+01    0.4855687    0.2520336 -64.28  0.001425301    1.685    0.407
       485 -12.0726     16.6368     47.4558   1.2656448081e+02   6.5488456189e+01    0.3505825    0.3468069   8.25   0.00272071    1.295    0.228
       486 -10.6624     20.8416     44.8391   1.2396030616e+02   6.5706483341e+01    0.1918316    0.1472962 -55.47 0.0003825519    1.203    0.169
       487 -11.4567      1.5160     52.5269   1.3424908726e+02   6.5314029667e+01    0.3626379     0.107256 -72.01  0.001387256    3.853    0.740
       488 -11.7819      4.8932     52.1574   1.3276590736e+02   6.5226550790e+01    0.3551237    0.2675972  87.75   0.00240114    1.629    0.386
       489 -11.3982    149.3635     50.9377   8.3227027735e+01   4.1835363627e+01    0.3367951    0.2227615  43.31 0.0004529819    1.543    0.352
       490 -12.1278     61.8655     44.6448   1.0676710386e+02   6.1153264827e+01    0.3350921    0.2155409 -37.00 0.0003016012    1.402    0.287
       491 -10.8245     61.2106     52.2252   1.0979969487e+02   5.9840110131e+01    0.3127261    0.1901371  31.19  0.001618179    1.791    0.442
       492 -10.3403     62.9836     48.9632   1.0795188591e+02   6.0198359977e+01     0.201661    0.1600658 -18.07 0.0003580452    1.214    0.177
       493 -10.3616     32.7367     51.9149   1.2105796090e+02   6.3269688962e+01    0.1945301    0.1536257  42.71  0.001241232    1.612    0.380
       494 -10.0189    120.5626     51.4730   9.0312346953e+01   4.8743281271e+01    0.1460617     0.139943  12.64 6.852891e-05    1.012    0.012
       495 -10.1207    175.8212     49.4126   7.7594544225e+01   3.5232033848e+01    0.2116973    0.1326687  51.31  0.000515783    1.576    0.365
       496 -10.0022    100.9832     48.9451   9.4951585826e+01   5.3440999786e+01    0.1735207    0.1571137 -18.66 0.0005868825    1.066    0.062
       497  -9.9985     73.9919     48.5022   1.0371619212e+02   5.8559873180e+01    0.1739541    0.1207955  66.40 0.0005374435    2.433    0.589
       498 -10.9178     25.9935     44.2893   1.2152878310e+02   6.5396791154e+01    0.2242569    0.1411923 -42.72 0.0006649135    1.277    0.217
       499 -10.2283    180.3358     44.4216   7.5316074739e+01   3.4769669401e+01     0.200083    0.1405855  77.79 0.0008505824    1.487    0.327
       500  -9.9552    164.4696     44.4980   7.8112359877e+01   3.8903262145e+01    0.1491346    0.1422862  83.55 5.757196e-06    1.023    0.022
       501 -10.0805     87.4735     43.5173   9.7159069638e+01   5.7021217385e+01    0.1397025    0.1247022  -1.77 0.0001081713    1.045    0.043
       502  -9.6545     80.2858     43.6899   9.9656021914e+01   5.8315425977e+01    0.1260101    0.1088838 -70.10 0.0003086832    1.574    0.365
       503 -11.3606     37.8028     40.6798   1.1513922564e+02   6.4950839290e+01    0.2745823    0.2027128 -15.04  0.001179264    1.344    0.256
       504 -10.8443    175.1196     39.2117   7.4591516632e+01   3.6852301578e+01    0.2319186    0.2096444 -38.08 0.0003976802    1.149    0.130
       505 -10.9800    137.1505     38.8295   8.1762813509e+01   4.6679527484e+01    0.3214662    0.1863505 -42.82  0.001098078    1.848    0.459
       506 -10.6737      8.7534     40.0024   1.2793726211e+02   6.7484951722e+01    0.1840894    0.1491182 -28.75 0.0007130873    1.174    0.148
       507 -10.6568    101.7852     39.1516   9.0980985214e+01   5.4833659943e+01    0.1981368    0.1936365  85.12 0.0006304033    1.200    0.167
       508 -10.6412     25.5204     38.4965   1.1980679825e+02   6.6558105315e+01    0.2302693    0.1505181 -31.05   0.00130058    1.349    0.259
       509 -10.8864     22.0231     37.7722   1.2115175156e+02   6.6990929056e+01     0.218197    0.1922075  -9.51 0.0009704551    1.211    0.174
       510 -10.1994    193.2415     37.7449   7.1373664466e+01   3.2314507505e+01      0.19056    0.1648682  38.95  0.000440825    1.301    0.231
       511 -10.7300    147.9558     38.0969   7.9211373357e+01   4.4058183494e+01    0.2121669    0.2049722  64.28 0.0003115434    1.020    0.020
       512 -10.6540    129.4950     36.7832   8.2777121187e+01   4.8843842547e+01    0.2579536    0.1956398  55.29 0.0005135913    1.266    0.210
       513 -10.2983    111.0221     37.4994   8.7719865370e+01   5.3063589830e+01    0.2142684    0.1354222  51.13 0.0004630219    1.540    0.351
       514 -12.1131     40.8851     35.8737   1.1198727285e+02   6.5486926873e+01    0.2329804    0.2009695 -46.53 0.0003301362    1.288    0.224
       515 -11.2825     41.2800     31.1020   1.0989988825e+02   6.6276718735e+01    0.3037931    0.2096122 -35.02  0.001739353    1.233    0.189
       516 -11.4785      3.6646     36.0031   1.2914126737e+02   6.8552521122e+01    0.2543242    0.1836907 -64.81 0.0009577814    1.347    0.258
       517 -11.8944     60.7362     34.7087   1.0325967252e+02   6.3038320361e+01    0.2622772    0.1970543 -31.38 0.0002137725    1.205    0.170
       518 -10.1341    156.9918     38.9418   7.7718816288e+01   4.1619583809e+01     0.173709    0.1684755  68.29 0.0009707176    1.019    0.019
       519 -10.9489     55.6549     34.3615   1.0514726918e+02   6.3842314887e+01    0.2380278    0.1895349 -12.60 0.0007013308    1.143    0.125
       520  -9.5574    208.2775     33.7202   6.8255623745e+01   2.8977031197e+01    0.1438872   0.09825415 -64.83 0.0001630236    1.503    0.335
       521 -10.9901    141.9937     33.3185   7.8785495559e+01   4.6208417641e+01    0.2080524    0.1845917  60.33 0.0004359437    1.078    0.072
       522 -11.6755    135.0672     32.5164   7.9973489642e+01   4.8047062513e+01      0.24697    0.2217932 -25.03  0.001377888    1.167    0.143
       523  -9.7721    117.5720     33.4562   8.4446478838e+01   5.2134590154e+01    0.1418417    0.1314415  24.93 0.0001218073    1.019    0.019
       524 -11.9647     77.3395     32.7429   9.6252534232e+01   6.0600391556e+01    0.5356233    0.2168067  40.15  0.002076121    2.510    0.602
       525  -9.8417    182.4900     32.4973   7.1399217633e+01   3.5797703701e+01    0.1449374    0.1356071  66.92 -5.799683e-05    1.069    0.065
       526 -11.0683    106.5678     31.9508   8.6779505091e+01   5.4835187220e+01    0.2685941    0.2108763  28.12 0.0007224676    1.255    0.203
       527 -11.8476     70.4847     28.8591   9.7055494464e+01   6.2386772166e+01    0.3796589    0.2172542 -30.10  0.001286248    1.663    0.399
       528  -9.6534    222.7471     31.3404   6.5950651122e+01   2.5668487087e+01    0.1455012    0.0905816 -58.18 0.0002710506    1.575    0.365
       529 -10.3978     24.3094     31.0860   1.1768791038e+02   6.8042681274e+01    0.1603692    0.1242843 -35.79 0.0001968572    1.048    0.046
       530 -10.2374    123.3333     28.9567   8.1325179695e+01   5.1365176688e+01    0.1921076    0.1781089  -0.16 0.0004311649    1.096    0.088
       531 -11.4658     76.2294     27.1898   9.4265488660e+01   6.1618705639e+01    0.2232559    0.1972679  18.40 0.0003687758    1.088    0.081
       532  -9.5366     12.4677     28.4914   1.2247055864e+02   6.9452170292e+01    0.1142907   0.08926535 -38.22 0.0001922363    1.042    0.040
       533 -10.2995    196.6029     27.1699   6.7909090892e+01   3.2782489669e+01    0.1891187    0.1395832 -10.23 0.0009442192    1.698    0.411
       534 -10.9288    187.0741     27.0213   6.9124091451e+01   3.5275024393e+01     0.220266    0.1957234  85.84 0.0006711074    1.043    0.041
       535 -10.3874     37.5310     26.4753   1.0964371830e+02   6.7498901831e+01    0.1204737   0.09985301 -22.53 0.0008087078    1.057    0.054
       536 -10.8615    101.1704     25.0206   8.5480411905e+01   5.6929211537e+01    0.2510708    0.2254016  11.00  0.001504414    1.042    0.041
       537 -10.4654     31.5559     24.1029   1.1141439641e+02   6.8556911810e+01    0.2747925    0.1145388 -32.88  0.001296909    2.328    0.570
       538 -10.0824      1.3790     24.7855   1.2678256631e+02   7.0808512198e+01    0.1571247   0.07279226 -48.34    0.0004562    1.547    0.354
       539 -10.9139     65.8804     24.0541   9.6648937455e+01   6.3865722325e+01    0.2151007    0.1731212  22.66 0.0005847994    1.182    0.154
       540 -10.7116     60.9937     24.0221   9.8523339563e+01   6.4664343567e+01     0.195841    0.1648025  -9.52 0.0004201894    1.028    0.027
       541  -9.8298     50.0095     24.0088   1.0302579506e+02   6.6303398150e+01    0.1736177    0.1563713 -68.70  0.001126601    1.716    0.417
       542 -11.4264     18.6405     23.0480   1.1731045560e+02   6.9959856694e+01    0.2684804    0.1620012 -31.88  0.001117106    1.368    0.269
       543 -11.5690    109.8089     22.7119   8.2216747225e+01   5.5292754816e+01    0.2477238    0.2149843  23.41  0.000295372    1.088    0.081
       544 -10.2271     90.7591     22.9462   8.7656164154e+01   5.9386102457e+01    0.1779218    0.1089431 -24.85 0.0008900253    1.637    0.389
       545 -10.3408     14.4029     20.2579   1.1834272802e+02   7.0784342274e+01    0.2073868    0.1000066 -53.35  0.001144423    1.957    0.489
       546  -9.5521      5.4833     23.4488   1.2420230240e+02   7.0825888378e+01    0.1121024   0.08456045 -38.05 0.0005144381    1.016    0.015
       547 -10.0077    200.4782    249.0719   1.1731069187e+02  -3.5959331086e+00    0.1377986    0.1133619 -25.54 0.0003827296    1.473    0.321
       548 -11.7110     38.3866     21.0850   1.0686580540e+02   6.8271609363e+01     0.290672    0.1918185  36.84 0.0007499009    1.773    0.436
       549 -11.3145    181.0275    244.1894   1.2008138169e+02   9.4259540333e-02    0.2747801     0.195679 -32.58 0.0007019296    1.760    0.432
       550 -11.5391    151.0250     20.1422   7.2509450460e+01   4.5479911492e+01    0.2085162    0.2051313  -3.10 0.0003120082    1.100    0.091
       551 -12.9523    185.7989    239.9706   1.1863503397e+02  -1.1289943999e-01    0.3696905    0.2982614  10.05  0.001671265    1.319    0.242
       552 -10.2304     51.5422     20.4931   1.0075986414e+02   6.6613699288e+01    0.1865458    0.1155214  48.46 0.0008145917    2.144    0.534
       553 -10.5882     28.2386     20.0735   1.1125346983e+02   6.9569228707e+01    0.1793905    0.1262076 -19.84 0.0006136054    1.221    0.181
       554 -10.0008     74.2086     20.5482   9.2017365064e+01   6.2895606232e+01    0.1696904    0.1107345  30.82  0.000333699    1.487    0.327
       555  -9.8625      4.8595     18.3665   1.2264093576e+02   7.1775035419e+01     0.147536   0.08736866  -8.75 0.0009408044    1.790    0.441
       556 -10.3384    145.8680     16.8415   7.2277065678e+01   4.7159341836e+01    0.2107513    0.1745473  43.64 0.0003095005    1.172    0.147
       557 -11.5306    131.3129     16.6831   7.4968088049e+01   5.0842715672e+01    0.3027226    0.2068687  43.46 0.0006804077    1.383    0.277
       558  -9.9866     97.4106     17.1544   8.3221745952e+01   5.8686926334e+01    0.1879816    0.1173296 -37.14 0.0009466076    1.754    0.430
       559 -12.1640    191.4536    235.0014   1.1689362482e+02  -3.6695334481e-01    0.3236332    0.2849462   3.76 0.0007280799    1.216    0.178
       560 -10.0106    169.4681    249.4366   1.2284920243e+02   1.2420447171e+00    0.1196002   0.09178174  39.84 6.810055e-05    1.014    0.014
       561 -10.6646    150.3306    248.3944   1.2616361582e+02   4.4433998048e+00    0.2450939    0.1766576  16.65  0.001513266    1.826    0.452
       562 -10.9074    179.0552    248.3204   1.2099059375e+02  -1.3635005125e-01    0.1701827    0.1582268  63.55 0.0006189948    1.349    0.259
       563 -11.2441     76.6755    173.7432   1.3177079784e+02   3.0146074574e+01    0.2509654    0.1958811 -86.98 0.0003642142    1.171    0.146
       564 -12.5681     80.3830    210.5850   1.3525139061e+02   2.1880753811e+01     0.904431    0.3252944 -53.25  0.003388987    3.507    0.715
       565 -12.4033     94.7461    225.5969   1.3398398169e+02   1.6921926267e+01    0.3403646    0.3114862  54.00   0.00160472    1.281    0.219
       566 -13.0785     88.3770    217.6205   1.3439599627e+02   1.9353135382e+01    0.8619333    0.5735255 -86.17  0.002266519    1.567    0.362
       567 -10.5845     64.1795     13.6466   9.2424023098e+01   6.5545875472e+01    0.2147801    0.1594553  59.51 0.0009480002    1.895    0.472
       568 -10.6279    173.0711     13.9676   6.7114045992e+01   4.0398466562e+01     0.209275    0.1919068  76.67 0.0003273781    1.024    0.023
       569 -12.9899     73.6132    205.1976   1.3606224650e+02   2.3915655632e+01    0.3908883    0.2511966  57.82  0.000459176    1.311    0.237
       570 -11.3937     68.7958    200.5270   1.3657069824e+02   2.5532573554e+01    0.2662172    0.2499129  28.60  0.001455164    1.488    0.328
       571 -10.3522     70.0366     13.1903   9.0059017202e+01   6.4574430759e+01    0.1724497    0.1656022  19.61 0.0005937144    1.276    0.216
       572 -12.0091     74.5782    197.1534   1.3502083803e+02   2.5420138723e+01    0.6969157    0.3293067  78.77  0.002836854    3.225    0.690
       573 -12.4489     69.5427    211.4782   1.3748763391e+02   2.3231218904e+01    0.7592911    0.3744603  75.29  0.002814353    2.413    0.586
       574 -13.8232     75.6493    240.5730   1.3888176042e+02   1.7003207748e+01    0.5268783    0.2570958  62.80  0.001619421    1.874    0.466
       575 -12.1085     68.1842    234.7502   1.3975233077e+02   1.9042610871e+01    0.3239574    0.2436913  73.20  0.002290084    1.100    0.091
       576 -12.8304     62.5375    219.6780   1.3956620437e+02   2.2582833191e+01    0.2193034    0.1661182  73.28 0.0005183297    1.058    0.055
       577 -12.6520     59.2898    213.8897   1.3969750584e+02   2.4126268194e+01    0.6189147     0.413333 -64.95  0.002394484    1.656    0.396
       578 -14.1676     74.2748    228.3464   1.3810660508e+02   1.9373976235e+01    0.5776305    0.4927759  70.49  0.002787681    1.178    0.151
       579 -11.6416     78.2776    222.0195   1.3678263987e+02   1.9987389735e+01    0.2422156    0.1643158  42.56 0.0003904944    1.411    0.291
       580 -12.4715     69.8489    190.8261   1.3533047954e+02   2.7407536518e+01    0.3213443    0.2013648 -58.02   0.00039755    1.755    0.430
       581 -12.9892     66.0437    190.0409   1.3605674926e+02   2.8095459036e+01    0.5092171    0.2834973 -55.02    0.0012715    2.061    0.515
       582 -12.5370    203.1722    241.2939   1.1572077978e+02  -3.0625335753e+00    0.2352914    0.2197795 -14.89 0.0005424588    1.338    0.253
       583  -9.9966    174.5005    244.4805   1.2129692158e+02   1.1063626652e+00    0.1211473   0.09473833  39.01 0.0008102382    1.025    0.025
       584 -10.8097    161.0504    241.4791   1.2335069339e+02   3.7114396811e+00    0.2015807    0.1671065 -84.68  0.001355721    1.629    0.386
       585 -12.5585    146.8924    240.4622   1.2583025513e+02   6.1704634483e+00    0.3526635     0.297128 -73.74  0.002451502    1.486    0.327
       586 -10.5287    171.7552    240.5767   1.2127129317e+02   2.0910645019e+00    0.2426332   0.09593727  38.64  0.001136462    2.075    0.518
       587  -9.7414    237.7084    238.3225   1.0931158488e+02  -7.9695473554e+00   0.09681855    0.0880246  44.81 0.0003219159    1.610    0.379
       588 -10.1137    168.1462    238.1570   1.2160624646e+02   3.0264149090e+00    0.1593964    0.1320693  62.79 0.0009595145    1.369    0.270
       589 -10.5953     56.2083    236.8327   1.4203905015e+02   2.0231872377e+01       0.1568    0.1305588  25.38  0.001119497    1.851    0.460
       590 -10.7872    197.5773    234.4169   1.1569916897e+02  -1.2867372941e+00    0.2524358    0.1816943  -1.34 0.0007731711    1.646    0.392
       591 -11.2920    218.9850    233.1239   1.1169784652e+02  -4.5360782181e+00    0.3078287    0.2006683   7.26 0.0005774517    1.685    0.407
       592 -12.0840    176.5627    233.1459   1.1935481862e+02   2.3501694903e+00    0.3453618     0.188147  32.84 0.0009309941    1.674    0.403
       593 -11.0509    183.7664    232.3799   1.1791395312e+02   1.2598192090e+00    0.4798348    0.2045296  28.42   0.00195425    3.110    0.678
