#   1 NUMBER                 Running object number                                     
#   2 MAG_AUTO               Kron-like elliptical aperture magnitude                    [mag]
#   3 X_IMAGE                Object position along x                                    [pixel]
#   4 Y_IMAGE                Object position along y                                    [pixel]
#   5 X_WORLD                Barycenter position along world x axis                     [deg]
#   6 Y_WORLD                Barycenter position along world y axis                     [deg]
#   7 A_WORLD                Profile RMS along major axis (world units)                 [deg]
#   8 B_WORLD                Profile RMS along minor axis (world units)                 [deg]
#   9 THETA_WORLD            Position angle (CCW/world-x)                               [deg]
#  10 FWHM_WORLD             FWHM assuming a gaussian core                              [deg]
#  11 ELONGATION             A_IMAGE/B_IMAGE                                           
#  12 ELLIPTICITY            1 - B_IMAGE/A_IMAGE                                       
         1 -14.2336    166.1212     50.9870   7.4241974155e+01   3.7171267218e+01     1.744993     1.181883  21.22  0.006390003    2.260    0.558
         2 -14.1360    179.7541     34.8926   6.7704985224e+01   3.5981785230e+01    0.9073766    0.8697488 -74.68  0.003505895    1.159    0.137
         3 -11.9342    189.9569     14.8236   6.1387623719e+01   3.5841577884e+01    0.2096809    0.1865393 -59.85 0.0008101006    1.227    0.185
         4 -13.7317    200.1343      4.0311   5.7806302012e+01   3.4559234863e+01    0.8519695    0.4445758  70.55  0.004316532    1.576    0.366
         5 -13.8390     11.6803    206.2374   1.4530453556e+02   3.0015064053e+01    0.5364301    0.2735232  34.44  0.003069158    2.209    0.547
         6 -18.8426     52.0072    243.9687   1.4063564624e+02   1.7364230726e+01     6.761865     6.027061  71.91   0.04885567    1.275    0.216
         7  -9.9028     22.8043    195.7760   1.4221257413e+02   3.1222294443e+01    0.1007871   0.07738949 -67.07 0.0006370603    1.318    0.241
         8 -10.8734    167.5213    188.5086   1.0777650231e+02   9.4526659384e+00    0.2818883    0.2198175 -57.42  0.001393352    1.413    0.292
         9 -19.0709     35.4876    102.5691   1.2592300421e+02   5.1838792517e+01      17.1981    0.7401006 -60.28   0.02477183   20.017    0.950
        10 -12.3898     99.3283    180.9432   1.2262085176e+02   2.4250375635e+01    0.3294944    0.3136873  88.83 0.0006075401    1.070    0.066
        11 -12.0620     95.6937    180.3170   1.2341216193e+02   2.5020476359e+01     0.306237    0.2436565  86.33 0.0006204634    1.292    0.226
        12 -11.3165    207.5220    179.3760   9.7305509009e+01   3.3504350029e+00    0.6049894     0.357527  20.28  0.002440647    2.436    0.589
        13  -9.2372    179.2548    206.2838   1.0859816526e+02   3.5649801041e+00    0.1365336    0.1084047  -0.25 0.0006856677    1.474    0.321
        14 -10.0997    195.6900    174.3232   9.8693617560e+01   6.6905399188e+00    0.2646739    0.2105284  87.94 0.0008452496    1.781    0.439
        15 -11.4976    195.8907    170.1964   9.7772412498e+01   7.4847003816e+00    0.4112879    0.3922412 -74.78 0.0009959951    1.162    0.140
        16 -10.7705    193.8108    164.9445   9.7077140387e+01   8.9861912978e+00     0.372446    0.2871175 -51.27  0.001755335    1.350    0.259
        17 -12.0281     73.2466    174.8780   1.2810819121e+02   2.9894461547e+01    0.2793499    0.2164952 -72.89 0.0007516529    1.194    0.162
        18  -9.0032     13.6288    175.7514   1.4234484540e+02   3.6681453916e+01    0.1115863   0.08416136 -46.04 0.0003105395    1.630    0.386
        19 -10.6163    198.5483    222.7821   1.0756763154e+02  -2.9630413713e+00    0.2406602    0.1707265  35.39 0.0003783985    1.286    0.222
        20 -12.1821    137.6713    171.4407   1.1137327418e+02   1.9287812732e+01    0.3088719    0.2927132 -85.42  0.001104243    1.060    0.056
        21 -10.5155    158.4940    204.5872   1.1284422117e+02   7.8745818521e+00    0.3761985    0.1958705  63.35  0.001236538    3.639    0.725
        22 -12.1629    112.6921    150.2631   1.1333874107e+02   2.9250303056e+01     0.468741    0.3000386 -88.20  0.001767752    2.543    0.607
        23 -12.0611     97.4571    161.0872   1.1954446832e+02   2.9386591945e+01    0.3163028    0.2838974 -63.78 0.0003838049    1.084    0.078
        24 -13.5576    102.3834    153.6752   1.1679124968e+02   3.0328769286e+01    0.9126172    0.6481521 -22.66  0.003987561    2.039    0.510
        25 -10.1813    163.3538    204.0498   1.1166460001e+02   7.0495495225e+00    0.1982136    0.1842657 -51.81 0.0004949225    1.163    0.140
        26 -10.0848      7.9000    161.0809   1.4222220065e+02   4.0550384469e+01     0.174112    0.1207481 -49.69 0.0007918428    1.567    0.362
        27 -10.7752    120.2644    157.0484   1.1278751449e+02   2.6155229925e+01    0.3142126    0.1971538 -55.92  0.001347608    1.605    0.377
        28 -10.8394     10.3966    213.9320   1.4610324954e+02   2.8481104397e+01    0.1455559    0.1178198  52.62 0.0006331733    1.361    0.265
        29 -12.6395    133.9781    145.5083   1.0671955626e+02   2.6118769003e+01     1.322709    0.3319166 -54.51  0.002959615    5.881    0.830
        30 -10.4439    174.9846    149.0198   9.7627550169e+01   1.6402967328e+01    0.2485882    0.1954876  89.81 0.0004990056    1.653    0.395
        31 -12.0377    144.7224    145.4778   1.0399511540e+02   2.3840695834e+01    0.3742372    0.3219253  79.17  0.000945648    1.291    0.226
        32 -10.7693      6.3105    146.0171   1.4102482472e+02   4.4157849820e+01    0.1843714    0.1785263  61.48 0.0005735854    1.290    0.225
        33 -13.0259    110.7116    139.9945   1.1162528114e+02   3.2100769529e+01    0.8080025    0.5117165 -21.61  0.003025382    2.664    0.625
        34 -11.6843    139.3192    200.5599   1.1647334075e+02   1.2404653820e+01    0.2997935    0.2228592 -88.76  0.001425655    1.732    0.423
        35 -12.3677    100.5701    139.4422   1.1428930550e+02   3.4114527026e+01    0.3114817    0.2893443  22.89  0.000442189    1.175    0.149
        36 -11.8788    105.9289    130.6908   1.1081404488e+02   3.5225828707e+01    0.4275725    0.3420902 -66.23  0.001198106    1.311    0.237
        37 -11.1906    105.7996    125.9142   1.0971845866e+02   3.6376632594e+01    0.3081587    0.2486012 -32.15 0.0008049912    1.338    0.252
        38 -12.6483      3.6453    128.5603   1.3966616383e+02   4.8359095952e+01    0.6029822    0.2406598 -78.79  0.002739664    2.420    0.587
        39 -12.1445    118.0071    129.8072   1.0726428703e+02   3.3086219267e+01    0.4186363     0.366246  13.94  0.001043313    1.304    0.233
        40 -11.8638    135.4623    122.1782   1.0071643793e+02   3.1169850575e+01    0.6480269    0.1530308 -47.46  0.001657766    4.324    0.769
        41 -11.1816    160.5696    127.3765   9.5791689122e+01   2.4377912742e+01    0.3603761    0.2564607 -78.71  0.001415954    1.976    0.494
        42 -11.4424    125.2137    127.2249   1.0468597238e+02   3.2210788992e+01     0.394724    0.2591838  82.27  0.001438852    2.692    0.629
        43 -11.1409     79.5241    120.0277   1.1599364574e+02   4.2297259493e+01    0.2300274    0.1348038 -52.86 0.0006970766    1.586    0.370
        44 -10.6145    112.1495    119.0099   1.0622745355e+02   3.6750444146e+01    0.2516223    0.2229488  42.94 0.0002730887    1.148    0.129
        45 -12.2112     67.5842    116.5673   1.1882709626e+02   4.4871547673e+01     0.258992    0.2388971 -49.23 0.0009984639    1.011    0.011
        46 -11.1574    168.3672    113.1091   9.0403788810e+01   2.5596635298e+01    0.4291578    0.2997133 -76.72   0.00114964    2.000    0.500
        47 -11.0904      1.9342    113.0590   1.3809415714e+02   5.1974244541e+01     0.215907    0.1586876 -43.05   0.00144541    1.320    0.243
        48 -10.5747    205.3564    110.2509   8.2159819038e+01   1.7499791905e+01    0.3182642     0.210716  48.48  0.001053087    1.584    0.369
        49 -12.3063     60.6306    109.2282   1.1932485050e+02   4.7506538503e+01    0.2824569    0.2644251  75.02  0.001712193    1.221    0.181
        50 -12.4952    193.4193    192.3826   1.0288596256e+02   3.5561064003e+00    0.8390508    0.4846041 -52.36   0.00301867    2.016    0.504
        51 -11.1039     67.1291    104.1880   1.1606486974e+02   4.7773293999e+01    0.2836302    0.1698831   3.86  0.001167855    2.713    0.631
        52  -9.9414    150.2151    101.1884   9.1497710504e+01   3.2314109048e+01    0.2138099    0.1824016  89.88 0.0004090513    1.334    0.250
        53 -10.6082    209.0220    197.9883   1.0076958456e+02  -4.3272637350e-01    0.2070066    0.1780623  86.22 0.0005927947    1.659    0.397
        54 -10.0160     13.5056     59.9383   1.2378281598e+02   6.2458071002e+01     0.169224   0.09501599 -52.74 0.0004341833    1.494    0.331
        55 -10.1504      1.3781    248.8689   1.4974946081e+02   2.2308689111e+01    0.1270036   0.07918986 -79.80  0.000893364    1.431    0.301
        56 -10.5546     15.6122    213.3818   1.4507780944e+02   2.8074738318e+01    0.1162766   0.08729897  82.07  0.000179851    1.003    0.003
        57 -13.2607    184.1441     28.2539   6.5396234772e+01   3.5725009893e+01    0.5164705    0.4533031  71.46  0.001192308    1.100    0.091
        58  -9.8828    111.1546     21.3214   7.6674278543e+01   5.3681273605e+01    0.1878754    0.1099745  64.40 0.0009235032    1.794    0.443
        59 -11.0945    169.2240    236.6866   1.1598234976e+02  -2.2688171146e-01    0.2182328    0.2061882  -3.08 0.0003328882    1.152    0.132
