#   1 NUMBER                 Running object number                                     
#   2 MAG_AUTO               Kron-like elliptical aperture magnitude                    [mag]
#   3 X_IMAGE                Object position along x                                    [pixel]
#   4 Y_IMAGE                Object position along y                                    [pixel]
#   5 X_WORLD                Barycenter position along world x axis                     [deg]
#   6 Y_WORLD                Barycenter position along world y axis                     [deg]
#   7 A_WORLD                Profile RMS along major axis (world units)                 [deg]
#   8 B_WORLD                Profile RMS along minor axis (world units)                 [deg]
#   9 THETA_WORLD            Position angle (CCW/world-x)                               [deg]
#  10 FWHM_WORLD             FWHM assuming a gaussian core                              [deg]
#  11 ELONGATION             A_IMAGE/B_IMAGE                                           
#  12 ELLIPTICITY            1 - B_IMAGE/A_IMAGE                                       
         1 -11.9563    160.8144     28.6068   6.7021445308e+00   4.0624922515e+01    0.7822056    0.4290943 -65.60  0.003578012    2.173    0.540
         2 -12.7637    176.2078     40.5289   7.8634170567e+00   3.5498395251e+01     1.179412    0.6485235  32.82  0.004743299    3.333    0.700
         3 -13.0480    187.7467     34.4059   4.8860320021e+00   3.3580233261e+01     1.489511    0.7583582  77.02  0.005366102    1.980    0.495
         4 -13.0732    208.4229     46.8766   5.5776812412e+00   2.7405359679e+01     1.364186     0.846256 -73.05  0.006786386    1.701    0.412
         5 -12.3977    221.0239     38.9352   2.5601602584e+00   2.5780948870e+01     1.039025    0.5379565 -89.91  0.002255645    2.229    0.551
         6 -14.0503    217.8948     59.2910   7.3520820704e+00   2.3728477522e+01     3.099001     1.608975 -83.14   0.01340204    2.925    0.658
         7 -12.6503    230.1227     48.0339   3.6707859126e+00   2.2787903787e+01     1.064362    0.6601695  45.72  0.005883949    2.286    0.563
         8 -11.9262    149.8091     40.8355   1.1896484087e+01   4.1821302817e+01     0.815954    0.4558388  79.22  0.003142857    2.051    0.512
         9 -15.1138     66.8669     82.7401   4.8796681451e+01   5.2986152450e+01      3.43804     1.856744  57.68   0.01209483    3.327    0.699
        10 -13.2973     61.8522     44.3580   3.7121832571e+01   6.1340921560e+01    0.7644917    0.6090677 -79.48  0.001304439    2.166    0.538
        11 -11.9970     49.1266     31.8612   3.7235464811e+01   6.5548440393e+01     1.702909    0.9945743  43.70  0.008687449    1.746    0.427
        12  -9.5244     57.0360     24.6850   3.0457270170e+01   6.5142247647e+01     2.008749     1.385949 -81.82  0.007754674    4.638    0.784
        13 -13.2847     75.1242     20.7913   2.2044239514e+01   6.1947573994e+01     1.646437     1.132421  63.59  0.004211123    1.602    0.376
        14 -11.6782     30.6871     19.4467   4.0473376904e+01   7.0265624000e+01    0.8076851    0.4272839 -39.81 0.0005438586    2.032    0.508
        15 -11.8489     41.9408     21.5990   3.5729870127e+01   6.8224464874e+01    0.7326183    0.3928705  34.03  0.002625433    1.684    0.406
        16 -13.1931      5.1533     44.3550   6.5929300031e+01   6.8441655156e+01     1.082026    0.6898913 -30.61  0.006374962    1.332    0.250
        17 -13.9461     10.9526     33.9785   5.8831811411e+01   7.0079378952e+01     1.217707     1.017253  30.25  0.005046721    1.483    0.326
        18 -13.4991     40.8834     55.8959   5.0991544421e+01   6.2557403640e+01     1.227116     0.914705  13.62  0.005302348    1.311    0.237
        19 -12.6078     63.0477      4.5707   1.8442434581e+01   6.6116838448e+01    0.8870215    0.5694743  59.84 0.0009149092    1.529    0.346
        20 -14.5783     10.8305     68.1799   6.9444033917e+01   6.2865859805e+01     3.487884     1.331503  15.99   0.01494618    2.813    0.644
        21 -11.1647    216.4028     24.3290   3.5979613264e+02   2.8483857459e+01     0.458682    0.3875738  20.62   0.00302049    1.820    0.451
        22 -11.8756    211.2407     21.2853   3.5955116523e+02   2.9913991973e+01    0.4178228     0.341536  35.77  0.002212379    1.776    0.437
        23 -12.6545    225.9089     23.1398   3.5880760931e+02   2.6668734167e+01    0.4927703    0.3215267  63.99  0.002002387    1.686    0.407
        24 -12.6950    161.0220     38.4455   9.4303464075e+00   3.9393080115e+01    0.7834688     0.632612  65.23  0.003437453    1.173    0.147
        25  99.0000    234.2934     24.2841   3.5843429670e+02   2.4875459490e+01    0.5054421    0.2956011  67.22  0.003101518    1.816    0.449
        26 -11.0391    153.7253     25.1716   6.7060164668e+00   4.2732940281e+01    0.3151287    0.2227487  76.74 0.0009640135    1.286    0.222
        27 -11.8697    123.5713     24.0570   1.1275294894e+01   5.0265143042e+01    0.3577665    0.2749822 -25.85  0.001334256    1.480    0.324
        28 -11.3552    201.9846     20.8870   2.4168738088e-01   3.1954455888e+01    0.3427337    0.2065496 -49.89  0.001457242    1.471    0.320
        29 -10.3620    204.4918     17.4528   3.5925030024e+02   3.1782374072e+01    0.5098357    0.2251075 -82.41  0.002282791    2.686    0.628
        30 -11.2933     25.6572     39.9462   5.2687893141e+01   6.7512935333e+01       2.0107    0.7767602 -45.50  0.008873587    2.359    0.576
        31 -10.7240    109.1228     10.6224   9.3160604422e+00   5.5091243026e+01    0.4474441    0.2695295 -11.02  0.002292656    2.101    0.524
        32 -11.1469    114.9513     12.9250   9.0414068624e+00   5.3473523289e+01    0.2374432    0.2018662  88.97  0.001451046    1.199    0.166
        33 -10.7436    118.8403      7.0940   6.3254586064e+00   5.3030886924e+01    0.2127808    0.1738661  18.25 0.0009951916    1.452    0.311
        34 -10.6359    111.7553      4.3790   6.5721167276e+00   5.4969891525e+01    0.2549807    0.1711642  69.96 0.0006612554    1.285    0.222
        35 -10.9880    118.1042     10.8378   7.7435304350e+00   5.2891532092e+01    0.3710142    0.2526127 -88.37  0.001515978    1.605    0.377
        36 -10.6726    115.3265      6.8359   6.8274708069e+00   5.3907396862e+01    0.3470823    0.2268441  65.45 0.0006693876    1.286    0.222
        37 -12.4583    221.4723      8.8351   3.5615594220e+02   2.9116446502e+01    0.5938628    0.1874127 -47.44  0.002833862    2.466    0.595
        38 -12.1764    228.4350      9.9560   3.5594366871e+02   2.7598377987e+01    0.6443073     0.418514 -87.19  0.002950282    1.365    0.267
        39 -12.6549    249.9570     10.6917   3.5484405404e+02   2.3413268262e+01    0.3268102     0.230128 -55.59  0.001111188    1.099    0.090
        40 -13.6344    244.2713      8.4563   3.5473382980e+02   2.4700173109e+01    0.8571433    0.3761381 -82.27  0.004665593    2.326    0.570
        41 -12.7982    173.1409      6.3340   3.5933261320e+02   3.9979716875e+01    0.4169679    0.3009554 -19.74  0.001922549    1.743    0.426
        42  -9.9738    125.0000     15.0622   7.9956765341e+00   5.0819605512e+01    0.3811235   0.07730518 -26.12  0.001195059    5.083    0.803
        43 -10.1751    124.7759      9.1856   6.0724492418e+00   5.1404464598e+01    0.2630938    0.1825804 -26.62  0.001239763    1.662    0.398
        44  -9.9252    187.0543     14.1664   3.5999316705e+02   3.6005653267e+01    0.2155514    0.1725196 -26.10  0.001373073    1.503    0.335
        45 -10.0696    167.6397     14.4035   1.9911499638e+00   4.0502821812e+01    0.2790147    0.1587729 -56.81  0.001446983    1.766    0.434
        46 -11.1023    149.5978     13.1356   3.7688935338e+00   4.4971391798e+01    0.3700823    0.2156568 -89.87  0.001249325    1.760    0.432
        47 -13.3897     56.1468     58.1153   4.4894009538e+01   5.9860051116e+01     1.472067     1.126261  77.52  0.003914087    2.331    0.571
        48 -10.0889    161.0677     13.0413   2.3565099388e+00   4.2206285602e+01    0.2489431    0.1284112  49.25  0.001196711    2.128    0.530
        49 -10.1111     88.7826     12.1547   1.4415465375e+01   5.9769239642e+01    0.1745669    0.1709498  42.20 0.0009758868    1.157    0.135
        50  -9.6191    130.8994      9.1789   5.1318001970e+00   4.9905139888e+01    0.3153364    0.1770144  24.41  0.001438881    2.688    0.628
        51 -10.4327    101.9187     10.1941   1.0606739181e+01   5.6858086929e+01    0.2417911    0.2017547  43.21 0.0007670377    1.131    0.116
        52  -9.5539    101.8118      6.3524   9.1601756965e+00   5.7204651645e+01    0.2200536    0.1307142  39.17 0.0005769155    1.680    0.405
        53 -10.9328     26.0114     10.0363   3.8023838811e+01   7.2223354604e+01    0.2303672    0.1587281  -1.00 0.0008631531    1.339    0.253
        54 -11.0069     72.4747      4.9968   1.5706907002e+01   6.4061218194e+01    0.4345289    0.2223971 -26.75  0.002219961    2.192    0.544
        55 -10.7404     85.2631      1.9561   1.0991084213e+01   6.1426195539e+01    0.4002452     0.186361  43.17  0.001506807    1.909    0.476
        56 -10.6643     84.2563      7.2160   1.3483448852e+01   6.1240442842e+01    0.3991332    0.1577821  44.87  0.001632878    2.192    0.544
        57 -10.8968     78.6649      9.9137   1.6156436311e+01   6.2268014793e+01    0.3711041    0.1616348  55.68 0.0002946097    1.897    0.473
        58 -12.4346     76.8353      5.4054   1.4655571773e+01   6.3064493463e+01    0.3307322    0.2215172  16.93 0.0004313643    1.650    0.394
        59 -11.9414    193.8036      8.0707   3.5797187434e+02   3.5097712518e+01    0.2755617    0.2240446  80.36  0.001397598    1.178    0.151
        60  -9.5439     93.2065     11.9866   1.3260791647e+01   5.8757702514e+01    0.1515527    0.1062931 -20.09 0.0003520493    1.636    0.389
        61 -11.4685     45.3129      6.0817   2.6012491273e+01   6.9480665764e+01    0.3768534    0.3618998  62.65  0.001544643    1.454    0.312
        62 -10.7225     46.5435      2.2078   2.3358703375e+01   6.9623294137e+01    0.2574813    0.1708157  17.60   0.00153208    1.444    0.308
        63 -10.3952    215.7058      8.1229   3.5638567203e+02   3.0376280897e+01     0.168801    0.1201318 -61.95 0.0003287066    1.143    0.125
        64  -9.7779    142.7722      6.9687   2.8175630976e+00   4.7193221579e+01    0.1639964    0.1413807 -87.37 0.0002771973    1.073    0.068
        65 -11.2902      4.1327      5.4810   4.9849690403e+01   7.5512665422e+01    0.3594723    0.1815028   2.22  0.001081027    2.225    0.551
        66  -9.9949    210.6614      6.0789   3.5628982287e+02   3.1638462913e+01    0.1506965     0.124036 -53.42 0.0005251685    1.195    0.163
        67 -10.6671    183.7682      3.6169   3.5772912196e+02   3.7780065849e+01    0.2310748     0.198012 -41.76 0.0008574684    1.305    0.234
        68  -9.9888    187.0417      1.2046   3.5689408708e+02   3.7259922079e+01    0.1738441    0.1014868  74.83 0.0004621763    1.505    0.336
        69 -11.4884    216.2872      2.4234   3.5515539146e+02   3.0823242299e+01    0.4120641    0.1794942  81.71  0.002077511    2.111    0.526
        70 -10.2526    229.9884      1.3834   3.5415251787e+02   2.8161487357e+01    0.4325917   0.09898305  80.03  0.001651439    4.555    0.780
        71  -9.7817    202.9730      1.0000   3.5570503971e+02   3.3769258656e+01    0.1745362   0.05767116  77.16 0.0004504164    2.714    0.632
        72 -12.7944    102.5242     96.3474   4.0495031483e+01   4.3272979442e+01    0.6752684    0.4376269  39.88  0.002963685    1.533    0.348
        73 -12.3365     95.4303     90.8985   4.1140933103e+01   4.5905857921e+01    0.5815712    0.4845935  49.44  0.001052969    1.247    0.198
        74 -13.2033    187.0992     60.3697   1.1468945582e+01   3.0248216148e+01     1.233138    0.6712436  47.64 0.0005858804    2.128    0.530
        75 -10.2278    250.4294     94.4068   1.1149571234e+01   1.2508465392e+01    0.3052192    0.1058547 -33.66  0.001258009    2.761    0.638
        76 -10.3980    205.9351     95.8248   1.7265613874e+01   2.0576878724e+01     0.202351    0.1837267  -2.32 0.0006050258    1.293    0.226
        77 -14.7664     48.9452     86.2476   5.6998019664e+01   5.4867255903e+01      2.58546     0.801343  40.47  0.007107185    3.674    0.728
        78  -9.9075    204.1975    116.3369   2.2253084078e+01   1.7402124293e+01    0.3118737    0.1790146  73.36  0.001210303    3.275    0.695
        79 -11.1824    126.4772    115.6910   3.8876414672e+01   3.3962061987e+01    0.3149509    0.1942344  39.55 0.0008223524    1.643    0.391
        80 -10.1730    182.7478    115.5375   2.5907629119e+01   2.1882032126e+01    0.2597662    0.1428414  45.94 0.0006110258    1.936    0.483
        81 -11.1160     65.0725    114.8207   5.8053087899e+01   4.5619124126e+01    0.2594063    0.2101408 -56.01 0.0002684515    1.200    0.166
        82  -9.6421    241.9926    113.9876   1.6148029951e+01   1.0930991533e+01    0.1462956    0.1278564 -40.04 0.0004005406    1.061    0.058
        83 -10.8668    133.9552    110.4763   3.5518964402e+01   3.3478545734e+01    0.2411716    0.1536081  46.80  0.001025971    1.580    0.367
        84 -10.1745    210.2849    111.9597   2.0273200573e+01   1.6982264240e+01    0.2353232    0.1849425  56.64  0.001324898    1.443    0.307
        85 -13.0998      3.8094     56.9810   7.0232634462e+01   6.5812645556e+01     1.923183    0.6699268 -24.86  0.007146636    3.677    0.728
        86 -10.4309    174.8636    111.8780   2.6557990013e+01   2.4240095166e+01    0.2346751    0.2080329  44.62 0.0003905658    1.184    0.156
        87 -10.5272    165.2630    110.9691   2.8304286037e+01   2.6491614973e+01     0.207885    0.1905752 -39.62 0.0002911362    1.055    0.052
        88  -9.6198    233.6464    108.9895   1.6215662072e+01   1.3157699532e+01    0.1777438    0.1422967 -38.82  0.001093797    1.060    0.057
        89 -13.4942     79.0981     49.9367   3.2763827072e+01   5.7085694263e+01    0.9583814    0.6449445  31.42  0.004746232    1.471    0.320
        90 -13.2749     79.3302     41.3758   2.9316750339e+01   5.8373715106e+01      1.28841    0.3442279  43.52  0.004127646    3.510    0.715
        91  -9.8182      3.0302     96.0098   7.8198094646e+01   5.6609088080e+01    0.1573857    0.1324278 -58.92            0    1.003    0.003
        92 -12.9650    175.3137     87.1314   2.0219880444e+01   2.8651950158e+01     1.136303    0.6997323  27.47    0.0046264    2.619    0.618
        93 -13.4858    203.9319     78.5759   1.3527977700e+01   2.3783832653e+01     1.691345    0.8271036  80.18  0.006099651    3.833    0.739
        94  -9.8580    157.9343     95.4851   2.5839288015e+01   3.1097777479e+01    0.2338099    0.1480728  52.48  0.001037768    1.606    0.377
        95 -12.4967     48.8940     94.1631   5.9118915151e+01   5.2987336032e+01    0.4540604    0.2963457  64.94  0.001888542    2.375    0.579
        96  -9.8518     68.0065     94.2772   5.1740933025e+01   5.0168495352e+01    0.2065749    0.1840893  24.50 0.0001939447    1.132    0.116
        97 -11.2828    100.0926     54.6385   2.7719263466e+01   5.1791429321e+01     1.381674    0.6622239  35.64  0.005153132    2.486    0.598
        98 -11.4218    207.1642     90.2571   1.5793103435e+01   2.1242994708e+01    0.3924502    0.2384259 -45.20 0.0009019962    1.477    0.323
        99 -10.8178    196.1562    107.5598   2.1583205623e+01   2.0560775244e+01    0.3679877    0.2495697 -40.12  0.001857875    1.351    0.260
       100 -10.2441      1.6197     90.8418   7.7989234114e+01   5.7957482810e+01    0.1816412    0.1121058 -82.87 0.0005278622    1.645    0.392
       101 -10.1070     86.2264     89.6088   4.3828934488e+01   4.7999344742e+01    0.2646851    0.1897204  26.94 0.0009632718    1.471    0.320
       102  -9.0974    245.2667     89.3301   1.0700865466e+01   1.4148820037e+01    0.1147471   0.09075562 -14.57 0.0002881882    1.578    0.366
       103 -11.8913    236.2902     86.0972   1.1059750010e+01   1.6237762541e+01    0.5918557    0.3199826  80.83  0.002594146    2.998    0.666
       104 -11.9360    161.9539     84.1764   2.1970768413e+01   3.2230295793e+01    0.7706164    0.4588817  47.65  0.003174353    1.732    0.423
       105 -12.1989    169.1811     80.8212   1.9690179683e+01   3.1136707091e+01    0.4378309      0.36019 -72.48 0.0009838085    1.297    0.229
       106 -10.9185    168.7744     76.5578   1.8628625860e+01   3.1947744728e+01    0.3944474    0.2473329  68.99  0.001073391    1.775    0.437
       107 -11.8051    147.6260     84.2070   2.4976538004e+01   3.5570285118e+01    0.4282615    0.3194441  58.43  0.001141233    1.355    0.262
       108 -12.5008    147.3817     79.3396   2.3646909677e+01   3.6500682917e+01    0.3726117    0.3215493 -55.94  0.000216272    1.182    0.154
       109 -12.8875     51.1573     45.1548   4.2060150026e+01   6.3048226777e+01     1.393619    0.5748594  23.58  0.004613926    3.959    0.747
       110 -11.3992    212.9507     89.9913   1.4903274302e+01   2.0112996360e+01    0.2060463    0.1772068 -55.53  0.000405153    1.060    0.057
       111 -11.2562    248.8425     83.4210   9.1127287585e+00   1.4393952043e+01    0.3357065    0.2012715 -60.81  0.001098804    1.749    0.428
       112 -10.2082     80.9854     84.0086   4.3948837877e+01   5.0209868898e+01    0.4288659    0.2129756  31.07  0.001228646    2.237    0.553
       113 -14.0971     77.1980     59.0383   3.6869554583e+01   5.5899097416e+01     1.092952    0.4208365  43.58  0.003077692    2.500    0.600
       114  -9.8183    238.3444     80.3888   9.6298261054e+00   1.6710363967e+01    0.2586219    0.1416863 -25.99 0.0008160862    2.194    0.544
       115 -10.8452     82.1110     78.9773   4.1956118657e+01   5.1061926150e+01    0.4795639    0.3148804  21.53 0.0009988312    1.794    0.443
       116 -11.9783     73.5258     74.9376   4.3773890522e+01   5.3503664572e+01    0.7940905     0.583635  51.20  0.003881689    1.555    0.357
       117 -10.7536     66.2694     70.0295   4.4931241288e+01   5.5798694603e+01    0.3911389    0.2218852  48.79    0.0016687    2.096    0.523
       118 -10.7125     86.8256     76.3308   3.9450292628e+01   5.0681128526e+01    0.3851613    0.2523209 -50.99  0.001009786    1.680    0.405
       119 -11.9967     82.4353     71.7117   3.9444605042e+01   5.2472792960e+01    0.4398066    0.4109527  56.76 0.0006413863    1.200    0.167
       120 -10.4229    154.9823     76.7895   2.1331836034e+01   3.5146770804e+01    0.4952604    0.1789139  55.53  0.001717366    2.752    0.637
       121 -10.6572    103.8511     75.8300   3.3788206997e+01   4.7205963794e+01     0.228267    0.2047226   3.22 0.0006592525    1.176    0.150
       122 -11.9496    209.0866     58.2983   8.1317589058e+00   2.5706833136e+01    0.3890751    0.2526165 -79.54  0.001457831    1.725    0.420
       123 -11.3474    245.0645     50.4624   2.8480522318e+00   1.9620484203e+01    0.6327194    0.1336851 -42.91 0.0004693543    3.236    0.691
       124 -13.7208    207.2735     67.7613   1.0547256940e+01   2.4724894262e+01    0.9165605    0.6981955  57.85  0.001812321    1.436    0.304
       125 -11.6611     86.2930     63.5346   3.5277132002e+01   5.3250636278e+01    0.3426638    0.3033495 -25.12  0.001351448    1.149    0.130
       126  -9.9630    176.2614     61.0457   1.3250689433e+01   3.2645204828e+01    0.3015148    0.2138002 -69.08  0.001537214    1.529    0.346
       127 -11.6730    173.6264     56.4465   1.2441775156e+01   3.3938015385e+01    0.3935784    0.3156871  76.37 0.0007910954    1.213    0.176
       128 -10.8444    127.6012     58.7435   2.1878156925e+01   4.4687419930e+01    0.4767506    0.2631819  37.90  0.001899504    2.122    0.529
       129 -10.2265    155.9873     54.5120   1.4814112908e+01   3.8436162869e+01    0.3007616     0.132015  60.17 0.0006890777    2.161    0.537
       130 -11.0585    160.7741     50.4203   1.2836599954e+01   3.7862160992e+01    0.4758968    0.3663942   0.34  0.001723103    1.815    0.449
       131 -11.3391    163.0616     56.7050   1.4212963747e+01   3.6411139851e+01    0.4266042     0.354359  86.89  0.001221493    1.193    0.162
       132 -11.6695    165.0790     52.6281   1.2751629014e+01   3.6515810104e+01    0.4133683    0.2539977  47.17 0.0006544305    1.770    0.435
       133 -11.4810     91.6383     34.1960   2.2554523443e+01   5.6680714286e+01    0.5475222     0.349555  36.12    0.0025654    1.548    0.354
       134 -11.3389    144.4925     53.5951   1.6674240431e+01   4.1365793786e+01    0.5959656    0.3233687  31.19   0.00197456    3.039    0.671
       135  -9.5535    149.5389     48.9280   1.4337860005e+01   4.0800281668e+01     0.192721    0.1418182 -28.45 0.0008959366    1.509    0.337
       136 -10.9596    182.1701     53.4198   1.0396376947e+01   3.2375250073e+01    0.4550621    0.3157742  65.62  0.002443481    1.415    0.294
       137 -10.3938    179.4625     48.9196   9.6117461952e+00   3.3626967286e+01     0.314407     0.218805 -45.94 0.0008028204    1.376    0.273
       138 -10.1002    122.6142     44.7394   1.8443536285e+01   4.7964832539e+01    0.5334305    0.2097286  60.68  0.001982772    2.481    0.597
       139 -10.5882    137.5206     52.7901   1.7823647602e+01   4.3185453081e+01    0.2961026    0.2388858 -72.97  0.001558682    1.377    0.274
       140 -11.2905    133.5484     46.3561   1.6619709894e+01   4.5073839609e+01    0.4533648    0.4069287  89.92  0.001561397    1.127    0.112
       141 -11.1424    133.3371     40.0486   1.4650419857e+01   4.5970800584e+01    0.3661137    0.2782722  86.86 0.0007213422    1.420    0.296
       142  -9.9762    123.2664     53.6076   2.1232625632e+01   4.6523739455e+01    0.2718515    0.1356522  59.20 0.0008104708    1.963    0.491
       143 -10.5449    135.6795     43.3010   1.5223981537e+01   4.4967089382e+01    0.2893521      0.20338  72.79  0.001458955    1.424    0.298
       144  -9.3770     90.2582     51.6423   2.9652592008e+01   5.4453265854e+01    0.1376721    0.1136367 -71.37 0.0006971029    1.619    0.382
       145  -9.9714    250.4966     38.5797   8.5144626661e-02   2.0124617219e+01    0.1872849   0.09340392 -38.63 0.0007620591    1.695    0.410
       146 -10.4937    249.7318     48.4327   2.0606724586e+00   1.9029122705e+01    0.3784243    0.1603579 -38.44  0.001978889    1.939    0.484
       147 -11.6033    247.7187     42.4315   1.0434595666e+00   2.0155177433e+01    0.3993375    0.1971245 -67.52  0.001251117    2.169    0.539
       148  -9.4857    241.3279     47.7311   2.6163660909e+00   2.0669751754e+01    0.1222996    0.0728058 -64.49 0.0006975122    1.578    0.366
       149  -9.2156     94.3067     47.6969   2.6924135936e+01   5.4178190279e+01    0.1372676     0.113913 -83.84 0.0006347875    1.601    0.375
       150 -11.6309    160.8385    105.3438   2.7810589110e+01   2.8560492024e+01    0.3567863    0.2531886 -61.59 0.0006502095    1.654    0.395
       151  -9.7707     94.1721     42.1688   2.4887394225e+01   5.5022947925e+01    0.3385954    0.2220451  36.48  0.001097305    1.505    0.336
       152 -10.0397     99.1800     42.1464   2.3433975320e+01   5.3885229202e+01    0.4072762     0.198002  32.22  0.001129719    2.828    0.646
       153  -9.3286    104.8957     43.0000   2.2182879082e+01   5.2439114349e+01    0.2365809   0.07550681  55.19 0.0007931787    2.879    0.653
       154 -10.7710    131.7214     33.4520   1.2839656927e+01   4.7192461830e+01    0.3083999    0.2011288 -57.54 0.0008451437    1.787    0.440
       155 -13.1974    192.8201     45.6226   7.0559606394e+00   3.1003272715e+01     1.141553    0.6941863  85.35  0.005822622    1.767    0.434
       156 -10.1562    122.0260     32.6997   1.4510709952e+01   4.9662473673e+01    0.2030558    0.1820077 -55.28 0.0006802646    1.214    0.176
       157 -10.4243    111.8724     32.4072   1.6630440684e+01   5.2162589446e+01    0.2970512    0.2210226  45.46  0.001052427    1.253    0.202
       158  -8.7850    241.6924     29.9495   3.5903730634e+02   2.2795238426e+01    0.2299884    0.1818171 -56.19 0.0007860753    1.083    0.076
       159  -9.9585    237.5001     30.5678   3.5946443171e+02   2.3522222342e+01    0.2202508    0.1436403 -82.49 0.0009572127    1.451    0.311
       160 -10.9956    227.1538     30.2086   1.8359556688e-01   2.5598587954e+01    0.4295076     0.282655  63.39  0.002673509    1.681    0.405
       161 -10.4987     80.2358     30.4588   2.4540329344e+01   5.9687006421e+01    0.2097875    0.1804636 -13.15 0.0005807966    1.232    0.188
       162 -10.5351     85.8609     29.0745   2.2212677113e+01   5.8624421272e+01    0.5063049    0.2037698  52.43  0.001932405    2.169    0.539
       163 -11.3398    160.6286     99.9795   2.6457337114e+01   2.9637618910e+01    0.3600102    0.2849974 -61.82  0.001782621    1.379    0.275
       164 -11.4798    148.5136    104.0038   3.0215266676e+01   3.1580911688e+01    0.3139692    0.2439463 -75.52  0.001411352    1.630    0.387
       165 -10.6478    218.9624     28.9962   5.9323888668e-01   2.7411228889e+01    0.2514152    0.2235852   9.54  0.001045608    1.662    0.398
       166 -11.0782    144.3406    103.2909   3.1008207327e+01   3.2661426049e+01    0.4348318    0.3304915 -29.73  0.001636079    1.408    0.290
       167 -10.4100     25.8367    107.3998   7.1111039325e+01   5.2165122751e+01    0.1904491    0.1301974  -5.05 0.0009506911    1.722    0.419
       168 -10.3247    103.2533     28.7583   1.7348251925e+01   5.4655179940e+01     0.359935    0.2884786 -49.18   0.00203106    1.444    0.308
       169 -10.7483     97.7647     21.8620   1.6067957532e+01   5.6718755904e+01    0.2816996    0.2192681  53.56 0.0008422054    1.118    0.106
       170  -9.9490    102.2976     23.3121   1.5524594281e+01   5.5493430128e+01    0.1855584    0.1715649  -8.69 0.0006139659    1.206    0.171
       171 -10.1490    101.9894     19.9560   1.4320464054e+01   5.5919415529e+01    0.2481424    0.1934442  40.11 0.0007856463    1.215    0.177
       172  -9.4362    152.2714     29.7166   8.2358131277e+00   4.2576693982e+01     0.133247   0.09434263 -70.04 0.0003029907    1.499    0.333
       173 -11.2057    197.8486     26.1753   1.8455571635e+00   3.2272225644e+01    0.3546728    0.1953129 -61.30  0.001734266    1.756    0.431
       174 -10.3707    193.9572     23.9729   1.6989491846e+00   3.3391043019e+01    0.2773874    0.1558905  74.14  0.000963413    1.658    0.397
       175  -9.8486    114.5804     28.1630   1.4515440995e+01   5.2006609822e+01    0.1622823    0.1299027   7.78 0.0002456169    1.495    0.331
       176 -10.5085    134.8501     26.4660   1.0032997522e+01   4.7227545454e+01    0.2979436    0.2060265  24.45  0.001087518    1.914    0.478
       177 -10.5001     21.2253     25.6477   4.8995243432e+01   7.0537618957e+01    0.3195681    0.2078998 -40.24   0.00188035    1.519    0.342
       178  -9.8395     19.5912     19.7222   4.7092753053e+01   7.1683630387e+01      0.18877    0.1153794 -50.78  0.001021731    2.177    0.541
       179 -10.3495     16.1279    106.3449   7.4663117250e+01   5.3206123288e+01    0.3150734    0.1641507 -43.36  0.001464022    1.823    0.452
       180  99.0000    243.9550     19.2246   3.5679910811e+02   2.3597507132e+01    0.4034725    0.2202772  75.70  0.002507835    1.847    0.459
       181 -11.2607    246.5078     22.9962   3.5736150641e+02   2.2697309766e+01    0.2020163    0.1925883  -5.04   0.00128454    1.570    0.363
       182 -11.6240    242.4684     23.0000   3.5762362523e+02   2.3452924130e+01    0.4181353    0.1534854  75.92   0.00154393    2.821    0.645
       183 -10.0523    203.1957     26.1161   1.3311138973e+00   3.1101115227e+01    0.1716385    0.1621826 -78.38  0.000668145    1.216    0.177
       184 -10.5527    210.5116    105.3452   1.8745988660e+01   1.8064796358e+01    0.2888905     0.258538  76.02  0.001698742    1.257    0.204
       185 -10.0712    191.6840    103.6957   2.1434874544e+01   2.2171766380e+01    0.3204704    0.1586637 -46.09  0.001351289    1.925    0.481
       186  -9.8415    119.5249     22.0016   1.1347304392e+01   5.1473437042e+01    0.2160412    0.1613939 -62.91  0.000745101    1.548    0.354
       187 -10.6634    112.3909     23.9512   1.3484767426e+01   5.3003632243e+01    0.4067174    0.2702421  18.89  0.002019145    1.967    0.492
       188 -11.4215    176.1347     23.9243   3.5451437868e+00   3.7494240779e+01     0.259209    0.2034014 -36.02  0.000438329    1.374    0.272
       189 -10.3666    180.8684     21.1501   2.3233126199e+00   3.6692259246e+01    0.3010332    0.1515267  73.94 0.0007544488    1.824    0.452
       190  -9.9665    185.1315     22.8648   2.3091609226e+00   3.5519981532e+01    0.2049979    0.1484835 -72.28 0.0008380421    1.261    0.207
       191 -10.0059    131.5875     23.5005   9.6431140402e+00   4.8353087638e+01    0.2478506   0.09672899  54.61  0.000686585    2.208    0.547
       192 -12.7308    136.0487     83.0330   2.7307682310e+01   3.8497664509e+01     1.062593    0.9995527 -58.35  0.005748692    1.086    0.079
       193 -12.9601     97.1118     74.4226   3.5421241545e+01   4.8933273689e+01     1.450478    0.7366841 -57.22  0.004371148    3.024    0.669
       194 -11.7670    154.3587     63.1467   1.7586414226e+01   3.7528397629e+01    0.7706535    0.7060548  17.21  0.004358182    1.272    0.214
       195 -10.3934    147.8730     25.4153   7.6244724723e+00   4.4138010186e+01     0.246976    0.1890135  37.76  0.001372847    1.520    0.342
       196 -10.6932    136.3958     19.3033   7.5114086392e+00   4.7603710755e+01    0.2409228    0.1805007  55.94  0.001032073    1.241    0.194
       197  -8.5930    170.3281     19.2925   2.9887928468e+00   3.9364603338e+01    0.1264102   0.09114347  46.05 0.0007019903    1.624    0.384
       198 -10.3592    130.7316     19.2329   8.4055495585e+00   4.9005009424e+01    0.2562117    0.1473681  57.68 0.0008190299    1.515    0.340
       199 -10.9674    117.1310     17.4130   1.0211316675e+01   5.2520503190e+01    0.4775985    0.2102708  57.11  0.002135639    1.879    0.468
       200 -11.4225    141.4177     96.2530   2.9784181164e+01   3.4725258201e+01     0.455409    0.3211007  47.01  0.002108396    1.418    0.295
       201 -14.1178    126.8686     96.5724   3.3548819542e+01   3.7956308775e+01     1.688143    0.8327932  37.86  0.006239459    2.260    0.557
       202 -11.7359    139.8867     59.8707   1.9506440825e+01   4.1539791365e+01     1.286614    0.5902765  55.83  0.005020243    2.052    0.513
       203 -12.8294    104.3951     66.1635   3.0438299237e+01   4.8870689223e+01    0.6994954    0.5020895  30.91  0.003341031    1.487    0.328
       204 -12.2507    137.7689     71.6574   2.3533299171e+01   4.0122788244e+01     1.250104    0.4331121  54.77  0.004199373    2.835    0.647
       205 -12.0877    144.2663     67.9755   2.1012091234e+01   3.9184296247e+01    0.4893343    0.3976726  29.85 0.0003955305    1.418    0.295
       206  -9.7642    194.4704     17.5070   1.2072236775e-01   3.3983409223e+01    0.1252864    0.1024302 -75.43 1.874833e-05    1.016    0.016
       207 -10.9847     94.1048     16.0873   1.4690980172e+01   5.8163293908e+01    0.3377271     0.157095  48.15  0.001422087    1.837    0.456
       208 -11.5419    124.0500     69.3946   2.6124289861e+01   4.3770608766e+01    0.4723432    0.3317431 -68.45  0.001136759    1.928    0.481
       209 -13.7587    117.3446     61.2978   2.5231100750e+01   4.6720371888e+01    0.9077197    0.7181814 -41.85   0.00228562    1.332    0.249
       210 -10.5292     90.9296    104.3176   4.6469738395e+01   4.3777349156e+01     0.219007    0.1947241  28.00 0.0004284613    1.126    0.112
       211 -11.3797    215.9503     99.7002   1.6665136237e+01   1.7943517041e+01    0.2989371    0.1764364 -37.69   0.00150062    1.511    0.338
       212 -11.3472    169.7903     97.9907   2.4066294118e+01   2.7953310166e+01    0.4165311    0.3341078 -16.90  0.001348026    1.459    0.315
       213  -9.7827    172.6063     15.7936   1.8228294743e+00   3.9187671937e+01    0.2048508    0.1363339 -46.79 0.0002729463    1.468    0.319
       214  -9.8238    172.4978     12.5285   9.8720866453e-01   3.9539892203e+01    0.1791913    0.1034151 -46.18 -2.595238e-05    1.678    0.404
       215 -13.7158    124.0365     86.6385   3.1412059904e+01   4.0586218255e+01     1.093114    0.8490142  -8.85  0.003341849    1.629    0.386
       216 -13.2328    222.0368     87.0387   1.3017000644e+01   1.8785004386e+01     1.722109    0.9773948 -56.05  0.004717909    1.827    0.453
       217 -11.6259    162.9459     21.0664   4.3362751813e+00   4.0941142630e+01    0.2287405    0.1883146  87.56 0.0003206612    1.065    0.061
       218 -12.2974    199.6315     96.4341   1.8387144361e+01   2.1770860343e+01      0.41234    0.2901652 -40.40  0.002165206    1.299    0.230
       219 -14.0855    194.8313     86.0865   1.6670298499e+01   2.4517695914e+01     1.667795     1.205731  26.13   0.00829941    1.965    0.491
       220 -10.2629     36.6515    249.0212   8.3076685584e+01   1.7018023631e+01    0.1791339   0.06410727 -50.66 0.0007049311    4.469    0.776
       221 -12.7825    177.7876     73.0925   1.6154347034e+01   3.0429255659e+01       1.5344    0.9468302 -82.43  0.006519022    2.389    0.581
       222 -12.0620    165.0930     65.4299   1.6272029913e+01   3.4606062606e+01    0.7894769    0.4478837  50.44  0.003580195    1.800    0.445
       223  -9.2234    179.4891     11.5427   5.0743504574e-02   3.8006099719e+01     0.128773    0.1018656 -76.97 5.338224e-05    1.088    0.081
       224 -12.4424    234.4232     37.3786   1.0832210485e+00   2.3295508467e+01    0.6251077    0.2918394 -69.07   0.00263611    2.469    0.595
       225 -11.7714    142.6465     46.3356   1.4826596410e+01   4.2845987568e+01    0.3972667     0.256227  31.45  0.001816967    2.056    0.514
       226 -10.4854    181.0412    244.0253   5.1522429373e+01  -1.1619421090e+00    0.1778628    0.1492673  48.71  0.001140257    1.715    0.417
       227  -9.7277    218.5862    239.7228   4.3663283192e+01  -5.2761218526e+00    0.1431028    0.1028203 -33.96 0.0007701344    1.542    0.352
       228 -10.3277     15.9091    238.8116   8.6797234937e+01   2.1198671957e+01     0.160708    0.1517067  85.43 0.0007472248    1.288    0.224
       229  -9.8616    236.7154    145.9995   2.3404383398e+01   6.6481207552e+00    0.1799961    0.1385121 -31.20 0.0003511569    1.076    0.071
       230 -10.1509    223.5338    121.4830   2.0315086364e+01   1.2906607231e+01     0.207431    0.1226024  36.44 0.0005780906    2.130    0.530
       231 -12.5161    195.7567     67.8147   1.2095204696e+01   2.7204286608e+01    0.7114706    0.3987384  69.21 0.0009229612    1.944    0.486
       232 -12.6983    200.8106     61.6163   9.9261681966e+00   2.7013556563e+01    0.7084728     0.540809  59.34  0.003459736    1.401    0.286
       233 -10.7231     73.0063    118.9999   5.6259289849e+01   4.3346245279e+01    0.2186163    0.2146792 -40.89   -0.0213525    1.019    0.018
       234 -12.2220    238.6431     51.5300   3.6232301834e+00   2.0682397081e+01    0.4000765    0.2128099 -55.71  0.001029204    1.667    0.400
       235 -13.2973    243.9299     60.3189   4.9313796807e+00   1.8521519060e+01     1.143833    0.7463404  82.16  0.002038454    1.719    0.418
       236 -10.6035    171.6108    116.3914   2.8327873469e+01   2.4067369685e+01    0.2809061    0.2407145  86.84 0.0007060838    1.395    0.283
       237 -11.4538    152.3163     98.2437   2.7804536290e+01   3.1852224948e+01    0.5342881    0.3781264 -73.06    0.0023305    1.938    0.484
       238 -12.8750     85.6947     97.8778   4.6429350175e+01   4.6245966712e+01    0.6676975     0.412345  26.71   0.00242746    1.812    0.448
       239 -12.0961     55.5452     99.3008   5.7815649495e+01   5.0844404460e+01    0.4276863    0.1980963  29.73  0.001692024    2.230    0.552
       240 -11.5770     11.5008     98.1971   7.5144955113e+01   5.5578469495e+01    0.3076489    0.2206995 -62.52  0.000720388    1.201    0.168
       241  -9.9638    244.5579     97.0968   1.2369371464e+01   1.3105766157e+01    0.2319168   0.09878127 -40.75 0.0006897373    1.888    0.470
       242 -11.0329    105.0936     86.4357   3.6745932387e+01   4.4830074676e+01     0.604596    0.3753043 -49.94  0.002598969    1.728    0.421
       243 -13.5217    110.5242     87.5716   3.5468938114e+01   4.3421263672e+01     1.254794    0.3798321 -47.14  0.003687145    3.626    0.724
       244 -13.1382    114.6708     80.8615   3.2220848923e+01   4.3832135248e+01     1.016687     0.520938 -41.56   0.00405487    1.998    0.500
