#   1 NUMBER                 Running object number                                     
#   2 MAG_AUTO               Kron-like elliptical aperture magnitude                    [mag]
#   3 X_IMAGE                Object position along x                                    [pixel]
#   4 Y_IMAGE                Object position along y                                    [pixel]
#   5 X_WORLD                Barycenter position along world x axis                     [deg]
#   6 Y_WORLD                Barycenter position along world y axis                     [deg]
#   7 A_WORLD                Profile RMS along major axis (world units)                 [deg]
#   8 B_WORLD                Profile RMS along minor axis (world units)                 [deg]
#   9 THETA_WORLD            Position angle (CCW/world-x)                               [deg]
#  10 FWHM_WORLD             FWHM assuming a gaussian core                              [deg]
#  11 ELONGATION             A_IMAGE/B_IMAGE                                           
#  12 ELLIPTICITY            1 - B_IMAGE/A_IMAGE                                       
         1 -14.9214    179.7307     29.4796   7.0417813766e+01   3.6786071109e+01     1.344361    0.9594329   6.67  0.004835112    1.920    0.479
         2 -14.3625    184.0838     22.7914   6.7819418434e+01   3.6440268265e+01     0.948956    0.7580656 -23.01  0.002646362    1.401    0.286
         3 -10.6348      7.1887    228.1199   1.4964782719e+02   2.7288368089e+01     0.174289    0.1324776   0.67  0.001173398    3.021    0.669
         4 -19.3465     41.8087    147.6298   1.3644444078e+02   4.0587952536e+01     19.72821      5.64204 -73.10   0.06966122    3.619    0.724
         5 -12.2183    189.4741    187.1937   1.0872446491e+02   7.2288123553e+00    0.7695519    0.4047514 -54.47  0.003248092    2.752    0.637
         6 -13.7971     79.1780    194.7166   1.3337764074e+02   2.5272681485e+01    0.7820179    0.7293229  39.70  0.005253769    1.346    0.257
         7 -10.6299     73.3387    190.7381   1.3417950271e+02   2.6945890747e+01     0.174295   0.08132127  57.99 0.0002552937    2.162    0.537
         8 -10.3792    181.4249    195.5581   1.1185304808e+02   7.3403951937e+00    0.2641922    0.1832533  68.92 0.0009197755    2.158    0.537
         9 -12.9081     11.1610    206.5698   1.4792284788e+02   3.0983050542e+01    0.3268177    0.2574968  41.23  0.002517478    1.535    0.348
        10 -11.7287    176.3294    218.8493   1.1671333540e+02   4.5140513763e+00    0.2296497     0.119722 -52.94  0.001099164    2.606    0.616
        11 -12.0335    208.2821    186.3477   1.0490383888e+02   3.8383476186e+00    0.3470573     0.255273  10.64 0.0009218763    1.464    0.317
        12 -12.0998    212.7226    182.9669   1.0341214230e+02   3.5478358239e+00    0.3452692    0.2251678  10.85  0.001680431    1.910    0.476
        13 -12.7529     88.1651    179.8723   1.2953865747e+02   2.7084678054e+01    0.5006049    0.2881396 -54.15   0.00207981    1.880    0.468
        14 -12.4719     91.3179    174.1341   1.2800918275e+02   2.7845944861e+01    0.3238415    0.2559727 -56.00  0.001854631    1.382    0.276
        15 -10.8188     99.3268    180.9013   1.2714683756e+02   2.5085189218e+01    0.1900143     0.168937 -87.56  0.001152434    1.105    0.095
        16 -11.3230    199.0777    178.6669   1.0519095494e+02   6.8203687071e+00    0.3226148    0.2799991 -66.34  0.001082552    1.510    0.338
        17 -11.1725    168.9981    212.0804   1.1708766820e+02   6.8746495514e+00    0.2269137    0.1871193 -68.48 0.0006014163    1.579    0.367
        18 -10.6170    166.4997    208.5647   1.1702731081e+02   7.8998379643e+00    0.2582952    0.1855067  55.29 0.0008427197    1.428    0.300
        19 -12.0035    115.6698    171.3277   1.2189447221e+02   2.4347424146e+01    0.3336467    0.2701531  47.75  0.001391619    1.165    0.141
        20 -11.4879    112.2256    168.4231   1.2221375694e+02   2.5589822168e+01    0.4677868    0.2501715 -56.72  0.001716646    1.935    0.483
        21 -13.1198    111.2345    208.2241   1.2827365318e+02   1.7580454624e+01    0.3930974    0.3373268  13.32  0.001171044    1.594    0.373
        22 -11.0690    184.8593    168.2361   1.0596259797e+02   1.1445104981e+01    0.2972687     0.219587 -66.86   0.00114338    1.888    0.470
        23 -10.4439    103.3306    216.2802   1.3086192105e+02   1.7323526345e+01    0.1128453   0.09784368  15.51 0.0002712265    1.604    0.377
        24 -12.7339    101.9211    156.6743   1.2268687417e+02   3.0004396455e+01    0.6990704    0.3884263 -40.70   0.00250081    2.374    0.579
        25 -11.6648    163.6424    156.0096   1.0796198026e+02   1.8150148009e+01    0.3365811    0.2661271 -50.83  0.001452072    1.349    0.258
        26 -11.3651    134.0000    144.4704   1.1240372974e+02   2.6712069220e+01    0.6534685    0.1971705 -56.91  0.001638872    5.421    0.816
        27 -13.2436     11.2803    136.7296   1.4292996250e+02   4.5907372368e+01    0.3439334    0.2266045 -81.65 0.0005497044    1.198    0.165
        28 -13.5533      3.2953    126.7153   1.4401916127e+02   4.8737459084e+01    0.9830106    0.3146842 -80.66  0.004162105    2.744    0.636
        29 -11.6471    111.2851    141.4601   1.1746126591e+02   3.1802902849e+01     0.454485    0.2735502 -34.74  0.001883384    2.282    0.562
        30 -12.4076    100.2908    141.8487   1.2037838611e+02   3.3687208201e+01    0.2701129    0.2624753 -73.66 0.0003847225    1.107    0.097
        31 -11.5359     87.9124    203.6589   1.3255961503e+02   2.2149561013e+01    0.4623797    0.1729916 -61.43  0.002033297    2.782    0.641
        32 -11.0914    117.3701    131.2298   1.1371285458e+02   3.2980904831e+01    0.2774688    0.2395169  -7.71  0.000776688    1.468    0.319
        33 -11.7643    105.6594    128.9399   1.1630943570e+02   3.5719868394e+01    0.5225207     0.277472 -55.92  0.001399879    1.869    0.465
        34 -11.6554    160.9364    126.6439   1.0189572798e+02   2.4719119672e+01    0.3500096    0.2584305 -57.44  0.001610038    1.494    0.331
        35 -10.0941    111.9893    120.0050   1.1257031589e+02   3.6581704421e+01    0.2242236    0.1769918  82.08 0.0003517631    1.504    0.335
        36 -12.7387      8.3091    145.2720   1.4441893265e+02   4.4204905712e+01    0.3954848     0.303587 -86.66  0.001756876    1.025    0.024
        37 -11.2920    168.8880    113.6510   9.6825115408e+01   2.5517971877e+01    0.3255339     0.269328 -87.71 0.0007932226    1.462    0.316
        38 -10.5814     16.2348    201.0105   1.4667036854e+02   3.1595799694e+01    0.1376318    0.1027467  70.46 0.0003813626    1.074    0.069
        39 -10.7348    205.1730    110.1485   8.8558974004e+01   1.7644623731e+01    0.2353838    0.2094861  14.88  0.001002683    1.218    0.179
        40 -12.7059    198.2400    198.3472   1.0905048970e+02   3.7975651301e+00    0.6912995    0.3872533  48.31  0.003379782    1.790    0.441
        41 -13.7990    166.9823     44.0315   7.6984189925e+01   3.8213194062e+01    0.6145987    0.5620443 -27.94  0.001016699    1.161    0.139
        42 -11.9865     15.2782    230.7892   1.4841859551e+02   2.5999832660e+01    0.3543496    0.2384765   9.80  0.002083399    3.675    0.728
