#   1 NUMBER                 Running object number                                     
#   2 MAG_AUTO               Kron-like elliptical aperture magnitude                    [mag]
#   3 X_IMAGE                Object position along x                                    [pixel]
#   4 Y_IMAGE                Object position along y                                    [pixel]
#   5 X_WORLD                Barycenter position along world x axis                     [deg]
#   6 Y_WORLD                Barycenter position along world y axis                     [deg]
#   7 A_WORLD                Profile RMS along major axis (world units)                 [deg]
#   8 B_WORLD                Profile RMS along minor axis (world units)                 [deg]
#   9 THETA_WORLD            Position angle (CCW/world-x)                               [deg]
#  10 FWHM_WORLD             FWHM assuming a gaussian core                              [deg]
#  11 ELONGATION             A_IMAGE/B_IMAGE                                           
#  12 ELLIPTICITY            1 - B_IMAGE/A_IMAGE                                       
         1 -14.1207    162.5791     52.6040   7.7636664413e+01   3.7715548477e+01     1.965214     1.340695  16.99   0.00662935    2.203    0.546
         2 -13.7690    175.4829     36.1451   7.0780256803e+01   3.6747294524e+01    0.8566488    0.7813984 -79.67  0.002803467    1.102    0.092
         3 -12.9962    179.7340     29.2286   6.8284180188e+01   3.6545100185e+01    0.4989691    0.4536548  30.20  0.001339095    1.318    0.241
         4 -12.3447    190.0051     14.9059   6.3254966442e+01   3.5642347273e+01     0.351978    0.2401613 -72.39  0.001214034    1.500    0.333
         5 -13.6458    194.2305      4.6135   6.0294783331e+01   3.5676346295e+01    0.9220764    0.5204686  72.71  0.004234381    1.470    0.320
         6 -10.9381    208.8369    197.1803   1.0326865746e+02  -2.4874514007e-01    0.1989907    0.1932958  44.86 0.0004512689    1.192    0.161
         7 -19.0176     59.8649    244.6443   1.4092768181e+02   1.6611244414e+01     6.513549     5.601601  76.26   0.03907892    1.215    0.177
         8 -11.2810    154.7954    196.7947   1.1474175962e+02   1.0370836462e+01    0.2683004    0.2443095  89.25  0.001483489    1.198    0.165
         9  -9.9099    180.2543    192.4343   1.0830920827e+02   6.1870687376e+00    0.2382761    0.1866966 -75.01 0.0007765652    1.728    0.421
        10 -11.5607    167.8945    189.6639   1.1047639317e+02   9.2242951855e+00    0.3971244    0.3197979  -5.59  0.001957725    1.549    0.354
        11 -10.2099     16.2953    213.2471   1.4641308410e+02   2.8256580166e+01    0.1399545    0.1310583  81.46 0.0007616878    1.426    0.299
        12 -12.5085    153.0960    185.1265   1.1293479701e+02   1.3168389867e+01    0.6880291    0.3821515 -74.60  0.002170147    4.054    0.753
        13 -10.9906    163.0446    210.4096   1.1536411430e+02   6.0437347323e+00    0.2927735    0.2033385 -47.82 0.0009262671    1.594    0.373
        14 -10.0239    176.5173    187.9390   1.0823677534e+02   7.8312146402e+00    0.2226375    0.1480482 -44.90  0.001031693    1.588    0.370
        15 -13.6521     11.8110    205.3257   1.4667225889e+02   3.0373663315e+01    0.3896204    0.3675555 -85.10  0.002150975    1.440    0.306
        16 -11.3123    205.5152    180.4878   1.0056660704e+02   3.4548093126e+00    0.4553583    0.2789674  38.16  0.001416658    1.612    0.380
        17 -11.3047    208.6959    178.6637   9.9539569764e+01   3.1692654869e+00    0.3961977    0.3404613  -3.02  0.002158171    1.194    0.163
        18 -11.7606    136.7634    179.6216   1.1568010296e+02   1.7652752026e+01    0.2555854    0.2358906   7.22 0.0005663367    1.257    0.205
        19  -9.9073     27.6021    179.9129   1.4129305964e+02   3.4385471613e+01    0.1725917    0.1634314  72.50 0.0005482771    1.292    0.226
        20  -9.3526    179.1488    206.1365   1.1114718491e+02   3.7674059787e+00    0.1843212    0.1631481  65.37            0    1.281    0.219
        21 -10.6299     23.0825    205.2221   1.4451882059e+02   2.9249733366e+01     0.215029    0.1583291  51.75  0.001066071    1.366    0.268
        22 -11.9820    196.0176    171.2242   1.0058387820e+02   7.1729248178e+00    0.6421794    0.4033862 -49.50  0.002450933    1.713    0.416
        23 -10.6798    194.0901    165.2236   9.9695029657e+01   8.7743842229e+00     0.361727    0.3129178 -72.82 0.0009986875    1.378    0.274
        24 -10.6787    158.7880    204.8800   1.1531523188e+02   7.9486773725e+00    0.3762926    0.2249809  63.88   0.00151145    2.342    0.573
        25 -10.6725    230.4774    166.4780   9.2721491495e+01   1.1751430565e+00    0.1409273    0.1312767 -18.51 1.419322e-05    1.032    0.031
        26 -11.1782    121.2424    164.6688   1.1654155862e+02   2.4132984848e+01    0.4279324    0.2347512  55.31  0.001175086    2.051    0.512
        27  -9.8667    223.4586    163.4685   9.3399380847e+01   3.0906148049e+00    0.2538602    0.1290324 -49.70 0.0007437794    2.222    0.550
        28 -10.5303    237.5107    159.4953   8.9943652116e+01   1.0923646760e+00    0.1406064    0.1289765 -23.03 -7.261546e-05    1.015    0.015
        29  -9.8373     27.6744    165.3517   1.3971650750e+02   3.7723146487e+01    0.4191678    0.1286677  26.48   0.00161262    4.375    0.771
        30 -12.4058    134.4869    148.5033   1.0981476345e+02   2.5246003213e+01    0.8211224    0.3200994 -57.21  0.002516262    3.275    0.695
        31 -13.0124    134.0000    143.9992   1.0892354064e+02   2.6390104942e+01     1.010397    0.3571434 -54.49  0.003036354    3.318    0.699
        32 -10.7419    163.3784    204.1033   1.1417350586e+02   7.2121946308e+00    0.2819569    0.2674893  46.40 0.0005442842    1.044    0.043
        33 -10.8810    174.5615    148.6173   1.0024106064e+02   1.6482722950e+01    0.3958027    0.2570111 -69.47  0.001270711    2.275    0.560
        34 -12.2266    145.4336    146.2802   1.0658394247e+02   2.3431637303e+01    0.5632933    0.3766808  62.55  0.002215018    1.778    0.437
        35 -12.0373    142.3377    139.1142   1.0568884345e+02   2.5731702232e+01    0.4076397    0.3109359 -55.48  0.001887241    1.348    0.258
        36  -9.8333      5.2705    144.5108   1.4269288109e+02   4.4409422589e+01    0.2138682    0.1199691   2.54  0.001140664    3.005    0.667
        37 -10.7639     10.9617    142.8371   1.4112531170e+02   4.4373091656e+01    0.2111014    0.1927346  10.63 0.0006235926    1.458    0.314
        38 -12.9619    193.7067    193.0328   1.0556207769e+02   3.4115073914e+00      1.03557    0.5978304 -56.87  0.002986668    2.356    0.576
        39 -12.1229    139.8010    200.5387   1.1876737845e+02   1.2503428120e+01     0.342734    0.3188568  53.78  0.001576552    1.028    0.028
        40 -12.1083    102.6067    138.8906   1.1603927433e+02   3.3754887359e+01    0.3076767      0.29764  -9.37 0.0004075635    1.139    0.122
        41 -12.0414     90.8492    137.9114   1.1903997894e+02   3.6034496057e+01    0.5614903    0.1810295  42.63  0.001439616    3.183    0.686
        42  -9.7759      3.0611    137.1133   1.4242218848e+02   4.6233851146e+01    0.1823858    0.1259352 -60.06 0.0005582001    1.247    0.198
        43 -12.2947    106.2235    130.9149   1.1326741705e+02   3.4979584776e+01     0.511814     0.410422  71.26   0.00164254    1.444    0.308
        44 -11.2373    106.9187    125.6030   1.1183169256e+02   3.6091633689e+01    0.3119778     0.271228 -28.48 0.0006720055    1.243    0.195
        45 -12.1482    135.4124    122.4435   1.0338764755e+02   3.1002601115e+01    0.7450707    0.2184213 -49.15  0.002101461    3.621    0.724
        46 -12.3758    118.6709    129.5949   1.0957149442e+02   3.2879531600e+01     0.437391    0.3996643 -32.89  0.001136934    1.147    0.128
        47 -10.9641      3.1730    129.3680   1.4150170647e+02   4.7972062275e+01    0.4160862    0.1676077  88.93  0.001645575    3.674    0.728
        48 -11.3026    160.4892    127.5908   9.8465063899e+01   2.4225818852e+01    0.4261168    0.2878879 -54.02  0.001372534    1.573    0.364
        49 -11.2436    142.5577    127.5111   1.0282928544e+02   2.8300962330e+01    0.3349257    0.2668269  80.81 0.0007041928    1.536    0.349
        50 -11.7909    125.6826    127.4829   1.0718919663e+02   3.1934827846e+01    0.4633292    0.2716502  65.96   0.00166069    2.652    0.623
        51 -10.9483     92.2039    123.5560   1.1549970612e+02   3.9210016496e+01    0.2802748    0.1400489  43.11   0.00113414    2.100    0.524
        52 -11.3331    112.7864    118.7641   1.0853218501e+02   3.6535735184e+01    0.4194425    0.3077443 -76.17  0.001159571    1.769    0.435
        53  -9.8429     22.8831    115.8365   1.3422293483e+02   4.9632722307e+01     0.162087    0.1339928  85.45 0.0004491349    1.305    0.234
        54 -11.0050    167.8431    113.0177   9.3066336019e+01   2.5588622278e+01    0.5907251    0.3537789  73.41  0.002084415    2.690    0.628
        55 -11.0930    134.8627    112.0100   1.0083994460e+02   3.3418797788e+01    0.4705494    0.1283214 -45.31  0.001310427    3.684    0.729
        56 -10.6414      3.7749    112.4760   1.3916066205e+02   5.1712197971e+01    0.2102826    0.1872494 -31.60   0.00107143    1.308    0.236
        57 -12.7453     86.1880    108.6356   1.1367742807e+02   4.3647363142e+01    0.5408638    0.4673191  21.23  0.002974685    1.248    0.199
        58 -10.3948    205.4757    110.1967   8.4575136894e+01   1.7206723411e+01    0.3359395    0.2179026  45.14  0.001108964    1.637    0.389
        59 -11.4685      6.1698    250.6167   1.5040520002e+02   2.1938248091e+01    0.1695237   0.08220544  44.46  0.001094518    1.885    0.470
        60 -10.6837     86.0962     77.9096   1.0524795170e+02   5.0137603972e+01    0.2275395    0.1638468  -7.71  0.001014833    1.669    0.401
        61  -9.9862    108.2280     74.5950   9.7497462076e+01   4.6629468027e+01    0.2091772     0.131699  33.49 0.0008105666    1.654    0.396
        62  -9.8671      2.5317    244.4709   1.5066060672e+02   2.3457246512e+01    0.1068422   0.07453588  77.49 0.0006254586    1.040    0.038
        63 -12.2771    159.2074    237.0983   1.2051412943e+02   1.8464640213e+00    0.4741754    0.3214204  50.41  0.002581344    1.360    0.264
        64 -10.6082    198.5991    222.7386   1.1012254025e+02  -2.7782421712e+00    0.2437056    0.1650368  37.63 0.0004702685    1.319    0.242
        65  -9.7879     13.5057     59.8815   1.2586254067e+02   6.2144881033e+01    0.1670185   0.09303957 -53.36 0.0004204641    1.473    0.321
        66  -9.5421    121.9414     25.1551   7.7755634216e+01   5.0918384393e+01    0.2118502    0.1462774  83.30  0.001054204    2.004    0.501
        67 -19.0411     43.9107     97.2188   1.2417461027e+02   5.1888818008e+01     17.80317    0.8500922 -57.93   0.02641268   18.686    0.946
