#   1 NUMBER                 Running object number                                     
#   2 MAG_AUTO               Kron-like elliptical aperture magnitude                    [mag]
#   3 X_IMAGE                Object position along x                                    [pixel]
#   4 Y_IMAGE                Object position along y                                    [pixel]
#   5 X_WORLD                Barycenter position along world x axis                     [deg]
#   6 Y_WORLD                Barycenter position along world y axis                     [deg]
#   7 A_WORLD                Profile RMS along major axis (world units)                 [deg]
#   8 B_WORLD                Profile RMS along minor axis (world units)                 [deg]
#   9 THETA_WORLD            Position angle (CCW/world-x)                               [deg]
#  10 FWHM_WORLD             FWHM assuming a gaussian core                              [deg]
#  11 ELONGATION             A_IMAGE/B_IMAGE                                           
#  12 ELLIPTICITY            1 - B_IMAGE/A_IMAGE                                       
         1 -15.8350    210.9027     68.6188   7.4724303467e+01   2.3553590772e+01     8.631356     4.338056  73.75   0.03404765    2.461    0.594
         2 -17.6699    245.7525     32.2424   6.2135920780e+01   2.0824051842e+01     6.368769     2.439013 -30.29   0.01770627    3.260    0.693
         3 -14.0901    239.9784     22.8267   6.0711606408e+01   2.3300381541e+01    0.4177537    0.2835694 -51.44   0.00122801    1.330    0.248
         4 -14.0625    246.0763      3.6046   5.6318688822e+01   2.4219863678e+01     1.631895    0.3338442  72.46  0.005838754    4.289    0.767
         5 -15.6280    218.0016     28.7956   6.4252300715e+01   2.7577926538e+01     2.944552     1.669356 -41.41   0.01518455    1.722    0.419
         6 -10.0693    159.7597     25.5467   7.1342346033e+01   4.2070537903e+01    0.4794036    0.4415097  48.51    0.0018591    1.112    0.101
         7 -14.3053    232.8508     30.1444   6.2966379702e+01   2.3974925791e+01    0.5028313    0.4428212 -36.46  0.001459751    1.362    0.266
         8 -12.1514    112.6188     20.5840   7.9010597579e+01   5.3489997397e+01       0.7598    0.4259366 -46.35  0.003687589    2.366    0.577
         9 -11.6767    134.3193     21.6122   7.4726751066e+01   4.8535222144e+01    0.9743459    0.3849812 -18.85   0.00377341    3.431    0.709
        10 -12.4259    127.6509     18.0959   7.4915891920e+01   5.0418634609e+01     1.087653    0.5921794 -24.53  0.005461542    2.052    0.513
        11 -12.7396    119.0814     10.2073   7.4032726599e+01   5.3071612033e+01     1.077342    0.7806916  66.77  0.006371431    1.372    0.271
        12 -11.3089    142.8006     10.1188   6.9601000009e+01   4.7675430530e+01    0.9133749    0.3889574 -14.37  0.003453497    3.335    0.700
        13  -9.8385     79.4338     11.8310   8.4364393716e+01   6.0962602061e+01    0.4010282    0.1314392 -25.10  0.001717285    3.188    0.686
        14  -9.5097    164.3098      9.3059   6.6062307389e+01   4.2640179703e+01    0.2944134    0.2068257  -8.25  0.001278514    1.867    0.465
        15  -7.8403    187.3406     10.7719   6.3467839509e+01   3.6952490277e+01    0.1552575    0.1237015  -4.16 0.0009133033    1.709    0.415
        16  -9.8525    157.9715      5.8079   6.5985130425e+01   4.4473518973e+01    0.2824512    0.2562013  45.45 0.0008695001    1.171    0.146
        17  -8.5509    181.5093      6.2641   6.3026806923e+01   3.8796052895e+01    0.2345686   0.09597801  69.12 0.0008583637    2.068    0.516
        18  -9.1333    136.8095      2.4872   6.8261296602e+01   4.9714040647e+01    0.2146095    0.1841872 -16.82  0.001405958    1.361    0.265
        19 -10.3044    214.0628    188.1212   1.0192155836e+02   7.1064032660e-01    0.3440785    0.2976336  87.18  0.001750643    1.594    0.373
        20  -8.4375     22.0064    232.0129   1.4695646238e+02   2.3913605169e+01    0.1701884    0.1241896  79.35 0.0003188465    1.030    0.029
        21  -9.9148    167.9775    208.7032   1.1522118459e+02   5.7089371532e+00    0.2271778    0.2031937 -43.64 0.0003388291    1.214    0.176
        22  -8.9802    114.9982    152.9313   1.1661330447e+02   2.8154523881e+01    0.2195263    0.2033444 -78.61 0.0003051397    1.027    0.026
        23  -8.5996    178.4911    150.5723   1.0113081977e+02   1.5411060955e+01    0.3638938    0.1980564 -32.96 0.0006023305    2.167    0.539
        24  -9.9194    180.4460    146.6633   9.9805550490e+01   1.5804580062e+01    0.3704238    0.2670399 -57.85  0.001133746    1.518    0.341
        25  -9.0949    144.1019    146.9555   1.0816481190e+02   2.3685583904e+01     0.377032    0.2404065 -82.34  0.001358163    2.744    0.636
        26  -8.0995    155.2880    159.9601   1.0843141399e+02   1.8395562239e+01    0.2172845    0.1952977 -55.98 0.0006862138    1.117    0.105
        27  -9.5477    133.7307    146.1237   1.1049340361e+02   2.6044726460e+01     0.710874    0.1882995 -52.39  0.001890141    4.196    0.762
        28 -11.4466    186.0154    137.4818   9.6455262362e+01   1.6479443785e+01     0.878567    0.4230782  59.36  0.002141949    2.739    0.635
        29  -8.3540    112.9978    137.7420   1.1383947770e+02   3.2115901984e+01    0.1969409    0.1885229 -82.46 0.0002850692    1.022    0.022
        30  -8.6339    145.5970    156.8985   1.1002158381e+02   2.1119066079e+01    0.3777171    0.2077301  61.87  0.001370189    2.508    0.601
        31 -12.0086    185.2486    121.8007   9.2792651054e+01   1.9883882891e+01    0.8853887    0.5546082 -39.70  0.003370429    1.579    0.367
        32 -10.1613    178.0752    118.6569   9.3513494347e+01   2.2200820953e+01    0.4347952    0.3109658  60.43  0.001956023    1.500    0.333
        33 -10.4706    175.1410    115.1241   9.3243111930e+01   2.3613628734e+01     0.531755    0.3783635  10.00  0.001877177    2.241    0.554
        34 -10.2291    135.0174    123.8134   1.0486274316e+02   3.0858252501e+01    0.9359674    0.3185519 -53.76  0.002651162    3.729    0.732
        35  -9.6729    192.8694    194.8845   1.0749767545e+02   3.5323247910e+00    0.8973603    0.4135835 -62.17   0.00211849    8.151    0.877
        36 -10.4105    160.7810    128.4644   9.9817991823e+01   2.4125840623e+01    0.3891363    0.3320231 -85.84  0.001605537    1.330    0.248
        37  -9.5436    173.9535    123.9438   9.5733511561e+01   2.2064380675e+01    0.2453308    0.2371393 -75.99 0.0007323151    1.027    0.026
        38  -8.6453    153.0411    121.8366   9.9959645449e+01   2.7315997454e+01    0.2631931    0.1841435  78.59 0.0009822074    2.023    0.506
        39 -11.1155    193.8404    117.2231   8.9911281197e+01   1.8804256779e+01    0.7376785     0.370361  65.82   0.00250839    2.954    0.661
        40 -11.1252    167.8061    114.0674   9.4573420128e+01   2.5554036132e+01    0.5205656    0.4666839  25.38 0.0007586704    1.238    0.192
        41  -9.1296    129.1932    115.7107   1.0427691442e+02   3.3898974403e+01    0.3765492    0.2017798 -60.27  0.001100263    2.428    0.588
        42  -8.9822    157.9497    114.4425   9.6905002409e+01   2.7771912382e+01    0.3329726    0.1964923 -74.36  0.001040847    3.528    0.717
        43 -10.3509    197.6001    112.2721   8.7946009652e+01   1.8900178724e+01    0.4107602     0.257855 -63.18  0.001669719    2.025    0.506
        44  -9.4313    135.0000    108.4950   1.0088864676e+02   3.4216116539e+01    0.4950976    0.1729416 -40.59  0.001550655    2.983    0.665
        45 -10.0514    122.9663    103.0000   1.0251414614e+02   3.7963147966e+01    0.3618621    0.2339349  41.44  0.000985009    1.600    0.375
        46  -9.4814    145.5823    102.9873   9.6776973556e+01   3.3004783751e+01    0.3277413    0.2872627 -21.08 0.0007686674    1.245    0.197
        47 -10.1774    133.0991     98.2635   9.8569722392e+01   3.6776167249e+01    0.6690831    0.3553376 -38.44  0.002203704    1.926    0.481
        48 -10.4118    154.4113     98.1872   9.3374197731e+01   3.1932331508e+01    0.4266401     0.394837  13.55  0.002215474    1.190    0.160
        49 -10.3172    174.3008     86.3749   8.5819582521e+01   2.9418186174e+01    0.5209644    0.2643039 -39.87 0.0005500022    1.960    0.490
        50 -11.7096    168.0230     90.0854   8.8133242458e+01   3.0253789202e+01     1.080416    0.7591542 -18.99  0.001697056    1.842    0.457
        51 -10.1460    161.6308     89.2741   8.9287566370e+01   3.1946871734e+01    0.5001734    0.2544367 -51.64  0.001697942    2.242    0.554
        52  -9.5907    138.7572     93.2639   9.5742941060e+01   3.6523051551e+01    0.3559878    0.2921295  78.54 0.0008350187    1.446    0.309
        53 -10.6545    151.4471     88.7644   9.1434728809e+01   3.4466829365e+01    0.3395863    0.2699343 -38.69  0.001077365    1.270    0.213
        54  -8.1030    130.5395     85.1154   9.5457043917e+01   3.9950322978e+01    0.2249565    0.1466894 -41.32   0.00100779    1.530    0.346
        55  -9.1161    127.8900     78.5534   9.4186005075e+01   4.1767493090e+01     0.309627    0.2097166 -46.23  0.001400289    1.527    0.345
        56  -9.6423    153.5898     76.4300   8.7424012523e+01   3.6223251341e+01    0.5067481    0.2563473 -43.07  0.001641859    2.011    0.503
        57 -12.4321      9.1081    171.7159   1.4461160787e+02   3.8028991399e+01     1.849009    0.7075712 -78.51  0.008899073    2.191    0.544
        58 -10.8068    217.5083    181.6927   9.9937300587e+01   1.2118825966e+00    0.6124329    0.2943976  45.46  0.002587355    2.137    0.532
        59  -9.8287    163.2453     34.0278   7.3193966532e+01   4.0225456958e+01     0.535288    0.3605762  10.94  0.002528267    2.228    0.551
        60  -9.0486    162.7406     28.8353   7.1793324464e+01   4.0970424584e+01    0.3502761    0.2060623 -28.86  0.001259014    1.899    0.474
        61 -12.3452     23.0554    175.9087   1.4207502467e+02   3.5796823982e+01    0.8534544    0.4704466 -88.94  0.004404661    1.647    0.393
        62  -9.1179    171.1648     33.4066   7.1708984891e+01   3.8361730278e+01    0.5182376    0.1614597 -38.31  0.001895607    3.156    0.683
        63 -11.6232     28.3383    172.8115   1.4060990927e+02   3.5970269635e+01    0.7232492    0.3807485  89.89   0.00350856    1.891    0.471
        64  -9.5801    113.0007     29.5393   8.2029667360e+01   5.2426208840e+01    0.2199431    0.1694045  23.41 0.0007872012    1.291    0.225
        65  -8.3611    190.2016     25.1032   6.6729292790e+01   3.4694621062e+01    0.2363204    0.1960681  72.98  0.001158517    1.083    0.077
        66 -11.0561    221.4853    177.2733   9.8256352556e+01   1.2508054299e+00    0.4949343    0.4253977  49.26  0.002790685    1.284    0.221
        67 -10.9379    224.3952    171.6521   9.6521229660e+01   1.7099043655e+00    0.9703269    0.4273355  55.80  0.003434845    3.400    0.706
        68  -8.7383    249.1736    176.8193   9.3140865788e+01  -3.7112976147e+00    0.1991605    0.1771744 -39.54  0.001050744    1.214    0.176
        69  -9.0103    241.4536    173.6582   9.3835084832e+01  -1.8173984935e+00      0.25038     0.214118  80.05 0.0008342761    1.668    0.401
        70  -9.0697     92.2170     22.4608   8.4853735974e+01   5.7469594420e+01    0.2620617    0.1682457 -31.54 0.0009982527    1.677    0.404
        71 -10.2603    144.1360     20.2884   7.2471609615e+01   4.6378406818e+01    0.3219273    0.2537952  -3.15  0.001130102    1.509    0.337
        72 -10.2273    230.2577    167.0428   9.4452137040e+01   1.4193313607e+00    0.3269711    0.2391779 -50.79  0.001136335    1.494    0.331
        73  -8.3938    167.5551     13.7148   6.6816577797e+01   4.1432767826e+01    0.2234844     0.151519  71.12 0.0002267831    1.296    0.228
        74  -8.9265    204.8836    162.8782   9.8400432424e+01   7.2574145682e+00     0.437989    0.2031807 -49.51  0.001060237    2.383    0.580
        75 -11.4753     68.5018    145.2862   1.2703192012e+02   3.7664592196e+01    0.8730444    0.4810085  60.38    0.0029031    2.376    0.579
        76 -11.1049     51.3793    159.4126   1.3361374509e+02   3.6520184080e+01    0.3397614    0.2963338   9.00 0.0009425498    1.571    0.364
        77 -13.1093     61.5031    152.9908   1.3013506868e+02   3.6766158571e+01     1.811038     1.300501 -20.28   0.00779525    2.193    0.544
        78  -9.9855    227.5318    158.4841   9.3100822415e+01   3.5052703910e+00    0.2598204    0.2442584 -10.09 0.0007941066    1.035    0.034
