#   1 NUMBER                 Running object number                                     
#   2 MAG_AUTO               Kron-like elliptical aperture magnitude                    [mag]
#   3 X_IMAGE                Object position along x                                    [pixel]
#   4 Y_IMAGE                Object position along y                                    [pixel]
#   5 X_WORLD                Barycenter position along world x axis                     [deg]
#   6 Y_WORLD                Barycenter position along world y axis                     [deg]
#   7 A_WORLD                Profile RMS along major axis (world units)                 [deg]
#   8 B_WORLD                Profile RMS along minor axis (world units)                 [deg]
#   9 THETA_WORLD            Position angle (CCW/world-x)                               [deg]
#  10 FWHM_WORLD             FWHM assuming a gaussian core                              [deg]
#  11 ELONGATION             A_IMAGE/B_IMAGE                                           
#  12 ELLIPTICITY            1 - B_IMAGE/A_IMAGE                                       
         1 -13.7000    197.6664     26.3572   6.8048236153e+01   3.2018039377e+01     1.752229     1.481577  20.80  0.007324085    1.430    0.301
         2 -11.8165      3.7529      3.5100   1.1906418961e+02   7.3953385668e+01    0.4001508     0.287331 -28.53  0.003009221    1.021    0.021
         3 -13.5775    212.5401      7.9732   6.1428226401e+01   3.0181192324e+01     1.041835    0.8549197  61.39  0.005591726    1.241    0.194
         4 -11.6851     99.8081    248.4003   1.3626480110e+02   1.2799294839e+01    0.3468086    0.3118625 -20.22    0.0025636    1.794    0.443
         5 -12.9905    139.9901    249.8416   1.2912091725e+02   6.4058258290e+00    0.9796646    0.3436072  36.58  0.004305197    2.623    0.619
         6 -10.8367     46.2832    249.0750   1.4558271497e+02   1.9830952631e+01    0.2888363    0.1088423  58.85  0.001178926    2.145    0.534
         7 -12.6653     33.2766    247.0595   1.4760724242e+02   2.1669476737e+01    0.8561647    0.6236129 -49.55  0.006215248    2.424    0.587
         8 -14.2248    105.9083    229.7947   1.3330033697e+02   1.4953909233e+01     4.688347          nan  45.34  0.009744614   10.834    0.908
         9 -11.6376     20.6222    243.9650   1.4949868155e+02   2.3559184606e+01    0.3242159    0.1520324  67.21  0.001457155    1.642    0.391
        10  -9.6399     82.3890    243.7625   1.3898144610e+02   1.6046940227e+01    0.1341929     0.101498 -64.22 0.0007058557    1.659    0.397
        11 -12.0670      9.8059    237.2205   1.5093621911e+02   2.5802498762e+01    0.3142103    0.1958387  65.75  0.002460819    1.104    0.094
        12 -10.0446     54.4358    229.3956   1.4289218686e+02   2.2237060912e+01    0.2243885    0.1397272  62.28 0.0006857769    1.249    0.199
        13 -11.8008    172.4774    247.9070   1.2294042261e+02   1.4338583160e+00    0.3656767    0.2118402  43.54  0.002171255    1.348    0.258
        14 -14.0775     37.9955    227.8083   1.4571920646e+02   2.4484064280e+01    0.7102989    0.4819031  61.55  0.002353595    1.099    0.090
        15 -10.2984     56.6812    223.8650   1.4207135127e+02   2.2959971818e+01    0.2959045     0.245792  42.30  0.002175463    1.419    0.295
        16 -10.2446    173.5999    222.4127   1.1914708515e+02   4.8183656801e+00    0.3079559    0.2395466  58.32   0.00187683    1.449    0.310
        17 -13.0412     33.3620    234.4164   1.4691134729e+02   2.3828947882e+01     0.266305    0.2296763  86.38 0.0007953302    1.377    0.274
        18  -8.8309    152.5403    213.0453   1.2191917809e+02   1.0013108417e+01    0.1592446    0.1330402 -51.65 0.0003317457    1.449    0.310
        19 -12.4735     10.0664    206.9267   1.4950477717e+02   3.1264034471e+01    0.5899807    0.3508185  34.77  0.002970695    1.893    0.472
        20 -11.8210     60.0758    200.1565   1.3941023771e+02   2.7079994731e+01    0.2481451    0.2105752 -80.05 0.0005214723    1.259    0.206
        21 -10.4918     14.8612    197.2308   1.4809415105e+02   3.2692630162e+01    0.3343744    0.1364207  51.23  0.001925344    1.995    0.499
        22  -9.3450    192.0107    193.1818   1.1063567769e+02   5.9712752483e+00    0.3350779    0.1880457 -64.69  0.001096801    5.330    0.812
        23 -12.1196     66.5782    191.5647   1.3720414404e+02   2.7972338211e+01    0.2533718    0.2259127 -80.57 0.0005354565    1.237    0.191
        24 -10.6736     12.1417    249.6813   1.5107107163e+02   2.3475683400e+01    0.1762061    0.0971574  75.81  0.001320881    1.368    0.269
        25 -11.0825      2.8484    248.5133   1.5244462299e+02   2.4576615836e+01    0.2645489    0.1732486 -85.03    0.0021993    1.472    0.320
        26 -13.3202     63.5249    176.7472   1.3624949667e+02   3.1504553989e+01    0.4712479    0.2718446 -47.27  0.001876534    2.271    0.560
        27 -10.9908     76.9505    178.4201   1.3340909508e+02   2.9297493188e+01    0.2281434    0.1989145  74.08 0.0003388629    1.036    0.035
        28  -9.9790     98.2547    175.0619   1.2804818720e+02   2.6747387992e+01    0.2458946    0.1718951  56.64 0.0006819558    1.335    0.251
        29 -12.0348     84.7213    168.9518   1.3033745267e+02   3.0201966771e+01    0.6556736    0.6366585   9.26  0.004212444    1.306    0.234
        30 -10.3342     80.9207    248.1456   1.3959783551e+02   1.5528951269e+01    0.3139638    0.1481445  78.36  0.001546101    3.066    0.674
        31 -10.2808     97.1003    153.3327   1.2485243544e+02   3.1701266355e+01    0.2947717    0.2842383 -61.66 0.0007983549    1.150    0.131
        32  -9.4724    100.1485    149.0495   1.2332188716e+02   3.2150155902e+01    0.2086483    0.2023556  76.64 0.0004390613    1.084    0.077
        33 -12.1722     85.8519    152.2853   1.2751702190e+02   3.3747119868e+01    0.2907893    0.2494214 -47.95 0.0006252857    1.309    0.236
        34 -12.2522     67.4005    143.5668   1.3087840388e+02   3.8421169603e+01    0.6833683    0.4123377  63.79  0.003345176    1.886    0.470
        35 -10.1376    109.3860    137.7324   1.1874181666e+02   3.3066892975e+01    0.4356674    0.3021028 -16.49  0.001449479    2.418    0.586
        36 -10.5462     96.3018    135.2421   1.2171509635e+02   3.5946241267e+01    0.2440343    0.2349662 -28.44 0.0004423743    1.172    0.147
        37 -10.7939     31.1821    131.4928   1.3875885454e+02   4.5316686135e+01    0.2564264    0.1914343  65.47 0.0005071055    1.341    0.254
        38 -11.5983     22.0712    126.5366   1.4059072990e+02   4.7237882876e+01    0.3867058    0.2062697  51.06  0.001028315    2.013    0.503
        39  -8.9905    106.5153    124.1500   1.1659523404e+02   3.6669668541e+01      0.19948    0.1435211 -52.89 0.0003168069    1.380    0.275
        40  -9.3106    168.0211    113.0556   9.8187802115e+01   2.5756132633e+01    0.2502408    0.1962472 -83.25  0.001038616    1.717    0.418
        41  -9.1124    203.3238    112.2855   9.0590898775e+01   1.7497001145e+01    0.1554006    0.1163738  17.48 0.0003517265    1.601    0.375
        42 -10.2914    157.8874     76.3436   9.0149274179e+01   3.5158036925e+01    0.2699902    0.2199752 -47.73 0.0006096514    1.295    0.228
        43 -13.0978     48.1353    216.5716   1.4311418578e+02   2.5371464997e+01    0.9320692    0.8575674  -3.55  0.005564681    1.812    0.448
        44 -11.7530     11.2475     53.6116   1.3206241393e+02   6.4173740267e+01    0.2940778    0.2150731  56.66  0.001079252    1.912    0.477
        45 -11.8684    239.6098    247.9417   1.1107128950e+02  -9.0090358675e+00     0.531903    0.2113295  47.79  0.002376936    3.456    0.711
        46 -15.0485      9.1173    146.3027   1.4578347679e+02   4.3826994317e+01     7.673556     2.251336 -88.03   0.02729277    4.475    0.777
        47 -11.1154      3.9123     20.2861   1.2582859539e+02   7.1077775553e+01    0.2397424    0.1499462 -68.62  0.001477802    2.031    0.508
        48 -10.6860     22.0771    237.3926   1.4895476112e+02   2.4529907196e+01    0.1995347     0.183308 -23.33  0.001644478    2.066    0.516
