#   1 NUMBER                 Running object number                                     
#   2 MAG_AUTO               Kron-like elliptical aperture magnitude                    [mag]
#   3 X_IMAGE                Object position along x                                    [pixel]
#   4 Y_IMAGE                Object position along y                                    [pixel]
#   5 X_WORLD                Barycenter position along world x axis                     [deg]
#   6 Y_WORLD                Barycenter position along world y axis                     [deg]
#   7 A_WORLD                Profile RMS along major axis (world units)                 [deg]
#   8 B_WORLD                Profile RMS along minor axis (world units)                 [deg]
#   9 THETA_WORLD            Position angle (CCW/world-x)                               [deg]
#  10 FWHM_WORLD             FWHM assuming a gaussian core                              [deg]
#  11 ELONGATION             A_IMAGE/B_IMAGE                                           
#  12 ELLIPTICITY            1 - B_IMAGE/A_IMAGE                                       
         1 -11.4344     80.3622     23.3922   8.2899910952e+01   5.7992551795e+01    0.5469422    0.2148991  37.84 0.0006361917    2.317    0.568
         2  -9.1226     27.7852     22.3519   1.0077551928e+02   6.5985212420e+01    0.4878324    0.2217312 -11.68  0.002168365    3.336    0.700
         3  -9.4113     79.3989     12.9383   7.9386994638e+01   5.9181203017e+01    0.4538661    0.2080678  55.39  0.002216558    2.248    0.555
         4  -9.1232     74.6610     13.6795   8.0987552984e+01   5.9973663506e+01    0.3877752    0.1983936  20.01  0.001929333    2.273    0.560
         5  -9.4556     63.9869     14.2882   8.4420534554e+01   6.1762968503e+01     0.335642    0.1792204  20.20  0.001538508    1.961    0.490
         6  -9.6776    133.9018     13.5787   6.7620079629e+01   4.7947102161e+01    0.2605095    0.1816997  49.73 0.0002081437    1.224    0.183
         7  -8.6279    134.4378      3.4394   6.4651243194e+01   4.8661297778e+01    0.1884846    0.1138228  40.16 0.0005317683    1.612    0.380
         8  -9.2263    125.2550     10.4290   6.8238846577e+01   5.0106284117e+01    0.5131198    0.2443322  24.75 0.0002809973    3.210    0.688
         9  -9.8648    130.0280     10.0376   6.7272791206e+01   4.9099877633e+01    0.4852738    0.1785036  50.00  0.001556903    2.190    0.543
        10  -8.2237     87.9670     13.1713   7.7203672320e+01   5.7549739460e+01    0.2280514    0.1281369  19.41 0.0008627882    1.997    0.499
        11  -8.3700     97.0484     12.0708   7.4602080878e+01   5.5865734599e+01    0.2512652    0.1411936  44.32 0.0008219819    1.449    0.310
        12  -9.2847     31.6695     11.1296   9.4630574212e+01   6.6842207353e+01    0.3923751    0.1731527  20.69 0.0005590523    2.455    0.593
        13  -9.6520     32.1986      6.3347   9.2387085051e+01   6.7274529472e+01    0.2559534     0.162809  26.07 0.0002611735    1.323    0.244
        14  -9.3483     76.4417      6.2539   7.7737666408e+01   6.0292098823e+01    0.3593679    0.2456766  -5.25   0.00219706    1.512    0.339
        15  -9.2067     46.4509      6.4065   8.7101964525e+01   6.5276789209e+01    0.2557549    0.1561911  23.43  0.001178201    1.343    0.256
        16  -9.1352     40.8391      6.1438   8.9012845479e+01   6.6117859890e+01    0.3108357    0.1785123   4.54 0.0008808229    1.707    0.414
        17 -10.1330      7.8400      5.2583   1.0237000326e+02   7.0135915516e+01    0.4465773    0.1960952  13.25   0.00248357    2.455    0.593
        18  -7.5484    156.2956      7.2848   6.2440733874e+01   4.3504750247e+01    0.1210931   0.07929201  43.74 0.0002085575    1.544    0.352
        19  -8.7726    119.2704      6.9304   6.8291272605e+01   5.1677061942e+01    0.2138122    0.1433652  51.06 0.0002649267    1.212    0.175
        20  -7.8025    100.2291      6.4405   7.1991839008e+01   5.5683843517e+01    0.1634283    0.1050946  64.35 0.0003694305    1.591    0.372
        21  -9.0502     92.6681      5.3322   7.3326965256e+01   5.7279745870e+01    0.3943537    0.1266966  50.33  0.001796021    2.318    0.569
        22  -9.6457     84.9242      5.6443   7.5306419454e+01   5.8756669292e+01    0.2284534     0.164128  36.10 0.0002490751    1.111    0.100
        23  -8.5103    208.4704      4.4905   5.5926596480e+01   3.2269986366e+01    0.1166904   0.09403799 -88.57 0.0001576534    1.009    0.009
        24  -8.1018    230.0028      3.4976   5.3908084992e+01   2.7892506950e+01    0.1558838   0.07186972  53.57 0.0008105867    2.566    0.610
        25  -8.4331     57.3162      3.3155   8.2208537069e+01   6.3847365960e+01    0.2069185       0.1095  40.34  0.001208536    1.541    0.351
        26  -7.9770    197.7815      2.2334   5.6464293388e+01   3.4773749668e+01     0.193927   0.06434991  60.72 0.0008882596    2.487    0.598
        27  -8.2547    155.8158      2.8109   6.1365209316e+01   4.3981942373e+01    0.2856371   0.05159691  61.01  0.001027086    3.500    0.714
        28  -8.6319    143.1534      2.1449   6.2961676273e+01   4.6842931249e+01    0.1745503    0.1347273  50.87  0.000285534    1.158    0.136
        29  -9.0070    105.5275      1.9394   6.9400386274e+01   5.4937661955e+01    0.2438425    0.1529941  55.71  0.001176498    1.315    0.240
        30  -8.9281     71.1753      9.1190   8.0282536841e+01   6.0999360716e+01    0.1862615    0.1282925  23.08 0.0005723982    1.233    0.189
        31  -8.0889      2.8030      1.3578   1.0302025049e+02   7.1048057984e+01    0.1426663    0.0744525  12.27 0.0006371357    1.690    0.408
        32  -8.6438     14.2859    105.5590   1.2936416769e+02   5.2145471169e+01    0.2995284    0.1123758 -39.14  0.001305346    2.641    0.621
        33 -10.1291    204.7117    249.1719   1.0851030902e+02  -6.8119682136e+00    0.3766825    0.2499107  46.24  0.002117194    1.780    0.438
        34 -10.6651    196.3087    248.8651   1.1009327775e+02  -5.4924247203e+00    0.4844728    0.2401169  40.59  0.002397658    1.916    0.478
        35 -10.1457    190.1911    248.8248   1.1128793855e+02  -4.5434728222e+00    0.5937793    0.2699894 -24.05  0.002254317    3.861    0.741
        36  -8.2400     66.4652    104.8439   1.1283698158e+02   4.6865687837e+01    0.2644036     0.161883 -16.52  0.001164744    2.238    0.553
        37  -8.1911     94.0805    103.3202   1.0411480168e+02   4.2861099151e+01    0.2810879    0.1315149  31.30  0.001082341    2.442    0.591
        38  -8.5808    139.6014     99.7575   9.0970790070e+01   3.4588524024e+01    0.2987341    0.1724122  26.58  0.001144643    2.424    0.588
        39  -8.4223    130.5437     97.0159   9.2460794870e+01   3.7043495555e+01    0.3565408    0.2014482  31.67   0.00144579    2.094    0.522
        40 -10.1671     15.1953     95.1702   1.2705007684e+02   5.4318010181e+01    0.4130622    0.1771951 -45.70    0.0014447    1.842    0.457
        41  -9.5111     12.1630     94.2943   1.2785819783e+02   5.4716842906e+01    0.3485829     0.172901 -43.61  0.001277943    1.634    0.388
        42  -7.8325    151.3266     95.3251   8.7046933757e+01   3.2850154949e+01    0.1535732    0.1165931  10.58 0.0007049407    1.694    0.410
        43  -8.9892    239.1029     93.7897   7.1069003985e+01   1.4051675147e+01    0.2613986    0.1550397  85.76  0.001157175    2.668    0.625
        44  -8.4405     54.7509     93.7928   1.1375144054e+02   5.0738430107e+01    0.3194647    0.1682866  52.61   0.00127241    3.436    0.709
        45  -7.5044    117.7060     93.6795   9.4860668496e+01   4.0328007011e+01    0.1496544    0.1130018   0.31 0.0002266373    1.611    0.379
        46  -7.9357     83.4646     93.5023   1.0460273652e+02   4.6651633362e+01    0.2457884     0.132185  24.15 0.0007394974    2.271    0.560
        47  -9.0095     43.8181     91.8014   1.1683534565e+02   5.2433041467e+01    0.3272794     0.198974 -24.23  0.001671515    1.782    0.439
        48  -8.8686      2.0975     93.0359   1.3087202053e+02   5.5612445177e+01    0.1843542    0.1752986  62.20   0.00126802    1.374    0.272
        49  -8.9171    173.1170     92.0164   8.1570290632e+01   2.8549294015e+01    0.2251875    0.2023568  50.56  0.001236039    1.111    0.100
        50  -8.4674     97.2733     90.0264   9.9514592756e+01   4.4947815496e+01    0.4252043    0.2228162  20.98  0.001559408    2.996    0.666
        51  -8.3298    110.6850     90.5623   9.5880332323e+01   4.2313828551e+01    0.2732632    0.1370089  38.24  0.001117924    2.030    0.507
        52  -7.7510    140.2001     87.1846   8.7407573367e+01   3.6775064676e+01    0.2536979    0.1586362  11.40 0.0009490337    2.852    0.649
        53 -10.4418     38.0727     81.0614   1.1601591332e+02   5.5221899079e+01    0.7026924    0.3773195   2.42  0.002881308    2.583    0.613
        54  -8.2315      1.6341     85.1685   1.2949815900e+02   5.7274786172e+01    0.1800232   0.07683523 -51.95 0.0009493185    1.691    0.409
        55  -8.9482    229.1018     83.4421   7.0236848392e+01   1.7725990128e+01    0.2106542    0.1986975   1.98 0.0003916463    1.309    0.236
        56  -8.0596     66.0827     84.1529   1.0744543754e+02   5.1157524703e+01    0.2071905    0.1621354 -13.57 0.0003114003    1.241    0.194
        57  -7.9494    126.7819     83.4430   8.9621291160e+01   4.0328772172e+01    0.2150565    0.1300628  34.92 0.0009467234    1.749    0.428
        58  -8.0085    233.8464     79.4179   6.8740615879e+01   1.7384708270e+01    0.1738624    0.1183186  49.08 0.0005939708    1.687    0.407
        59  -7.4215    140.3119     79.6873   8.5301902329e+01   3.8048678747e+01    0.1431173     0.115515 -80.66 0.0004837635    1.632    0.387
        60  -8.9127     88.9204     78.5936   9.8648107620e+01   4.8564554410e+01    0.3899959    0.2343441  18.18  0.001563604    2.117    0.528
        61  -8.2908    184.0877     77.8203   7.5947949251e+01   2.8442700012e+01    0.2343475    0.2023091 -45.14 0.0005963147    1.161    0.139
        62  -8.1699     57.7140     77.6908   1.0835835780e+02   5.3548398638e+01    0.2515758    0.1669489 -67.59  0.001179316    2.571    0.611
        63  -9.5008      7.8544     77.7732   1.2578371150e+02   5.8401576237e+01    0.4348279    0.1920798 -22.24  0.001614481    2.800    0.643
        64  -9.1227     50.0791     76.8085   1.1070035890e+02   5.4689747384e+01     0.433725    0.2003715  16.89   0.00180452    2.977    0.664
        65  -7.4656    120.9593     76.0000   8.8949426499e+01   4.2834939992e+01    0.2411141   0.07858233  47.81 0.0008075144    2.978    0.664
        66  -8.3638     74.8636     74.3834   1.0173955328e+02   5.1661690929e+01    0.2709146    0.2011816   4.74 0.0008481226    1.405    0.288
        67  -9.0504     23.7072     73.8785   1.1919158026e+02   5.7988493911e+01     0.326113    0.1588968 -31.68  0.001522046    1.961    0.490
        68  -9.9422     28.7963     69.2087   1.1609010592e+02   5.8423749406e+01    0.5103717    0.2377637 -12.91  0.002027988    3.706    0.730
        69  -8.1086     23.7442     69.5713   1.1803356161e+02   5.8810693230e+01    0.2194885    0.1838407  27.52 0.0009114266    1.473    0.321
        70  -7.6723    157.5134     74.4737   8.0128920755e+01   3.5042243154e+01    0.1410055    0.1360579  58.77  0.000522939    1.015    0.015
        71  -7.5803    129.0221     69.5026   8.5054399541e+01   4.2182919316e+01    0.2178277    0.1327612  47.46 0.0007842241    1.556    0.357
        72  -7.6918    106.1396     67.3318   9.0268924256e+01   4.7272659340e+01    0.2820195     0.112863  39.10  0.001072925    2.534    0.605
        73  -8.3959     84.0188     64.0038   9.5637568413e+01   5.1918831076e+01    0.3001205    0.1667919  18.89   0.00129093    2.402    0.584
        74  -9.5096     27.3423     59.9274   1.1395295406e+02   6.0257426752e+01    0.2614184    0.1573713  17.17  0.001115793    1.730    0.422
        75  -9.3877     18.5730     62.1383   1.1790747212e+02   6.0628776473e+01     0.582307    0.2574547 -13.93  0.002417621    3.627    0.724
        76  -8.2459     24.7999     62.6009   1.1569402378e+02   6.0011410974e+01    0.1976433    0.1499994  31.44  0.001043695    1.629    0.386
        77  -7.9504    148.8093     63.2165   7.8846799478e+01   3.8754516374e+01     0.233895   0.09175148  45.47 0.0008704363    2.515    0.602
        78  -9.9287     62.4878     61.3582   1.0174108323e+02   5.5789829767e+01     0.804233    0.2632416  29.65  0.002858271    3.807    0.737
        79  -9.7833     35.8055     59.9416   1.1079017458e+02   5.9402075946e+01     0.432595    0.2297789  -0.91  0.002050569    2.567    0.610
        80  -7.5235    123.6392     60.7192   8.3757607654e+01   4.4685331361e+01    0.1460369    0.1001701  23.36 0.0004534136    1.672    0.402
        81  -8.5325     96.7832     59.0352   9.0281935063e+01   5.0378434115e+01     0.451802    0.2473046   3.09   0.00156566    4.010    0.751
        82  -8.3753      2.2639     59.9812   1.2353614032e+02   6.2170960434e+01    0.2065737    0.1263368  45.19  0.001183661    2.735    0.634
        83  -7.9655    157.9933     58.7146   7.5789948847e+01   3.7314319642e+01    0.1941018    0.1757864  60.03 0.0007164163    1.041    0.039
        84  -8.0805    111.1735     58.5830   8.6229293269e+01   4.7607902230e+01    0.2892533    0.1510116  34.86  0.001268431    2.013    0.503
        85  -7.9093    146.3043     56.3737   7.7453393456e+01   4.0306409775e+01    0.1444527    0.1026741  20.83 0.0007030679    1.762    0.432
        86  -8.1411     88.4250     53.8044   9.1011948586e+01   5.2711049745e+01    0.1792441    0.1198725 -18.50 0.0004594726    1.567    0.362
        87 -10.0232     74.9513     50.1177   9.3914584435e+01   5.5598391629e+01    0.3557102    0.2713912   4.18 0.0003543769    1.233    0.189
        88  -9.3866     45.4538     49.0079   1.0366994555e+02   6.0092093551e+01    0.3846093    0.2279158  -8.98  0.001696964    1.895    0.472
        89  -9.5733    128.7915     52.1319   7.9990644213e+01   4.4789439009e+01    0.2604623     0.217548  69.27 0.0003053733    1.332    0.249
        90  -8.4031    118.6237     51.1294   8.2062075741e+01   4.7112541534e+01    0.2194002    0.1689666  53.47 0.0004095158    1.281    0.219
        91  -7.9423    107.0772     48.4213   8.4098945093e+01   4.9870473970e+01    0.1931651    0.0962213  30.98 0.0006839507    2.373    0.579
        92  -9.6424     12.0452     46.2914   1.1577745628e+02   6.3925972063e+01    0.4465579    0.2339562 -12.18  0.001460444    2.051    0.512
        93  -8.9474      3.6464     45.8637   1.1907359686e+02   6.4597659375e+01    0.3020618    0.2581198  25.83  0.002294063    1.601    0.375
        94  -8.5312      3.6475     40.0197   1.1728029743e+02   6.5574972365e+01    0.2682647   0.09412587 -51.61  0.001310031    2.664    0.625
        95 -10.8809     83.1814     40.0770   8.7950120570e+01   5.5544260014e+01    0.3717876    0.2444941  -2.51 0.0002338741    1.700    0.412
        96  -9.1036     87.5964     38.1956   8.6018994181e+01   5.4973756382e+01    0.2545598    0.2103918 -15.57  0.000727177    1.227    0.185
        97  -9.1664     56.9709     42.2112   9.7169230046e+01   5.9540634642e+01     0.530201    0.2634517  -0.40  0.001882834    4.521    0.779
        98  -9.2932     92.4984     42.1388   8.5967249196e+01   5.3556338411e+01    0.4850557    0.1430271 -35.60  0.001816691    3.515    0.716
        99  -8.4286     31.5769     43.4112   1.0701978017e+02   6.2585211234e+01    0.3989978     0.152441  24.31  0.001859377    2.809    0.644
       100  -9.1294     35.6064     38.2135   1.0362279480e+02   6.2916692054e+01    0.3592515    0.1386792 -33.79  0.001525093    2.386    0.581
       101  -9.2909     38.7561     35.3865   1.0138104263e+02   6.2945066842e+01    0.4016923    0.1462762  33.20  0.001894563    2.691    0.628
       102  -9.6850     68.8283     37.0353   9.1329234541e+01   5.8403792377e+01    0.4406865    0.2528311   5.85  0.002150873    2.259    0.557
       103  -9.1802     74.0260     34.2808   8.8696235647e+01   5.7878850159e+01     0.291699    0.2248505  34.11   0.00109104    1.209    0.173
       104  -7.7875    124.1770     39.6190   7.7259819743e+01   4.7391898607e+01    0.1952608    0.1043615  44.55 0.0004541663    1.685    0.407
       105  -8.4207    224.3044     35.0821   6.0613019097e+01   2.5557854365e+01    0.2355802    0.1356323 -33.59   0.00102311    1.904    0.475
       106  -8.6070     56.4000     35.1199   9.4813316676e+01   6.0590912406e+01    0.3031761    0.1793722  -2.62 0.0008202609    1.939    0.484
       107  -9.4094     22.1515     32.7400   1.0703785227e+02   6.5164385696e+01    0.3870065      0.27891 -42.32  0.001949474    1.621    0.383
       108  -9.1625      2.0299     28.7461   1.1423894422e+02   6.7465102122e+01    0.4070502    0.1557054 -43.30  0.002257322    2.092    0.522
       109  -9.7095      6.7222     33.9900   1.1399699842e+02   6.6318822577e+01    0.3953167    0.2356608   4.21  0.002606907    1.604    0.377
       110  -8.6680     13.4749     35.4639   1.1162867833e+02   6.5552412187e+01      0.14612    0.1376121 -10.11 0.0006177989    1.538    0.350
       111  -8.8568    193.0345     30.4218   6.3204340918e+01   3.2922271818e+01    0.4103176    0.2018181 -73.41  0.001638872    3.347    0.701
       112  -9.0249     62.2467     26.8718   8.9765669596e+01   6.0710768096e+01    0.3929695    0.1764957  31.11  0.001218719    2.152    0.535
       113  -8.8989     63.8191     23.3219   8.7916779827e+01   6.0858453166e+01     0.175431     0.156503   4.80 0.0008652103    1.237    0.192
       114  -9.4148     41.8207     27.3501   9.7195884508e+01   6.3629813975e+01    0.2804767     0.148515 -36.62  0.001348856    1.963    0.491
       115  -8.2963    173.5567     27.3505   6.5071914551e+01   3.7663494070e+01    0.2240892    0.1061943  64.26  0.001065386    1.854    0.461
       116  -7.7203    110.3479     26.3055   7.6210480236e+01   5.1813726060e+01    0.1370186    0.0829481  30.05 0.0007042022    1.699    0.411
       117 -11.9778    238.3778    245.7922   1.0161046070e+02  -1.1135099964e+01    0.2508281    0.2117057 -10.07 0.0005633614    1.192    0.161
       118  -8.9402     69.7811     25.8882   8.6974907340e+01   5.9583625694e+01    0.1967112    0.1619842  69.31 0.0006003676    1.981    0.495
       119  -8.7410     45.4926    249.0211   1.3987467298e+02   1.7125001470e+01    0.1716627    0.1022039 -74.46   0.00104076    1.613    0.380
       120  -7.7085    102.3336     25.3183   7.7775239135e+01   5.3561349508e+01    0.1355569   0.08237778  27.31 0.0004763051    1.695    0.410
       121  -8.9180    144.7259     23.3552   6.8510847617e+01   4.4618972130e+01    0.2159524    0.1843988  43.03 0.0003055931    1.132    0.116
       122  -8.7196     45.9225     20.8173   9.3125230601e+01   6.3860773774e+01    0.2721726    0.1736075 -38.14  0.001435303    1.951    0.487
       123  -8.3153     92.1505     21.0748   7.8884448185e+01   5.6006698555e+01    0.2639411    0.1387798  45.54  0.001400633    1.594    0.373
       124  -7.6201    169.4848     20.4909   6.3944683065e+01   3.9306533587e+01    0.1254475    0.1081804  72.69 0.0006715996    1.002    0.002
       125  -8.1294    140.4845     20.0086   6.8305543167e+01   4.5896919204e+01     0.185072    0.1468827  57.14 7.887243e-05    1.078    0.072
       126  -8.2037     36.5920     20.2118   9.6408491661e+01   6.5185092609e+01    0.1568922   0.09002367 -17.57  0.000445263    1.610    0.379
       127  -8.3375      9.4041     19.8963   1.0768747452e+02   6.8154472328e+01    0.2570603    0.1263943  13.07  0.000996961    2.004    0.501
       128  -8.0061      5.3177     18.7220   1.0907287335e+02   6.8658958241e+01    0.1523358   0.08922591 -43.47 0.0002133177    1.860    0.462
       129  -7.2813    147.3036     19.2870   6.6962902680e+01   4.4438445239e+01    0.1273563   0.08386429  39.20            0    1.563    0.360
       130  -7.2703    111.6980     19.2903   7.3668048770e+01   5.2220596765e+01    0.1136341   0.09599881 -83.32  0.000205548    1.566    0.362
       131  -8.6451    127.6461     16.9144   6.9720930079e+01   4.9021734332e+01    0.2101708    0.1408074  49.92 0.0003211815    1.256    0.204
       132 -10.2324     16.5840    245.4553   1.4471808854e+02   2.1088542916e+01    0.3015255    0.1782825 -61.46   0.00147638    1.831    0.454
       133  -9.2495      2.4709    237.6706   1.4662218669e+02   2.4013971979e+01     0.197748     0.159628 -88.19 0.0006805657    1.181    0.154
       134 -10.3656    188.2605    234.4065   1.0926561110e+02  -1.9003546258e+00    0.3371739    0.2546833 -53.58  0.001878797    1.697    0.411
       135  -8.4157    189.1801     15.1352   6.0189601317e+01   3.5424235559e+01    0.1784652     0.155824  59.17  0.001220951    1.209    0.173
       136  -7.3705    147.4795     14.4523   6.5623224476e+01   4.4849959748e+01    0.1245057    0.1060248  64.78 0.0001571297    1.027    0.026
       137  -9.8812     43.2446    222.0366   1.3784911498e+02   2.2889446695e+01    0.3577018    0.1798843  45.56  0.001910044    1.858    0.462
       138  -8.1787    192.0000    194.4199   1.0108891501e+02   4.6454228308e+00    0.3182758   0.07869782 -43.47 0.0009453856    4.021    0.751
       139  -8.6073    243.9551    168.1411   8.5864822508e+01   3.6220092001e-01    0.1963013    0.1733696 -26.00 0.0003529581    1.052    0.049
       140  -8.8769    244.8096    163.4743   8.4770132504e+01   1.0286214298e+00     0.249032    0.1918027 -35.18 0.0006590047    1.137    0.121
       141  -7.1804    105.3062     14.3275   7.3469749468e+01   5.3997227111e+01    0.1303728   0.07804679  30.50 0.0006550839    1.652    0.395
       142  -8.2831    166.0065    160.7203   9.9651793336e+01   1.6426543732e+01    0.2078784    0.1975164  11.96 0.0003826508    1.043    0.042
       143  -7.9952    244.9698    158.6499   8.3756385875e+01   1.8399282503e+00    0.1744393     0.161315  -1.53 0.0004552205    1.126    0.112
       144  -9.1544    212.8601    156.8141   8.9060575933e+01   7.9529970243e+00    0.2498373    0.2360424  56.13 0.0004283737    1.214    0.176
       145  -8.1980    133.0738    148.6229   1.0475369582e+02   2.5648283639e+01    0.3379267    0.1927261 -24.28  0.001193522    2.796    0.642
       146  -7.8521     35.3174    145.6767   1.3018449341e+02   4.1204916744e+01    0.1943458     0.136043  71.09 0.0007604807    1.754    0.430
       147  -7.4227    231.7096    139.6460   8.1986881980e+01   7.5688077312e+00    0.1406749    0.1043569  -8.94 0.0007027466    1.678    0.404
       148  -9.3890     67.2153    144.8092   1.2138543945e+02   3.7659926626e+01    0.4733693    0.3291925  87.53  0.001905625    1.971    0.493
       149  -8.2137    153.3818    124.1608   9.3992200778e+01   2.6758228317e+01    0.2212992    0.1413699 -52.38 0.0008601837    1.688    0.408
       150  -7.5836    135.6903    124.2952   9.8302910100e+01   3.0449730252e+01    0.1500096    0.1235836  89.10 0.0003016096    1.591    0.371
       151  -7.4931     85.5333    121.5361   1.1120543147e+02   4.0349907017e+01     0.147096    0.1322418 -26.84 0.0008076952    1.068    0.064
       152  -7.5211    119.5917    118.8084   1.0106557131e+02   3.4858793542e+01    0.2070648    0.1430485 -54.00 0.0006198475    1.554    0.356
       153  -7.7607     66.1769    116.4275   1.1570574383e+02   4.4363427580e+01    0.1767953    0.1307567  44.33 0.0004342853    1.558    0.358
       154  -9.1358    133.7858    107.5258   9.4470877785e+01   3.4308475785e+01    0.6416953    0.2243662 -41.57  0.002130488    2.857    0.650
       155  -7.8188    203.3022    113.6864   8.1137500075e+01   1.7993915452e+01    0.1455619    0.1107478 -72.64 0.0003427555    1.613    0.380
       156  -7.4856     28.3522    112.2971   1.2632773221e+02   4.9533786217e+01    0.1352207   0.08186048 -32.96 0.0007034723    1.689    0.408
       157  -9.3469     10.0111    110.1325   1.3148348565e+02   5.1438489469e+01    0.3564941    0.2110275 -87.13  0.001485291    2.274    0.560
       158  -7.8068    142.9402    111.5507   9.3274041777e+01   3.1561103529e+01    0.2084688    0.1297127  21.84 0.0006911459    2.318    0.569
       159  -8.3012    123.7018    107.5011   9.7043542375e+01   3.6395489793e+01    0.3989698    0.2377477  12.84  0.001388353    3.182    0.686
       160  -8.3366    115.5024    107.0314   9.9095481761e+01   3.8125429458e+01    0.2289227     0.143956 -42.03 0.0005686686    1.562    0.360
       161  -8.4383    109.7896    106.1727   1.0042435798e+02   3.9405123640e+01    0.3776411    0.2281071  10.79  0.001390249    2.906    0.656
       162  -7.6367     61.6663    106.2881   1.1468179090e+02   4.7202963080e+01    0.1290916    0.1085962  75.26 0.0004125535    1.627    0.385
