#   1 NUMBER                 Running object number                                     
#   2 MAG_AUTO               Kron-like elliptical aperture magnitude                    [mag]
#   3 X_IMAGE                Object position along x                                    [pixel]
#   4 Y_IMAGE                Object position along y                                    [pixel]
#   5 X_WORLD                Barycenter position along world x axis                     [deg]
#   6 Y_WORLD                Barycenter position along world y axis                     [deg]
#   7 A_WORLD                Profile RMS along major axis (world units)                 [deg]
#   8 B_WORLD                Profile RMS along minor axis (world units)                 [deg]
#   9 THETA_WORLD            Position angle (CCW/world-x)                               [deg]
#  10 FWHM_WORLD             FWHM assuming a gaussian core                              [deg]
#  11 ELONGATION             A_IMAGE/B_IMAGE                                           
#  12 ELLIPTICITY            1 - B_IMAGE/A_IMAGE                                       
         1 -14.8142    134.3978    146.6312   1.1565415125e+02   2.7171660163e+01     1.587555    0.5110501 -56.63   0.00499461    5.077    0.803
         2 -14.9574    161.4169     42.7015   8.1770032707e+01   3.9640842190e+01     1.491623     1.049001 -13.89  0.003917189    1.463    0.316
         3 -14.6451    174.3510      9.9769   6.7850718977e+01   4.0102809729e+01     1.193307      1.06178   7.87  0.003940181    1.108    0.097
         4 -11.9493    189.8620     14.7004   6.7369182568e+01   3.5495155942e+01    0.2616832    0.2029139   1.86 0.0008186015    1.336    0.251
         5 -12.6292    197.5867      7.1834   6.3939954335e+01   3.4148014006e+01     0.300521    0.2235209 -60.33  0.001208771    1.489    0.328
         6 -10.3875     28.8219    242.9534   1.4419264946e+02   2.5142786940e+01    0.2199412   0.06974366 -78.61  0.001401477    3.233    0.691
         7 -20.0991     77.8614    175.2760   1.3141112118e+02   3.0512775485e+01     13.78951     5.771319 -68.22   0.07174291    2.536    0.606
         8 -11.2209    139.3154    200.9882   1.2284453553e+02   1.7546511547e+01    0.2241393    0.1821302  79.67 0.0009619575    1.454    0.312
         9 -10.6162    136.1288    196.7520   1.2288537636e+02   1.8652191602e+01    0.2446927    0.1687552  82.92  0.001472716    2.084    0.520
        10 -10.5249    117.4125    201.8076   1.2685817819e+02   2.0683737624e+01    0.1958354    0.1168011  52.46 0.0006495891    1.421    0.296
        11 -13.9468    206.7892    177.7905   1.0732689029e+02   9.4635213052e+00    0.7869443     0.543093 -42.29  0.004710109    1.873    0.466
        12 -11.7362    203.8351    171.3468   1.0668857556e+02   1.0787106546e+01    0.4273553      0.19733  36.89  0.002010359    1.916    0.478
        13 -11.5020     16.4674    250.1191   1.4617215988e+02   2.5311120855e+01     0.109847   0.06459329  84.45 0.0009945399    1.484    0.326
        14 -11.6897     31.5114    184.2078   1.4090348671e+02   3.4093033733e+01     0.401618    0.2005862  76.90  0.002556333    1.818    0.450
        15 -10.6895     24.9739    185.4509   1.4214516997e+02   3.4492193205e+01    0.1536873    0.1126225 -75.82 0.0003613835    1.423    0.297
        16 -12.2491    163.7201    202.9781   1.1879650204e+02   1.3459867882e+01    0.2628724    0.2065527  59.96 0.0006796015    1.400    0.286
        17 -10.4530    150.8715    243.1204   1.2563250259e+02   1.0470758556e+01    0.1384839     0.102276  22.97 0.0005070793    1.537    0.349
        18 -11.2929     27.6210    179.8002   1.4134179500e+02   3.5241695771e+01    0.2300823    0.1801714 -25.99  0.001686541    2.422    0.587
        19 -13.7762    195.6481    170.6178   1.0800856609e+02   1.2343804756e+01    0.6829343    0.4397284 -48.83    0.0019836    2.141    0.533
        20 -11.9087    193.7003    165.3397   1.0739683382e+02   1.3404047725e+01    0.2391433    0.2304192  69.91 0.0007970497    1.349    0.258
        21 -11.1127     21.7227    240.0188   1.4509950712e+02   2.6220903215e+01    0.1123981   0.07577512  78.90  0.001041935    1.248    0.199
        22 -13.2542    177.7789    171.2298   1.1137463264e+02   1.5451868382e+01    0.4479119    0.2721646 -52.00  0.002361948    2.238    0.553
        23 -11.5923     26.1559    173.2762   1.4121308583e+02   3.6552570598e+01    0.2296126    0.1526581  76.24 0.0008932734    1.178    0.151
        24 -11.2141    131.2090    236.9254   1.2812879593e+02   1.3923030633e+01    0.2013119    0.1360714 -57.51 0.0009592541    1.970    0.492
        25 -11.5804    201.1481    164.4407   1.0588825797e+02   1.2166371406e+01    0.3818546    0.2728496 -41.05  0.002090131    1.697    0.411
        26 -10.9536    222.4451    161.6487   1.0164612597e+02   8.6488214087e+00    0.2300007    0.1936326 -56.82 0.0008418163    1.867    0.464
        27 -11.4759     17.4271    156.7674   1.4186009794e+02   4.0402642383e+01    0.4215743    0.1970773 -68.71  0.002515358    1.926    0.481
        28 -12.9240    164.5096    157.1405   1.1140066543e+02   1.9965169870e+01    0.3233604    0.2518432  21.80 0.0009240127    1.344    0.256
        29 -14.1483    135.6263    124.3923   1.1103000403e+02   3.1056671885e+01     2.592247    0.3348769 -48.47  0.005174031   10.218    0.902
        30 -10.5205      7.6354    237.5283   1.4701897721e+02   2.7833714111e+01   0.08793192   0.05382161  65.59 0.0001848178    1.074    0.069
        31 -14.6179    143.3532    144.0727   1.1328233253e+02   2.6025960864e+01     1.025054    0.4918959 -56.16  0.004361483    2.706    0.630
        32 -10.6148     22.9743    156.1044   1.4070383748e+02   4.0053925390e+01    0.1575793     0.121421  78.75 0.0004583274    1.023    0.022
        33 -12.6118    174.0359    148.9462   1.0797492497e+02   1.9470870241e+01    0.3452877    0.3087108 -14.60  0.001240391    1.179    0.152
        34 -11.1725     27.3058    145.6651   1.3902274258e+02   4.1712625861e+01    0.1987166    0.1591225 -83.82 0.0007673922    1.147    0.128
        35 -11.6549    139.0137    250.2561   1.2814829235e+02   1.1286698245e+01     0.206762    0.1304657  38.69  0.001583876    1.259    0.205
        36 -11.6692    174.0398    140.6898   1.0630602660e+02   2.0773777355e+01     0.197472    0.1658029  39.35 0.0009318074    1.102    0.093
        37 -10.0011     13.6855    233.5922   1.4603305067e+02   2.7865788655e+01   0.07321579   0.06254551 -63.31 9.842998e-05    1.894    0.472
        38 -10.5090     30.0355    232.5586   1.4359687289e+02   2.6499857758e+01    0.1281783   0.06610626  45.55 0.0007313195    1.510    0.338
        39 -12.7754    160.6288    127.9058   1.0632195930e+02   2.5555884257e+01    0.3818578    0.3220043 -49.39  0.001745193    1.306    0.234
        40 -10.9658    138.1620    243.8647   1.2768852588e+02   1.2137403131e+01    0.2168095    0.1711207  85.95  0.001327049    1.650    0.394
        41 -10.2670     16.7696    226.1884   1.4532264022e+02   2.8673124166e+01   0.08130094   0.04239403  59.83 0.0002476377    1.323    0.244
        42 -11.7872    140.8320    121.0676   1.0913106238e+02   3.0688352929e+01    0.3410313    0.2195047  68.70  0.001504597    2.270    0.559
        43 -12.2321     22.4965    220.7121   1.4424321939e+02   2.8972328152e+01    0.1813086    0.1203182 -74.73   0.00155794    1.672    0.402
        44 -11.3306     23.6618    215.2105   1.4382898248e+02   2.9709669640e+01    0.1244458   0.09489378 -87.04 0.0005386732    1.369    0.269
        45 -13.0726     11.4840    206.0239   1.4537703689e+02   3.2255361653e+01    0.3367643    0.1979306  35.11  0.002170422    1.881    0.468
        46 -10.7849    205.4921    110.1777   9.3268483580e+01   1.8938985042e+01    0.2592296     0.194448  42.29 0.0006431397    1.295    0.228
        47  -9.1771     23.0655    205.0078   1.4346495859e+02   3.1383154291e+01    0.1693083    0.1322862 -21.93  0.001271627    2.837    0.647
        48 -12.8013    154.9884    190.0411   1.1854950267e+02   1.6641838560e+01    0.2887105    0.2271486  63.93   0.00191169    1.417    0.294
        49 -12.4434    153.5347    185.4931   1.1815779505e+02   1.7540860584e+01     0.233324    0.1928706  53.01  0.001182444    1.154    0.133
        50 -13.5219    156.4325    199.5587   1.1961376340e+02   1.5075403255e+01    0.6836038    0.4483072 -83.88  0.003574506    3.163    0.684
        51 -13.0344    161.3051    197.7383   1.1850019266e+02   1.4544932611e+01    0.3675906    0.2897398  84.24  0.002044057    1.821    0.451
        52 -11.7845    168.8596    202.1739   1.1779106372e+02   1.2745607273e+01    0.1727798    0.1393184  54.10 0.0009223176    1.282    0.220
        53 -10.3668    143.5152     80.4822   9.8071070302e+01   3.7727353886e+01    0.1492365    0.1432645  -9.47 9.850168e-05    1.005    0.005
        54 -14.3398    150.3110     57.3523   8.9175043640e+01   4.0169049285e+01     1.103303    0.8952097  -7.04 0.0009964997    1.275    0.216
        55  -9.8131    133.4745    249.3626   1.2891586336e+02   1.2130413735e+01    0.1003119   0.06900889  45.09 0.0002864767    1.046    0.044
        56 -13.0140    165.2796     34.1137   7.7993117353e+01   3.9805240150e+01    0.4425569    0.3895483 -26.34 0.0008448687    1.127    0.113
        57 -10.6717     13.5327     59.9466   1.3252978408e+02   6.1190869822e+01    0.1635379    0.1377916 -69.26 0.0004594655    1.098    0.089
        58 -11.0930    133.9454    245.2816   1.2847580733e+02   1.2542985438e+01    0.1342897     0.114664  48.07 0.0004367507    1.193    0.162
        59 -12.5477    125.1185    243.0869   1.2965251645e+02   1.3989598866e+01    0.3012667     0.141377 -52.33  0.001526109    2.887    0.654
