#   1 NUMBER                 Running object number                                     
#   2 MAG_AUTO               Kron-like elliptical aperture magnitude                    [mag]
#   3 X_IMAGE                Object position along x                                    [pixel]
#   4 Y_IMAGE                Object position along y                                    [pixel]
#   5 X_WORLD                Barycenter position along world x axis                     [deg]
#   6 Y_WORLD                Barycenter position along world y axis                     [deg]
#   7 A_WORLD                Profile RMS along major axis (world units)                 [deg]
#   8 B_WORLD                Profile RMS along minor axis (world units)                 [deg]
#   9 THETA_WORLD            Position angle (CCW/world-x)                               [deg]
#  10 FWHM_WORLD             FWHM assuming a gaussian core                              [deg]
#  11 ELONGATION             A_IMAGE/B_IMAGE                                           
#  12 ELLIPTICITY            1 - B_IMAGE/A_IMAGE                                       
         1 -12.2064    201.9782     42.9571   3.9347596884e+01   2.9899423600e+01    0.8967742     0.774393 -72.56  0.003399262    1.025    0.024
         2 -12.3524    212.6973     32.9834   3.5866008138e+01   2.8810602189e+01    0.7340006    0.6761384  25.39  0.001999301    1.499    0.333
         3  -9.8808     12.6340     43.8303   9.4961355288e+01   6.6706290493e+01    0.2389301    0.1088727 -61.58   0.00110659    2.643    0.622
         4 -11.8669    238.4958      7.3000   2.8422751722e+01   2.6404190314e+01     0.765151    0.5780354 -67.91  0.005167073    1.035    0.034
         5  -8.5678     33.0000      5.0019   6.7630648951e+01   7.0534194717e+01    0.1747279   0.06027532 -30.87 0.0005330861    2.927    0.658
         6  -9.8474    135.3729    230.3752   9.4251992519e+01   7.1154540064e+00    0.3035507    0.1362063 -58.79  0.001251747    2.913    0.657
         7 -14.8196     37.1008    191.2435   1.1266827393e+02   2.9549766534e+01     8.181923     3.190263  65.90   0.02449785    4.184    0.761
         8  -8.6382    186.0094    174.0263   7.2814601437e+01   9.7429782273e+00     0.272767    0.2526758  68.18  0.001525273    1.364    0.267
         9  -9.3454    102.6835    172.3040   9.2880880029e+01   2.5224745938e+01    0.3216035     0.164749 -37.74  0.001190857    2.513    0.602
        10 -10.4213     66.6667    171.7493   1.0260641917e+02   3.0802332339e+01    0.4480017    0.3124002 -23.12  0.002100848    1.994    0.498
        11 -10.3770     71.5196    166.9814   1.0053718341e+02   3.1339537052e+01    0.3636012    0.2910334 -28.02 0.0008465922    1.487    0.327
        12 -14.1786      9.1747    207.7518   1.2037941175e+02   2.8438548285e+01     1.448237     1.149435 -47.30  0.006487641    1.618    0.382
        13  -9.7084    139.5833    215.4692   9.1021438003e+01   9.3755743218e+00     0.388972    0.1644156  33.96  0.001559022    2.189    0.543
        14  -9.4238    240.7915    169.9720   6.1531402637e+01   1.3347022083e+00    0.2092707    0.1450905 -58.19  0.001086527    2.059    0.514
        15  -9.0676     95.8650    167.5114   9.3871958225e+01   2.7523015359e+01    0.2503939    0.2107829  88.61 0.0008098584    1.314    0.239
        16 -10.9025     80.2715    158.7107   9.6675822814e+01   3.2167766652e+01    0.7495214    0.4356802  55.79 0.0007672811    2.086    0.521
        17 -11.6833     68.2457    153.7308   9.9294488584e+01   3.5163153568e+01    0.5218626    0.4083067 -24.85 0.0008852031    1.525    0.344
        18 -12.3212     68.7351    144.4308   9.7497385432e+01   3.7476109353e+01     1.765405    0.9594619  75.16  0.005698129    3.906    0.744
        19 -10.4885     87.2215    152.2937   9.3484345094e+01   3.2720868572e+01    0.5962697    0.4177901 -12.56  0.002026741    2.030    0.507
        20  -9.4243    133.9588    146.9139   7.9294443056e+01   2.5627284362e+01     1.004758    0.2322678 -53.31  0.002201102    6.187    0.838
        21  -7.6224    112.2974    150.3297   8.5923260513e+01   2.8926348285e+01    0.1599488    0.1211262 -18.21 0.0005380218    1.638    0.389
        22  -8.1482    174.5147    148.9971   6.9920590480e+01   1.7053239786e+01    0.2090513    0.1329719 -66.02 0.0007117339    2.422    0.587
        23  -9.4081     32.8073    155.9298   1.0987739115e+02   3.8739921905e+01    0.2873284    0.2002525 -79.60 0.0008378277    1.320    0.242
        24  -9.5147     81.1301    181.9789   1.0024466041e+02   2.6229263395e+01    0.3323657    0.2887073 -17.58  0.001089613    1.377    0.274
        25  -9.7295    101.5124    138.6868   8.6475549683e+01   3.3725239194e+01    0.5293361    0.2952768 -26.63  0.001821526    2.903    0.656
        26 -10.5278     88.9032    137.6398   9.0009605887e+01   3.6141446123e+01    0.2970928    0.2584827 -35.35  0.000414173    1.165    0.142
        27 -14.6815      3.5710    175.7099   1.1947390100e+02   3.6322737179e+01     17.89293          nan -75.22   0.03007562   16.264    0.939
        28  -9.1695    105.9592    130.9073   8.3384634183e+01   3.4822578878e+01    0.3694199     0.322908 -48.13  0.001085309    1.122    0.109
        29  -9.4121    134.4758    128.5122   7.4805350185e+01   2.9772451319e+01    0.3175473    0.2336749 -36.75  0.001046612    1.384    0.277
        30  -9.0185    111.3089    129.0297   8.1371997836e+01   3.4270537322e+01    0.2851507    0.2215816   2.50  0.001292362    1.598    0.374
        31  -9.2362     98.1503    124.9204   8.4300593216e+01   3.7695217006e+01    0.3215945    0.2441212  14.23 0.0006683163    1.539    0.350
        32  -8.5783     67.4893    124.9913   9.4035696363e+01   4.2592672630e+01    0.2255364    0.1045029 -39.03 0.0008098946    2.522    0.603
        33  -8.7996    116.9616    123.5348   7.8391946619e+01   3.4471872564e+01    0.3333279    0.1943335 -17.02   0.00104434    3.499    0.714
        34  -8.1762    107.7108    118.2671   7.9764101660e+01   3.7508833174e+01    0.2091286    0.1765474 -12.10 0.0004342701    1.314    0.239
        35  -8.0544     83.6688    118.2989   8.7253115977e+01   4.1792323038e+01    0.1524006    0.1202137  72.59 0.0003902546    1.645    0.392
        36 -11.2059     18.2036    111.4521   1.0814305203e+02   5.1187734390e+01     0.435472    0.3001023 -50.21  0.002456209    1.253    0.202
        37  -8.6568     53.5793    110.7389   9.5639206221e+01   4.7970026968e+01     0.203081    0.1344545 -69.74  0.000950562    1.642    0.391
        38 -10.0155     33.1399    108.8880   1.0246735833e+02   5.0611812985e+01    0.4668302       0.2058 -66.31  0.001946541    2.147    0.534
        39  -8.4014    205.9210    110.0590   5.4629405638e+01   1.8319549055e+01    0.2183676    0.1739007   0.20 0.0006209774    1.640    0.390
        40  -8.9077    231.3269    113.8970   5.1396894708e+01   1.2648754467e+01    0.2309325     0.202173  39.71 0.0009955143    1.331    0.248
        41  -9.1572    114.7990    108.5376   7.5116468333e+01   3.8339227556e+01    0.4069844    0.1857812 -33.17  0.001315993    2.965    0.663
        42  -9.0948    246.7740    103.9526   4.7124038502e+01   1.1497086826e+01    0.1805388   0.09191269 -39.10 0.0007025719    1.664    0.399
        43 -12.8601     18.2699    217.8673   1.1910014671e+02   2.5356448419e+01    0.8317028    0.5921764 -31.09  0.004920785    2.218    0.549
        44  -7.8178     32.6483     86.3173   9.7813508869e+01   5.6062442289e+01    0.1307076    0.1030937  66.02 0.0007047154    1.738    0.425
        45  -8.0131    159.3111     83.6573   5.6900623812e+01   3.3493180747e+01    0.1554247    0.1157909 -74.86 0.0007045713    1.700    0.412
        46 -11.8619    191.4009     50.7404   4.2606043206e+01   3.1240504552e+01    0.7251914    0.5536817   8.01  0.001413432    2.020    0.505
        47  -9.2653    111.1164    203.8340   9.5954589526e+01   1.6465202295e+01    0.2173288    0.1841467  60.36 0.0005754106    1.224    0.183
        48  -8.7596    122.6322    199.5138   9.2452847836e+01   1.5543771672e+01    0.3092706    0.2267544 -82.08  0.001483223    1.828    0.453
        49 -16.1922     12.4029    241.9770   1.2167673987e+02   2.0879384581e+01      4.64188     2.000632  24.35   0.02329856    2.958    0.662
        50 -10.1705    101.2990    242.9060   1.0342414908e+02   9.8084864044e+00    0.4375674    0.1970789 -63.53   0.00171533    2.671    0.626
        51 -10.6966     40.5363    176.1591   1.1019586256e+02   3.2862557928e+01    0.5666386    0.3910688 -40.53  0.002833561    1.728    0.421
        52 -10.3632    126.5159    218.6930   9.4543606014e+01   1.0823675212e+01    0.5478951    0.2169684  24.61  0.001793899    3.663    0.727
        53  -8.2665     99.5778    180.7077   9.5169356164e+01   2.3696058843e+01    0.2574369    0.1809802  21.61 0.0007466971    1.601    0.375
