#   1 NUMBER                 Running object number                                     
#   2 MAG_AUTO               Kron-like elliptical aperture magnitude                    [mag]
#   3 X_IMAGE                Object position along x                                    [pixel]
#   4 Y_IMAGE                Object position along y                                    [pixel]
#   5 X_WORLD                Barycenter position along world x axis                     [deg]
#   6 Y_WORLD                Barycenter position along world y axis                     [deg]
#   7 A_WORLD                Profile RMS along major axis (world units)                 [deg]
#   8 B_WORLD                Profile RMS along minor axis (world units)                 [deg]
#   9 THETA_WORLD            Position angle (CCW/world-x)                               [deg]
#  10 FWHM_WORLD             FWHM assuming a gaussian core                              [deg]
#  11 ELONGATION             A_IMAGE/B_IMAGE                                           
#  12 ELLIPTICITY            1 - B_IMAGE/A_IMAGE                                       
         1 -11.1112      5.7868     38.1884   1.1055181895e+02   6.4960321255e+01    0.4602571     0.329228 -48.60  0.003137967    1.356    0.262
         2 -11.6242     13.5734     39.1342   1.0785472193e+02   6.4306196437e+01    0.6323125    0.3290811 -55.11  0.003428554    2.081    0.519
         3 -11.7188    107.3937     29.3740   7.3517743780e+01   5.3097617584e+01    0.4384524    0.2654153 -25.83 0.0004733255    1.789    0.441
         4 -11.7794      1.9510     25.3035   1.0824565411e+02   6.7192759325e+01     0.305082    0.1371503 -48.00  0.001918551    1.879    0.468
         5 -11.4744      6.8842     17.9123   1.0380867586e+02   6.7947161339e+01    0.3233209    0.2488661  -6.99  0.002081166    1.189    0.159
         6 -12.2364     18.2443     24.3673   1.0137543706e+02   6.6192067195e+01    0.4620995    0.2422833 -47.21  0.002351972    2.005    0.501
         7 -11.5725    174.7838     11.8208   5.5335197886e+01   4.0398051355e+01    0.3866976    0.2870843  50.82  0.001416309    1.317    0.240
         8 -11.9945    117.0697     22.6400   6.9023876757e+01   5.1943590284e+01    0.2433585    0.2161235  34.89 0.0002163291    1.037    0.036
         9 -10.7652    102.0324     20.7850   7.2106678744e+01   5.5090424085e+01    0.4724851    0.2095992 -20.32  0.001936085    2.816    0.645
        10 -10.2409     36.5051     21.1739   9.3139765165e+01   6.4904886814e+01    0.2705233     0.193921   9.62  0.001163617    1.212    0.175
        11 -11.0940    182.1404     19.0550   5.6045991557e+01   3.7934651283e+01    0.2747901     0.254416   5.68 0.0007243725    1.385    0.278
        12 -10.1375     97.9173     12.0599   7.0265300583e+01   5.6748956935e+01    0.1907166    0.1564197   5.21 0.0003212545    1.206    0.171
        13 -10.8496     66.4488     13.6377   7.9849807477e+01   6.1911760217e+01    0.6939129    0.3425716  21.21   0.00356669    2.359    0.576
        14  -9.9155     25.0082     17.3765   9.6227439610e+01   6.6553425562e+01    0.2459021    0.1230774 -31.58  0.001555938    1.680    0.405
        15 -11.7000     79.4033     14.9633   7.6347162769e+01   5.9722317446e+01     0.435398    0.2865744  50.14  0.001039547    1.634    0.388
        16 -10.4720     74.3484      8.8103   7.5642632519e+01   6.1167214672e+01    0.2988555    0.2208674  37.59  0.002063553    1.235    0.190
        17 -10.0609    133.1971     14.3925   6.3057692479e+01   4.9424479048e+01    0.3741758    0.1720976 -29.09  0.001585656    2.466    0.594
        18 -10.7248    114.3721     15.1931   6.7310634625e+01   5.3258649257e+01    0.5615003     0.183838  48.85  0.002422559    2.450    0.592
        19 -10.7008     51.3281      9.4554   8.3350330589e+01   6.4501712933e+01    0.6058856    0.1700997 -28.78  0.002626657    3.771    0.735
        20 -10.3062     45.9161      9.6076   8.5333402044e+01   6.5186273696e+01    0.3772589    0.1878123  11.49  0.001988283    2.543    0.607
        21 -12.1930    209.5814      6.0841   4.9684434974e+01   3.3089081174e+01    0.6169047    0.3546453 -51.63 0.0007092269    1.761    0.432
        22 -10.0448     22.3687     12.3342   9.5429674844e+01   6.7440806500e+01    0.2499299    0.1638346  43.62  0.001593689    2.698    0.629
        23  -9.5991     16.8400     10.0892   9.6855231273e+01   6.8213573041e+01    0.2099072    0.1040315 -38.53  0.001365267    1.860    0.462
        24 -10.7080    218.1006     11.9634   4.9998223927e+01   3.0541170763e+01    0.2661457    0.1480295  65.94 0.0008831348    1.565    0.361
        25  -9.5658     14.2747      4.9942   9.5986834261e+01   6.9055010291e+01    0.1404684   0.09455389 -18.48 0.0002033842    1.129    0.114
        26  -9.9075     13.2507     10.1247   9.8366746413e+01   6.8508493195e+01    0.2894379   0.09850255 -35.01 0.0009329548    2.417    0.586
        27  -9.6698     85.4748     10.2879   7.2965421477e+01   5.9158478556e+01    0.3207684    0.1173079  45.80 0.0006473796    2.282    0.562
        28  -9.1404     87.5051      6.9296   7.1237697782e+01   5.9116619318e+01    0.2152797    0.1410915  12.93 0.0006533594    1.563    0.360
        29  -9.8962     39.0295      9.9265   8.7995119924e+01   6.5985802496e+01    0.2359984    0.1323614  39.85   0.00107558    2.087    0.521
        30 -11.0926     39.6963      4.8695   8.5779772952e+01   6.6459060030e+01    0.3145652    0.2681919 -52.73  0.002296342    2.305    0.566
        31 -10.9922    194.3981      8.4584   5.1946226311e+01   3.6267025645e+01    0.2945889    0.1912676  80.72  0.001036101    1.360    0.265
        32  -9.5992    185.4190      8.7733   5.3149969924e+01   3.8280126529e+01    0.1394135    0.1241993  -2.88  0.000249735    1.505    0.335
        33  -9.6010    165.9661      8.9661   5.5914343649e+01   4.2690150812e+01    0.1972717    0.1657584  65.71  0.001294754    1.028    0.027
        34  -9.7399    146.6555      8.5631   5.8912468279e+01   4.7051753639e+01    0.2227944    0.1311461  23.00  0.001114318    2.412    0.585
        35  -9.7696    159.6268      7.2985   5.6452300448e+01   4.4280403454e+01    0.6046344    0.3196561  88.22  0.002456124    2.712    0.631
        36 -11.2863    161.1392      3.2812   5.5185266690e+01   4.4311600657e+01    0.5521798    0.2566532  69.30  0.002320098    1.918    0.479
        37  -9.8027    107.7710      3.0013   6.4920736611e+01   5.5677302386e+01    0.2021234    0.1165889  31.95 0.0007927875    1.679    0.404
        38 -10.6197    108.0689      7.5195   6.6310310500e+01   5.5229026914e+01    0.4773547    0.2034425  59.21  0.002268592    2.312    0.567
        39  -9.6586    111.6227      5.1925   6.4763192964e+01   5.4731759409e+01    0.2342303     0.132006  29.37 0.0003674128    1.868    0.465
        40  -9.8276     62.3201      6.8843   7.8673474317e+01   6.3218357046e+01    0.1975515    0.1460058  48.36  0.001152377    1.675    0.403
        41  -9.9691     24.7997      6.8718   9.2362541512e+01   6.7866609698e+01     0.178678    0.1215395 -33.40  0.001326032    1.570    0.363
        42  -9.5871     19.7481      6.8191   9.4405265526e+01   6.8353607396e+01    0.1708968   0.09479459 -28.73 0.0006247631    1.507    0.337
        43 -10.2320    248.9571      3.1082   4.5391675258e+01   2.4903330662e+01    0.1815235    0.1541628 -78.70 0.0003528491    1.204    0.169
        44 -10.9684    194.4016      3.6002   5.0856063260e+01   3.6761518868e+01    0.3695222    0.1874478  64.80  0.001545612    1.621    0.383
        45  -9.6909    199.3662      1.4154   4.9806132702e+01   3.5859991494e+01    0.2609286    0.1436891  62.39  0.001460212    1.550    0.355
        46  -9.9405    185.2577      3.0691   5.1842956025e+01   3.8883422404e+01    0.2963462     0.194998   2.32  0.001511339    2.619    0.618
        47  -9.7864    133.3965      3.4659   5.9838034700e+01   5.0383341178e+01    0.2604357    0.1045494 -31.57  0.001248414    2.805    0.644
        48  -9.6881     48.7832      2.9066   8.1713821292e+01   6.5510115785e+01    0.2678424    0.1258144  19.61   0.00143786    2.387    0.581
        49  -9.3193     30.6028      3.3000   8.8643077418e+01   6.7665768724e+01    0.1804838   0.08586571 -35.49  0.001009423    2.147    0.534
        50 -10.5629    217.9659      2.3990   4.8054013434e+01   3.1616876896e+01    0.2600145    0.1876216 -83.70 0.0009241062    1.175    0.149
        51 -10.6278    180.6357      2.0506   5.2189471483e+01   4.0027242410e+01    0.3450944    0.1584892  63.22  0.001754562    1.750    0.429
        52 -10.6503     73.9421      2.0229   7.3285150110e+01   6.1858705797e+01    0.2370327    0.1625782  31.62 0.0009181041    1.178    0.151
        53 -10.0003    144.6049      1.7017   5.7373970402e+01   4.8112756852e+01    0.4053789    0.1595685  73.28  0.001151769    3.225    0.690
        54  -9.1565    123.5166      2.0253   6.1297049065e+01   5.2582264783e+01    0.1590667    0.1180579 -20.79  0.001026146    1.578    0.366
        55  -9.3419    115.6689      2.0361   6.2897843177e+01   5.4186848464e+01    0.1555297    0.1325259  34.57 0.0003164001    1.084    0.078
        56 -10.5762     90.8362      1.6515   6.8532103368e+01   5.8981067559e+01    0.2333133     0.143121  60.34 0.0008610425    1.824    0.452
        57  -8.7795     81.3092      1.6778   7.1069500784e+01   6.0656261027e+01   0.09702796   0.09050094 -80.28 0.0007036091    1.647    0.393
        58  -9.5295      9.0235     11.0251   1.0048168926e+02   6.8721731918e+01    0.1744141    0.1022002  24.38  0.001143671    1.839    0.456
        59  -8.6933    117.2574    216.3353   1.1478015026e+02   1.3214202011e+01    0.1247958    0.1083812 -26.57 0.0002470744    1.572    0.364
        60 -10.4586    187.0571    249.8048   1.0569700830e+02  -5.2902089613e+00     0.227176    0.1803519 -26.50  0.001395856    1.457    0.314
        61 -12.2962     18.1371    247.2161   1.3638164277e+02   2.0806249322e+01    0.7648344    0.2789951  59.04  0.004062702    2.370    0.578
        62 -10.7733     34.1632    248.1394   1.3386508687e+02   1.8791488696e+01    0.3083234    0.1437448  52.80  0.000360685    1.787    0.441
        63 -11.9611     35.5125    243.6389   1.3330821835e+02   1.9506190894e+01    0.3288991    0.2513996  44.86 0.0002534823    1.549    0.354
        64  -9.4649     73.0267    216.4641   1.2387540808e+02   2.0200419042e+01    0.1474261    0.1173909   2.03 0.0003791873    2.271    0.560
        65  -9.8849     85.0014    214.0571   1.2116823279e+02   1.8952480011e+01    0.4080839    0.2246256 -47.65  0.001935067    2.313    0.568
        66  -9.6890     11.1670    215.3757   1.3535181020e+02   2.7893796955e+01    0.2145454    0.1015134  50.36 0.0008045242    1.961    0.490
        67 -10.2661      8.2940    211.5261   1.3557010479e+02   2.8970962711e+01     0.381769    0.1372766 -69.29  0.001992126    2.196    0.545
        68  -9.4870    111.5379    213.9486   1.1563920698e+02   1.4700360277e+01    0.1974582    0.1302554 -62.48 0.0004753369    1.546    0.353
        69  -9.6175     74.5272    212.1051   1.2306419602e+02   2.0933506741e+01    0.2506777    0.1181052 -71.40   0.00114997    2.121    0.529
        70  -9.2877    117.9490    212.2401   1.1403604189e+02   1.3968600374e+01    0.1964582    0.1659471  56.87 0.0004882462    1.091    0.083
        71  -9.7721     39.0441    211.4023   1.2995986918e+02   2.5733794759e+01    0.1988032    0.1404781 -71.29 0.0005495449    1.300    0.231
        72 -10.4117     31.4085    211.8228   1.3142998147e+02   2.6518166620e+01     0.230741    0.1212554  63.12  0.001284164    1.799    0.444
        73 -10.7626    129.1079    207.6534   1.1094513037e+02   1.2982593335e+01    0.3816939    0.2873684   9.88  0.001851626    2.063    0.515
        74 -10.4816     67.1441    207.3299   1.2400116909e+02   2.3031333885e+01    0.2256353    0.1833237  81.86 0.0002237324    1.029    0.028
        75  -9.9016     24.8537    207.9933   1.3231054071e+02   2.8051260744e+01    0.2204423    0.1617705  29.18  0.001449738    1.901    0.474
        76  -9.1392     17.7124    207.9679   1.3361826455e+02   2.8795270631e+01    0.1592265    0.1126791 -89.21 0.0004458804    1.069    0.064
        77  -9.9422     99.7062    205.3635   1.1692976260e+02   1.8547173444e+01    0.2270929    0.1775213  72.31 0.0004880686    1.204    0.170
        78  -9.3482      4.5876    205.2643   1.3576202143e+02   3.0623425134e+01     0.154871   0.07961138 -68.99 0.0008028178    1.614    0.380
        79  -9.3041     96.7346    209.0065   1.1806854577e+02   1.8222853861e+01    0.1853102    0.1588976  85.83 0.0003895691    1.044    0.043
        80  -9.4183     52.1692    202.6333   1.2650365980e+02   2.6056854415e+01    0.1561425     0.120454  30.38 0.0008791615    1.703    0.413
        81 -10.2927    240.0242    201.3108   8.6977782415e+01  -6.1945882092e+00    0.1844989    0.1608048  18.01 0.0004121383    1.114    0.103
        82  -8.9202    186.0756    201.0319   9.7589634586e+01   3.6183120833e+00    0.1705946    0.1576289  35.22 0.0003854613    1.035    0.034
        83 -10.0297    105.3482    200.2723   1.1496777455e+02   1.8750271295e+01    0.2455691    0.2060819  76.94 0.0003218253    1.103    0.094
        84 -10.0226     96.4851    200.8098   1.1697443714e+02   2.0087982278e+01    0.2839807    0.1930048  68.60  0.001158481    1.518    0.341
        85  -9.5320     69.9362    201.1999   1.2268677610e+02   2.4010069400e+01    0.2002525    0.1489196  75.05 0.0004556081    1.233    0.189
        86 -10.7508     19.4996    200.5374   1.3266556846e+02   3.0205999460e+01    0.2274818    0.1751821 -77.09  0.001314098    1.182    0.154
        87 -10.1572      5.2189    200.0144   1.3525519728e+02   3.1672004948e+01    0.1660119    0.1295445  79.64 0.0004422701    1.131    0.116
        88  -9.2692     90.0271    199.2656   1.1815355021e+02   2.1462871136e+01    0.1885534    0.1617089  69.92 0.0004285936    1.070    0.065
        89  -8.9703     55.6789    199.2704   1.2541353986e+02   2.6360919887e+01    0.1306587   0.08236577  71.46 0.0001632009    1.567    0.362
        90  -9.3874    120.9849    199.6338   1.1143795643e+02   1.6188991862e+01    0.2023109    0.1703818  54.54 0.0006446482    1.124    0.110
        91  -9.2504    109.4908    197.5158   1.1363839341e+02   1.8668412533e+01    0.1424206    0.1264887  78.80 2.580219e-06    1.015    0.015
        92  -8.9108     62.7211    196.3294   1.2360195234e+02   2.6099949868e+01     0.135004   0.08626693  77.77 0.0003550498    1.599    0.375
        93  -9.1327     95.5958    195.1791   1.1635040702e+02   2.1506875654e+01    0.1823987    0.1222325 -53.45 0.0004368524    1.555    0.357
        94  -8.7718     82.5553    195.5190   1.1925301193e+02   2.3461924797e+01    0.1349647    0.1185603 -89.59 0.0008073205    1.047    0.045
        95  -8.8250      5.6283    195.6825   1.3484357844e+02   3.2556090671e+01    0.1085992   0.07396816 -52.54 0.0007033866    1.793    0.442
        96  -9.4399    217.4304    194.2745   8.9923287567e+01  -9.8423101132e-01    0.1857586    0.1313645 -51.53 0.0007829434    1.564    0.361
        97  -8.6964    198.4371    194.5729   9.3797589817e+01   2.5190763821e+00    0.1399667    0.1343078  17.44 0.0001976048    1.003    0.003
        98 -11.1618    123.2195    193.2935   1.0990402311e+02   1.7205061677e+01    0.2478525    0.2299958  89.27 0.0002591246    1.040    0.038
        99 -10.5902     52.7867    192.6240   1.2524420417e+02   2.8226451059e+01    0.2393035    0.1763355 -75.23 0.0002875753    1.169    0.144
       100 -10.2073    249.8651    190.8277   8.3159205739e+01  -6.0424918261e+00    0.1708633    0.1576085 -57.73 0.0004863946    1.320    0.242
       101 -11.2816     91.8120    189.0530   1.1627987409e+02   2.3517494412e+01    0.2450799    0.2075049 -79.97 0.0003098508    1.081    0.075
       102 -10.0939    131.8142    186.6693   1.0682160517e+02   1.7118145000e+01    0.2596729    0.2171655 -84.42 0.0003179386    1.239    0.193
       103  -8.9536    221.4557    186.4622   8.7593755903e+01  -2.7253952857e-01    0.1370977    0.1322795 -17.10 0.0001265045    1.055    0.053
       104  -9.4889     32.9775    185.2296   1.2853744490e+02   3.2190942023e+01    0.1448602   0.09841594  41.12 0.0005922172    1.652    0.395
       105  -9.0966     79.9195    182.6958   1.1801402373e+02   2.6816804237e+01    0.1822431     0.160885  76.40 0.0003174071    1.072    0.067
       106 -10.0202     55.4990    181.4386   1.2329207537e+02   3.0447904789e+01    0.2902768    0.1870261  80.35  0.001284674    1.622    0.383
       107  -9.5621     15.8189    183.1699   1.3181169651e+02   3.4351549509e+01    0.1797371    0.1293676  85.75 0.0005441165    1.149    0.130
       108  -9.4457      2.9716    183.4709   1.3434955630e+02   3.5406090183e+01    0.1345736    0.1080856  47.89 0.0003366586    1.480    0.324
       109  -9.4364     48.1987    181.8033   1.2492857400e+02   3.1255714140e+01     0.163037    0.1366764 -58.95 0.0004425481    1.295    0.228
       110 -10.2955     60.4599    179.5255   1.2194357410e+02   3.0258441687e+01    0.3259416    0.1117809 -63.26  0.001005049    2.532    0.605
       111  -9.4749    131.3243    179.1384   1.0556948966e+02   1.8922881644e+01    0.2078042    0.1792108 -69.74 0.0004539028    1.149    0.130
       112  -9.8078    108.9932    176.6561   1.1032862276e+02   2.3553582037e+01    0.2198375    0.1904758 -55.80 0.0003426055    1.184    0.156
       113  -9.2511     91.9859    177.4685   1.1443921015e+02   2.6191073629e+01    0.1923127    0.1367487  42.19 1.367092e-05    1.466    0.318
       114  -9.1351     74.0630    177.2801   1.1855136152e+02   2.8934045667e+01    0.1807292    0.1616041  81.87 0.0004316011    1.069    0.065
       115  -9.0650     47.1834    177.3409   1.2460018491e+02   3.2402049709e+01    0.1726153    0.1053691  49.69 0.0009406126    1.695    0.410
       116 -11.1441     31.9927    176.4263   1.2778123821e+02   3.4283804824e+01    0.2195251    0.1785951 -82.86 0.0003247256    1.036    0.035
       117 -11.7820     22.4120    175.6738   1.2972269201e+02   3.5402801099e+01    0.2273156    0.1765916 -83.73 0.0003984963    1.005    0.005
       118 -10.0509     15.9852    175.5496   1.3104204700e+02   3.6023613382e+01    0.2288826    0.1763016 -28.63  0.001301457    1.958    0.489
       119  -9.8175     79.3080    174.3474   1.1689808790e+02   2.8865377501e+01    0.2395181    0.1635659  43.12 0.0006152669    1.533    0.347
       120  -8.6761     60.9922    166.0000   1.1992420748e+02   3.3354269817e+01    0.1952136   0.07604378  34.28 0.0005850933    2.879    0.653
       121 -12.1722     23.7772    163.5625   1.2810057808e+02   3.8006817447e+01    0.2758783    0.2362587  61.72 0.0004668866    1.283    0.221
       122  -8.9977    140.9541    161.0501   9.9780230044e+01   2.1212232418e+01    0.1827748    0.1710859  62.25 0.0004248135    1.055    0.052
       123 -11.8474     34.0353    157.7495   1.2507169740e+02   3.8348566983e+01      0.91905    0.3369159  53.12  0.003620964    3.756    0.734
       124  -9.9694     12.3271    156.2921   1.2980751103e+02   4.0630334729e+01    0.2214943    0.1023492 -62.43 0.0009107817    1.685    0.406
       125 -10.7206      2.4663    156.2624   1.3195113829e+02   4.1388153051e+01    0.3156218    0.1455076 -51.07  0.001722609    2.145    0.534
       126  -9.1449     95.6625    154.6851   1.0959132699e+02   3.0999274456e+01     0.196913    0.1275727 -65.12 0.0009209716    1.516    0.340
       127 -10.2070      7.6795    149.6976   1.3011187767e+02   4.2456493921e+01     0.157607    0.1192462 -88.52 0.0004383705    1.166    0.143
       128  -9.0824     15.4736    150.5072   1.2844088365e+02   4.1671903001e+01    0.1209673   0.09374938 -73.58  0.000810009    1.015    0.015
       129 -11.2636      4.7532    143.2740   1.3005347418e+02   4.4086678532e+01    0.3029847    0.1446637 -59.51 0.0001954898    1.632    0.387
       130 -11.1147     14.6928    143.8714   1.2782058542e+02   4.3220936265e+01     0.350151    0.2092609 -17.24  0.001867238    2.864    0.651
       131  -9.9794    236.1509    137.8756   7.4733723003e+01   6.1784358504e+00    0.2191765    0.1893306 -70.27 0.0005935057    1.235    0.190
       132  -9.6731    197.8879    137.3548   8.1841021386e+01   1.4324803084e+01      0.23884    0.2015531 -58.15 0.0003238701    1.187    0.158
       133  -9.7261     49.5248    135.7063   1.1798866005e+02   4.1815557116e+01    0.2216701    0.1865247  30.53  0.001384353    1.407    0.289
       134 -11.2355     39.7688    132.5062   1.1999422707e+02   4.3577338416e+01    0.4407074    0.2552088  77.65  0.001819088    2.628    0.619
       135 -11.3939     28.5271    132.1626   1.2283488158e+02   4.4709004568e+01    0.2457532    0.2028942  84.14  0.000267378    1.273    0.214
       136 -11.1171      9.4558    131.5418   1.2751648189e+02   4.6346094349e+01    0.3418702    0.1797594 -47.56  0.000785045    1.790    0.441
       137  -9.7180     43.9942    131.4799   1.1872141693e+02   4.3381371782e+01    0.2263916    0.1524055 -83.86  0.001206102    1.626    0.385
       138  -9.8910     61.9039    131.0097   1.1388601908e+02   4.1445475782e+01    0.1976518     0.170729 -58.69 0.0002842537    1.023    0.023
       139  -8.8947     88.8138    128.1442   1.0605910104e+02   3.8332287752e+01    0.1901633    0.1641008 -23.66 0.0006301787    1.302    0.232
       140  -9.5963     29.9982    125.9106   1.2148629102e+02   4.5985982029e+01    0.1825819    0.1489972 -62.63 0.0003703512    1.008    0.008
       141  -9.1216    120.3835    124.2779   9.6796228753e+01   3.3707202841e+01    0.1985735    0.1399425 -58.27 0.0003817048    1.454    0.312
       142  -9.0773     72.3042    124.3117   1.0975071192e+02   4.1630567014e+01    0.1386852   0.09961028 -29.99 0.0005504903    1.613    0.380
       143  -9.8859      7.0154    123.4872   1.2705678618e+02   4.8274172475e+01    0.1453492    0.1164081  25.40  0.001035227    1.607    0.378
       144  -9.1919    123.2263    121.1936   9.5327237539e+01   3.3848308046e+01    0.1970534    0.1720105  88.49 0.0003186227    1.284    0.221
       145 -11.1691     21.0717    119.5245   1.2283613332e+02   4.8142125298e+01    0.4113727     0.286267  60.66  0.001777042    1.805    0.446
       146  -9.8947     93.1152    119.0017   1.0286768390e+02   3.9732158591e+01    0.2600508    0.2365948  81.94  0.001255592    1.213    0.176
       147  -9.5591     69.4875    117.9975   1.0921636012e+02   4.3443111654e+01    0.2870435    0.1714153  25.48 0.0008667455    2.018    0.504
       148 -10.7358      1.7548    116.1479   1.2739974453e+02   5.0182582424e+01    0.2921221    0.2200879  76.56  0.001135417    1.526    0.345
       149 -11.3177      4.1585    110.7879   1.2601210930e+02   5.1184837106e+01    0.4777561    0.2160437 -69.61  0.001711351    1.818    0.450
       150  -9.2921     35.3772    115.5498   1.1828308042e+02   4.7810434965e+01    0.2299926    0.1501532  65.53    0.0007392    2.145    0.534
       151 -10.7635     60.9518    112.7631   1.1052501262e+02   4.5700883010e+01    0.3663799    0.2612206  11.16  0.001107912    1.772    0.436
       152 -11.2571     19.8371    110.0679   1.2163998825e+02   5.0296637141e+01    0.4151818    0.2081602 -42.49  0.002051318    1.874    0.466
       153 -10.1499    149.9513    111.1843   8.6185080088e+01   3.0474517500e+01    0.2390812    0.2156036 -48.46 0.0002948557    1.104    0.094
       154 -10.9899     37.1304    109.6743   1.1670901120e+02   4.8938849330e+01    0.4214014    0.2120124 -64.00  0.002118672    1.798    0.444
       155 -10.2260     31.9884    111.5029   1.1850099276e+02   4.9003610725e+01    0.1585535    0.1234775  23.71 0.0005852001    1.550    0.355
       156 -10.0026     65.5779    109.1202   1.0841155873e+02   4.5926778178e+01    0.2184021    0.1817657  58.62 0.0004285112    1.442    0.307
       157 -10.8986      9.4427    118.3294   1.2571537776e+02   4.9235433177e+01    0.2565783    0.1362325 -37.83  0.001442433    2.048    0.512
       158  -9.0015     62.9915    105.0648   1.0826172843e+02   4.7137126201e+01    0.1569993    0.1395228 -44.16 0.0003187326    1.011    0.011
       159 -10.0650     74.5904    103.7967   1.0458016590e+02   4.5878998071e+01    0.2542172    0.2030383 -86.04 0.0009658162    1.625    0.385
       160 -10.4838     50.7232    102.4496   1.1129645256e+02   4.9132932012e+01    0.2345489    0.2184471 -63.77 0.0004751492    1.147    0.128
       161 -10.1962     38.2255    101.6445   1.1481902572e+02   5.0570275085e+01    0.3064764    0.2066885 -59.01  0.001013636    1.285    0.222
       162  -9.6698      2.9248    102.5661   1.2510947577e+02   5.2989468703e+01    0.1954656    0.1323761 -74.79 0.0008362218    1.355    0.262
       163  -9.4185      4.2418     98.6877   1.2412724549e+02   5.3722758563e+01    0.2187961    0.1644248  76.13  0.001492638    1.693    0.409
       164  -9.7549     18.3530    102.8317   1.2081748023e+02   5.1952408977e+01    0.1925064    0.1523731 -26.47  0.001326746    1.359    0.264
       165  -9.1536    177.8427    100.8632   7.7332051313e+01   2.6274466826e+01    0.2010365    0.1717354 -82.48 0.0002589859    1.258    0.205
       166  -9.5260      9.5136    100.0336   1.2285532175e+02   5.3130329040e+01    0.1846219     0.150671  56.62 0.0008230185    1.575    0.365
       167 -10.9729    106.4221     97.7711   9.3976952633e+01   4.2044941231e+01      0.28334    0.2459296 -57.03  0.001562588    1.204    0.170
       168  -9.5313     72.8538     98.9113   1.0392264274e+02   4.7160790117e+01    0.2021639    0.1626193 -29.39 0.0003182443    1.220    0.180
       169  -9.9759     16.5861     98.3253   1.2052638606e+02   5.3025309152e+01    0.2408274    0.1665011 -36.62 0.0009393754    1.374    0.272
       170  -9.2297     86.5466     97.4561   9.9543694904e+01   4.5456578362e+01    0.1393625    0.1248058 -26.35 6.885749e-05    1.070    0.066
       171 -10.5180     62.8974     96.1536   1.0623225961e+02   4.9046965487e+01    0.1995656    0.1804858 -41.76 0.0003043649    1.047    0.045
       172  -8.9000     54.6266     97.2730   1.0898344863e+02   4.9798730902e+01    0.1219675   0.09845022  71.84 0.0007001014    1.684    0.406
       173  -9.2927     79.3225     96.1150   1.0132172388e+02   4.6827626589e+01    0.1962125    0.1578435 -42.53 0.0008598808    1.137    0.120
       174 -10.0969     48.3227     92.9213   1.0990393172e+02   5.1400790363e+01    0.2966599    0.2071102 -34.83  0.001153301    1.337    0.252
       175 -11.5600      6.9035     90.7601   1.2201399124e+02   5.5200115806e+01     0.334499    0.2006808 -63.34 0.0006835585    1.361    0.265
       176  -9.8719      1.7056     93.0910   1.2393328599e+02   5.5013369415e+01    0.1632247    0.1253933 -71.99 0.0005690599    1.244    0.196
       177  -9.8834     17.2877     91.3927   1.1903370509e+02   5.4413497239e+01    0.1820659    0.1556058 -36.80 0.0004474882    1.143    0.125
       178 -10.8134     28.0829     87.0649   1.1485619891e+02   5.4489359810e+01     0.551751    0.2527185 -29.77  0.002332702    2.702    0.630
       179 -10.6901    117.6522     90.6317   8.9015344996e+01   4.1375596860e+01    0.3124441     0.227607  19.16 0.0009151156    1.671    0.401
       180 -10.3853     41.5890     89.9955   1.1131125489e+02   5.2688479726e+01       0.3836    0.2380281  -1.49  0.001452696    2.140    0.533
       181  -9.9627     87.5411     88.7762   9.7000459315e+01   4.7071093025e+01    0.2727484    0.2258168  54.99   0.00112758    1.445    0.308
       182  -9.8876     66.9229     88.9623   1.0324712694e+02   5.0013889076e+01    0.1912829    0.1709332 -30.86 0.0002863045    1.016    0.016
       183 -10.1359    129.4853     85.9765   8.4651626189e+01   3.9896568950e+01    0.3341974    0.2563735  26.02 0.0008572358    1.453    0.312
       184  -9.5449    132.0308     82.6062   8.3083060285e+01   3.9997045559e+01    0.3550688    0.1331732  43.29  0.001254264    2.691    0.628
       185  -9.6003    155.0035     85.0826   7.8261878605e+01   3.4516449515e+01     0.217476    0.2152971  56.95 0.0004965453    1.031    0.030
       186  -9.6976    104.8266     91.6308   9.2798642201e+01   4.3578136857e+01    0.3118522     0.237654 -82.09  0.001306553    1.932    0.482
       187 -10.0621     98.8086     83.5022   9.2292598915e+01   4.6232862920e+01    0.2451291    0.1996923 -20.58 0.0004271458    1.255    0.203
       188  -9.1280     59.1871     84.3650   1.0447556592e+02   5.1908792296e+01    0.1564553     0.117799  38.16 0.0003007338    1.531    0.347
       189 -10.5942     50.0262     83.3394   1.0709989089e+02   5.3163782494e+01    0.2571359    0.2087193 -16.85 0.0008478031    1.218    0.179
       190  -9.9858     53.5114     82.4810   1.0578426327e+02   5.2946763101e+01    0.2037103      0.17582 -29.77 -5.266973e-05    1.027    0.026
       191 -10.1108     14.3807     83.6669   1.1841077894e+02   5.6172319694e+01     0.201302    0.1664856  82.02 0.0007514155    1.609    0.379
       192 -11.5913     21.1682     88.1067   1.1720849715e+02   5.4809490727e+01    0.1904274    0.1554687 -44.77            0    1.042    0.040
       193 -11.0786     20.1964     82.2052   1.1629196969e+02   5.6066367998e+01    0.2060308    0.1642344 -56.49 0.0002511643    1.156    0.135
       194 -10.5149     73.7756     80.7071   9.8981562726e+01   5.0715151207e+01    0.4096536    0.2401131 -35.73  0.002065357    1.645    0.392
       195 -10.0832     42.9406     82.3190   1.0909901132e+02   5.4103948947e+01    0.1710124     0.145948 -29.54 0.0007478276    1.062    0.058
       196  -9.4356    150.2620     80.5680   7.8138631307e+01   3.6406921803e+01    0.2433243    0.1845373  -9.63 0.0007671467    1.748    0.428
       197  -8.6915     94.3253     78.3240   9.2144725290e+01   4.7979751738e+01    0.1417021    0.1026285  -5.67 0.0004271136    1.689    0.408
       198  -8.9773     54.7794     77.9681   1.0422540130e+02   5.3682468857e+01    0.1931565    0.1175569 -46.38 0.0007510405    1.442    0.307
       199 -10.2717      3.8601     75.8971   1.2016612421e+02   5.8324460444e+01    0.3448395    0.1712946 -73.69  0.001422476    2.473    0.596
       200 -10.5709     63.0646     75.1986   1.0084072309e+02   5.3203839491e+01    0.3798287    0.1951503  48.03  0.001728213    2.802    0.643
       201  -9.7300     28.3599     75.2457   1.1211877631e+02   5.6807131523e+01    0.3020946    0.1139599 -41.18  0.001353801    2.273    0.560
       202  -9.5583     17.2334     74.4744   1.1557244264e+02   5.7788262307e+01    0.2248125    0.1411979 -59.63   0.00111686    1.442    0.307
       203  -9.7291    179.2018     74.4143   7.0405287002e+01   3.0813981251e+01    0.2454633    0.1975622 -45.93  0.000268383    1.271    0.213
       204  -8.6305     37.2218     75.3415   1.0924452410e+02   5.6016812121e+01    0.1232896   0.07210246 -35.10 0.0001436588    1.533    0.348
       205 -10.2731    142.7701     72.8937   7.7786246290e+01   3.9422713228e+01    0.3172318    0.2378931 -25.03  0.001012761    1.505    0.336
       206  -8.6359     74.2198     73.9888   9.6990804430e+01   5.1921964650e+01    0.1569721    0.0983981 -43.31            0    1.489    0.329
       207  -9.3684     69.1637     73.8749   9.8543211825e+01   5.2648343218e+01     0.183204    0.1627152 -44.32  0.000667905    1.196    0.164
       208  -9.4044    169.1007     72.7811   7.1989042115e+01   3.3455821970e+01    0.2250391    0.1932009 -79.35 0.0007286269    1.245    0.197
       209  -9.2144    159.8850     72.8728   7.3938011159e+01   3.5572897074e+01    0.1852299    0.1627767  88.52 -0.0006383859    1.215    0.177
       210  -9.9340     89.3868     67.7532   9.0556645908e+01   5.0710173017e+01    0.4187779    0.2401165   3.36  0.001589393    3.511    0.715
       211 -10.3246     45.4568     68.6688   1.0480740145e+02   5.6463654557e+01    0.4081379    0.1847155 -29.80 0.0008545807    2.618    0.618
       212  -8.9161     26.2544     71.6524   1.1195940468e+02   5.7664673879e+01    0.1395154     0.100882  -3.05 0.0005378727    1.495    0.331
       213  -8.7959    187.6225     70.4671   6.7836291714e+01   2.9498509395e+01    0.1413418    0.1319316 -84.31 9.902163e-05    1.029    0.028
       214  -9.4660    117.8248     69.8619   8.3156960675e+01   4.5173244898e+01    0.2041113    0.1777034   5.81 0.0004291903    1.192    0.161
       215  -9.2410     79.7013     70.0005   9.4153647657e+01   5.1842418442e+01    0.1760117    0.1517271 -24.08 0.0003201442    1.060    0.057
       216  -9.5845     52.1768     69.0661   1.0269044722e+02   5.5657484592e+01     0.260628    0.1716987 -61.62  0.001432655    1.941    0.485
       217 -10.7737     54.0365     65.9161   1.0120076835e+02   5.6016038350e+01    0.4187542    0.1887277  38.05  0.002027656    2.531    0.605
       218 -10.6578      6.8387     68.2948   1.1763208344e+02   5.9614222511e+01    0.1921176    0.1346884 -41.18 0.0003332639    1.099    0.090
       219 -10.5896      1.5684     67.0934   1.1911709695e+02   6.0122909716e+01    0.3424974    0.1454684 -63.40  0.001166047    2.142    0.533
       220 -10.3906     15.1503     65.0884   1.1412255925e+02   5.9703520626e+01    0.4333833    0.2644274 -17.44  0.002762954    1.719    0.418
       221 -10.6454      9.4720     62.8660   1.1553362427e+02   6.0471552972e+01    0.3000482     0.222991  39.66 0.0009864015    1.871    0.466
       222 -11.6978      4.8456     59.5270   1.1634779462e+02   6.1346370599e+01    0.5489963    0.3462692  11.10  0.003574949    1.827    0.453
       223  -9.8385     89.2178     72.0043   9.1847822568e+01   4.9985413028e+01    0.1895571    0.1488207 -15.12   0.00052712    1.303    0.232
       224  -9.4959    105.8944     67.1563   8.5610355105e+01   4.7923241913e+01    0.1916695    0.1851036  61.46 0.0004458084    1.200    0.167
       225  -9.7326     75.3412     66.3730   9.4452098736e+01   5.3134078447e+01    0.2167577    0.1804224  11.56 0.0006627734    1.172    0.147
       226 -10.2691     21.8292     65.4749   1.1194821123e+02   5.9162519935e+01    0.4064781    0.1266647 -52.16  0.001897346    2.451    0.592
       227  -8.9367    101.0492     64.1863   8.6095097379e+01   4.9309132478e+01     0.181141   0.09920778  41.44 0.0008471975    1.796    0.443
       228  -9.5691     30.9303     64.2300   1.0853156118e+02   5.8661835995e+01    0.2512606     0.165519  32.98  0.001588672    1.834    0.455
       229 -10.7356     32.0231     59.0108   1.0676400011e+02   5.9504479768e+01    0.2829376     0.227978   2.24  0.001254826    1.264    0.209
       230  -9.5526    202.9196     63.4925   6.3527495706e+01   2.7040897390e+01    0.2063005    0.1312782  64.06 0.0005024707    1.506    0.336
       231 -10.4072     73.9472     61.0258   9.3302319694e+01   5.4259331629e+01    0.2740578    0.1838186  27.39 0.0006581509    1.507    0.336
       232  -9.8916     70.4982     60.0569   9.4109911410e+01   5.4917002008e+01    0.2394148     0.159941 -33.20 0.0006997353    1.383    0.277
       233  -9.3651     42.2548     70.6650   1.0639971350e+02   5.6419924928e+01    0.2018509    0.1186035 -44.35  0.000875968    1.427    0.299
       234 -10.1402     38.7285     60.4238   1.0483258714e+02   5.8632485799e+01    0.2152148    0.1864055 -41.90 0.0006867464    1.233    0.189
       235 -10.0101     44.6864     57.8849   1.0206374160e+02   5.8472368888e+01    0.3466479    0.3285119  83.46   0.00236121    1.566    0.361
       236  -9.2621     46.2687     48.3916   9.8675185053e+01   5.9886287465e+01    0.2031582    0.1813769  26.54  0.001269014    1.396    0.284
       237 -10.8595     42.0084     51.7021   1.0117743617e+02   5.9801117918e+01    0.4343522     0.181426 -40.03  0.002203109    2.049    0.512
       238  -9.9064     42.5021     44.4982   9.8793829023e+01   6.0915184374e+01    0.2581672     0.178628 -14.43 0.0009811432    1.311    0.237
       239 -10.5740     22.4011     57.6637   1.0976790364e+02   6.0534930927e+01     0.261804     0.240722  -8.57  0.002049296    1.270    0.213
       240  -8.8271    238.4660     58.5844   5.7337855865e+01   1.9744049866e+01    0.1329251    0.1135111 -79.50 8.022607e-05    1.017    0.017
       241  -8.9089    144.4724     58.4017   7.3353118385e+01   4.1411592953e+01    0.1386585     0.128402  63.76 8.729767e-05    1.076    0.071
       242  -9.5257    106.5083     57.5145   8.2558129687e+01   4.9388005203e+01     0.224361    0.1808982  59.17 0.0008439272    1.466    0.318
       243  -9.9694    110.0504     56.5542   8.1301222611e+01   4.8865992108e+01    0.3052193    0.1742526  48.08 0.0008648236    1.732    0.423
       244  -9.2584     59.9676     57.1902   9.6685128308e+01   5.6811416228e+01     0.236115    0.2008131  88.95  0.001446879    2.010    0.503
       245  -9.7043     55.3856     58.0051   9.8460770160e+01   5.7241092012e+01    0.1975963    0.1640891  10.81 0.0004022953    1.192    0.161
       246  -9.6028     52.4284     55.2187   9.8628162958e+01   5.8063209138e+01    0.2280818    0.1442576 -54.29  0.001276779    1.938    0.484
       247  -9.8565    205.1655     56.2601   6.1475793348e+01   2.7642423849e+01     0.274845    0.1815825 -84.55            0    1.761    0.432
       248  -9.2486    136.5134     57.0020   7.4774978412e+01   4.3373198707e+01     0.195802    0.1227184  -5.36 0.0008102888    2.655    0.623
       249 -10.2232    122.8350     45.8232   7.4759954925e+01   4.7897891680e+01    0.2195538    0.1933812  27.97 0.0004364881    1.065    0.061
       250 -10.6253    118.1818     55.2759   7.8769881207e+01   4.7466859498e+01    0.5323125    0.3241035   4.29  0.001572931    2.896    0.655
       251  -9.3444     92.5501     55.4595   8.5903286793e+01   5.2218366931e+01    0.2118584     0.161809 -21.13 0.0007698162    1.293    0.227
       252 -11.1855     94.6035     49.5240   8.3451365072e+01   5.2770795571e+01    0.5353847    0.2831851 -32.03  0.001605429    1.941    0.485
       253 -10.3197     79.3302     55.3172   8.9864055794e+01   5.4393683057e+01    0.3259991    0.1420815 -44.14  0.001466053    2.382    0.580
       254  -8.7030    164.0060     54.9837   6.8315716289e+01   3.7485239607e+01    0.1619246    0.1549069  74.85 0.0003222881    1.041    0.039
       255 -10.9605     29.3556     53.8259   1.0626795276e+02   6.0641693321e+01    0.2660162     0.210673  19.66 0.0009139364    1.426    0.299
       256  -9.8674    150.7054     53.6269   7.0662020347e+01   4.0735184632e+01    0.2545115    0.1990675  49.40 0.0006717909    1.190    0.159
       257  -8.6476     47.3072     53.2853   9.9804801414e+01   5.8969637401e+01    0.1208335   0.07826458 -15.23 0.0002624526    1.567    0.362
       258  -9.8486     60.7433     52.0272   9.4845359045e+01   5.7561651681e+01    0.1913147    0.1602982  15.77 0.0007405406    1.185    0.156
       259 -10.9089      6.6931     51.8759   1.1385870877e+02   6.2604692267e+01     0.215432    0.1732935 -36.88 0.0008555477    1.109    0.098
       260 -10.6004    174.0282     50.2078   6.5174403497e+01   3.5849798123e+01    0.2322179    0.2061931  81.19 0.0002752042    1.073    0.068
       261 -10.0288    129.1498     49.9501   7.4462564022e+01   4.5995785920e+01    0.2544557    0.2044047   5.15  0.000410035    1.421    0.296
       262 -10.6398     65.5037     49.5875   9.2499043876e+01   5.7314605372e+01    0.3112305    0.2135366 -41.03  0.001583371    1.481    0.325
       263 -10.8554     61.5755     44.9097   9.2308728656e+01   5.8565611760e+01    0.2576244    0.2152162  -8.02 0.0006665403    1.015    0.014
       264  -8.8938    156.2670     50.6774   6.8698048572e+01   3.9901031597e+01    0.1350329    0.1046448 -74.40 0.0001483758    1.564    0.361
       265  -9.2160    105.7441     50.5780   8.0644097035e+01   5.0590128221e+01    0.1779049    0.1223842  54.41   0.00045898    1.615    0.381
       266  -9.6457     87.6456     49.5562   8.5511893049e+01   5.3955030297e+01    0.2396345    0.1534621 -36.03  0.001165569    1.567    0.362
       267 -11.2264    225.8166     55.7178   5.8382493066e+01   2.2987996058e+01    0.2323083    0.2039483 -76.59 0.0002622459    1.045    0.043
       268 -10.2523     74.1174     48.8192   8.9461701051e+01   5.6201794954e+01    0.3171907    0.1895816 -20.50  0.001673669    1.824    0.452
       269 -10.6515     20.7565     41.0087   1.0569668678e+02   6.3476241422e+01    0.3071138    0.1421107  25.27 0.0009520267    2.336    0.572
       270  -8.9531    201.2258    249.6043   1.0293799781e+02  -7.6131855437e+00    0.1795409    0.1050565  31.20 0.0007351668    1.582    0.368
       271 -12.2468     12.0744     45.6198   1.1025608194e+02   6.3343432197e+01    0.3324806    0.1935103 -50.43 0.0005928594    1.509    0.337
       272 -10.0985     17.0384     46.7881   1.0874897052e+02   6.2806925276e+01     0.211405    0.1390735   1.79 0.0004189171    1.560    0.359
       273  -9.2117    128.2903    249.3326   1.1703078863e+02   4.8001570826e+00    0.1158871    0.1012186   2.66 0.0003398011    1.629    0.386
       274  -9.7924    152.8614     48.3344   6.8748734427e+01   4.1011995737e+01    0.2545991    0.1810461  34.07 0.0005525323    1.557    0.358
       275 -10.0838     22.4535     48.1697   1.0715528597e+02   6.2169265247e+01    0.2683625    0.1339551 -40.91 0.0009395053    1.578    0.366
       276  -9.3088    181.3770     56.4342   6.5446316389e+01   3.3201857907e+01      0.23106    0.1342486 -37.78  0.000783462    1.829    0.453
       277 -10.2725    114.2301     47.0852   7.7309764806e+01   4.9458562555e+01    0.2608404    0.1806263 -31.16 0.0003435073    1.517    0.341
       278  -8.6136     31.5277     47.9765   1.0380338269e+02   6.1435653770e+01    0.1505901   0.09223428 -39.72 0.0009474114    1.357    0.263
       279  -9.3924      5.7395     31.8109   1.0871617315e+02   6.5973524579e+01    0.2354287    0.1376699 -17.13  0.001183305    1.528    0.345
       280  -8.5949    109.6163     47.7199   7.8715733992e+01   5.0268913995e+01    0.1397692   0.09349254  20.19 0.0007005579    1.725    0.420
       281 -10.1857     34.4214     44.5669   1.0172663585e+02   6.1720807229e+01    0.3787971    0.2091939  48.36  0.001432199    3.626    0.724
       282 -10.2486    164.9811     45.9596   6.5728750899e+01   3.8560926428e+01    0.2005048    0.1834111  60.28 0.0003106754    1.035    0.034
       283 -10.7147     69.3515     42.4519   8.8935654213e+01   5.7851968030e+01    0.3928111    0.2314699 -11.55 0.0009961294    2.078    0.519
       284  -8.6413    192.6769     44.2973   6.0569097981e+01   3.2310242621e+01    0.1403096   0.09709185 -78.18 0.0002985417    1.623    0.384
       285 -10.7635    141.4998     42.3842   6.9460623517e+01   4.4375635984e+01    0.2445497     0.217373  46.97 0.0001769686    1.025    0.025
       286  -9.3950     80.9681     43.2894   8.5528538398e+01   5.5964326507e+01    0.1724759    0.1414851  18.82 0.0003139326    1.103    0.094
       287  -9.7011    151.5147     41.4478   6.7117037745e+01   4.2261188784e+01    0.2536029    0.1913115  -9.59 0.0007805285    1.680    0.405
       288  -8.9505     75.5306     42.5396   8.6981542098e+01   5.6921134235e+01     0.122841    0.1058622   2.17 3.850265e-05    1.029    0.028
       289  -9.2368    176.1738     41.6422   6.2601709786e+01   3.6543626524e+01    0.2010608    0.1098507  52.76 0.0009436635    1.688    0.408
       290  -9.4990     92.0023     40.5204   8.1327035559e+01   5.4510019668e+01    0.2410523    0.1662459 -10.17  0.001201625    1.581    0.368
       291  -9.9736     91.0296     37.4856   8.0619512347e+01   5.5087891535e+01     0.181455    0.1545313 -11.39 -5.747802e-05    1.142    0.125
       292  -8.9209    229.4774     40.5130   5.4662320193e+01   2.4385739187e+01    0.1323426     0.109226 -81.99 0.0002065426    1.023    0.022
       293  -8.9014    159.3041     40.6800   6.5387096810e+01   4.0586979912e+01    0.1354492     0.101428 -77.75 0.0004588461    1.631    0.387
       294 -11.7908    103.5881     39.0004   7.7595694886e+01   5.2617052545e+01    0.2320588    0.2131383  32.88 0.0003404213    1.120    0.108
       295  -9.8662    100.5769     35.4451   7.7271992211e+01   5.3640472340e+01    0.3305722    0.1343639  44.87 0.0009256207    2.223    0.550
       296 -11.9037     41.5249     38.0480   9.7076916405e+01   6.2009873300e+01    0.2798827    0.1811993 -16.28 0.0003404265    1.419    0.295
       297  -9.9596    186.5175     38.1089   6.0028436590e+01   3.4594297740e+01    0.2905725    0.1135105 -41.83  0.001018009    2.630    0.620
       298  -9.4701     82.0927     39.2382   8.3855184654e+01   5.6352344663e+01    0.1693639    0.1433879  14.79 0.0004503893    1.042    0.041
       299 -10.1727    116.5640     38.3160   7.4017937425e+01   5.0182512306e+01    0.4029893    0.2635102  67.43  0.002037453    2.010    0.503
       300 -10.2134    112.9262     33.4897   7.3422698440e+01   5.1518321556e+01    0.2352143     0.195385 -68.99 0.0006859812    1.683    0.406
       301 -10.0870     86.0381     37.4124   8.2062222528e+01   5.5949382517e+01    0.2083107    0.1675061 -28.87 0.0004770559    1.299    0.230
       302 -12.4839    194.0657     35.3858   5.8229516397e+01   3.3188597715e+01    0.2801963    0.2384272  77.39 0.0003643966    1.030    0.029
       303 -10.6579    130.8477     36.3810   7.0052719735e+01   4.7467325833e+01    0.3807826    0.2009799  51.25  0.001849863    1.682    0.405
       304 -10.3821     74.1732     35.8306   8.5183063179e+01   5.8064306203e+01    0.3481004    0.1728301  29.01  0.001682732    2.084    0.520
       305 -11.3006     77.4736     34.1877   8.3592876322e+01   5.7770600339e+01    0.4556038    0.3443796  21.57  0.002933501    1.183    0.155
       306  -9.4895    175.8316     36.0481   6.1237133760e+01   3.7360734912e+01     0.211345    0.1698073 -82.72  0.001217831    1.298    0.230
       307 -11.3993    142.3788     31.5178   6.6168484719e+01   4.5559355748e+01    0.4917203     0.386695  -3.78  0.001893246    1.538    0.350
       308 -10.7358    120.5497     34.0686   7.1739809069e+01   4.9910219787e+01    0.3573632     0.207624  28.94  0.001387241    1.995    0.499
       309  -9.4251     77.7568    247.8843   1.2631949650e+02   1.3050989161e+01    0.2377805    0.1211962  87.95  0.001135741    2.468    0.595
       310  -9.8829     57.7057     35.3051   9.0442180701e+01   6.0476273468e+01    0.4875455     0.409558 -81.57   0.00259287    2.448    0.592
       311  -9.8085     60.5664     34.5091   8.9197069708e+01   6.0205928867e+01     0.195935    0.1662149 -10.31 0.0007850211    1.118    0.105
       312  -8.8505    222.3353     34.2972   5.4211357492e+01   2.6834390631e+01    0.1226201   0.09596593  44.04 0.0007030898    1.650    0.394
       313  -9.0518     47.8578     34.3582   9.3568726745e+01   6.1835097228e+01    0.1475393   0.09308005  15.07 0.0002857595    1.551    0.355
       314 -10.1434     29.2231     34.0176   1.0031791360e+02   6.3839183098e+01    0.1692736    0.1327492   0.75 0.0004874363    1.177    0.150
       315  -9.8344     86.8897     33.1876   8.0407198826e+01   5.6357969092e+01    0.1743052    0.1622467  31.83 0.0005065951    1.245    0.197
       316  -9.9783     65.9352     32.9062   8.6854748464e+01   5.9676345254e+01    0.1735986    0.1464394  -2.77 0.0003652304    1.067    0.063
       317  -9.5774     37.2212     26.7868   9.4860324088e+01   6.4081284726e+01    0.1908029    0.1267215  12.28 0.0006985568    1.387    0.279
       318 -10.0351     35.4296     31.8639   9.7270142367e+01   6.3554526576e+01    0.2759284     0.193708  40.07  0.001836665    1.977    0.494
       319  -9.8622    206.7361     31.3949   5.5547515991e+01   3.0769098059e+01    0.2214493    0.1422992  61.43 0.0008355552    1.430    0.301
       320 -10.2524    158.9702     30.0378   6.2582174282e+01   4.2003562003e+01    0.1940056    0.1910271 -60.78 0.0003785565    1.144    0.126
       321  -9.4488    209.4014     35.2238   5.6054471123e+01   2.9655907945e+01    0.1774722    0.1127116 -51.48  0.000838035    1.572    0.364
       322 -10.0639     23.8090     29.5410   1.0092008965e+02   6.4982373928e+01    0.3270581    0.1705111 -52.46  0.001856363    2.520    0.603
       323  -9.1730    247.6783     30.6658   5.0661070172e+01   2.1773451346e+01    0.1119193   0.09533257  43.25 0.0007050078    1.705    0.413
       324 -10.3458     71.7036     28.9492   8.3620191614e+01   5.9339037893e+01    0.2995889     0.202757  34.73  0.001171725    1.383    0.277
       325  -9.6144     75.9601     27.5262   8.1788639160e+01   5.8856573895e+01    0.2083775    0.1311079  32.63 0.0004664568    1.435    0.303
       326 -11.5308      3.0591    246.6223   1.3867942598e+02   2.2505309974e+01    0.2645532    0.1875799  66.78 0.0005977625    1.200    0.166
       327 -10.1809     10.0080     22.4998   1.0406671678e+02   6.7082144839e+01    0.2347677    0.1461556   9.32  0.001058328    1.558    0.358
       328 -10.3964     46.3460    245.6390   1.3163565714e+02   1.7777018654e+01    0.3201021    0.1514745 -85.38  0.001704547    2.098    0.523
       329  -9.6736    206.8785    246.3154   1.0132670161e+02  -8.0315888235e+00    0.1828816    0.1450374  27.13  0.001137001    1.102    0.092
       330 -10.7442     15.2653     18.5739   1.0058283739e+02   6.7236460585e+01    0.2001465    0.1372003   4.87 0.0008500035    1.311    0.237
       331  -9.3894    221.2110     29.1965   5.3261235769e+01   2.7756836870e+01    0.1878527    0.1308982 -77.27   0.00107619    1.358    0.264
       332 -11.2201     49.9179     28.0313   9.0655343994e+01   6.2458025893e+01    0.4120121    0.3008668  65.51 0.0007335927    3.666    0.727
       333 -10.0867    191.6754     28.6156   5.6971114336e+01   3.4603982155e+01    0.2665496    0.1043796  60.09  0.001140059    2.185    0.542
       334  -9.5405    181.5228     27.4843   5.8193270231e+01   3.7100925246e+01    0.1319059    0.1138392  76.01 4.825562e-05    1.005    0.005
       335  -9.9077    166.7691     27.0886   6.0447674996e+01   4.0563547348e+01    0.2829557    0.1587682 -87.68  0.001181603    2.839    0.648
       336  -8.9495    130.0132     26.9757   6.7439502614e+01   4.8772488937e+01    0.1585375    0.1259213  50.21 0.0004195736    1.108    0.097
       337  -9.9229    100.0474     27.0754   7.4690616119e+01   5.4759772506e+01    0.1926607     0.158071  22.78  0.000649106    1.079    0.074
       338 -11.2107    243.0148     25.1909   5.0070791366e+01   2.3484043327e+01    0.2255949    0.1890834 -67.48 0.0004337022    1.153    0.132
       339 -10.8934    175.5925     22.6190   5.7892831168e+01   3.9044447622e+01    0.3375569     0.255383  47.88 0.0008173703    1.340    0.254
       340 -10.9614    175.3767     17.6219   5.6681699509e+01   3.9650112489e+01    0.3065853    0.2211707  44.17  0.001036935    1.477    0.323
       341  -9.5320    136.3247    246.0184   1.1504399080e+02   4.0505415778e+00    0.1738814    0.1549657  74.45 0.0004377507    1.113    0.101
       342 -10.5731    115.5408    249.2759   1.1945947444e+02   6.9208837887e+00    0.2284551    0.1986387  49.66 0.0006813161    1.182    0.154
       343 -10.4285     61.9036     23.4078   8.4874621950e+01   6.1461821921e+01    0.3967308    0.1900509  34.25  0.002177211    1.937    0.484
       344 -10.9899    221.3277     21.8716   5.1705532004e+01   2.8651793207e+01    0.3544279    0.2113275 -83.40  0.001315202    1.721    0.419
       345  -9.1539    169.9686     23.4597   5.8987352062e+01   4.0245932077e+01    0.1936607    0.1131825  64.47 0.0004182247    1.494    0.331
       346 -10.3052    154.0509     22.9595   6.1552094612e+01   4.3935671479e+01    0.3024988    0.1537495  53.92 0.0008075319    1.674    0.403
       347  -8.9916    151.6114    244.5208   1.1184097569e+02   1.6925596808e+00    0.1284757     0.113322  52.20 8.702993e-05    1.025    0.024
       348  -9.8989     26.8858     21.7352   9.7047578236e+01   6.5800526217e+01    0.2935611    0.1529891 -11.35  0.001333512    2.129    0.530
       349 -10.1304    131.6811     21.9312   6.5586204396e+01   4.8974519147e+01    0.2310767    0.1670012  58.89  0.000569633    1.265    0.210
       350 -11.2838     23.0337    243.1595   1.3532898474e+02   2.1047075717e+01    0.3965694    0.1851652  64.79   0.00230772    1.851    0.460
       351  -9.9853    190.4135     20.3564   5.5199757598e+01   3.5878667899e+01    0.2147708    0.1775955  77.72 0.0001797307    1.023    0.023
       352 -10.6891     22.4873    238.1185   1.3506864278e+02   2.2097237605e+01    0.2017995    0.1657226 -71.47 0.0007605592    1.487    0.327
       353  -8.5924    144.3053     21.3211   6.2894957794e+01   4.6292715891e+01    0.1314777   0.08785137  33.27  0.000250492    1.636    0.389
       354  -9.0905    139.4730     21.4788   6.3874380928e+01   4.7338274807e+01    0.1283832     0.110614  50.75 0.0001257546    1.010    0.010
       355  -9.8340    145.9715    242.8801   1.1272067332e+02   2.9668791196e+00    0.1957489    0.1719541  56.18 0.0004926161    1.028    0.027
       356 -11.5675     90.3457     19.3182   7.4733699413e+01   5.7387105305e+01    0.4051256    0.2102166  51.18  0.002151429    1.909    0.476
       357  -9.7913     95.3051     15.7642   7.2187569674e+01   5.6865257417e+01    0.2244694    0.1350598  35.93 0.0005074001    1.453    0.312
       358 -10.3678    199.1468     17.9294   5.3493534870e+01   3.4148367243e+01     0.339298    0.2471429  64.20  0.001777773    1.236    0.191
       359  -9.4538    194.1997     17.3946   5.4006751354e+01   3.5343772529e+01    0.2394672    0.1284193  59.14 0.0006453012    1.639    0.390
       360  -9.7752     91.5847    242.6022   1.2322112491e+02   1.2013191335e+01    0.2169768    0.1644268  50.49   0.00069722    1.230    0.187
       361 -10.7223     76.5045    241.9360   1.2595432283e+02   1.4402402398e+01    0.3417288    0.1923949  83.16  0.001178093    1.955    0.489
       362  -9.2205    157.9122     17.4793   5.9407938463e+01   4.3653768140e+01    0.1867216     0.110444  63.40 0.0003253649    1.462    0.316
       363  -9.2929     62.4347    242.8413   1.2858875427e+02   1.6207958729e+01    0.1641465    0.1024202 -77.75 0.0005714013    1.487    0.327
       364 -10.3359    198.2650    240.3527   1.0201702364e+02  -5.6556047549e+00    0.2208245     0.191272  36.83 0.0002338717    1.087    0.080
       365 -10.3142     44.2211     16.4984   8.8550651597e+01   6.4607317222e+01    0.2567782    0.1888958  46.04  0.001386022    2.041    0.510
       366  -9.9461     31.8232     17.1663   9.3474407561e+01   6.5910686347e+01    0.1534965    0.1239286  -7.09 0.0006176493    1.164    0.141
       367  -9.9191    229.7605     15.9185   4.9585548770e+01   2.7505273953e+01    0.2321221    0.1360969 -59.99 0.0009311056    1.620    0.383
       368  -9.8162    204.8803    240.4154   1.0074276991e+02  -6.7766675225e+00    0.4531447    0.1104147  42.56  0.001528407    3.753    0.734
       369  -9.3896     54.8061    240.2025   1.2970561704e+02   1.7759001944e+01    0.2611134     0.115315 -85.61  0.001217578    2.611    0.617
       370  -9.9207    185.7069     13.8914   5.4315603051e+01   3.7678786396e+01    0.2263199    0.1583361  78.03 0.0003098961    1.262    0.208
       371 -10.0039    179.9415     13.9502   5.5122745659e+01   3.8995311386e+01     0.197325    0.1655129  79.20 0.0005940885    1.037    0.036
       372  -9.4496     88.8778     13.8703   7.3271266139e+01   5.8211478187e+01    0.1752174    0.1312256  26.94  0.000278523    1.132    0.117
       373 -11.1350     28.2003    245.9064   1.3467998403e+02   1.9924993685e+01    0.3033651    0.2025355 -59.09   0.00180109    1.907    0.476
       374 -11.1934      4.6935    236.3388   1.3782373466e+02   2.4317284504e+01    0.2243473    0.1007719  62.83 0.0008243276    1.883    0.469
       375 -11.5831      2.4467    232.1638   1.3792540083e+02   2.5355791676e+01    0.4159959    0.1658921 -79.08  0.002041028    1.991    0.498
       376 -10.4651    148.3338     12.9506   5.9827695148e+01   4.6260864100e+01    0.2463986    0.1512669  53.02 0.0007537791    1.377    0.274
       377  -9.7524     31.7511     12.9133   9.1919219775e+01   6.6443516669e+01    0.1809591     0.127489  12.04 0.0006733992    1.221    0.181
       378 -10.8221    142.6415    238.9261   1.1282275338e+02   4.2765584094e+00    0.2463906    0.2138243  75.82 0.0003878913    1.165    0.141
       379  -9.3364    114.3392    239.8134   1.1853072064e+02   8.9250774624e+00    0.1674352    0.1150257 -52.18 0.0004791438    1.706    0.414
       380  -9.4815    243.4279     12.4854   4.7599786700e+01   2.4971006595e+01    0.1205766     0.094386 -82.17 -5.184222e-05    1.016    0.015
       381  -9.8847    246.4804    239.4801   9.2765962324e+01  -1.3175424426e+01    0.1216981    0.1018865   5.77 7.295518e-06    1.015    0.015
       382  -8.6914    128.2734     11.6700   6.3237811755e+01   5.0733696487e+01    0.1139931   0.09284431 -74.49 0.0002611083    1.590    0.371
       383  -9.7307    178.0568    238.7467   1.0573524422e+02  -1.9055797793e+00     0.190922    0.1585898  52.62 0.0006688055    1.193    0.162
       384  -9.7850    167.9434    238.6723   1.0773581319e+02  -1.1851388351e-01    0.2237212    0.1932897 -67.67 0.0005790365    1.350    0.259
       385  -9.3121    246.5450     10.5448   4.6957231662e+01   2.4544771490e+01    0.1210412   0.09184105 -81.04 1.942419e-05    1.023    0.022
       386  -9.1089    229.4928     10.5474   4.8545199667e+01   2.8192374497e+01     0.122049   0.09762328 -89.82 3.665913e-05    1.039    0.038
       387  -8.8073     82.5435    243.4777   1.2499968086e+02   1.3208814833e+01    0.1254956    0.1000316  71.74 0.0001189177    1.003    0.003
       388 -11.3529      9.8732    249.1306   1.3778534793e+02   2.1329533449e+01    0.3043398    0.1483026  81.89  0.001894362    1.693    0.409
       389  -9.2737     56.0751     10.4905   8.2104892950e+01   6.3746574500e+01     0.154375   0.09279242  32.71 0.0003467844    1.470    0.320
       390 -10.5650    217.1814    236.6745   9.7745272229e+01  -8.2151205718e+00    0.2144168    0.2059952  -9.63 0.0003389411    1.195    0.163
       391 -10.3047    106.0259    235.1402   1.1957547177e+02   1.1211688777e+01    0.1953417    0.1682759  84.95 0.0002475702    1.102    0.093
       392  -9.5731     43.6305    235.7394   1.3128900808e+02   2.0088861508e+01     0.210881    0.1412121  60.71    0.0013767    1.265    0.210
       393 -11.6474     11.5766    232.0051   1.3644225450e+02   2.4475267229e+01     0.408124    0.1887814 -88.81  0.002363436    1.834    0.455
       394  -9.6032    129.6832    241.3403   1.1572098320e+02   6.0547651372e+00    0.1372976   0.09135073  71.40 0.0007048637    1.708    0.414
       395  -9.7119    143.6251    232.3126   1.1167043411e+02   5.3581261626e+00    0.3081323    0.1435876  42.01  0.001366083    1.926    0.481
       396 -10.7072     31.6327    231.2421   1.3301230793e+02   2.2440419761e+01    0.4955041    0.1310877  54.79  0.001992011    3.756    0.734
       397  -8.7483     87.6435    231.3511   1.2271083548e+02   1.4883729710e+01    0.1426079   0.08273868  71.16 0.0007029781    1.849    0.459
       398  -9.1659    127.7375     15.6698   6.4542985184e+01   5.0459012739e+01    0.1796297   0.09364547 -40.69 0.0009005813    2.299    0.565
       399  -9.6511     23.8468    231.2028   1.3434268125e+02   2.3328555680e+01    0.1398756    0.1149182 -80.07 0.0003446201    1.328    0.247
       400  -9.5218     45.5007    228.9353   1.3036907410e+02   2.1246799347e+01    0.2517567    0.1530045 -88.09   0.00151334    1.433    0.302
       401 -10.3008     73.4099    226.4812   1.2491845407e+02   1.8009785435e+01    0.3283997    0.1724587  62.95  0.001088231    1.903    0.474
       402 -10.3368    151.9821    227.0091   1.0916361192e+02   4.8887567209e+00    0.1982217    0.1796884  50.51  0.001197799    1.025    0.024
       403  -9.2204    111.4604    227.5321   1.1752068476e+02   1.1859914689e+01    0.1342867    0.1148582  68.68  0.000123746    1.004    0.004
       404  -8.8348     23.6255    227.2979   1.3408826471e+02   2.4145477254e+01    0.1244589   0.06387011  68.89 0.0007027111    1.747    0.428
       405  -9.7197    216.1694    226.1603   9.6111180014e+01  -6.3557233078e+00    0.1885454    0.1602488   6.01 0.0003628084    1.127    0.112
       406  -8.9961    164.3330    224.6697   1.0625275267e+02   3.0996601361e+00    0.1409793    0.1035356  73.05 0.0007052067    1.723    0.420
       407  -9.1918     79.4257    224.2300   1.2349915781e+02   1.7606018034e+01    0.1817429    0.1091463 -83.73 0.0009464578    1.712    0.416
       408  -9.0811     38.1670    224.4016   1.3129428928e+02   2.3081631480e+01     0.156934    0.0900989  55.72 0.0004470313    1.552    0.356
       409  -8.6818    202.7612    227.3734   9.8945686440e+01  -4.2650281575e+00    0.1219766    0.1046143 -84.81 0.0002904977    1.617    0.382
       410  -9.0218    228.7069    220.3087   9.2655945533e+01  -7.4852621154e+00    0.1170948    0.1056325  84.73 0.0001759713    1.585    0.369
       411  -9.0185    222.5498    219.5542   9.3694871941e+01  -6.3351960643e+00    0.1308901    0.1172417   9.24 0.0001079971    1.001    0.001
       412  -8.6095    183.3169    219.7429   1.0152936812e+02   5.5877115777e-01     0.132477    0.1037999  66.49 0.0003385136    1.536    0.349
       413  -9.4796     95.8839    219.1552   1.1959045813e+02   1.6156995699e+01    0.2103857    0.1577224  78.67 0.0007920292    1.264    0.209
       414 -10.1668     38.8622    218.1331   1.3061428224e+02   2.4316389499e+01    0.2418143    0.1839521  41.25  0.001176576    1.562    0.360
       415  -9.5691     14.4742    219.1173   1.3505409025e+02   2.6790138270e+01    0.1565958    0.1304093  79.35 0.0003147698    1.224    0.183
       416  -9.1600     47.2305    218.2217   1.2906239455e+02   2.3280570754e+01    0.1823202     0.123319 -35.87 0.0009584526    2.784    0.641
       417  -8.8652     28.6669    218.7052   1.3252109149e+02   2.5366550477e+01    0.1038525   0.08384693 -55.63 0.0003980566    1.640    0.390
       418  -9.3389    101.4797    217.1055   1.1817292641e+02   1.5694440934e+01    0.1890336    0.1260377 -65.90 0.0005051375    1.503    0.335
       419  -9.0580     20.1631    217.6304   1.3394846625e+02   2.6510787757e+01    0.1245393     0.107223  40.62 0.0004928405    1.582    0.368
