#   1 NUMBER                 Running object number                                     
#   2 MAG_AUTO               Kron-like elliptical aperture magnitude                    [mag]
#   3 X_IMAGE                Object position along x                                    [pixel]
#   4 Y_IMAGE                Object position along y                                    [pixel]
#   5 X_WORLD                Barycenter position along world x axis                     [deg]
#   6 Y_WORLD                Barycenter position along world y axis                     [deg]
#   7 A_WORLD                Profile RMS along major axis (world units)                 [deg]
#   8 B_WORLD                Profile RMS along minor axis (world units)                 [deg]
#   9 THETA_WORLD            Position angle (CCW/world-x)                               [deg]
#  10 FWHM_WORLD             FWHM assuming a gaussian core                              [deg]
#  11 ELONGATION             A_IMAGE/B_IMAGE                                           
#  12 ELLIPTICITY            1 - B_IMAGE/A_IMAGE                                       
         1 -14.8529     68.4493    144.3726   1.0183480337e+02   3.7140194381e+01      4.91508     2.617785  70.63   0.00795278    3.615    0.723
         2 -14.3947    213.7228     28.3200   3.8505528896e+01   2.8699252526e+01     1.155182    0.9327579  12.26  0.004496974    1.792    0.442
         3 -14.5072    201.8562     39.8052   4.2652701033e+01   2.9974032046e+01     1.918897     1.423953  30.52  0.006793625    1.827    0.453
         4 -12.6873    241.7692      4.1784   3.0896032129e+01   2.5388426492e+01    0.4999358    0.4418441  54.66   0.00319263    1.497    0.332
         5 -12.5297    235.5741      4.0059   3.1283177262e+01   2.6677490701e+01    0.4438321    0.3281662 -62.20  0.003008623    1.119    0.107
         6 -10.5108     58.1502      6.8525   6.2147042706e+01   6.5994417646e+01    0.2025458    0.1554669  44.93 0.0006800228    1.401    0.286
         7 -10.8245     54.4644      5.4498   6.2850785421e+01   6.6772145600e+01    0.2109456     0.147157  48.12 0.0006161532    1.581    0.367
         8 -11.1343      2.6733      3.7467   8.7657337428e+01   7.3604501510e+01    0.2807114    0.1369759 -33.99  0.001716093    1.619    0.382
         9 -16.7089      6.8829    247.2176   1.2573760899e+02   2.1068060549e+01     1.856717     1.704422  44.91   0.01574094    1.495    0.331
        10 -11.8029    139.7572    248.7054   1.0065974800e+02   3.7732601963e+00    0.4141611    0.2851098 -67.62   0.00240707    2.025    0.506
        11 -16.8941     43.7784    194.6894   1.1489370401e+02   2.8073343085e+01     11.99293     4.139046  50.66   0.03922527    2.949    0.661
        12  -9.9674     99.3628    180.8676   9.9850201629e+01   2.3685398114e+01    0.2468942    0.2032593  30.33 0.0005907554    1.272    0.214
        13 -10.3809    189.1197    177.5718   7.8310128801e+01   8.3599711415e+00    0.3983859    0.2580325 -54.81  0.001830013    1.964    0.491
        14  -9.1917    143.3276    179.2890   8.8891689406e+01   1.6449309433e+01    0.1486275    0.1142275  -2.50 0.0002743317    1.616    0.381
        15 -13.2755     80.0192    160.4436   1.0143775321e+02   3.1531139175e+01     1.613995    0.6166534  53.72 0.0005245737    4.242    0.764
        16 -13.6644     68.1188    156.0212   1.0390300623e+02   3.4295492267e+01     0.624882    0.4687754 -48.60  0.001528482    1.346    0.257
        17 -13.7573      8.5444    188.8671   1.2212058387e+02   3.2875051757e+01      0.74471    0.3975119 -58.25  0.001387798    1.918    0.479
        18  -9.9176    135.9935    165.8765   8.8012185613e+01   2.0747116400e+01    0.4007211    0.2119715  61.03  0.001327669    3.375    0.704
        19  -9.2145    132.2649    161.8640   8.8115602771e+01   2.2349456731e+01    0.2450164    0.1790415 -84.71  0.001067745    1.980    0.495
        20 -11.1643     33.7114    156.3808   1.1313261169e+02   3.8216562585e+01    0.3404552    0.2743441  65.78  0.001108635    1.245    0.197
        21 -12.3774     87.3714    153.9750   9.8318157648e+01   3.2004239097e+01    0.6258932    0.4561886 -20.16  0.001683711    1.864    0.463
        22  -9.6847    154.1940    155.0651   8.1308914696e+01   1.9627374484e+01    0.2249493    0.2021767 -76.08 0.0005134353    1.305    0.234
        23 -10.6423     59.0419    150.9656   1.0557160214e+02   3.6728016543e+01    0.3102519    0.2301395 -13.85   0.00131628    1.865    0.464
        24 -11.6305     54.4445    147.1459   1.0624243375e+02   3.8240495120e+01    0.7988262    0.3063605 -56.42  0.003199395    2.246    0.555
        25 -11.3034     49.5949    144.8208   1.0723659652e+02   3.9386503328e+01    0.3965295    0.2447462   5.76  0.001818205    2.443    0.591
        26 -11.2338    133.6391    144.1648   8.3935772055e+01   2.6129178585e+01     1.221484    0.3026818 -53.50  0.002778886    5.903    0.831
        27 -10.6110    174.5523    149.1605   7.5298673558e+01   1.6796049447e+01    0.2883339    0.2612982 -35.12 0.0007776612    1.082    0.076
        28 -11.4020     29.7812    144.2622   1.1266210387e+02   4.1564296531e+01    0.4459734     0.277346  25.49  0.002395245    1.891    0.471
        29 -10.9286     80.9906    140.9815   9.7628315640e+01   3.6183047345e+01    0.2933921    0.2412413  71.61 0.0005455103    1.368    0.269
        30  -9.1054    199.0541    141.2422   6.8325248337e+01   1.3436379329e+01    0.2281097     0.177137  87.99  0.001058412    2.013    0.503
        31 -10.9662    101.5893    139.4431   9.1480217501e+01   3.3213893664e+01    0.5781714    0.3700065 -19.47  0.002267808    2.466    0.595
        32 -12.3157     88.8058    139.2296   9.5044926340e+01   3.5399686431e+01    0.2994247    0.2544445 -44.25 0.0003814641    1.157    0.136
        33  -9.7598     32.2778    138.0489   1.1112681677e+02   4.2866405078e+01    0.1828699    0.1506267 -76.15 0.0005338496    1.058    0.055
        34 -11.5143     26.0327    137.4981   1.1281665544e+02   4.3564020920e+01    0.3936045    0.2189967  44.77   0.00112305    1.990    0.497
        35 -12.1028     71.3256    169.6336   1.0517144720e+02   3.0529707610e+01    0.4662511     0.270983 -51.95 0.0007819049    1.713    0.416
        36 -10.5899    105.9624    130.9521   8.8347051044e+01   3.4482611584e+01    0.3942195    0.3465472 -57.16  0.001649547    1.126    0.112
        37 -10.1635    110.9648    130.0305   8.6725014307e+01   3.3784147199e+01    0.3228402    0.2459476   8.86 0.0009218734    1.653    0.395
        38 -10.8673    135.6721    128.4399   7.9677935421e+01   2.9296212069e+01    0.5605942    0.1441495 -49.18  0.001463761    4.183    0.761
        39 -10.6938    146.5011    171.9811   8.6706987380e+01   1.7437106443e+01    0.3872853    0.2818377 -76.92  0.001070732    1.990    0.497
        40 -10.0828    160.7162    127.3510   7.3241888112e+01   2.4251641888e+01     0.298778    0.1920191 -52.63 0.0009153383    1.684    0.406
        41 -14.8201     21.2663    221.8705   1.2176677316e+02   2.4598834962e+01     1.019789    0.8577877 -60.13  0.004565377    1.496    0.332
        42 -10.9745     98.1906    125.9960   8.9420715386e+01   3.7051327117e+01    0.3275818    0.2569953 -18.59 0.0008080565    1.507    0.336
        43 -15.9561      6.2126    169.9561   1.2122989302e+02   3.7373289398e+01     7.314268    0.9562693 -72.43   0.02271459    5.002    0.800
        44  -9.9429    116.9425    124.4838   8.3718388983e+01   3.3950467699e+01    0.2320714    0.1550007  36.12 0.0007245442    1.560    0.359
        45  -9.9696     87.2314    120.5819   9.1403352546e+01   4.0206219023e+01    0.3541415    0.2348482  64.30  0.001501449    2.151    0.535
        46  -9.7388    135.0000    119.9785   7.7715729009e+01   3.1327690500e+01    0.2635496   0.08811897 -45.16 0.0006729661    2.923    0.658
        47  -9.8679    107.4765    118.9856   8.5024525363e+01   3.7035658271e+01    0.2151071    0.2018868  24.38 0.0002532289    1.100    0.091
        48 -10.2305    230.5823    167.3832   6.8124081412e+01   2.9005229873e+00    0.2761898    0.1080136 -48.55 0.0009610542    3.506    0.715
        49 -10.2272    205.5568    110.2164   5.9712768343e+01   1.7924462771e+01    0.2888716    0.2356222  37.54   0.00086243    1.343    0.255
        50  -9.6248    114.9956    109.2509   8.0336035055e+01   3.7817998194e+01    0.2886059    0.1672399 -15.61 0.0008990246    3.602    0.722
        51 -10.9671     33.6504    108.2886   1.0585969548e+02   5.0067416487e+01    0.2917415    0.2274665 -86.50  0.001666436    1.400    0.286
        52 -11.9185    248.7188    106.1168   5.1971285202e+01   1.0017427114e+01    0.4922356    0.2234573 -30.62  0.002108977    2.204    0.546
        53  -9.4201    138.2460    105.4085   7.2993790751e+01   3.3791852398e+01    0.2140041    0.1504798  57.51  0.000559209    1.625    0.385
        54 -10.7163     36.3191    101.1005   1.0354489085e+02   5.1552112431e+01    0.2469837    0.2022806  35.39  0.001464803    1.420    0.296
        55 -10.1303     41.2645     98.3863   1.0125948565e+02   5.1710276945e+01    0.2297438    0.1737677  38.81  0.001283268    1.539    0.350
        56 -12.2459     66.7402    174.4664   1.0703247572e+02   2.9985068865e+01    0.4320262     0.286042 -37.79  0.001399184    1.919    0.479
        57  -9.3652    125.4950     92.9042   7.2813955081e+01   3.9163753030e+01    0.2375012    0.1497932 -44.29  0.001017769    1.575    0.365
        58 -10.9302    242.7818     92.4041   4.9750403021e+01   1.3351109336e+01    0.1767032    0.1248043  43.94 0.0009582241    1.701    0.412
        59 -10.4308     53.0891     91.0744   9.5359532351e+01   5.2098625677e+01    0.2630558    0.1798005 -57.40 0.0005608406    1.386    0.279
        60  -9.4758    156.1634     88.2955   6.3864764479e+01   3.3159304710e+01    0.2956891    0.1912035 -62.57 0.0007595455    2.096    0.523
        61  -9.2773     75.1600     85.1832   8.6001455817e+01   5.0336074643e+01    0.1862978    0.1717336  65.85  0.000543358    1.340    0.254
        62 -10.1274    112.3304     81.9666   7.3216446750e+01   4.4159391661e+01     0.386731    0.2714919  76.49  0.001593263    2.395    0.583
        63  -9.9080    159.0615     82.3207   6.1521942972e+01   3.3583314015e+01    0.2158698    0.1966663  55.30 0.0005350279    1.113    0.101
        64  -8.7758     69.4385     81.4522   8.6888270298e+01   5.2026786534e+01    0.1399613    0.1311699 -38.55 0.0001792691    1.119    0.107
        65 -15.7930      9.5969    207.2184   1.2311370322e+02   2.8777643986e+01      1.64422    0.9868537 -67.70   0.00931841    1.599    0.375
        66 -14.3935     56.9257    238.9868   1.1613128406e+02   1.7161964852e+01    0.8037953     0.544093  86.88   0.00209271    1.444    0.308
        67  -8.6345     52.2767     64.6145   8.8044856055e+01   5.7951987152e+01    0.1268048    0.1077941 -81.09 0.0007000275    1.721    0.419
        68 -10.8418     13.4534     59.8987   1.0269689442e+02   6.2710901178e+01    0.2511616    0.1882378 -54.99 0.0004292798    1.205    0.170
        69 -15.7608     28.7399    249.6843   1.2209327370e+02   1.8387779568e+01     2.793133     0.826074  26.45  0.008717384    8.085    0.876
        70 -13.1296    192.3659     46.7808   4.5706537554e+01   3.1264641538e+01    0.7139955    0.6168467  43.32 0.0009086196    1.298    0.229
        71  -9.9917     80.0268    183.4950   1.0501018322e+02   2.6006974734e+01    0.2721129    0.1933168  73.07  0.001283468    1.558    0.358
        72 -11.1928    139.2273     44.9186   5.4451071304e+01   4.4326808306e+01     0.331736    0.2702415 -83.97 0.0004605619    1.479    0.324
        73 -10.1821    140.0836     38.0584   5.2063381010e+01   4.5036509840e+01    0.2220382    0.2006036 -58.43 0.0003930331    1.210    0.174
        74  -9.1069     37.2186     56.6230   9.1568217700e+01   6.1337195706e+01    0.1611776     0.113736   2.97 0.0002924606    1.476    0.323
        75 -11.4346      3.4593     24.6909   9.6386158688e+01   7.0183470282e+01     0.388745     0.286186  32.21   0.00265539    1.861    0.463
        76 -10.6122    198.0418     23.8465   3.9125525143e+01   3.2806553623e+01    0.2800627     0.194224 -16.45  0.001190978    1.841    0.457
        77  -9.4490    189.5104     15.0338   3.7863976159e+01   3.5762055370e+01     0.179228    0.1234388 -33.48  0.000563582    1.538    0.350
        78 -12.0274    193.3818    195.5201   8.0985805771e+01   4.3164150978e+00    0.9219504    0.5067423 -62.00  0.003169614    4.469    0.776
        79 -11.6929    108.7732    202.4216   1.0093343574e+02   1.7378715800e+01    0.6570945    0.3244998 -38.91  0.002153358    2.859    0.650
        80 -11.3314    204.0335    199.3884   7.9576757207e+01   1.8674732415e+00    0.3045597    0.1648372  49.16  0.001351063    2.422    0.587
        81  -9.5003    120.0082    194.0030   9.7013527883e+01   1.7358299822e+01    0.2131972    0.1640831  73.42 0.0004545773    1.569    0.363
