#   1 NUMBER                 Running object number                                     
#   2 MAG_AUTO               Kron-like elliptical aperture magnitude                    [mag]
#   3 X_IMAGE                Object position along x                                    [pixel]
#   4 Y_IMAGE                Object position along y                                    [pixel]
#   5 X_WORLD                Barycenter position along world x axis                     [deg]
#   6 Y_WORLD                Barycenter position along world y axis                     [deg]
#   7 A_WORLD                Profile RMS along major axis (world units)                 [deg]
#   8 B_WORLD                Profile RMS along minor axis (world units)                 [deg]
#   9 THETA_WORLD            Position angle (CCW/world-x)                               [deg]
#  10 FWHM_WORLD             FWHM assuming a gaussian core                              [deg]
#  11 ELONGATION             A_IMAGE/B_IMAGE                                           
#  12 ELLIPTICITY            1 - B_IMAGE/A_IMAGE                                       
         1 -11.3398     20.0602     29.3584   7.4712055917e+01   6.8216011177e+01    0.5508986    0.5135621  59.02  0.002950868    1.940    0.485
         2 -11.9571     13.7768     36.8297   8.0894649285e+01   6.7630797643e+01    0.5747856    0.3245584 -40.33 0.0003302243    1.570    0.363
         3  -9.7221     80.1652     20.4410   4.6701115592e+01   5.9741586001e+01    0.4691595    0.4320656 -79.15  0.003010463    1.471    0.320
         4 -11.1072     62.7871     16.7501   5.0755617861e+01   6.3457991383e+01    0.9147908    0.2908465  49.28 0.0007001872    2.712    0.631
         5 -11.1606     86.9643     36.9003   5.0716518332e+01   5.6511510679e+01    0.8522137    0.4443171 -43.16  0.003802113    2.391    0.582
         6 -10.6924     89.6702     27.4389   4.6568042176e+01   5.7067281075e+01    0.5039168    0.2277027 -24.87  0.001382395    2.622    0.619
         7 -11.1530     77.9255     29.2409   5.0682592705e+01   5.9232869898e+01    0.6815878    0.5071701 -79.55  0.003528184    2.580    0.612
         8 -10.9928    132.2854     21.8476   3.5383814141e+01   4.8295533006e+01    0.3261501    0.3175302 -83.39 0.0004685171    1.159    0.137
         9 -10.5417     30.9712     12.4053   6.1769268763e+01   6.9118744277e+01    0.3170593     0.291055  60.26  0.001317874    1.987    0.497
        10 -10.8996     42.9747     15.2363   5.7679974203e+01   6.7010470703e+01    0.4101392    0.2199882  37.56  0.002336654    1.581    0.368
        11 -10.2949     40.8233     21.4553   6.1349683577e+01   6.6621818088e+01    0.4049842    0.3539355 -68.52  0.002474227    2.225    0.551
        12  -9.2775    220.5313     13.5449   2.3179776762e+01   3.0092306100e+01    0.2011161    0.1448567 -60.23 0.0006522174    1.187    0.158
        13  -9.4789    218.2681     10.9834   2.2870543755e+01   3.0808816333e+01    0.2259792    0.1516757 -69.50  0.001278541    1.213    0.176
        14 -11.9142    105.0327     21.4553   4.0664272979e+01   5.4415059685e+01    0.3812895    0.2713192   2.76 0.0005135089    1.761    0.432
        15  -9.7865     13.8290      7.8155   6.8399589863e+01   7.1836355811e+01    0.2985469    0.1469399  35.68   0.00171846    2.132    0.531
        16 -10.3796      7.3900      9.0641   7.2691720042e+01   7.2364429574e+01    0.4641315     0.186278  33.20  0.001820965    2.580    0.612
        17 -10.2143     13.4004      3.1472   6.6304110776e+01   7.2430848085e+01     0.242388    0.1711912 -30.20  0.001714975    1.648    0.393
        18 -11.7486     21.4280      5.6067   6.3224075394e+01   7.1166469508e+01    0.4244928    0.2361873  44.93  0.002291888    2.456    0.593
        19 -10.8573     21.6515      1.3606   6.0973364757e+01   7.1585385654e+01    0.2897992    0.1007637  35.41 0.0008950527    2.398    0.583
        20 -11.8670      6.5669     16.0617   7.6415464089e+01   7.1493838301e+01    0.6307623    0.3214349  12.83    0.0017246    1.773    0.436
        21  -9.2057    152.8976     13.4122   2.9967646436e+01   4.4459699829e+01    0.2513801    0.1489218 -55.16  0.001406118    1.855    0.461
        22 -10.6548    152.0050     18.1172   3.1297543916e+01   4.4205458059e+01    0.3141685    0.2182108  63.23 0.0002659708    1.244    0.196
        23  -9.7858    149.5408      6.7102   2.8690328574e+01   4.5816446116e+01    0.3564261    0.3032138  22.03  0.001761246    1.536    0.349
        24 -11.6627    156.0758      3.4350   2.7072748569e+01   4.4644938490e+01    0.2341964    0.1705552  59.99  0.001544193    1.279    0.218
        25 -12.1495    160.0464      2.0131   2.6277917710e+01   4.3889652624e+01    0.4055912    0.2790859 -54.42  0.001364297    1.513    0.339
        26 -10.2456    205.8019     18.7773   2.5419023198e+01   3.2469968359e+01    0.3833771    0.2044358 -60.90  0.002206584    1.748    0.428
        27 -10.3317    166.1507     18.1061   2.9441285544e+01   4.1039628152e+01    0.3578788    0.2174178  44.20  0.001666609    1.989    0.497
        28 -10.5373    237.9205     17.7087   2.2662267289e+01   2.6325641197e+01    0.2603571    0.2311089  24.33  0.001778531    1.997    0.499
        29 -10.1928     16.5859     16.8856   7.1169089762e+01   7.0373589520e+01    0.3645999    0.1993555   5.08  0.002073561    1.824    0.452
        30 -10.6354    174.5216     13.8095   2.7455532786e+01   3.9627046357e+01    0.5403784    0.3330773 -15.42  0.003007139    2.492    0.599
        31  -9.6899    178.9753     13.2094   2.6840145435e+01   3.8717665465e+01    0.2846904    0.1725321 -82.80 0.0009279949    1.603    0.376
        32 -10.7101    145.1840     12.8417   3.0873883172e+01   4.6245752325e+01    0.3517791    0.1945035  68.97  0.001243857    1.521    0.343
        33 -10.3378    126.2840     13.5422   3.4005133815e+01   5.0437437955e+01    0.4232933    0.2704773 -46.25  0.001644698    1.825    0.452
        34 -10.8672    229.4380     14.8875   2.2763800580e+01   2.8229976496e+01    0.4655088    0.1795242  70.08  0.002519592    2.371    0.578
        35 -10.8811    116.8408     15.2642   3.6226889071e+01   5.2394839206e+01    0.4069409    0.2115474  65.96 0.0008285851    1.709    0.415
        36 -11.1811     69.6692     11.8970   4.6539485494e+01   6.2624916585e+01     0.357366    0.2723193  59.32  0.001535344    1.438    0.305
        37  -9.8064    243.6529     13.9871   2.1625892585e+01   2.5693612214e+01    0.2102722    0.1444523  54.34  0.001455043    2.075    0.518
        38 -10.7672    207.4861      3.2470   2.2210081699e+01   3.3738077745e+01    0.4800612    0.2193748 -66.88  0.001692701    2.152    0.535
        39  -9.6708    210.2785     13.3210   2.3949823919e+01   3.2149753582e+01    0.3107863    0.1605803  67.76  0.001736596    1.777    0.437
        40  -9.8115    211.8706      9.3619   2.3053551095e+01   3.2244938434e+01    0.2330109    0.1806688 -60.29 0.0008861989    1.193    0.162
        41 -11.2913    132.9763     12.6500   3.2647960554e+01   4.9012428251e+01      0.23362    0.2036505 -79.65 0.0002930659    1.204    0.170
        42 -10.0550     90.7493      2.2535   3.7309428390e+01   5.9125147970e+01    0.5669587    0.2004735  63.26  0.002506664    2.512    0.602
        43  -6.4857     98.6580      5.9213   3.6856313468e+01   5.7164359885e+01    0.4534365    0.2239863  35.19  0.002297794    2.171    0.539
        44  -6.6114     91.5505     13.5860   4.1142734495e+01   5.8043763764e+01    0.9512419    0.1268512  56.25  0.002895678    4.797    0.792
        45  -9.6303     96.9627     12.9548   3.9636143325e+01   5.6949245092e+01    0.2063315    0.1600832  48.33 0.0004503482    1.057    0.054
        46 -10.2577    101.5284     11.0767   3.7980956971e+01   5.6127088440e+01    0.3560774    0.2201982  63.76 0.0005751417    1.433    0.302
        47 -10.9487    106.9628      5.8608   3.5152161468e+01   5.5367303277e+01    0.5313399     0.417289  33.39  0.003540237    1.305    0.234
        48  -9.7339     90.4515      9.4993   3.9955080441e+01   5.8625034706e+01    0.4341063    0.1676338  41.41  0.001970139    2.380    0.580
        49  -9.3111     87.9609      6.6729   3.9539179341e+01   5.9375915141e+01    0.2016773    0.1690263  -8.75 0.0007232168    1.387    0.279
        50  -9.4274    200.2104     12.5444   2.4651929817e+01   3.4285438503e+01    0.2268461    0.1351968 -49.62  0.001417111    1.568    0.362
        51  -9.1855    191.6055     10.8305   2.5074050935e+01   3.6256227560e+01    0.2152489    0.1538313 -55.16   0.00144874    1.332    0.249
        52  -9.6787    190.7768      7.0769   2.4359284730e+01   3.6801345219e+01     0.252838     0.180911 -65.12 0.0009621373    1.256    0.204
        53  -9.9248     54.8375      9.0158   5.0291194582e+01   6.5640312517e+01    0.3019187    0.2605654 -42.82  0.001130069    1.680    0.405
        54 -10.9601     79.2092      4.3517   4.0873847872e+01   6.1360995334e+01    0.2550567    0.1936209 -21.94  0.001073085    1.565    0.361
        55 -11.0499     74.8205      2.7487   4.1424567584e+01   6.2367550900e+01     0.557919    0.4398607 -31.71  0.003818486    1.592    0.372
        56  -8.7972     48.5599      7.7748   5.2081207639e+01   6.6848231084e+01    0.1427976    0.1065348 -29.45 0.0009438304    1.648    0.393
        57  -9.9732    138.9567      6.5596   3.0069250851e+01   4.8196774659e+01    0.2476038    0.1481272  70.04 0.0007624331    1.383    0.277
        58 -10.5772    137.3572      3.7151   2.9521837720e+01   4.8788373413e+01    0.4643266    0.2469493 -79.19  0.002272017    2.509    0.601
        59  -9.5088     45.9560      4.3298   5.1528441718e+01   6.7603175417e+01    0.2369021    0.1375464  29.71 0.0008895827    1.415    0.293
        60  -9.6307     37.9721      4.5425   5.4890342867e+01   6.8888887037e+01    0.3402057    0.2177638  14.92  0.002185322    1.383    0.277
        61  -9.8024     42.0300      1.4132   5.1726501353e+01   6.8514590267e+01    0.2433026    0.1023482  42.02 0.0003827076    1.870    0.465
        62  -8.8321    170.8276      6.1197   2.6084058532e+01   4.1166732657e+01    0.1559666    0.1162509  60.55 0.0004131854    1.330    0.248
        63 -10.4499    237.9267      3.9719   2.0272010937e+01   2.7810493108e+01    0.3146353    0.1780598  68.80   0.00138351    1.779    0.438
        64  -9.6461    232.7090      2.7538   2.0384390538e+01   2.8900122672e+01    0.2397707    0.1206465 -75.24  0.001374829    1.744    0.427
        65 -11.7892    218.6875      3.1391   2.1377958596e+01   3.1532742318e+01    0.3043716    0.1848608  86.28 0.0005496352    1.370    0.270
        66 -10.1100    195.2741      3.6283   2.3255821298e+01   3.6194276365e+01    0.2574909    0.1641537  86.04 0.0005962234    1.295    0.228
        67  -8.9499    199.3167      2.3251   2.2662876400e+01   3.5485182079e+01    0.1943552    0.1289726  56.66  0.001278282    1.720    0.419
        68 -10.0619     30.7596      2.8910   5.7305944332e+01   7.0148985487e+01    0.2348517     0.172844 -36.25 0.0009173664    1.933    0.483
        69 -10.5704    249.9153      1.5880   1.9178948170e+01   2.5906003431e+01    0.1634891    0.1048609 -85.08 0.0003681467    1.251    0.201
        70  -9.4679    180.1818      1.9314   2.4224355155e+01   3.9528256019e+01    0.2604498    0.1365886  76.18 0.0009184873    1.582    0.368
        71  -8.9311    124.1228      6.6193   3.2334514612e+01   5.1511466634e+01    0.2119453    0.1199134 -43.53  0.001175134    2.079    0.519
        72 -10.0433    115.7312      1.9729   3.2339809930e+01   5.3735070823e+01    0.2027558    0.1367944  58.42 0.0003034174    1.187    0.158
        73  -9.2262      5.3743      1.6132   7.0181363766e+01   7.3490425387e+01    0.2361061   0.09901012  13.49  0.001069835    2.705    0.630
        74  -9.4949    126.7817      1.4117   3.0407924305e+01   5.1326677588e+01    0.2088976   0.09911915  71.57 0.0004293502    1.821    0.451
        75  -8.8090     53.8029    117.3628   8.6871687776e+01   4.6424220716e+01    0.1986645    0.1376552   7.49 0.0004348323    1.649    0.394
        76 -10.1158    201.6527    249.5014   7.3240542386e+01  -6.5904069322e+00    0.3177234    0.1937079  -5.07  0.001315575    1.705    0.413
        77 -10.6456    115.9023    248.4926   9.1713906440e+01   5.4284801206e+00    0.3059606     0.283571 -81.61  0.001602024    1.265    0.210
        78  -9.3102     81.5370    115.6079   7.6942816825e+01   4.2821450157e+01    0.3491148    0.1881564  27.86  0.001397149    2.011    0.503
        79 -10.0916     35.4445    115.2988   9.2965276905e+01   4.8986354664e+01     0.412183    0.2010309  38.63  0.001756073    2.358    0.576
        80  -9.1663     46.5788    113.4034   8.8558827623e+01   4.8272328247e+01    0.3623537    0.1600727  34.19  0.001456363    2.395    0.582
        81 -11.1339     37.0675    110.0441   9.1283530205e+01   5.0125966769e+01    0.3290632    0.2203363 -54.14 0.0004554968    1.321    0.243
        82 -10.7989     32.0508    106.2350   9.2327642699e+01   5.1544275638e+01    0.5717935    0.2963739 -40.06  0.002013388    1.786    0.440
        83  -9.5892     25.4777    110.9915   9.5722328729e+01   5.0958506198e+01    0.2251556    0.1895044   0.72 0.0003691491    1.280    0.219
        84 -10.7402     21.3312    108.7570   9.6813753243e+01   5.1841372453e+01    0.4889837    0.2731512 -58.61  0.001801881    1.511    0.338
        85  -9.6558      4.9418    110.6245   1.0307277351e+02   5.2454764989e+01    0.2795692    0.1325226 -51.17   0.00102463    1.666    0.400
        86  -8.9805    116.5189    107.8915   6.4091752001e+01   3.8089047342e+01    0.2273727     0.150488 -43.32 0.0006298548    1.501    0.334
        87  -9.1982     90.0800    108.2114   7.2220573260e+01   4.3087072979e+01    0.2630253    0.2206289   4.63 0.0007743735    1.259    0.206
        88  -8.9426     93.5718    105.4207   7.0345273046e+01   4.3087458378e+01    0.2986262    0.2342802  41.53  0.001047246    1.319    0.242
        89  -9.5848     51.9835    105.1716   8.4675553770e+01   4.9621518454e+01    0.2545662     0.216669 -68.79  0.001110837    1.333    0.250
        90  -9.2869      2.0438    104.9002   1.0321321409e+02   5.4001518164e+01    0.1761024    0.1636837  89.13 0.0004230532    1.250    0.200
        91  -9.6501    142.2213    103.7926   5.6234841585e+01   3.3526741339e+01    0.2422311    0.2341489  86.98 0.0004618935    1.072    0.067
        92 -10.0239     64.0645    103.0920   7.9755857023e+01   4.8481940724e+01    0.3866579    0.2612814  -6.59  0.001125149    1.821    0.451
        93 -10.3223     70.7981    102.5236   7.7211816506e+01   4.7605855565e+01    0.3618307    0.2697731  13.55  0.001782715    1.430    0.301
        94  -8.9667     41.0503    103.8278   8.8419035976e+01   5.1218308144e+01    0.1998343     0.188594  60.91 0.0006641528    1.288    0.224
        95  -8.6848      7.4547    104.4552   1.0115536887e+02   5.3820885879e+01    0.1308768    0.1116691 -55.76 -6.00538e-05    1.067    0.062
        96  -8.4529    161.5238    103.5694   5.1779939844e+01   2.9382321605e+01     0.145898    0.1414264 -69.20 8.291229e-05    1.012    0.012
        97  -9.0102    101.2294     97.9950   6.5883863371e+01   4.3259440318e+01    0.2904666    0.1827856 -41.16  0.001265849    1.588    0.370
        98  -9.2405    100.8165    103.1633   6.7452724109e+01   4.2227372757e+01    0.2476144    0.2054388 -13.78 0.0005162598    1.294    0.227
        99 -10.2978     56.6351    101.3779   8.2014097174e+01   4.9914125556e+01    0.5241843    0.2110924 -40.26  0.001914846    2.536    0.606
       100  -9.1037     86.4762    100.9759   7.1431420636e+01   4.5354414120e+01     0.207275    0.1374691 -73.91 0.0008099615    2.538    0.606
       101  -8.1220     81.2983    101.6863   7.3359967235e+01   4.6092318546e+01    0.1440902    0.1218687  79.37 0.0002151438    1.606    0.377
       102  -8.5503     45.9535     99.7590   8.5595736977e+01   5.1631312737e+01    0.1963519    0.1302954  33.79 0.0009642279    1.641    0.391
       103  -9.6296     50.7579     99.6065   8.3746752885e+01   5.1086204710e+01    0.3725346    0.2360707 -20.45   0.00119763    1.806    0.446
       104  -9.5765     38.9339     99.4899   8.8203072189e+01   5.2476005220e+01    0.4821871    0.2211818   9.36  0.001836957    2.984    0.665
       105 -11.0292    117.6282     98.0048   6.1075404508e+01   3.9949901198e+01     0.259164    0.2462776  22.00 0.0002782413    1.033    0.032
       106  -9.6521    126.0571     97.3438   5.8598842121e+01   3.8307408452e+01    0.2766045    0.2189636 -73.13  0.001318418    1.605    0.377
       107  -9.9636     81.0023     96.2829   7.1956430807e+01   4.7338623949e+01    0.4515828     0.335816  -3.90  0.002163735    1.562    0.360
       108  -8.4637      7.5390     98.2933   1.0003720728e+02   5.5297143949e+01    0.4372771    0.2241177  28.47  0.002165379    2.245    0.555
       109  -9.0588      6.4942     88.5255   9.8588262588e+01   5.7647562601e+01    0.2368769    0.1667021  36.19     0.001361    1.770    0.435
       110  -8.9642      4.0460     79.6341   9.7767703991e+01   5.9799418418e+01    0.2225889     0.138923 -45.83 0.0005714931    1.258    0.205
       111  -9.1813      1.6744     91.8316   1.0113126860e+02   5.7129494281e+01    0.4300035     0.242228  78.42  0.001907357    3.023    0.669
       112 -10.4217      2.4328     85.7668   9.9686653314e+01   5.8494604505e+01    0.4549116    0.2134641 -63.47  0.001418443    1.821    0.451
       113  -8.1524    112.2517     97.3101   6.2407595206e+01   4.1202291865e+01    0.1484035    0.1167165  -7.76 0.0001975527    1.515    0.340
       114  -9.4761    141.6403     96.0627   5.4330375395e+01   3.5185788467e+01    0.2716121     0.219804  38.73 0.0006198795    1.270    0.213
       115  -9.6690     89.9798     95.3049   6.8683177218e+01   4.5956995374e+01    0.5660884    0.2623074  39.53  0.001699188    2.151    0.535
       116  -8.8425     41.9969     95.2976   8.6000158251e+01   5.3122051098e+01    0.1894485    0.1715132 -21.54 0.0004938357    1.057    0.054
       117 -10.9390     32.3758     92.3119   8.9037010698e+01   5.4812721238e+01      0.57556    0.3282938 -30.04  0.002450218    1.759    0.432
       118  -8.9765    165.6958     94.6854   4.8688371852e+01   3.0159840275e+01    0.1420521    0.1163685   7.41 0.0002616678    1.620    0.383
       119  -9.2435    135.8231     94.3755   5.5288213421e+01   3.6785650055e+01    0.2055003    0.1369385  37.42 8.675556e-05    1.589    0.371
       120  -9.9793     47.5207     92.6647   8.3184753999e+01   5.3079692059e+01    0.3458246    0.2420383 -56.18  0.001766633    1.458    0.314
       121 -10.7143     26.1497     87.3818   9.0346633167e+01   5.6511875817e+01    0.8897933    0.2893794 -44.12  0.002826527    2.570    0.611
       122  -9.9832     13.7380     92.9893   9.6598833152e+01   5.6169178151e+01     0.304076    0.1574321 -42.67  0.001052127    1.612    0.380
       123 -10.8191     18.0014     90.7544   9.4424304172e+01   5.6392153850e+01    0.2446651    0.2236977  -2.74 0.0003260978    1.198    0.165
       124  -8.7522     13.6911     88.6926   9.5716061775e+01   5.7169875604e+01     0.259585    0.1477489 -42.18  0.000711966    1.454    0.312
       125  -8.9724    131.1858     93.2000   5.6128143439e+01   3.8023543016e+01    0.1976833    0.1774299 -88.20 0.0003805993    1.265    0.210
       126  -9.3634    108.1847     91.1311   6.1833182233e+01   4.3289522822e+01    0.2988189    0.2220482  12.74 0.0006639746    1.635    0.388
       127  -8.7703    111.7989     89.3729   6.0278397682e+01   4.2896065226e+01    0.3874765    0.2004196 -51.32  0.001358949    2.237    0.553
       128  -9.1347    109.5008     85.7905   5.9896893476e+01   4.4068885002e+01    0.2791511     0.195161  41.52 0.0006910698    1.391    0.281
       129  -9.0452     71.1897     91.1590   7.3923577751e+01   5.0074861662e+01    0.1887735    0.1789216  86.15 0.0005021839    1.329    0.248
       130 -10.3309     65.6239     90.3801   7.5718123754e+01   5.1109730794e+01    0.4652751    0.2701241   1.68  0.001659551    2.674    0.626
       131 -10.6654     64.3306     86.5112   7.5077764132e+01   5.2135617984e+01    0.5281141    0.3378261   2.81  0.001731061    1.981    0.495
       132 -10.9372     79.6469     82.8874   6.8493632348e+01   5.0379925032e+01    0.6239866     0.391168  25.54  0.001384062    1.679    0.404
       133  -9.5776     70.0018     85.3021   7.2639286256e+01   5.1506007925e+01    0.2775734    0.2006821 -42.02 0.0009342767    1.351    0.260
       134 -11.0217     73.0760     80.3742   7.0039797899e+01   5.2008176633e+01    0.5126327    0.3229874 -33.94   0.00143831    1.593    0.372
       135  -9.5803     52.5114     90.2372   8.0607213575e+01   5.2993875395e+01    0.2532282    0.1367635 -55.87 0.0004844572    1.934    0.483
       136  -9.7457     46.0410     84.6911   8.1600278456e+01   5.5029584183e+01    0.2249537    0.1671466 -21.34 0.0005659211    1.282    0.220
       137  -9.3059     39.2807     90.5407   8.5855860904e+01   5.4509509650e+01    0.3801833    0.1409757 -41.97  0.001450566    2.488    0.598
       138  -9.8143     43.4538     88.9853   8.3798043447e+01   5.4390803093e+01    0.3616659    0.2143143 -35.11  0.001732142    1.594    0.373
       139  -8.4309    104.2677     90.3048   6.2757056081e+01   4.4246525873e+01     0.147764    0.1147618  -3.57 0.0002199026    1.531    0.347
       140  -9.6242     86.1826     88.8906   6.8072516943e+01   4.7993816903e+01    0.3424609    0.2315605 -24.57  0.001577014    1.659    0.397
       141  -9.2634     97.5057     87.8104   6.4097278210e+01   4.6082799254e+01    0.4790281    0.2528147 -60.72  0.001671299    3.244    0.692
       142  -9.5185     58.0818     87.7415   7.7780102157e+01   5.2784442797e+01    0.2506985    0.2050488  59.83 0.0005333092    1.679    0.404
       143 -10.5156    154.7097     85.2558   4.8538184017e+01   3.4301873497e+01    0.3623538    0.2497663  37.92 0.0004663628    1.633    0.388
       144 -10.3367    155.2300     79.5391   4.6932978001e+01   3.5184249817e+01    0.4093204    0.3253716  30.52   0.00124666    1.486    0.327
       145  -9.8010    150.9237     79.9704   4.7942150389e+01   3.6076819712e+01    0.3053969    0.2802924  81.78 0.0009679649    1.093    0.085
       146 -11.5743    119.4747     84.4599   5.6727082684e+01   4.2220855725e+01     1.238742    0.3849552  50.95  0.003803488    3.518    0.716
       147 -10.2157     51.7523     81.9667   7.8560942762e+01   5.4886386960e+01    0.3952735      0.27059 -13.87  0.001983656    1.568    0.362
       148 -11.0299     52.9205     75.6750   7.6216212980e+01   5.6031202316e+01    0.3830004    0.2415113 -42.86 0.0005199671    1.504    0.335
       149 -10.7452     39.4795     81.3243   8.3308198543e+01   5.6526748389e+01    0.4707561     0.294236   2.45 0.0009074784    1.780    0.438
       150 -10.0639     17.5886     80.0309   9.2121719698e+01   5.8851864070e+01    0.5745091    0.2154655  40.63  0.002136925    4.072    0.754
       151  -9.0681     12.6085     78.2209   9.3809053007e+01   5.9603628137e+01    0.2290354   0.09987443 -39.43 0.0004517051    1.932    0.482
       152  -9.9192    143.1671     83.4861   5.0586961314e+01   3.7195620917e+01    0.3932283    0.2081908 -40.66  0.001079823    1.921    0.479
       153  -9.4644    192.1548     78.9636   4.0191597360e+01   2.7167143015e+01    0.1969984    0.1746123 -69.70 0.0003996855    1.025    0.024
       154 -10.3955    166.9363     77.8199   4.4207840118e+01   3.2855537156e+01    0.2414837    0.2162853 -66.95 0.0002345789    1.088    0.081
       155 -10.2075    169.3356     74.0960   4.2834747741e+01   3.2934940804e+01     0.481037    0.2352161 -44.45 0.0008146858    2.013    0.503
       156 -10.6783    165.6140     71.8265   4.2935607192e+01   3.4133559005e+01    0.5427406    0.2629244 -35.03  0.002309872    2.232    0.552
       157 -10.0632     29.2508     75.6559   8.6011527628e+01   5.8806611212e+01    0.4886714    0.1838193 -47.64  0.002070708    2.209    0.547
       158  -9.2645    135.9733     76.6707   5.0361129431e+01   4.0000212807e+01    0.2198447    0.1909212 -42.76 0.0004362419    1.192    0.161
       159  -8.7608    136.8325     72.8306   4.9084781423e+01   4.0459188779e+01    0.1964064    0.1678482 -79.08 0.0006830649    1.327    0.247
       160  -9.0793    138.0762     84.4910   5.2040206024e+01   3.8147724479e+01    0.2924482    0.2120148  19.31  0.001132195    1.848    0.459
       161  -9.2210    141.4968     75.9221   4.8892840529e+01   3.8889972311e+01    0.1966078    0.1871359 -59.16 0.0004492881    1.077    0.072
       162  -9.1508    145.3886     75.2396   4.7851467934e+01   3.8129387024e+01     0.301652    0.1719725 -38.52  0.001105092    1.817    0.450
       163 -10.3785    141.4916     69.4998   4.7117254439e+01   3.9956793365e+01    0.5320871    0.3325328 -63.24   0.00234486    2.169    0.539
       164  -9.1916    146.0124     70.0142   4.6293887279e+01   3.8850727073e+01    0.4418582    0.2285092 -55.77  0.001772267    2.529    0.605
       165  -9.3795     93.2750     66.8362   5.8944942843e+01   5.0810401127e+01    0.3062115    0.2058304 -54.40  0.001051137    1.924    0.480
       166 -10.9069     88.7393     73.8599   6.2633284444e+01   5.0449032678e+01    0.6229562    0.4036437 -22.50  0.001699775    1.805    0.446
       167 -10.6982     94.8677     71.9552   6.0079257928e+01   4.9601543870e+01    0.3214509    0.2588843  41.23 0.0003702966    1.202    0.168
       168  -9.0424     59.3338     72.5893   7.2733167430e+01   5.5723295956e+01    0.3042432    0.1538872  42.70  0.001081714    2.261    0.558
       169  -9.8181     64.6939     75.3618   7.1561482193e+01   5.4359465392e+01    0.3131755    0.2446594 -80.59  0.001082067    2.162    0.538
       170  -9.5887     68.0035     74.5061   7.0056745510e+01   5.3998249638e+01    0.3018885     0.211085  15.24 0.0007521111    1.491    0.329
       171  -8.4694    211.3938     75.1856   3.6585337269e+01   2.3792356828e+01        0.177    0.1047577 -51.88 0.0003660093    1.528    0.346
       172 -10.0559    108.8315     73.2831   5.6346620698e+01   4.6509592610e+01    0.3346573    0.2266365  37.80 0.0008385475    1.438    0.305
       173  -9.4566     18.9960     72.5760   8.9622163712e+01   6.0361703714e+01    0.2964555    0.2037775 -41.48  0.001700332    1.208    0.172
       174  -8.9565    152.0056     73.2564   4.5929359307e+01   3.6966092749e+01    0.1939214     0.174301  60.96 0.0002838216    1.074    0.069
       175  -9.0099    117.4414     73.2402   5.3977717198e+01   4.4677924228e+01    0.1935974    0.1371282 -50.90 0.0009108812    1.592    0.372
       176  -9.1635      2.7921     72.8836   9.6826286323e+01   6.1352458634e+01    0.2026565    0.1303414 -38.33 0.0004286149    1.240    0.194
       177 -11.3969     78.3553     46.5720   5.6892773196e+01   5.6899111407e+01    0.6755248    0.5293796 -10.15  0.003933486    1.320    0.242
       178 -10.3809     52.3698     33.5429   6.1522222161e+01   6.3274923106e+01    0.8762323    0.3452022  40.11  0.003951557    2.313    0.568
       179 -12.1792     55.7958     57.2007   6.9001703354e+01   5.9088797521e+01     0.531831    0.4148019 -26.20 0.0004976073    1.224    0.183
       180 -10.1614     61.2270     52.1061   6.5056871329e+01   5.9084832584e+01    0.5182483    0.3826161  70.23  0.002495432    2.710    0.631
       181 -10.0518     52.1526     39.7597   6.4058137368e+01   6.2434254980e+01    0.3839823    0.2621614  11.69  0.001249474    1.410    0.291
       182 -11.2543     52.0737     68.5266   7.4307890812e+01   5.7560389386e+01    0.4950314    0.4234839  32.35  0.002939821    1.312    0.238
       183 -10.1672     48.6040     61.8457   7.3532465111e+01   5.9299149428e+01    0.4878486    0.2012966 -35.39  0.002000896    2.511    0.602
       184 -10.8316     70.9956     50.4827   6.0838746485e+01   5.7670885102e+01    0.4822276    0.3987791   7.79  0.001766813    1.109    0.098
       185 -12.9602     61.6234     44.5297   6.2128352949e+01   6.0195014519e+01    0.5889634     0.331428  39.94 0.0002392749    1.671    0.402
       186 -10.7785     29.1879     67.9705   8.3835379850e+01   6.0410306843e+01    0.6914361    0.3559374   9.08  0.002957816    2.186    0.543
       187 -10.3081     21.2807     66.8897   8.7041396554e+01   6.1361649257e+01    0.6062587     0.257375 -53.40  0.002783795    2.126    0.530
       188  -8.0882    226.3580     70.2381   3.3698514355e+01   2.1614408579e+01     0.108219   0.09537467  37.57 0.0002560771    1.586    0.369
       189 -10.1787    218.7081     69.8995   3.4540741961e+01   2.3151265648e+01    0.2052772    0.1763874 -87.34 0.0002916644    1.122    0.109
       190  -9.0387    102.2125     69.7091   5.7150064937e+01   4.8509126160e+01     0.250856    0.2080471 -28.15    0.0012376    1.253    0.202
       191  -9.6525     45.4206     69.5050   7.7347304357e+01   5.8259021286e+01    0.2728275    0.2343283  55.07 0.0005389584    1.643    0.391
       192  -9.6187    173.4031     68.8659   4.0828578319e+01   3.2864286871e+01    0.2196916    0.1765971  80.30 0.0004315047    1.241    0.194
       193  -8.7632    157.3074     68.5417   4.3637915849e+01   3.6528287494e+01    0.2230962    0.1732021  -9.17  0.001146984    1.753    0.430
       194  -8.7626     64.1467     69.5171   6.9899057250e+01   5.5569112312e+01    0.2079435    0.1296314  31.32  0.001018916    1.551    0.355
       195  -9.9863     14.7184     64.9181   8.9465370108e+01   6.2290877634e+01    0.5582526    0.5081756   4.20  0.003006689    1.270    0.213
       196 -11.0498      2.3688     66.3031   9.5475022314e+01   6.2783625200e+01    0.4717045    0.1843151 -46.83  0.001468939    1.887    0.470
       197  -9.4777      5.5469     55.4430   9.1129552000e+01   6.4824259809e+01    0.2105662    0.1698575 -13.03 0.0005470667    1.141    0.124
       198 -11.5062      7.3986     50.8344   8.8867723760e+01   6.5601829548e+01    0.6814364    0.4650746 -10.99   0.00368057    1.293    0.227
       199 -10.3741      7.0161     62.2252   9.2294778088e+01   6.3367426934e+01    0.2861185    0.1597202   3.01 0.0009151769    1.839    0.456
       200 -10.8594      3.8438     60.3806   9.3294191605e+01   6.3932534212e+01    0.5059241    0.2433551  -4.04  0.002537636    2.241    0.554
       201  -9.5158    119.5908     67.1789   5.1605688213e+01   4.5226725313e+01     0.190455    0.1377966 -22.38 0.0005671516    1.603    0.376
       202  -9.2752     83.9296     65.9293   6.1664372754e+01   5.2773813532e+01    0.2434373    0.2299303  39.20 0.0009202897    1.183    0.155
       203  -9.3719     82.6549     61.3772   6.0579558677e+01   5.3786741675e+01    0.2959949    0.2069393   4.33 0.0007152581    1.723    0.420
       204  -9.7000     83.6851     55.0475   5.8094495709e+01   5.4610452218e+01     0.468909    0.3520055 -22.97  0.002270528    1.395    0.283
       205 -10.0723     76.2954     66.1463   6.4349423875e+01   5.4134636275e+01    0.4832104    0.2529133  43.48   0.00194498    1.922    0.480
       206 -10.1974     77.3108     62.0165   6.2615219189e+01   5.4667892451e+01    0.4070542    0.2602224 -17.28  0.001803108    1.874    0.466
       207  -9.0756    161.7791     66.5658   4.2290152572e+01   3.5827622229e+01    0.1865503    0.1274799  73.12 0.0004311558    1.559    0.358
       208  -8.7652    106.2061     65.7110   5.4748248657e+01   4.8349457341e+01    0.2191333    0.1724616  64.38   0.00114043    1.468    0.319
       209 -10.9581    134.7496     63.5398   4.6920541223e+01   4.2425274030e+01    0.6148893    0.3715005 -58.07  0.001483602    2.150    0.535
       210  -8.6005    136.4516     56.5042   4.4540894872e+01   4.3096913444e+01    0.2938658    0.1556699  45.47  0.001197009    1.867    0.464
       211 -10.1092     97.6671     63.6155   5.6564690398e+01   5.0465924817e+01    0.3370652    0.2536412 -64.00 0.0004853724    1.874    0.467
       212  -9.2424     93.8472     59.6595   5.6432094846e+01   5.1880828155e+01    0.3117567    0.2144603   2.92  0.001491375    1.906    0.475
       213  -9.4494    165.9669     64.0179   4.0893062308e+01   3.5275306380e+01    0.2009367    0.1849849  87.06 0.0003708131    1.005    0.005
       214 -10.2182    193.4637     61.9641   3.6113762062e+01   2.9533172408e+01    0.3609259    0.2098593 -34.67  0.001364353    1.858    0.462
       215 -10.0513     65.5546     61.8306   6.6807677156e+01   5.6737098062e+01    0.5886741    0.2483265  33.10  0.002409739    2.350    0.575
       216  -9.1563     70.6033     60.2146   6.4387693143e+01   5.6163060864e+01    0.2179216    0.1980801 -40.13 0.0005797762    1.300    0.231
       217  -9.7137     27.0563     63.0263   8.3291809036e+01   6.1610227329e+01    0.4009646    0.1984346   6.51  0.001819672    2.388    0.581
       218  -9.5953     33.2842     58.5863   7.9071266072e+01   6.1813892092e+01    0.4361319    0.2186312  15.39   0.00143148    2.139    0.532
       219  -9.6875     35.5006     53.6941   7.6420857990e+01   6.2457200154e+01    0.3796659    0.2373174 -22.56  0.002056805    1.528    0.346
       220  -9.8467     29.2526     52.3436   7.8813610224e+01   6.3407742302e+01    0.3524212    0.1381388  29.60  0.001133592    2.507    0.601
       221 -10.9828     24.6041     54.5256   8.1717619049e+01   6.3483890616e+01    0.3414233    0.2673198 -37.99  0.001025377    1.235    0.190
       222 -10.4478     19.3979     54.2707   8.4098207134e+01   6.4015622469e+01    0.3338977    0.2567436 -60.92  0.002032506    1.687    0.407
       223  -9.5980    155.1407     61.2383   4.2124900383e+01   3.8144015720e+01    0.2268873    0.2138881  71.90 0.0008169451    1.042    0.040
       224  -8.7762    102.5236     61.9424   5.4604298657e+01   4.9734306943e+01    0.2094571    0.1390947 -33.21  0.001034594    1.606    0.378
       225  -8.3220     43.7164     61.6460   7.5522231363e+01   5.9986327634e+01     0.141448   0.08938473 -16.90 0.0007018506    1.663    0.399
       226  -9.0223    213.1004     59.9837   3.3152275626e+01   2.5737840833e+01    0.1792342    0.1522443 -66.91 0.0002712937    1.037    0.036
       227  -8.5618    175.8468     60.5784   3.8400890465e+01   3.3580655282e+01    0.1773425    0.1208824  77.40 0.0004749797    1.521    0.343
       228 -10.0733    168.1958     58.8814   3.9219887856e+01   3.5539429624e+01    0.3303783    0.2449032  27.02   0.00116379    1.903    0.474
       229  -8.4861     99.5353     59.5031   5.4683926331e+01   5.0742904617e+01    0.1397179    0.1276721  28.76 0.0001173206    1.012    0.011
       230  -9.3090    126.1533     57.5100   4.7118176659e+01   4.5274913004e+01    0.3274578    0.2393832  64.16  0.001717559    1.391    0.281
       231  -8.5000    190.2243     57.0320   3.5439926372e+01   3.0946027365e+01    0.1699683    0.1506935 -76.12 0.0003041594    1.027    0.026
       232  -9.7987    225.9017     55.5124   3.0806922348e+01   2.3842052624e+01    0.2212614    0.1414183 -54.32 0.0003428975    1.335    0.251
       233  -8.7317    116.1047     55.7999   4.9023836677e+01   4.7760396194e+01    0.2065992    0.1856797  84.51  0.000850701    1.263    0.208
       234  -9.6895    161.8391     53.4872   3.8914870006e+01   3.7746426111e+01     0.463693    0.1820608 -44.02  0.001904374    2.590    0.614
       235  -8.8020     92.4876     54.4983   5.5132645210e+01   5.2957939288e+01    0.2530339    0.1783345  26.96 0.0009682755    1.435    0.303
       236  -9.5544     95.4894     52.4650   5.3554745201e+01   5.2650145655e+01    0.2557421    0.2187448  50.21 0.0005735506    1.182    0.154
       237  -8.7232    212.2085     53.8463   3.1973801329e+01   2.6789242623e+01    0.1477158    0.1426257 -85.27  0.000541348    1.277    0.217
       238 -10.7944    115.1207     45.2417   4.5978163147e+01   4.9453161387e+01    0.6544619    0.2549074  53.90 0.0005575204    2.280    0.561
       239 -10.0498    123.0460     51.9337   4.6169400833e+01   4.6776463908e+01    0.6005458    0.2398955 -34.41  0.002410403    2.733    0.634
       240  -9.7132    129.8371     53.9524   4.5233708369e+01   4.4963082339e+01    0.2133211    0.2007716  44.29  0.000450708    1.058    0.055
       241 -10.5869    128.0839     48.2064   4.3923660181e+01   4.6156856713e+01    0.3371527    0.2996443 -87.81 0.0006105991    1.221    0.181
       242  -9.7688    125.4776     44.4987   4.3384782220e+01   4.7236285357e+01    0.3076615    0.2147721  52.89 0.0009933404    1.279    0.218
       243  -9.5171     45.5846     42.7844   6.7980473840e+01   6.2962954000e+01    0.3404143    0.2018155  -2.71  0.001262176    2.058    0.514
       244 -10.0742     43.0116     52.3236   7.2615251779e+01   6.1753462606e+01    0.4674391     0.391775  42.44  0.002095021    1.565    0.361
       245  -9.1338    192.2592     52.2246   3.4073172973e+01   3.1184845780e+01    0.3255265    0.1452508 -37.10   0.00150023    2.276    0.561
       246  -8.8295    183.9595     52.7416   3.5321342310e+01   3.2913357887e+01    0.2169984    0.1340003 -80.67  0.001069812    1.944    0.486
       247 -10.5316    110.8570     51.8292   4.9114461725e+01   4.9484377873e+01    0.2540131    0.2096933  40.16 0.0002346389    1.112    0.101
       248 -10.2715    146.1350     53.0542   4.1623656332e+01   4.1383097701e+01    0.4084124    0.2915904 -47.84  0.001590609    1.486    0.327
       249  -8.8928    228.2052     49.4358   2.9378017758e+01   2.4233765371e+01    0.2250341    0.1090256 -49.56 0.0007251874    1.756    0.431
       250  -9.7040    175.6924     48.6897   3.5544438100e+01   3.5293183537e+01    0.3561442    0.2440813  29.37  0.001307254    2.267    0.559
       251 -10.3133    136.2383     49.3463   4.2539879134e+01   4.4152369935e+01    0.5114278    0.2218442  55.20  0.001469301    2.057    0.514
       252  -9.9125    141.1525     48.4848   4.1318215166e+01   4.3148471593e+01    0.3148558    0.2474585 -67.43  0.001774777    1.430    0.300
       253 -10.6866      3.0526     43.6954   8.8854001706e+01   6.7225826461e+01    0.5146194    0.3306942 -31.25   0.00243876    1.209    0.173
       254  -9.0240     18.1366     22.1308   7.2670407365e+01   6.9482028539e+01    0.1575811    0.1330775   3.85  0.001134724    1.285    0.222
       255 -10.3733     17.2076     46.9430   8.2743905862e+01   6.5564679766e+01    0.4385954    0.2257701 -42.58  0.002188423    1.679    0.405
       256  -8.8360     57.0146    249.0087   1.0496797963e+02   1.3247674396e+01    0.1449698    0.1256612  60.59            0    1.018    0.017
       257  -9.2213      1.4781    243.9956   1.1610839608e+02   2.0266373365e+01    0.1675393   0.09753187 -85.61 0.0004219026    1.524    0.344
       258 -11.7549      6.9453     35.9506   8.4182836868e+01   6.8338386453e+01    0.4798652    0.4619867  39.85  0.003561892    1.649    0.394
       259 -10.8091      9.6795     31.6478   8.1116816201e+01   6.8842330136e+01    0.3779946    0.2019564  24.61 0.0002104854    1.869    0.465
       260  -9.7680    154.2679     48.6114   3.8941015631e+01   4.0137263160e+01    0.3131365    0.2449633  65.24  0.001133636    1.170    0.145
       261  -9.9344     87.0516     48.8775   5.4894126733e+01   5.4878957776e+01    0.4305313    0.2145858  46.88  0.001597356    1.846    0.458
       262  -8.5325     97.3658     48.4664   5.1674673228e+01   5.2837563691e+01     0.133084     0.119884  25.04 0.0001521711    1.040    0.039
       263  -9.3342     32.0078     47.4085   7.5795484544e+01   6.3970354441e+01    0.1981895    0.1427923 -20.77 0.0008434148    1.202    0.168
       264  -9.1397    235.0615     47.0938   2.8271316707e+01   2.3246407755e+01    0.1738241     0.134932 -68.98 0.0004376807    1.024    0.023
       265 -10.3205     46.3019     47.0513   6.9278229531e+01   6.2183378096e+01    0.3905014    0.3722906   2.22   0.00190962    1.345    0.256
       266  -9.4866     23.2572     46.8329   7.9744067016e+01   6.5015602885e+01    0.2428063    0.1892992   6.38  0.001568666    1.180    0.153
       267  -8.2001    170.3138     46.2942   3.5756443485e+01   3.6814265282e+01    0.1248244   0.09732088  37.36  0.000297113    1.597    0.374
       268  -8.8060     52.2018     46.3087   6.6528056710e+01   6.1433445422e+01    0.1563758    0.1490378  -2.14  0.001022792    1.318    0.241
       269  -9.2196    185.2076     44.4347   3.3223303288e+01   3.3761365632e+01    0.1923601    0.1798016  18.95  0.001266872    1.431    0.301
       270  -9.0061    150.7334     44.4117   3.8437799289e+01   4.1497721894e+01     0.273303    0.1586838 -42.21  0.001378396    1.814    0.449
       271  -9.9492    246.6746     38.5887   2.5708697260e+01   2.2221489535e+01    0.2709157    0.1436162 -60.31  0.001417106    1.586    0.370
       272  -8.9770    245.2385     44.5681   2.6900743764e+01   2.1708193105e+01    0.2113296     0.102714  69.51 0.0009158263    2.120    0.528
       273  -9.2236    248.9151     42.8802   2.6291510047e+01   2.1269801316e+01    0.1882795    0.1355613 -53.03 0.0004704571    1.187    0.157
       274  -9.6728    103.9352     41.9125   4.7703710336e+01   5.2328565784e+01     0.341258    0.2316373 -43.10  0.001821473    1.712    0.416
       275  -9.7956    108.0831     43.7158   4.7226518333e+01   5.1197372033e+01    0.2637435    0.2417431  36.45 0.0009267265    1.041    0.039
       276  -9.5376    108.4419     40.4530   4.6080838367e+01   5.1538339711e+01    0.2082641    0.1860454  44.96  0.000539453    1.016    0.016
       277  -9.0897    200.9205     42.9928   3.0971360969e+01   3.0584145588e+01    0.2326157    0.1560327  70.16 0.0008327626    1.412    0.292
       278  -8.6061    190.5840     43.5495   3.2333107384e+01   3.2710839977e+01     0.124317    0.1074393 -81.94 9.297417e-05    1.018    0.018
       279 -10.5819     86.2099     22.1686   4.5624648369e+01   5.8338936292e+01    0.3329171    0.1792075  46.74  0.001520754    1.532    0.347
       280  -9.6784     71.6815     34.9374   5.4872090541e+01   5.9733892855e+01    0.4354386    0.3229505 -14.48  0.001829105    1.414    0.293
       281  -9.5620     82.9258     26.0182   4.7969604563e+01   5.8601174844e+01    0.1851359    0.1554497  34.54            0    1.010    0.010
       282  -8.5987     43.9809    244.0000   1.0735794113e+02   1.5873568798e+01    0.2009408   0.06544513  30.24 0.0007989464    2.918    0.657
       283  -9.4053    244.8150    242.1129   6.3856492205e+01  -1.0443187427e+01    0.2035752    0.1575377  13.06  0.000947546    1.333    0.250
       284  -9.5733    247.5159    239.5076   6.2945424751e+01  -1.0343760663e+01    0.2064157    0.1653737 -14.54  0.001469204    1.183    0.155
       285  -9.8772    146.0665    242.1701   8.3969117934e+01   2.2978337583e+00    0.2153881     0.169212   0.73 0.0007070947    1.273    0.214
       286  -9.7224     65.3932     28.1234   5.4424686908e+01   6.1730946258e+01    0.4688836    0.2074416  45.63  0.001299878    2.000    0.500
       287 -10.8765     62.1950     22.9429   5.3489634130e+01   6.2906943978e+01    0.3733695    0.2602808  11.15   0.00163601    1.429    0.300
       288 -10.2373     71.4942     29.5960   5.2900399473e+01   6.0426800201e+01    0.4310077    0.2662227 -34.23  0.002384964    1.834    0.455
       289 -10.0160     78.1293     34.9035   5.2724884947e+01   5.8511915982e+01    0.2686347    0.2250726  49.92 0.0006095715    1.266    0.210
       290  -9.6298    102.5092    241.9956   9.3943749138e+01   8.6632503447e+00    0.1929327    0.1341757 -58.49  0.001030528    1.585    0.369
       291 -10.1726     27.9789     42.8135   7.6014205916e+01   6.5207919796e+01     0.239488    0.1685245  -9.68 0.0003402345    1.237    0.191
       292  -8.9530     34.8690     41.3871   7.2230542728e+01   6.4625040652e+01    0.2726015    0.1593538  13.19  0.001273362    1.696    0.410
       293  -8.7831     31.2149     40.0498   7.3428885868e+01   6.5287235995e+01     0.155796    0.1466544  16.67 0.0002255445    1.457    0.314
       294 -10.2058    229.1108     39.6657   2.7408177895e+01   2.5345783484e+01    0.3581344    0.3066921  44.77  0.002518019    1.711    0.416
       295 -10.0346    144.5820     40.9847   3.8594657733e+01   4.3338455914e+01     0.244945     0.199515  65.24 0.0005256764    1.099    0.090
       296  -9.5910    222.7129     40.5398   2.8175926157e+01   2.6474497567e+01    0.2101833    0.1703396 -65.90 0.0007093977    1.068    0.064
       297  -8.6729    175.0195     41.7574   3.3972338890e+01   3.6352334760e+01    0.1589612    0.0984502  68.19            0    1.485    0.326
       298  -9.2718    138.1772     40.4770   3.9633078468e+01   4.4863929156e+01    0.3140423    0.1501734 -38.35   0.00144983    2.239    0.553
       299  -9.1297    140.0485     36.7610   3.8239435171e+01   4.4890069862e+01    0.2053569    0.1490657  34.25 0.0005139192    1.606    0.377
       300  -9.0864    158.4243     39.2767   3.5813266450e+01   4.0396276461e+01    0.2875706    0.1650647 -77.43 0.0009164592    2.460    0.594
       301 -10.5261    129.6285     38.1384   4.0625250169e+01   4.7095961816e+01    0.5394221    0.3651037  30.43  0.002299408    1.785    0.440
       302  -9.3492    121.1248     38.8382   4.2618038461e+01   4.8929650027e+01    0.3914641    0.1970346  79.35  0.001329962    4.207    0.762
       303  -8.7665     24.2788     39.1736   7.6447533646e+01   6.6215654134e+01    0.3321395    0.1836058  -0.02  0.001413266    1.981    0.495
       304 -10.2361    238.3000     37.1154   2.6128154383e+01   2.3936666056e+01     0.330029    0.1716617 -61.40  0.001651473    1.693    0.409
       305  -9.2088    187.6084     37.6934   3.1380700742e+01   3.4099300554e+01    0.3072714    0.1551113 -76.22  0.001338916    2.776    0.640
       306  -9.4508    178.0334     37.2335   3.2488220840e+01   3.6251242893e+01    0.2447249    0.1772663 -77.66 0.0009638605    1.355    0.262
       307  -9.1668     93.7526     38.0194   4.9145111174e+01   5.4978237089e+01    0.1751114    0.1573474  11.27 0.0001924752    1.125    0.111
       308  -8.9911    207.3389     37.3238   2.9068504995e+01   2.9974122386e+01    0.1115062    0.0914664  40.64 0.0007051064    1.722    0.419
       309  -8.6163    198.5233     36.9836   2.9949380720e+01   3.1853696514e+01    0.1408633    0.1093761   7.42     0.000804    2.256    0.557
       310  -9.6535    165.8721     36.6711   3.4029650907e+01   3.9032233533e+01    0.3739024    0.1446977  65.14  0.001315625    2.357    0.576
       311  -9.5409    153.6281     37.0267   3.5990532171e+01   4.1761310147e+01    0.2268266    0.1626921  84.66 0.0004322405    1.412    0.292
       312 -10.0439    119.4491     31.3541   4.0677408368e+01   5.0182713055e+01    0.2778442    0.2529683  36.09 0.0008437511    1.127    0.112
       313 -11.1266    112.9620     34.8758   4.3210129941e+01   5.1223384581e+01    0.6114966    0.4848882 -11.48  0.003637653    1.483    0.325
       314 -11.9108    107.5609     29.6549   4.2779017037e+01   5.3006000760e+01    0.4597228     0.329812  15.89  0.001348601    1.686    0.407
       315 -10.0460    225.0782     34.5326   2.6789830939e+01   2.6771500804e+01    0.2866234    0.2559452  51.92  0.002089692    1.563    0.360
       316 -10.5242     97.7055     35.1641   4.7083291370e+01   5.4497722549e+01    0.2689285    0.1998948  52.78  0.000461966    1.226    0.184
       317  -9.6980     60.8951     34.6968   5.8648425121e+01   6.1701463572e+01    0.2024479    0.1710649 -20.54 0.0002447234    1.274    0.215
       318  -8.5387    242.4469     34.4912   2.5313347339e+01   2.3502411343e+01    0.1127962   0.08625132 -68.62 7.920188e-05    1.015    0.014
       319  -9.7864    158.2797     32.0497   3.3977997473e+01   4.1293160991e+01    0.2454486    0.1883275 -78.71 0.0006236819    1.318    0.241
       320  -8.5667    145.3337     33.6347   3.6450165037e+01   4.4052757804e+01    0.1372447   0.09157683 -73.09 0.0007034498    1.823    0.451
       321  -9.4848    163.9243     31.8958   3.3119662897e+01   4.0037144985e+01    0.2029879    0.1597102 -68.29            0    1.264    0.209
       322 -10.0630    142.5900     30.2211   3.5977765675e+01   4.5066674241e+01    0.3148894    0.2208087  29.08 0.0009790234    1.847    0.459
       323  -9.8491    146.2780     28.9697   3.5028125782e+01   4.4366181947e+01    0.2522468    0.2009276  89.14 0.0003907084    1.233    0.189
       324 -10.3063    133.4921     30.6059   3.7687776555e+01   4.7094329936e+01    0.3926115    0.2527845 -30.31  0.001524456    1.784    0.439
       325  -9.2831    189.6944    240.4508   7.4194772548e+01  -3.5364616282e+00    0.2385355    0.1136028  33.93  0.001123805    2.032    0.508
       326 -10.2456    234.0955     30.6687   2.5290900298e+01   2.5521098684e+01    0.3324051    0.1639643  63.41  0.001214884    2.103    0.524
       327  -8.3006    203.4068     31.4695   2.8256672490e+01   3.1506023407e+01    0.1202147   0.09676284 -76.30 0.0001520835    1.032    0.031
       328  -9.6148    178.8637     29.9112   3.0670439443e+01   3.6942849382e+01    0.2673253    0.1633507 -43.39  0.001523294    1.655    0.396
       329  -8.7707    154.3098     31.3298   3.4391433574e+01   4.2275516025e+01    0.1267504   0.09146831  37.77 0.0002328669    1.666    0.400
       330  -9.5389    126.4609     30.5563   3.9008670812e+01   4.8693645720e+01    0.4043573     0.127864  54.89  0.001443447    2.549    0.608
       331 -10.5484    248.1997     30.9752   2.4248374916e+01   2.2896938900e+01    0.3079529    0.1502264 -48.61  0.000511631    1.647    0.393
       332 -10.4191    188.1585    235.5170   7.3688534655e+01  -2.4669188769e+00     0.221021    0.1591097 -13.16 0.0004584356    1.309    0.236
       333  -9.5095    221.9662    233.9402   6.6651420019e+01  -6.5830975276e+00    0.1635365    0.1623035 -85.09 0.0008381321    1.678    0.404
       334  -9.2437     26.6701     21.7737   6.8123712474e+01   6.8533104386e+01    0.2241772    0.1628038 -14.18 0.0008758039    1.204    0.169
       335  -9.2756     32.0297    232.0657   1.0899042759e+02   1.9847839320e+01    0.1915271    0.1606163  70.49 0.0004146358    1.021    0.021
       336  -8.8237     35.6618     21.0237   6.3482826167e+01   6.7428650194e+01    0.2256603    0.1507075 -17.75 0.0009601432    1.424    0.298
       337  -9.3887     32.4933     19.0910   6.4104006543e+01   6.8112494719e+01    0.2281024    0.1975545  -0.84 0.0007952264    1.282    0.220
       338 -10.0339     31.1334     26.8320   6.8128651071e+01   6.7276879389e+01    0.4349169    0.2900696 -24.00  0.001751281    1.397    0.284
       339 -10.9531     36.9654     26.4709   6.5239835696e+01   6.6540601413e+01     0.387131    0.2847792  37.16 0.0006974791    1.523    0.343
       340  -8.6482    189.7994     28.3795   2.9046099567e+01   3.4744941191e+01    0.1690947    0.0974215  62.32 0.0009449014    1.634    0.388
       341  -9.5317    221.5422     26.1644   2.5492841669e+01   2.8472885561e+01    0.3454654    0.1568759 -71.70  0.001690094    2.541    0.607
       342  -9.8794    221.1542     21.0973   2.4557273084e+01   2.9134328760e+01    0.2598988    0.1777517  81.61 0.0008793249    1.303    0.232
       343  -9.6827    217.3341     17.5013   2.4182350479e+01   3.0289070051e+01    0.2200263    0.1758382  63.78 0.0009902914    1.472    0.321
       344  -8.4778    228.4702    234.4276   6.5512714230e+01  -7.4396257101e+00     0.126146   0.09618756 -11.00 0.0001622499    1.022    0.021
       345  -8.6334    207.2231    226.5707   6.8237647561e+01  -3.4745436158e+00     0.176944    0.1117388  13.19 0.0006270482    1.595    0.373
       346  -9.0509    211.8370     26.7831   2.6477261319e+01   3.0333689449e+01    0.1602439    0.1415241 -78.68 0.0006968962    1.177    0.150
       347  -9.9366     47.5349     26.2453   6.0522539677e+01   6.4996166807e+01    0.4035788    0.2589646  53.72   0.00192074    2.313    0.568
       348  -8.7383    163.4463    226.5406   7.7535537450e+01   2.7582788547e+00    0.1374673    0.1243669   7.13 0.0005184884    1.072    0.067
       349  -8.9423    109.4715     23.4243   4.0319434000e+01   5.3245458021e+01    0.2092974    0.1806845  73.77 0.0001196708    1.202    0.168
       350  -8.2229    143.6564    226.3057   8.2030413756e+01   5.8106067243e+00    0.1396894     0.108366  59.73 0.0007041966    1.689    0.408
       351  -8.6967    223.9871    225.2202   6.4749943742e+01  -5.4014143671e+00    0.1771521     0.139055  -7.98 0.0005302128    1.054    0.051
       352  -8.7398    132.3708    225.2090   8.4511236676e+01   7.7726802358e+00    0.1818891    0.1376124 -65.43 0.0004102198    1.612    0.380
       353  -9.6660      1.7458     25.2378   8.3046517246e+01   7.0499997389e+01    0.3598165    0.1340918 -40.23  0.001357345    2.161    0.537
       354  -8.3284    125.5027    225.4943   8.6192911466e+01   8.7654698363e+00    0.1413417     0.130667  23.49 -0.0001258504    1.025    0.024
       355  -8.5023    109.6380    221.8212   8.9474495842e+01   1.1987692203e+01     0.185796    0.1368973 -72.28 0.0004252198    1.612    0.380
       356  -9.8536      4.7696     21.0145   7.9597286332e+01   7.0923457097e+01    0.1608184    0.1293403 -10.16 0.0003122222    1.188    0.158
       357  -9.5639     89.3960    220.8077   9.4298325410e+01   1.5205147416e+01    0.2660227    0.2223171 -29.82 0.0008327666    1.374    0.272
       358 -10.1223    245.9868     21.8399   2.2820431490e+01   2.4381712285e+01    0.3223819   0.08646099 -43.98  0.001563964    2.787    0.641
       359  -9.7247    229.9372     22.9700   2.4204745143e+01   2.7222569349e+01    0.1692713    0.1311176 -75.07 0.0004098756    1.025    0.024
       360  -9.2900    189.4195     23.1535   2.7939951804e+01   3.5418794403e+01    0.2944473    0.1469233  78.22  0.001506031    1.890    0.471
       361  -8.9267    169.5306     23.4046   3.0295201973e+01   3.9733194521e+01    0.1456958    0.1222533 -12.20 -1.615874e-05    1.618    0.382
       362  -9.9206    173.6030     22.0135   2.9466124131e+01   3.8981543051e+01    0.2552679    0.2099179  84.40 0.0009521036    1.025    0.024
       363  -8.9402    174.9793    217.9597   7.3475223564e+01   2.7008657861e+00    0.2523083     0.170737 -40.96  0.001054555    1.455    0.313
       364  -9.7023    153.5854     22.6323   3.2241174878e+01   4.3389681911e+01    0.2281128    0.2093274  -6.19  0.001293127    1.389    0.280
       365  -8.5754    117.8530    212.1398   8.5952371546e+01   1.2911422148e+01    0.1959952    0.1665442  -6.12 0.0004600243    1.269    0.212
       366  -8.5046     28.6482    212.6658   1.0813238171e+02   2.4717726730e+01    0.1317727   0.09336859 -39.75 0.0007046134    1.784    0.440
       367  -8.5009    242.5671    209.7922   5.8636218585e+01  -5.1247970627e+00    0.1632126     0.103479 -43.74 0.0004148423    1.572    0.364
       368  -8.4524    230.6316    209.7090   6.0739601552e+01  -3.6238737714e+00    0.1351052   0.08464953  -9.66 0.0007025329    1.714    0.417
       369  -8.9062    122.2194     22.5420   3.7424943546e+01   5.0496751875e+01    0.2644573    0.1725175 -61.23  0.001413903    2.000    0.500
       370  -9.1546    116.9597     22.4910   3.8445691384e+01   5.1679374035e+01    0.1713288    0.1556936  46.86 -0.0001619096    1.093    0.085
       371 -10.7813     50.5647     22.0229   5.7506432312e+01   6.5019337409e+01    0.2526777    0.1852757   1.58 0.0006427041    1.277    0.217
       372  -8.4068     34.6572    201.6886   1.0564433964e+02   2.6765446605e+01    0.1353821   0.09743363 -38.09 0.0004713835    1.701    0.412
       373  -9.4454    139.6604     22.1536   3.4234638669e+01   4.6593157880e+01    0.3223802    0.2016163  51.37  0.001808579    1.477    0.323
       374  -8.3005    221.3182    198.7199   6.0423639093e+01  -4.4704830333e-01    0.1147334    0.1065724 -71.68 0.0002500039    1.579    0.367
       375  -8.3656     95.9881    195.9823   8.8949548869e+01   2.0169042176e+01    0.1737038    0.1727838 -86.70 0.0003726087    1.013    0.013
       376  -8.3901    193.3884     20.2039   2.6892758843e+01   3.4898501042e+01    0.1472638   0.09614274 -53.42 0.0002385119    1.441    0.306
       377  -8.6991    200.0000     18.9663   2.5990714635e+01   3.3646445028e+01    0.1698502   0.06246442 -34.27 0.0003944245    2.871    0.652
       378 -11.1433    182.4528     18.2377   2.7597505506e+01   3.7449276759e+01    0.2580303    0.2013502  64.84 0.0003863004    1.275    0.216
       379  -8.6479    218.4329    195.4960   6.0355977979e+01   5.4649212906e-01    0.1360809    0.1119296 -22.36 0.0001083477    1.010    0.010
       380  -9.4667      6.4640    194.5263   1.1188835402e+02   3.1164078781e+01     0.343394    0.1000991 -54.57  0.001290512    3.355    0.702
       381  -9.4035    248.7151    191.9273   5.4352530412e+01  -2.8939140783e+00    0.2998597     0.132553 -50.68  0.001296624    2.779    0.640
       382  -9.2878    144.1642     16.3923   3.1967973558e+01   4.6142267067e+01    0.1972883    0.1468655  85.77  0.000407614    1.270    0.213
       383 -10.1042     17.7786    173.9771   1.0716348275e+02   3.5391738929e+01    0.2661687    0.2072097  53.60   0.00151059    1.333    0.250
       384 -10.0380     28.9184    144.0734   1.0017468201e+02   4.2206847676e+01     0.228669    0.2015874  -4.24            0    1.281    0.219
       385 -12.1097     22.0635    149.8557   1.0310243827e+02   4.1289769514e+01     1.380918    0.5934938   7.10  0.005234598    3.463    0.711
       386 -12.2491     37.3006    159.1647   9.9813657676e+01   3.7437296607e+01     1.212582    0.4384753  43.53  0.004371868    3.111    0.679
       387  -9.2091    195.0379     15.0163   2.5634312766e+01   3.5105113229e+01    0.1730362     0.134628 -83.86 0.0003832749    1.040    0.039
       388 -11.4260     29.9706    153.9476   1.0127204226e+02   3.9523933821e+01    0.4672108    0.3455002  57.16  0.001828486    1.504    0.335
       389  -9.7016     24.4816    163.2274   1.0409146239e+02   3.7593904931e+01    0.2216882    0.1928965  22.60 0.0005972214    1.315    0.240
       390 -10.2687     20.6213    158.2516   1.0459735024e+02   3.9221759022e+01     0.348032    0.2088413 -71.93 0.0007276442    1.461    0.316
       391 -10.0830      9.6973    157.6035   1.0765954094e+02   4.0234193192e+01    0.2692259    0.1937004  81.92   0.00149575    1.389    0.280
       392  -9.4947      2.2249    157.0232   1.0970177352e+02   4.0888011919e+01    0.2866333    0.1855042 -79.97 0.0008905261    1.330    0.248
       393  -9.5902      2.4130    153.2344   1.0926852253e+02   4.1842216768e+01    0.2380665    0.1968499 -72.61 0.0007900771    1.008    0.008
       394  -9.1500    249.1700    153.8621   4.7149529961e+01   3.6337452064e+00    0.1775254    0.1314242 -24.13 0.0005995228    1.329    0.247
       395  -9.1096     58.2043    150.8973   9.2117518483e+01   3.7229803107e+01    0.2104037    0.1929314  83.60 0.0004053433    1.159    0.137
       396 -10.3850     10.8542    147.2279   1.0614295409e+02   4.2825972490e+01    0.2976331    0.1683412 -43.16   0.00146529    1.765    0.433
       397  -9.8502      2.4898    146.5083   1.0853884065e+02   4.3554036579e+01    0.3423985    0.1246063 -54.42  0.001043894    2.231    0.552
       398  -9.3934    239.3324    141.2797   4.6190573892e+01   7.3478096563e+00    0.1755558    0.1408685 -60.66 0.0003577998    1.343    0.255
       399  -8.4261    121.7537    139.6544   7.0620312905e+01   2.9744284511e+01    0.1610742    0.1197252 -22.18 0.0002618673    1.574    0.365
       400 -10.0053     41.0630    137.9791   9.5297927743e+01   4.2614281972e+01     0.333123    0.2269138  18.20  0.001355977    1.647    0.393
       401  -8.9260     34.9256    137.2872   9.7181197950e+01   4.3415739755e+01    0.1904836    0.1821976 -44.15 0.0005826775    1.083    0.077
       402  -9.9173      2.4232    140.3169   1.0786971375e+02   4.5136527198e+01    0.3406526    0.2669045  64.67  0.002032604    1.412    0.292
       403  -8.9463    184.3852     13.0252   2.6242965108e+01   3.7570001801e+01    0.1955341    0.1376554  68.25 0.0007411792    1.298    0.230
       404 -10.5009     60.6934    133.0317   8.7890840800e+01   4.1569641384e+01    0.5699823    0.3492337 -40.58  0.001269949    1.617    0.382
       405 -10.0414     16.5059    131.7686   1.0232962135e+02   4.6405530158e+01    0.5090443     0.123455 -60.89  0.001786074    2.859    0.650
       406  -8.7398     52.7710     12.5722   5.2594529735e+01   6.5663957213e+01    0.1823294    0.1005974  43.78  0.000541881    1.548    0.354
       407  -9.0355     18.6111    127.1663   1.0093902859e+02   4.7428079936e+01    0.2858528    0.1071561 -60.25   0.00116226    2.086    0.521
       408  -8.5745     75.6956    134.0113   8.3198422466e+01   3.9189075851e+01    0.2133247    0.1917913 -48.65 0.0004872694    1.060    0.057
       409 -10.2853      8.0188    133.2527   1.0526945500e+02   4.6599415059e+01    0.3617205    0.2271217 -14.99   0.00166999    1.939    0.484
       410  -9.8202      2.8550    130.1843   1.0651946168e+02   4.7684405114e+01    0.2414047    0.1842808  64.49 0.0009640566    1.508    0.337
       411 -10.3862     41.5827    129.7427   9.3637141941e+01   4.4695085642e+01    0.3456927    0.2753961 -69.43  0.001841452    1.240    0.193
       412  -8.7675     22.7654    131.6786   1.0026279783e+02   4.5949094460e+01    0.2199305    0.1086615 -79.51 0.0005540259    2.307    0.566
       413 -10.0059     33.3928    127.4548   9.5993846438e+01   4.6105020629e+01    0.4000199     0.207579 -46.41  0.001245463    1.731    0.422
       414  -9.0238     12.5213    126.4743   1.0286601780e+02   4.8034222753e+01    0.2659604    0.1160611 -68.23  0.000791028    1.956    0.489
       415  -9.4638    241.8026    124.2614   4.2488085631e+01   9.9592599471e+00    0.2342953    0.1466064 -49.64  0.001292579    1.365    0.267
       416  -9.4849     38.9331    124.1824   9.3487177773e+01   4.6396017256e+01    0.2684671    0.1899562 -57.77 0.0008762512    1.262    0.207
       417  -9.4066     71.9404    122.1240   8.1731413364e+01   4.2743642110e+01    0.3901925    0.2045553 -51.83 0.0008383703    1.782    0.439
       418  -9.7774      7.9122    121.5884   1.0369547998e+02   4.9560137466e+01    0.2362754    0.1515814 -56.30 0.0005272722    1.269    0.212
       419  -8.7949     83.9835    120.9770   7.7476498380e+01   4.1122705861e+01     0.185975    0.1766822  -7.72 0.0003798099    1.036    0.034
       420 -10.2595     45.9370    119.9652   9.0200237321e+01   4.6709886985e+01    0.3260561    0.2915995  60.91    0.0014118    1.320    0.243
       421 -11.0826     21.0998    118.6926   9.8695888092e+01   4.9387752248e+01    0.5281802     0.438226  85.50  0.003049786    1.381    0.276
       422  -9.9610    221.3649    119.4345   4.4514909600e+01   1.4333263734e+01    0.2943004    0.2454422  39.40 0.0009227914    1.441    0.306
       423  -9.4045     61.9541    120.4353   8.4731660941e+01   4.4593421207e+01    0.2191561    0.1451312  30.11  0.001014779    1.583    0.368
       424 -10.3911     29.2917    118.5787   9.5793546337e+01   4.8737719113e+01    0.4426228    0.3146192  69.31  0.002209481    1.886    0.470
       425  -9.4638     93.9588    119.0481   7.3801461084e+01   3.9869508546e+01    0.2433782    0.2172518 -15.16 0.0007366205    1.128    0.113
       426  -8.7108     12.3596    117.8082   1.0159829673e+02   5.0230559236e+01    0.2033268    0.1340914 -43.97  0.000758122    1.339    0.253
       427 -10.3865     11.5046    113.4881   1.0120153363e+02   5.1361891088e+01    0.4674641    0.2699712   3.34  0.002345712    2.049    0.512
