#   1 NUMBER                 Running object number                                     
#   2 MAG_AUTO               Kron-like elliptical aperture magnitude                    [mag]
#   3 X_IMAGE                Object position along x                                    [pixel]
#   4 Y_IMAGE                Object position along y                                    [pixel]
#   5 X_WORLD                Barycenter position along world x axis                     [deg]
#   6 Y_WORLD                Barycenter position along world y axis                     [deg]
#   7 A_WORLD                Profile RMS along major axis (world units)                 [deg]
#   8 B_WORLD                Profile RMS along minor axis (world units)                 [deg]
#   9 THETA_WORLD            Position angle (CCW/world-x)                               [deg]
#  10 FWHM_WORLD             FWHM assuming a gaussian core                              [deg]
#  11 ELONGATION             A_IMAGE/B_IMAGE                                           
#  12 ELLIPTICITY            1 - B_IMAGE/A_IMAGE                                       
         1 -14.1381    125.8577      7.5938   4.7488450202e+01   5.2334670452e+01    0.4992188    0.3827333  61.11  0.001640508    1.165    0.142
         2 -16.1267    169.2075      6.9024   4.0559272412e+01   4.1797441720e+01     4.722664     1.054891  68.86   0.01522472    3.859    0.741
         3 -12.0726     95.5086     13.3014   5.6616735949e+01   5.8728771118e+01    0.2685874    0.2335956 -40.64 0.0009717647    1.402    0.287
         4 -11.5384     33.7173     13.5858   7.9952977196e+01   6.9431537460e+01    0.2763541    0.1815861 -45.70  0.001495338    2.017    0.504
         5 -11.8035      3.6675      8.8418   9.4082732901e+01   7.3048103689e+01     0.195898    0.1413218   6.68 0.0008817391    1.381    0.276
         6 -12.9410     98.5142      6.7383   5.3121575943e+01   5.8693249831e+01    0.3922448    0.3209414 -72.56  0.002322564    1.699    0.412
         7 -11.3233     85.5315      7.9789   5.7146463148e+01   6.1344926345e+01    0.1819322    0.1209277 -15.71 0.0004942821    1.563    0.360
         8 -12.5506    112.9266      1.8815   4.7931999840e+01   5.5843646821e+01    0.4153656    0.1736645  64.04  0.001423702    2.174    0.540
         9 -11.2174     25.1266      2.1582   7.8450752928e+01   7.1991001379e+01    0.1433372    0.1218477  -0.43 0.0004587575    1.312    0.238
        10 -12.1244      7.6085      1.5255   8.8113990703e+01   7.3854633724e+01    0.3106127    0.1161169  23.79   0.00118198    2.698    0.629
        11 -11.1590     24.9972     15.9968   8.5522768850e+01   7.0077546024e+01    0.1463555    0.1103817 -15.66 0.0003581706    1.022    0.021
        12 -11.1934    137.8753    250.5085   1.0409289142e+02   4.4599120836e+00    0.3508558    0.1010905  37.34  0.001393752    2.867    0.651
        13 -11.8721    116.7254    248.2422   1.0795029588e+02   8.0005133416e+00    0.3291878    0.2236585 -25.98  0.001313476    2.457    0.593
        14 -17.5395     75.0898    185.5749   1.0938831476e+02   2.6654685753e+01     5.221394     2.492487  49.37   0.02355063    2.056    0.514
        15 -12.9996    129.5880    192.0820   9.7561844131e+01   1.6589341323e+01    0.5343789    0.2443179 -50.61  0.002222864    2.318    0.569
        16 -14.0004    131.7356    201.3020   9.8563411388e+01   1.4326936298e+01    0.7347993    0.5027187 -34.56  0.003716064    1.798    0.444
        17 -13.1314    119.0433    190.0072   9.9667775322e+01   1.8836948261e+01    0.4465917    0.2695005  48.36  0.001768142    1.606    0.377
        18 -18.5598     52.9334    228.6337   1.1855002396e+02   2.0360223820e+01     5.068841     3.389709  48.05   0.03274986    1.287    0.223
        19 -13.3006    111.8250    189.3881   1.0125904282e+02   2.0178982870e+01    0.5679809    0.3861736  86.96  0.001381754    1.986    0.497
        20 -12.9214    126.7919    198.1035   9.9173273463e+01   1.5819063877e+01    0.6089374    0.2940168 -38.08  0.002013878    2.905    0.656
        21 -13.6330    121.8410    195.7591   9.9933137064e+01   1.7143602115e+01     0.515923    0.4870546 -75.43  0.003131901    1.121    0.108
        22 -11.4852     14.0910    249.5021   1.2681549450e+02   2.0713885169e+01      0.21523    0.1089192  72.43  0.001403813    1.610    0.379
        23 -10.2972      3.1444    201.4051   1.2638137329e+02   3.1094835462e+01    0.1798576     0.134333 -49.68  0.001246579    1.828    0.453
        24 -12.9273    140.8874    228.0936   1.0056852452e+02   7.7470785263e+00    0.3271927    0.2258628 -53.09  0.001025441    1.697    0.411
        25 -11.2312    146.9420    187.7953   9.2844145324e+01   1.4395890072e+01    0.2147123    0.1875999   8.63 0.0004706727    1.221    0.181
        26 -10.4105     15.8909    187.9993   1.2296900489e+02   3.2862008138e+01    0.1628742    0.1265265 -48.44  0.000747603    1.661    0.398
        27 -10.7124      7.9993    187.3163   1.2457357760e+02   3.3697896527e+01    0.1462406    0.1204179  68.02 0.0003156438    1.155    0.134
        28 -11.1537    136.6128    184.8157   9.4690608579e+01   1.6876286368e+01    0.2747141    0.1351272 -47.04    0.0011397    2.150    0.535
        29 -10.4798     10.0823    205.8631   1.2529307949e+02   2.9558941717e+01    0.1305829    0.1116062 -78.51 0.0004063013    1.315    0.239
        30 -11.7996    146.3927    228.1054   9.9432218139e+01   6.8573998602e+00     0.258519    0.1648258  43.40 0.0007124846    1.381    0.276
        31 -11.1325      2.3661    174.0186   1.2489450643e+02   3.7085586107e+01    0.1878195    0.1612222  28.77  0.000289119    1.508    0.337
        32 -11.9424    115.7823    172.1091   9.7426024123e+01   2.3353710314e+01    0.2450573    0.2394831  39.10            0    1.060    0.057
        33 -12.3511    129.8976    223.8265   1.0227151687e+02   1.0282341792e+01     0.221519    0.1897191  78.30 0.0009230314    1.321    0.243
        34 -10.4786     12.4207    227.3554   1.2603216752e+02   2.5014340335e+01    0.1021836   0.08339335  76.09 0.0005025978    1.162    0.139
        35 -11.2393      4.7445    169.9837   1.2409624138e+02   3.7811880933e+01    0.1673356    0.1429176  81.19 0.0003160802    1.133    0.118
        36 -13.5157     99.6852    165.3818   1.0028413620e+02   2.7630240943e+01    0.4041626    0.3448722  76.96  0.002202805    1.212    0.175
        37 -12.9073    105.0330    164.9954   9.8853425179e+01   2.6833436717e+01    0.3505431    0.2709959 -17.52  0.001713778    1.755    0.430
        38 -12.8957     15.5339    158.6050   1.2068607955e+02   3.9582967806e+01    0.3378503    0.2735083 -33.06  0.002221397    1.630    0.386
        39 -13.8855     19.7374    152.7061   1.1909180750e+02   4.0627065213e+01     0.658339    0.3443802  -9.57  0.002726096    4.311    0.768
        40 -14.1335     22.9119    160.6237   1.1909068787e+02   3.8482962237e+01    0.7514527    0.3773332  71.28  0.003216842    2.219    0.549
        41 -13.4061     29.4896    161.6834   1.1759186501e+02   3.7629459991e+01    0.3723496    0.2965895 -60.85  0.001245785    1.269    0.212
        42 -12.1046      7.4109    163.3722   1.2300120887e+02   3.9115389582e+01     0.329363    0.2360338 -55.23  0.001283143    1.505    0.336
        43 -10.8206      9.3235    225.1942   1.2647580539e+02   2.5729343216e+01   0.08288437   0.07948609  60.02 0.0003560905    1.481    0.325
        44 -10.2373      7.5348    155.5371   1.2234013232e+02   4.0916110913e+01    0.1213059    0.0956697 -84.82 5.995857e-05    1.021    0.020
        45 -15.4573     90.4184    227.2388   1.1091807142e+02   1.5660438509e+01     1.162404    0.7435224 -73.06  0.006680813    1.725    0.420
        46 -11.6713    136.5851    205.9216   9.8211280667e+01   1.2584627845e+01     0.249354    0.2056593   7.73 0.0006734544    1.412    0.292
        47 -12.7659    124.9972    239.4915   1.0529904146e+02   8.2507282459e+00    0.3188172    0.2222449 -36.92  0.001091105    1.896    0.473
        48 -15.1383     38.4656    139.7042   1.1261185855e+02   4.2058275843e+01    0.8229817      0.54625 -46.08   0.00447974    1.582    0.368
        49 -13.7894     48.0706    123.2174   1.0725920500e+02   4.5109104404e+01    0.5599884    0.3464809 -19.18  0.002151677    2.438    0.590
        50 -11.8381      5.2853    138.4306   1.2138218311e+02   4.5080755815e+01    0.1855234    0.1241712   9.42 0.0005634953    2.050    0.512
        51 -13.3637     75.5010    127.0312   9.9733092771e+01   4.0683685858e+01    0.4693692     0.329942  65.80  0.002239239    1.775    0.436
        52 -13.0417     30.0249    122.8256   1.1261827357e+02   4.6972566192e+01    0.3523893    0.2292441  59.66  0.001879021    1.790    0.441
        53 -11.5942    249.6028    116.8055   5.7206124279e+01   7.8507411220e+00    0.2055137    0.1086101 -43.76 0.0009550155    1.725    0.420
        54 -13.6935     67.1369    134.2379   1.0358306688e+02   4.0072581121e+01    0.7363616    0.2559723  32.97   0.00269996    3.037    0.671
        55 -14.9110     56.0483    133.9043   1.0673669621e+02   4.1559535792e+01    0.8540628    0.6183694 -20.32  0.003838479    1.855    0.461
        56 -12.4139     78.8550    140.1451   1.0132591098e+02   3.6972440231e+01    0.3856785    0.1715201  44.78  0.001516084    2.402    0.584
        57 -10.7617     97.1930    108.5958   8.8920189808e+01   4.1622626909e+01    0.2144515    0.1460495  22.77 0.0009506461    1.748    0.428
        58 -10.9819      1.8263    105.3359   1.1876758682e+02   5.3099092749e+01     0.242861    0.1326052 -61.37  0.001380397    1.405    0.288
        59 -10.8345     19.8961     95.6339   1.1145487697e+02   5.4305586532e+01    0.2102541    0.1396119 -57.17 0.0003103802    1.207    0.172
        60 -12.4311    249.2730     85.4395   5.0227623406e+01   1.2918167499e+01     0.533796    0.1101036 -34.51   0.00155237    4.522    0.779
        61 -10.7513     89.5574     85.5087   8.4933485543e+01   4.8170435429e+01    0.1478059    0.1374531 -27.65  5.80095e-05    1.016    0.016
        62 -12.5987     43.4591     82.9927   1.0039083870e+02   5.5212622742e+01    0.3420985    0.1903589  16.96   0.00164739    2.170    0.539
        63 -12.0114     37.5499     71.5716   9.9675247252e+01   5.8361949564e+01    0.2192268    0.1619632 -57.72  0.001267402    1.284    0.221
        64 -11.3370     98.8925     61.4422   7.4141931242e+01   5.1215719425e+01    0.3700999     0.280796 -76.11  0.001714043    2.146    0.534
        65 -11.0127     78.0264     56.4764   7.9383604065e+01   5.5992001399e+01    0.2058918    0.1341265  36.07 2.716204e-05    1.561    0.359
        66 -11.8297    248.9955     46.5440   4.1590869965e+01   1.8626049195e+01    0.2629864     0.162688 -14.84  0.001273848    2.439    0.590
        67 -11.2541    135.9427     40.6743   5.6924005081e+01   4.6220801565e+01    0.4006158    0.2034417  37.19   0.00160253    2.271    0.560
        68 -10.2672     80.5715     37.2024   7.1139801515e+01   5.8753995641e+01      0.18025    0.1208884 -16.68 0.0003608036    1.537    0.350
        69 -10.2727     40.9654     35.7890   8.6373640050e+01   6.5075760078e+01    0.1557861   0.09506837  24.56 0.0005651923    1.678    0.404
        70 -10.6039    175.0903     34.1579   4.7596954613e+01   3.7387170880e+01    0.2174709    0.1814451  38.14  0.000799145    1.317    0.240
        71 -11.9053     89.5311     26.5378   6.3841022954e+01   5.8482552118e+01    0.3990506    0.2880214   5.20  0.001439033    1.447    0.309
        72 -10.6291    241.5497     27.4345   3.8099597096e+01   2.2640730222e+01    0.2250008    0.1345451 -54.50 0.0001231678    1.476    0.323
        73 -10.4365    239.1043     24.8720   3.7752288167e+01   2.3473848087e+01    0.1702602    0.1402725 -75.24            0    1.064    0.060
        74  -9.8082     98.6592     22.7134   5.9592888891e+01   5.7035319804e+01    0.1437294   0.09080068  26.78 0.0003884186    1.639    0.390
        75 -12.1657    132.2626    247.2558   1.0479659759e+02   5.8352093583e+00    0.3081445    0.2235339  82.97  0.001027805    1.930    0.482
        76 -11.2832    151.1742    247.7953   1.0115639906e+02   2.8613528685e+00    0.1777372    0.1455981  44.49   0.00063909    1.145    0.126
        77 -11.9069    124.9928    247.1402   1.0620928095e+02   6.9522151269e+00    0.1840807    0.1699471 -88.46 0.0006692906    1.264    0.209
        78 -10.8973     50.3051     14.0573   7.2559602015e+01   6.7070033060e+01    0.1738492    0.1373689  -6.32 0.0005412729    1.085    0.078
        79 -11.6533    143.5815    246.4609   1.0247372914e+02   4.2365457681e+00    0.2117453    0.1758716  36.66 0.0001282802    1.016    0.016
        80 -10.3652     43.6171     20.1962   7.8429039374e+01   6.7207364453e+01    0.1724848   0.09830393 -23.59 0.0006072579    1.633    0.387
        81 -12.6513    139.1057    242.7750   1.0288933459e+02   5.5242978850e+00    0.4028207    0.2706181  -7.87  0.002009333    2.530    0.605
        82  -7.0533     13.2317    243.7145   1.2669259010e+02   2.1847596014e+01    0.1774354    0.1398824 -31.39  0.001257674    2.436    0.589
        83 -13.7836    130.0799    234.3002   1.0362178221e+02   8.3693604852e+00     0.824304    0.4502934  67.97  0.003394718    3.469    0.712
        84 -13.3818    135.2121    231.0890   1.0214938746e+02   8.1259560988e+00    0.4346533     0.261225 -45.85  0.002175927    1.967    0.492
        85 -12.2069    148.1416    232.5038   9.9695500905e+01   5.8217378067e+00    0.2519525    0.2146299 -47.06 0.0002674406    1.382    0.276
        86 -11.5435      7.6784    229.9432   1.2699801092e+02   2.4964490460e+01    0.2653659    0.1296943  80.64  0.001629602    1.732    0.423
