#   1 NUMBER                 Running object number                                     
#   2 MAG_AUTO               Kron-like elliptical aperture magnitude                    [mag]
#   3 X_IMAGE                Object position along x                                    [pixel]
#   4 Y_IMAGE                Object position along y                                    [pixel]
#   5 X_WORLD                Barycenter position along world x axis                     [deg]
#   6 Y_WORLD                Barycenter position along world y axis                     [deg]
#   7 A_WORLD                Profile RMS along major axis (world units)                 [deg]
#   8 B_WORLD                Profile RMS along minor axis (world units)                 [deg]
#   9 THETA_WORLD            Position angle (CCW/world-x)                               [deg]
#  10 FWHM_WORLD             FWHM assuming a gaussian core                              [deg]
#  11 ELONGATION             A_IMAGE/B_IMAGE                                           
#  12 ELLIPTICITY            1 - B_IMAGE/A_IMAGE                                       
         1 -14.2135     68.3615    145.4102   1.2804784946e+02   3.7370977057e+01     1.796246    0.9151562  83.98  0.006291424    3.823    0.738
         2 -13.4768    208.7229      3.7884   5.9283701565e+01   3.2153651500e+01     1.017845    0.6333587  61.59  0.003061223    1.567    0.362
         3 -13.9904    187.0469     27.9369   6.8228457267e+01   3.4914734552e+01        1.535     1.184246  -5.43  0.004989163    1.599    0.375
         4 -13.9003    194.2304     21.5409   6.5509583511e+01   3.3851945556e+01     1.292763    0.8966134 -45.40  0.005816959    1.416    0.294
         5 -12.9671    200.9424     13.0514   6.2447491493e+01   3.3111017856e+01    0.5696825    0.5242795  11.34  0.001137708    1.324    0.245
         6 -11.8092     32.8575      5.5242   9.9273560046e+01   7.0425175076e+01    0.4386157    0.1209201 -37.12  0.001838557    3.343    0.701
         7 -11.0045    192.4857    193.4738   1.0847443156e+02   5.6316106669e+00    0.4292356    0.2490102 -65.06  0.001592046    4.159    0.760
         8 -12.3275    248.5973    247.8799   1.0772015495e+02  -1.0375923623e+01    0.4654085     0.269129  25.59  0.003056661    1.379    0.275
         9 -14.4811     51.8519    230.6329   1.4108154592e+02   2.1373349943e+01     1.419698    0.8869867  34.25  0.006641572    1.841    0.457
        10 -13.4891     50.8676    221.6774   1.4057639968e+02   2.3172848987e+01    0.6208914     0.467018  71.97  0.001533017    1.036    0.035
        11 -16.2777     58.6071    210.1471   1.3813173705e+02   2.4455235640e+01     10.55658     1.683042  49.28   0.02998841    5.539    0.819
        12 -16.2378      2.4299    138.9574   1.4383885424e+02   4.5581544344e+01     15.33179    0.3092394 -73.74   0.03146895   12.131    0.918
        13 -15.6484     35.4102    247.4762   1.4499791278e+02   2.0305846117e+01     8.283755    0.6867238  36.55   0.02200063   10.820    0.908
        14 -16.4012      9.5109    239.6809   1.4878579972e+02   2.4408731942e+01     7.446458     0.914238 -68.46   0.02952116    5.809    0.828
        15 -10.6038    164.1338    156.9397   1.0710633344e+02   1.7739946002e+01    0.3038061    0.1978198 -49.46  0.001300418    1.624    0.384
        16 -13.5634     54.6217    145.4469   1.3157141445e+02   3.9139502827e+01    0.6742991    0.5109712  36.94    0.0039784    1.479    0.324
        17 -11.8744     47.8665    150.8653   1.3401815876e+02   3.8676049134e+01    0.2815388    0.1733529 -66.71 0.0007743259    1.420    0.296
        18  -9.9028    106.2503    144.1537   1.1812248542e+02   3.1716514810e+01    0.3565759    0.2044684 -35.91  0.001459924    2.346    0.574
        19 -12.2872     92.5750    147.6520   1.2224926546e+02   3.3225438484e+01    0.2742124    0.2584794 -36.63  0.001614063    1.220    0.181
        20 -10.0808    134.0000    144.0188   1.1124180908e+02   2.6529508835e+01    0.4080512   0.08441955 -48.58  0.001043357    4.862    0.794
        21 -10.6018    103.9496    148.0233   1.1945432615e+02   3.1233936591e+01    0.2917737    0.2762703 -62.19 0.0008840908    1.090    0.082
        22 -10.0651    113.2825    134.4460   1.1431248780e+02   3.2658031476e+01    0.3025372    0.2347298 -17.39 0.0009034861    1.746    0.427
        23 -11.7618     69.5779    134.3515   1.2585584752e+02   3.9810518471e+01    0.4488174    0.1676385  38.93  0.001778678    2.748    0.636
        24 -12.0117     73.7811    190.0847   1.3293474139e+02   2.6563224245e+01    0.3907476    0.2483274 -45.56   0.00207496    2.085    0.520
        25 -10.8548    100.7704    131.6516   1.1697279701e+02   3.5555792528e+01    0.2854766    0.2418698 -17.37 0.0008755344    1.474    0.322
        26  -9.8409    109.1477    122.2397   1.1264349614e+02   3.6208512641e+01    0.2051337    0.1971457 -13.30 0.0003591627    1.136    0.120
        27  -9.4611    118.6158    127.6853   1.1142384198e+02   3.3176394778e+01    0.1552028     0.120342  -4.89 0.0001702875    1.821    0.451
        28 -10.7161    168.3285    113.1755   9.5858391855e+01   2.5611064040e+01    0.3588859     0.278393 -70.06 0.0009014516    1.598    0.374
        29 -11.5596     85.7911    172.4802   1.2794174034e+02   2.8645373437e+01    0.2707561    0.2473082  66.05 0.0003916585    1.093    0.085
        30 -13.3751     73.9710    169.4111   1.3025268654e+02   3.1062128009e+01    0.4632982    0.2899593 -45.92  0.001531383    1.937    0.484
        31 -10.6020     19.3179     92.6252   1.3323562606e+02   5.4997738685e+01     0.404393   0.08373381  33.91  0.001507656    4.700    0.787
        32 -11.8280     77.8797    183.9207   1.3128722363e+02   2.7304084671e+01    0.3058358    0.2323873 -52.21 0.0008865297    1.513    0.339
        33 -14.3003     10.9823    206.5973   1.4686322426e+02   3.0444180425e+01    0.9780705    0.6486387  23.42  0.003668669    2.237    0.553
        34 -13.9109     58.0209    130.8890   1.2838532067e+02   4.2155133665e+01     1.902968    0.6400225 -73.19   0.00530657    5.387    0.814
        35 -14.0014     91.0551    164.9253   1.2555835482e+02   2.9521939921e+01     3.609501    0.8195822  48.68  0.001048263    5.729    0.825
        36  -9.7445    169.4033    215.2039   1.1668108328e+02   6.1726768578e+00    0.1616873    0.1249268 -60.42 0.0009454793    1.664    0.399
