#   1 NUMBER                 Running object number                                     
#   2 MAG_AUTO               Kron-like elliptical aperture magnitude                    [mag]
#   3 X_IMAGE                Object position along x                                    [pixel]
#   4 Y_IMAGE                Object position along y                                    [pixel]
#   5 X_WORLD                Barycenter position along world x axis                     [deg]
#   6 Y_WORLD                Barycenter position along world y axis                     [deg]
#   7 A_WORLD                Profile RMS along major axis (world units)                 [deg]
#   8 B_WORLD                Profile RMS along minor axis (world units)                 [deg]
#   9 THETA_WORLD            Position angle (CCW/world-x)                               [deg]
#  10 FWHM_WORLD             FWHM assuming a gaussian core                              [deg]
#  11 ELONGATION             A_IMAGE/B_IMAGE                                           
#  12 ELLIPTICITY            1 - B_IMAGE/A_IMAGE                                       
         1 -10.3519     85.2241     23.9501   8.5337176534e+00   6.0366876859e+01    0.2309244    0.1872581  68.45 0.0004270271    1.164    0.141
         2 -10.8492     72.0208      9.5541   5.4148820503e+00   6.5186959214e+01    0.2827019    0.1992904 -16.03 -1.399334e-05    1.659    0.397
         3  -9.9766     83.1855      7.3394   1.4317579350e+00   6.2720751794e+01    0.1969676     0.181022  12.32 0.0004454385    1.240    0.194
         4  -9.7664     49.5970    249.2742   6.7125959298e+01   1.4999524390e+01    0.1443156    0.1088192 -58.97 0.0009483185    1.631    0.387
         5 -10.3261    139.2512    248.7443   4.7626132455e+01   5.3128415033e+00    0.2612112    0.1574025 -43.36  0.001219689    1.845    0.458
         6 -11.8059     29.8673    247.2775   7.1403307266e+01   1.7292869124e+01    0.3780141    0.3401688  68.07  0.002813183    1.206    0.171
         7 -11.8712     35.8684    246.6001   7.0035354717e+01   1.6855020724e+01    0.4168292    0.1942119  32.99  0.001711219    1.629    0.386
         8 -12.6793     32.3586    240.2804   7.0500723101e+01   1.8420478118e+01    0.9819961    0.3454462  16.45  0.002901817    3.585    0.721
         9 -13.5583     35.2447    230.2654   6.9286157913e+01   2.0168982117e+01    0.9210195     0.502591  79.31  0.004877152    2.059    0.514
        10 -12.8294     20.9045    196.6402   7.0937101602e+01   2.9019565627e+01    0.7608938    0.4666794   1.24  0.003758356    2.154    0.536
        11 -12.5833     11.9253    190.9550   7.3047285848e+01   3.1158181443e+01    0.5711977    0.4199489  81.93  0.001153527    1.271    0.213
        12 -13.5922     20.4464    215.3625   7.2065992680e+01   2.4755281909e+01     1.235338    0.5093414  65.22  0.005476052    2.514    0.602
        13 -13.0660     13.0587    214.4879   7.3849787373e+01   2.5595895264e+01     1.145153    0.4651694 -69.06  0.005367322    2.568    0.611
        14 -13.1625      6.6920    234.1387   7.6078051872e+01   2.1942522269e+01    0.6225613    0.5978595  35.68  0.002610209    1.270    0.213
        15 -14.1155     10.8254    239.5098   7.5325421864e+01   2.0512872520e+01      1.27665    0.9430856  12.49  0.006834711    1.528    0.346
        16 -12.3913      6.1932    247.3159   7.6582249686e+01   1.9371691524e+01     0.545095    0.1876439  45.43 0.0004312422    2.011    0.503
        17 -11.3386     67.5139    246.6684   6.2937502103e+01   1.3626556109e+01    0.3755763    0.2861286  31.64  0.001625945    1.065    0.061
        18  -9.8475     99.7559    246.4087   5.5741628605e+01   1.0124758292e+01    0.1762586    0.1001225  16.49 0.0009503811    1.690    0.408
        19  -9.0895    246.2908    245.6069   2.8432374096e+01  -4.6629059205e+00   0.08273519   0.07105982 -24.28  0.000700559    1.777    0.437
        20  -9.4006    204.7539    244.0023   3.4748621860e+01  -8.2211865431e-01    0.1313847    0.0774904 -32.91 0.0008810336    1.578    0.366
        21  -9.4323    185.6101    242.7964   3.7935807338e+01   1.2303086000e+00    0.1384542    0.1006936 -43.14 0.0009566489    1.699    0.411
        22  -8.8870     87.3023    250.6517   5.8868961949e+01   1.0766483799e+01    0.1230034   0.07647619  51.06 0.0007039536    1.692    0.409
        23 -10.4177     43.0354    243.5034   6.8252667608e+01   1.6752215455e+01      0.18917   0.09792367  28.67 0.0006240632    1.574    0.365
        24  -9.9133    116.9584    241.2551   5.1448970829e+01   9.0528644004e+00    0.1924984    0.1617241  88.36  0.001272151    1.689    0.408
        25 -10.9205     38.5852    241.8535   6.9168198887e+01   1.7511017323e+01    0.2072958    0.1443752  20.90 0.0006239825    1.378    0.274
        26  -9.7743    248.0488    241.5179   2.7610505961e+01  -4.3424560780e+00    0.1376208    0.0794083  16.17 0.0009142484    1.590    0.371
        27  -9.3403    101.6503    238.2452   5.4494359950e+01   1.1354732449e+01     0.154785    0.1093013 -43.71 0.0003511095    1.626    0.385
        28  -9.3540    158.4871    233.5100   4.1828600039e+01   5.5305881617e+00    0.1190848   0.09672409   5.54  0.000189722    1.013    0.013
        29  -9.8544     72.0040    233.0000   6.0793764031e+01   1.5741095855e+01    0.3036604    0.1327237  34.74  0.001466324    1.814    0.449
        30  -9.5600     73.5965    229.7994   6.0134935544e+01   1.6193549604e+01    0.2561037      0.13128 -78.42  0.001225316    2.616    0.618
        31 -10.5437     61.4242    231.3404   6.3149480727e+01   1.7240207188e+01    0.2195416   0.09921081  28.32 0.0004870035    1.839    0.456
        32  -9.7688    194.5478    229.3318   3.4452391189e+01   2.1825406086e+00    0.1898888    0.1017917 -43.77  0.000775136    2.023    0.506
        33 -11.3493    138.2178    228.2565   4.5301163462e+01   8.7690235100e+00    0.2132855    0.1867146  -4.91 0.0002863704    1.097    0.088
        34 -11.2668    115.2074    226.0667   5.0069923099e+01   1.1959733134e+01    0.4141165    0.2747828 -38.13  0.001677136    1.671    0.402
        35  -9.3006    120.0021    227.2650   4.9141347605e+01   1.1154398789e+01    0.1759268    0.1408175  21.00 0.0003475137    1.069    0.064
        36 -11.1496    147.5670    224.8064   4.2870456092e+01   8.2265902590e+00    0.2991628    0.1964036 -31.99 0.0005214355    1.560    0.359
        37  -9.3621     92.0047    225.0268   5.5309734407e+01   1.4982266285e+01    0.1490541    0.1388266  28.14 0.0005660316    1.084    0.077
        38 -11.3093    173.2837    221.0707   3.7178294206e+01   5.7749088883e+00     0.383874    0.3280068 -46.76  0.002658603    1.511    0.338
        39 -10.6237    159.6927    221.9856   3.9989448589e+01   7.2355694765e+00    0.3897625    0.1782354  43.08  0.001800546    2.788    0.641
        40 -11.4410    124.8970    221.6111   4.7335748415e+01   1.1579118125e+01    0.4090204    0.2276898  27.40  0.001776883    1.577    0.366
        41  -9.9554     77.0031    219.5057   5.8338834324e+01   1.7887561515e+01    0.1996509    0.1124019  29.34 0.0005586445    1.528    0.346
        42 -11.2022    145.0896    216.6246   4.2249824791e+01   9.9386801898e+00    0.3041897    0.2556802  42.99  0.001567787    1.399    0.285
        43  -9.1962     80.3607    218.2426   5.7390270305e+01   1.7749216974e+01    0.1275481   0.09466723  -3.58 0.0006930416    1.598    0.374
        44 -10.0536    120.5074    214.8174   4.7435922920e+01   1.3404799722e+01    0.3601044    0.2324609 -84.13  0.001693659    2.841    0.648
        45 -10.7513     85.4773    214.6935   5.5758148426e+01   1.7864657976e+01    0.4186773    0.1987871  40.99   0.00194038    1.889    0.471
        46 -10.9520    127.5998    214.5931   4.5795635584e+01   1.2534703567e+01    0.2248225    0.1992636  27.57 0.0006103711    1.122    0.109
        47 -10.3950    108.7679    214.5075   5.0124134588e+01   1.4971906746e+01    0.2922461    0.2093036   0.39  0.001606826    1.564    0.360
        48  -9.9144    156.2703    212.9241   3.9366771443e+01   9.1746960217e+00    0.3006419    0.2090677 -78.54  0.001400188    3.118    0.679
        49 -10.2376     73.4986    212.0005   5.8449329206e+01   1.9889473930e+01    0.3082857    0.2246902  16.40 0.0008741947    1.387    0.279
        50  -9.6815     72.5484    208.5044   5.8329227264e+01   2.0762256839e+01    0.2040826    0.1732585  74.46 9.904067e-05    1.264    0.209
        51  -9.8494     40.4565    212.5122   6.6870506491e+01   2.3464167414e+01    0.1295237    0.1125914  46.68 4.601476e-05    1.026    0.025
        52 -13.5929     15.1676    228.2499   7.3916807806e+01   2.2443115516e+01     1.821141    0.6289425  82.53  0.007511251    3.472    0.712
        53  -9.9388     96.7906    208.7330   5.2283979358e+01   1.7681655574e+01    0.3196064    0.1803216 -68.38  0.001528197    2.197    0.545
        54 -11.0228     25.6024    209.2217   7.0440545685e+01   2.5660814894e+01    0.2573977    0.2234368  77.02 0.0005986419    1.141    0.124
        55 -10.7260    161.6546    208.2464   3.7556089142e+01   9.2962877877e+00    0.3021797    0.2518342  59.93  0.001110284    1.793    0.442
        56  -9.7050    229.2565    208.2522   2.5501303743e+01   1.4965236406e+00    0.1480113     0.082881  39.28 0.0008949951    2.432    0.589
        57 -10.4927    180.3459    207.4638   3.3760129185e+01   7.0966924216e+00    0.2071188    0.1918275   3.52   0.00013335    1.269    0.212
        58 -10.3631    139.9844    207.2631   4.1996048248e+01   1.2284265355e+01    0.2384159    0.1726871  89.73  0.001186297    2.611    0.617
        59 -12.4896      2.3688    248.8365   7.7441529957e+01   1.9393420895e+01    0.7213604    0.2598057  89.65  0.003554648    3.004    0.667
        60 -13.0315      4.3839    201.4334   7.5500370870e+01   2.9272389176e+01     1.130701    0.5625173 -85.72  0.005515437    1.969    0.492
        61 -13.0199      2.9577    218.8682   7.6460559556e+01   2.5462495108e+01     1.197659    0.4318021 -82.14   0.00544379    2.806    0.644
        62 -10.7510    146.1360    201.8077   3.9826558273e+01   1.2474423227e+01    0.2868756    0.2431537 -67.64  0.001626627    1.567    0.362
        63 -11.5126     91.6537    198.0881   5.2231207990e+01   2.0630116142e+01     0.749934    0.2957006 -53.19  0.002960258    2.618    0.618
        64 -10.5963     84.8540    201.1268   5.4352649126e+01   2.0849706654e+01     0.327063     0.232003 -25.52 0.0004030819    1.761    0.432
        65 -10.9333     83.5253    197.5362   5.4259637968e+01   2.1818870539e+01     0.402015    0.3449521 -14.97  0.001897899    1.313    0.238
        66  -9.4240     53.8017    198.8301   6.2268261143e+01   2.5149050448e+01    0.1952342    0.1426301  58.45   0.00106322    1.323    0.244
        67  -9.7552    135.4090    198.1829   4.1647220107e+01   1.4623536761e+01    0.1669911    0.1294818 -62.31 0.0005637231    1.583    0.368
        68 -10.1169     36.8823    197.1711   6.6676594193e+01   2.7361756160e+01    0.2153225    0.1581072  53.83   0.00070354    1.220    0.180
        69  -9.9567    172.8456    195.8216   3.3334206907e+01   9.9824125229e+00    0.1538294    0.1498673 -23.80 0.0005020631    1.317    0.240
        70  -9.3528    138.6614    196.6671   4.0677859514e+01   1.4466981677e+01    0.1405643   0.09548715 -11.52 0.0007051802    1.745    0.427
        71 -10.4987    122.7004    196.0370   4.4268929369e+01   1.6816238538e+01    0.3149755    0.1688838  44.16  0.001445355    1.984    0.496
        72 -10.9433    192.3987    193.8067   2.9309979212e+01   7.8058600470e+00    0.2712092    0.2522951  12.08  0.001367952    1.307    0.235
        73 -10.8319    132.9563    191.6699   4.1190116052e+01   1.6250923320e+01    0.3754601    0.2350325 -12.38  0.001475993    2.206    0.547
        74  -9.2938     52.6867    192.6775   6.1985215769e+01   2.6727383988e+01    0.1500319    0.1235678  53.36 0.0003422457    1.113    0.102
        75  -9.6697     50.4714    190.4653   6.2382142412e+01   2.7509375487e+01    0.2360499    0.1751109  55.23 0.0006012755    1.267    0.211
        76 -10.0906    110.5101    188.0101   4.6031883624e+01   2.0229452961e+01    0.2012199    0.1385889 -57.62 0.0008105109    1.568    0.362
        77 -10.3524     20.2607    188.4136   7.0617491502e+01   3.1065478419e+01    0.2526411    0.1288327  16.07  0.001146487    2.151    0.535
        78  -9.9569    127.9951    185.7083   4.1395235987e+01   1.8180731420e+01    0.1980718    0.1755484  17.24  0.000796249    1.060    0.057
        79 -11.7750      8.6210    184.3576   7.3625506105e+01   3.3037604464e+01    0.4772179    0.2525103 -33.54   0.00208719    2.844    0.648
        80 -11.3361      2.7671    184.0084   7.5232310873e+01   3.3567235767e+01    0.3534426    0.2869139 -67.51  0.001281455    1.338    0.253
        81 -12.1179      2.4145    173.6240   7.4875603540e+01   3.6187867155e+01    0.8777101    0.2347748 -73.97  0.003160922    3.301    0.697
        82 -10.1429    163.4625    183.5601   3.3149540744e+01   1.3447589163e+01    0.3046013    0.1847911 -55.10  0.001519126    1.993    0.498
        83 -10.5125     94.6715    181.7200   4.9189892905e+01   2.3902684846e+01    0.4282585    0.2621686 -61.03  0.002025291    1.745    0.427
        84 -11.3038     25.7261    183.3719   6.8745741794e+01   3.1814669801e+01    0.3517657     0.219855  33.45   0.00181037    1.457    0.314
        85  -8.9745    205.4982    183.4810   2.5260301474e+01   7.8065413050e+00    0.1206281   0.09877748 -18.50 0.0003378269    1.031    0.030
        86  -9.4063    105.2292    182.9634   4.6606700057e+01   2.2101930633e+01    0.1806527    0.1179323 -57.98 0.0006066397    1.632    0.387
        87  -9.3085    191.6599    178.2898   2.6767587311e+01   1.0452817315e+01    0.1099367    0.1012688 -88.23 0.0006784169    1.645    0.392
        88 -12.0046    128.0778    174.8328   3.9548168077e+01   2.0454406443e+01    0.4417992    0.3653307  82.78  0.002371872    1.613    0.380
        89  -9.3525     31.6607    176.6585   6.6506364735e+01   3.2936837582e+01    0.1431546     0.100505 -36.70  0.000704964    1.770    0.435
        90 -10.0335    106.8862    175.1743   4.4946455442e+01   2.3613450428e+01    0.2164394    0.1913076  58.49 0.0006388966    1.217    0.178
        91 -11.2187     91.5054    170.9473   4.8417147283e+01   2.6892274546e+01    0.4753143    0.2674172 -54.37  0.001696477    1.807    0.446
        92 -10.2350     80.3908    173.2726   5.1886589616e+01   2.7923730685e+01    0.3130977    0.2283775  17.55  0.001447677    1.470    0.320
        93 -10.8098    159.2034    170.6034   3.1720084111e+01   1.6517598985e+01    0.3945935    0.2410538 -20.42  0.001185239    2.070    0.517
        94 -10.2259    143.1647    172.5074   3.5590835690e+01   1.8608158267e+01      0.35686     0.110558  42.95  0.001183978    3.619    0.724
        95 -10.5626    152.9611    170.3585   3.3015518165e+01   1.7523963198e+01    0.2118886    0.1842599 -50.52 0.0004004867    1.241    0.194
        96  -9.8983    197.4866    170.0000   2.4239548563e+01   1.1045916209e+01    0.2506252    0.0698235  38.15 0.0009381957    3.963    0.748
        97  -9.5698     28.6679    168.7071   6.6727102695e+01   3.5275577796e+01    0.1390638    0.1035458 -35.43 0.0003130198    1.634    0.388
        98 -10.7116     18.6507    166.8929   6.9641894941e+01   3.6657898961e+01    0.2866685    0.1023418 -67.99   0.00110372    2.569    0.611
        99  -9.3148     61.7955    177.4138   5.7766112870e+01   2.9364045612e+01    0.1929064      0.13603  13.09 0.0006948037    1.595    0.373
       100  -9.5076    110.5077    165.4194   4.2343347930e+01   2.5288009737e+01    0.1432885    0.1374456  17.10 0.0001495966    1.016    0.016
       101 -10.8201      8.2137    163.5883   7.2621558972e+01   3.8354055430e+01    0.2608962    0.1162441  26.32  0.001138166    2.121    0.529
       102 -10.9586    170.2096    160.4536   2.7535196790e+01   1.6750452550e+01    0.2733794    0.1996114 -16.50  0.001478827    1.479    0.324
       103 -10.6728      5.2896    160.5514   7.3348317795e+01   3.9360417941e+01    0.3116245    0.1887827 -38.43  0.001247481    2.061    0.515
       104  -9.2787     37.4797    160.5677   6.3208024121e+01   3.6526565489e+01    0.1430454    0.1320991  65.77 0.0001577722    1.011    0.011
       105 -10.5967     25.2095    160.0167   6.7046940650e+01   3.7886886332e+01    0.2153755    0.1874434 -47.73 0.0006437186    1.282    0.220
       106 -10.9664     20.7380    155.2378   6.8068054437e+01   3.9562229635e+01    0.2509845    0.2324532  45.88 0.0007917521    1.100    0.091
       107  -9.2024    141.4556    155.5193   3.2775410854e+01   2.2408161492e+01    0.1403773      0.13421 -22.18 0.0001138754    1.024    0.023
       108  -9.6036     42.6648    154.6996   6.0883353295e+01   3.7524430029e+01    0.1486544    0.1085326 -32.79 0.0002790564    1.657    0.396
       109  -9.7358     13.6209    154.1974   7.0292771921e+01   4.0427932227e+01    0.1959425    0.1169781 -67.88 0.0003658264    1.601    0.375
       110 -10.5349      1.4065    153.6024   7.4187079603e+01   4.1455109797e+01    0.3455719    0.1763821  84.12  0.001569679    1.843    0.458
       111 -11.7312      4.9451    150.0053   7.2834122273e+01   4.2181864119e+01    0.3220558    0.2853047 -22.86  0.001372302    1.337    0.252
       112 -10.0389    143.8040    152.7908   3.1688855419e+01   2.2586396061e+01    0.1849426    0.1688552 -86.91 0.0003197325    1.309    0.236
       113 -10.8928     13.2674    159.8527   7.0810802366e+01   3.8950648028e+01    0.3841866     0.158604 -58.96  0.001100286    2.402    0.584
       114  -9.7510     74.7268    150.6196   5.0055000055e+01   3.4433228945e+01    0.2620547    0.1822188  85.59 0.0009065985    1.765    0.433
       115 -12.4190     21.1796    149.3293   6.7403733751e+01   4.1116389814e+01    0.4574814    0.3510993  31.82  0.002451871    1.307    0.235
       116 -10.0280     84.3780    149.9100   4.6975415908e+01   3.3159242718e+01    0.2747879     0.226267  19.70 0.0007922914    1.296    0.228
       117 -10.0524    108.9338    148.8837   3.9695117538e+01   2.9414317979e+01    0.2572902    0.2176631 -58.78 0.0006468286    1.203    0.169
       118  -9.3484     96.1927    148.8189   4.3277890279e+01   3.1550581465e+01    0.2041012    0.1761343 -19.95 0.0004143287    1.302    0.232
       119  -9.2117    147.0018    145.0139   2.9365518546e+01   2.3663192629e+01    0.1713755    0.1576075 -34.49 -0.005334738    1.030    0.029
       120 -11.1494    102.5964    142.3412   4.0168961288e+01   3.2063888270e+01    0.4313687    0.3091307  73.25 0.0004260078    1.864    0.463
       121  -9.3916     50.6596    142.3258   5.6574500912e+01   3.9912401459e+01    0.1646604    0.1046964  61.03 0.0007051326    1.731    0.422
       122 -11.3496     10.8466    141.9006   7.0281485311e+01   4.3960857376e+01     0.223739     0.181977 -53.28  0.001234754    1.299    0.230
       123  -9.6578    164.7899    141.1741   2.4737138433e+01   2.1343337045e+01    0.1938478    0.1841515 -58.71  0.000654217    1.152    0.132
       124  -9.2630     47.4374    141.5292   5.7557582328e+01   4.0523278025e+01    0.1497559    0.1386362  75.14 0.0004409793    1.029    0.028
       125 -10.1830     96.9395    138.1831   4.0969723173e+01   3.4051340794e+01    0.2452328    0.2150683 -56.55 0.0002613207    1.136    0.119
       126 -11.0285      1.8227    137.5280   7.3098162422e+01   4.5749380773e+01    0.3917063    0.1458881 -73.83  0.001332016    2.347    0.574
       127 -10.4648     68.7186    137.0587   4.9629484398e+01   3.8866022837e+01    0.2569617    0.2109455  38.23 0.0003751414    1.207    0.172
       128  -8.7822    123.3095    135.2647   3.3017080371e+01   3.0047800530e+01    0.1457869    0.1171463  -7.19 0.0002149257    1.535    0.348
       129 -11.5883     13.3440    133.9304   6.8724254847e+01   4.5961537340e+01    0.3786446    0.1651986 -81.20  0.001187525    2.181    0.541
       130 -12.0626     19.2971    131.8463   6.6351408926e+01   4.6068508615e+01    0.5395155    0.2682896  36.78 0.0005829626    1.930    0.482
       131 -13.3516      9.7674    125.4953   6.9273571775e+01   4.8544780204e+01    0.8787215    0.3266987 -71.93  0.003368326    2.341    0.573
       132 -13.1281     14.9678    120.4191   6.6759376514e+01   4.9579042603e+01     0.630097     0.414034  72.99  0.003033476    1.558    0.358
       133  -9.6953     68.3062    130.7105   4.8589584556e+01   4.0609403267e+01    0.1578659    0.1140534  65.32 0.0003008556    1.573    0.364
       134 -10.2148     50.3202    130.5556   5.4851791904e+01   4.3155615483e+01    0.2008663    0.1499565   8.62 0.0009411658    1.577    0.366
       135  -9.7533    121.5037    128.0326   3.1870238685e+01   3.2032155223e+01    0.2297169    0.1463566 -52.37 0.0005282582    1.551    0.355
       136 -12.0704      2.6349    124.8221   7.1908459144e+01   4.9177297526e+01    0.5683555    0.2353195 -54.10   0.00229589    2.340    0.573
       137 -10.5847     56.5514    126.4826   5.1908003276e+01   4.3436790329e+01    0.3041071    0.1497505  28.94 0.0007968648    2.063    0.515
       138 -10.7237     27.0082    125.5085   6.2726495351e+01   4.7143636618e+01    0.2697012    0.1500973  13.78  0.001144153    2.061    0.515
       139 -11.6651     22.7190    123.7995   6.4148323895e+01   4.8008423125e+01    0.4350284     0.225818  62.77  0.000646397    2.208    0.547
       140 -12.3002     25.0410    119.6085   6.2706432555e+01   4.8965034616e+01    0.7211668    0.4081335  46.44  0.003186216    1.802    0.445
       141  -8.9507    105.3151    121.2809   3.4784418099e+01   3.6668241493e+01      0.15166    0.1224089 -10.39 0.0005148699    1.574    0.365
       142  -9.8460     95.8666    119.2655   3.7142323109e+01   3.8916179591e+01    0.2307901    0.2069343  83.01  0.001176463    1.186    0.157
       143 -10.8318     82.3251    116.0820   4.0747834824e+01   4.2142285819e+01     0.386135    0.3176952 -65.78 0.0002547667    1.224    0.183
       144  -9.5305     49.4813    123.9132   5.4024903248e+01   4.5076799195e+01    0.2119604    0.1452771 -67.36 7.317247e-05    1.414    0.293
       145  -9.9686     71.2025    118.2276   4.5043492859e+01   4.3453218297e+01    0.2169684    0.1788698  73.03 0.0004465626    1.326    0.246
       146  -9.4295    201.6566    114.1149   1.2394979075e+01   1.9880182266e+01      0.18083    0.1408097 -37.81 0.0003780644    1.092    0.084
       147  -9.7345     73.8662    114.1446   4.3198307386e+01   4.4081243684e+01    0.2082931    0.1837118 -17.64 0.0003794253    1.293    0.227
       148 -10.9105     12.0150    104.6195   6.6114124541e+01   5.4169378296e+01    0.5178813     0.294902   9.06  0.002344229    2.002    0.501
       149 -12.6163      7.7766    109.9133   6.8522961723e+01   5.2984999682e+01    0.6859016    0.4115642  28.28  0.003299524    1.723    0.420
       150 -10.5482      1.4612    103.5229   7.0547869760e+01   5.5099899422e+01    0.2637501    0.1914784 -79.15 0.0005867628    1.240    0.194
       151 -11.5838      7.5495     99.9355   6.7493905804e+01   5.5747792977e+01    0.6766799    0.3793019  19.58  0.003146813    1.899    0.473
       152 -11.7311      5.9810     94.9979   6.7600947679e+01   5.7191343768e+01    0.3837883    0.3166932  56.00  0.001313017    1.264    0.209
       153 -11.2737      1.6627    108.6066   7.0939321035e+01   5.3693423848e+01    0.5650491    0.1979803 -58.97 0.0008529679    2.454    0.593
       154 -11.3721     61.9811    109.3702   4.6436083471e+01   4.7232858271e+01    0.3589718    0.2594354 -49.58  0.001675802    1.378    0.274
       155  -9.0692    139.5214    107.4743   2.2437165046e+01   3.2960824620e+01    0.1491599    0.1391501 -64.30 0.0008092559    1.049    0.047
       156 -10.1519    167.0478    104.9113   1.6088168542e+01   2.7899092591e+01    0.2100801     0.186768 -46.77 0.0003858366    1.018    0.018
       157  -9.5327    104.8938    102.4929   3.0188307173e+01   4.1171909667e+01    0.2235167    0.1526714  43.83 0.0004728047    1.489    0.328
       158 -10.5142     56.0028    101.0733   4.6845438017e+01   5.0323055206e+01    0.3229243    0.2644867 -16.41 0.0005140404    1.440    0.305
       159  -9.8913     57.9893     97.7539   4.5250420272e+01   5.0889662610e+01    0.2150311    0.2037765  32.19 0.0006703651    1.086    0.079
       160  -9.5775     79.0504    101.5365   3.8292013633e+01   4.6385568098e+01    0.2378024    0.1512347  40.10 0.0007253083    1.579    0.367
       161 -10.1416     94.1911     98.2229   3.2318256105e+01   4.4311098455e+01    0.2186593    0.1828785  79.96  0.000494935    1.354    0.261
       162  -9.5496     98.4251     96.7685   3.0584423798e+01   4.3801199434e+01    0.2072238    0.1456789 -40.33 0.0003623269    1.493    0.330
       163  -9.1032     32.6535     97.3384   5.5876544686e+01   5.4342172034e+01    0.1611387    0.1056345  61.82 0.0007047648    1.781    0.439
       164 -10.1817     26.5460     92.4914   5.7688116459e+01   5.6284571484e+01      0.28866    0.2362749 -47.39 0.0007839812    1.192    0.161
       165  -9.1027     41.3308     91.7183   5.0823853300e+01   5.4823087433e+01    0.1536062    0.1103578  61.39 0.0003072312    1.608    0.378
       166 -10.2924     73.5260     90.0312   3.7163185708e+01   5.0218357421e+01    0.2406797    0.2073942  37.72  0.000660768    1.179    0.152
       167 -11.4358      4.0171     79.5348   6.6471197316e+01   6.1468882973e+01    0.3920371    0.2793751  49.63  0.002067254    1.534    0.348
       168 -10.7401      9.9013     82.1413   6.3873972211e+01   6.0428557580e+01    0.6109037    0.2721531 -80.97  0.002424664    2.351    0.575
       169 -11.7873      3.0906     87.9280   6.8078877144e+01   5.9266644926e+01    0.5275065    0.2857352 -84.87  0.001824919    1.802    0.445
       170 -11.4648      7.0284     86.9199   6.6032262870e+01   5.9323018220e+01    0.3466292    0.2893364  -6.95  0.001962075    1.307    0.235
       171 -11.1520     54.4664     85.3821   4.3476169291e+01   5.4599204528e+01    0.5159924    0.4654432 -49.75  0.002558254    1.089    0.082
       172  -9.4363    125.2309     87.0325   2.0356026862e+01   4.0204617927e+01    0.1981929    0.1219578 -43.75 0.0003186052    1.583    0.368
       173  -9.6468    189.8471     83.1201   7.1045475060e+00   2.7186253443e+01    0.1973686    0.1554879 -57.04 0.0002653994    1.159    0.137
       174 -10.5722     64.1636     81.6804   3.8366769528e+01   5.3910050390e+01    0.3067542    0.2658786 -41.19 0.0009143018    1.172    0.147
       175 -10.0888     89.0449     78.4991   2.8177530832e+01   4.9845623397e+01    0.2736005    0.2133467 -31.64 0.0005028296    1.445    0.308
       176 -11.4635      2.8594     72.3475   6.5981717377e+01   6.3424969756e+01    0.4073811    0.2360089 -29.41  0.001950589    1.820    0.450
       177  -9.1597    105.2341     72.8294   2.1355866970e+01   4.7521742749e+01     0.262285    0.1652648 -82.92 0.0009543074    2.834    0.647
       178 -10.0429     70.6314     69.8843   3.2005512786e+01   5.5449783462e+01    0.4009451    0.2497005 -23.71  0.001572162    2.468    0.595
       179 -10.1833     54.3983     69.8263   3.8816272623e+01   5.8390277422e+01    0.2184794    0.1314258 -42.84  0.000948689    1.712    0.416
       180 -11.0673     62.3854     68.1224   3.4762438126e+01   5.7389563914e+01    0.3080667    0.2725858  46.95 0.0004481661    1.140    0.123
       181 -10.0555     43.8162     66.8528   4.2816832024e+01   6.0754474148e+01    0.2162945    0.1904681 -18.98 0.0004044785    1.185    0.156
       182  -9.1756     54.7053     62.0277   3.6002447457e+01   6.0116195690e+01    0.1922269    0.1846122 -25.30 0.0004519619    1.038    0.037
       183  -9.2861     46.6825     62.7267   4.0036320898e+01   6.1282936366e+01    0.1449124    0.1109757 -13.54 0.0001523653    1.565    0.361
       184 -10.5855     12.4957     59.8576   5.7928176096e+01   6.6019214601e+01    0.3107169    0.2625198 -25.40 0.0008835929    1.158    0.137
       185 -11.0359     18.9109     60.4604   5.4288237722e+01   6.5325130937e+01    0.4762379    0.3203736  -9.26  0.002370745    1.686    0.407
       186 -11.2602     23.7591     56.6198   5.0318910282e+01   6.5771691006e+01    0.3605513    0.3185843 -29.95  0.001128191    1.080    0.074
       187  -9.5641     27.2053     60.3842   4.9506522619e+01   6.4485056513e+01     0.200785    0.1232553  36.15 0.0009482636    1.681    0.405
       188  -9.5393     42.3264     59.3144   4.1019010245e+01   6.2733540235e+01    0.1495214    0.1084075 -18.25 0.0007043217    1.669    0.401
       189  -9.9416     34.4172     59.1898   4.5138641052e+01   6.3880896049e+01    0.1950375    0.1373475 -70.40 0.0006506362    1.626    0.385
       190  -9.2481    153.0571     57.5207   6.0548040219e+00   3.9173715464e+01    0.1937674    0.1345648  66.47 0.0003533077    1.468    0.319
       191  -9.9699    110.4846     54.9810   1.3974441265e+01   4.9630107480e+01    0.2158329    0.1435761 -39.35 0.0006083578    1.533    0.348
       192 -10.4799     29.6335     55.2992   4.6484945701e+01   6.5403002767e+01    0.2171232    0.1625525  65.57 0.0008534482    1.745    0.427
       193  -9.1428    106.0322     51.0241   1.3721869776e+01   5.1356560460e+01    0.1733292    0.1610427  76.04 0.0009652978    1.027    0.026
       194 -10.8777     30.6797     49.9851   4.3990273133e+01   6.6485093453e+01    0.2854882    0.2228913  -5.00  0.001534658    1.390    0.280
       195 -10.1629     16.3813     49.6897   5.2653699526e+01   6.8158176428e+01    0.2773189    0.1960723 -42.42  0.001155745    1.319    0.242
       196  -9.8930     99.0044     48.5247   1.4693251471e+01   5.3437208440e+01    0.2939676    0.1878117 -63.96  0.001287327    1.981    0.495
       197  -9.7723     97.4846     45.4719   1.3966500830e+01   5.4299674287e+01    0.2077954    0.1959057  77.19 0.0006842583    1.004    0.004
       198  -9.9794    128.9034     46.1696   6.9017378395e+00   4.6630207887e+01    0.2646051    0.1978365 -34.19  0.000955797    1.412    0.292
       199 -11.1465     33.2864     40.2131   3.8503881550e+01   6.8225052396e+01    0.3088331    0.1796616  33.07  0.001352279    1.687    0.407
       200  -9.7618     80.4463     37.3563   1.5831258306e+01   5.9571371363e+01    0.3348235      0.13538 -39.11   0.00128684    2.551    0.608
       201  -9.4240    103.7015     37.6563   9.3709063953e+00   5.4017733220e+01    0.1424213    0.1096533  25.56 0.0007035333    1.672    0.402
       202  -8.9938     64.5319     33.5851   1.9902414128e+01   6.3701587093e+01    0.1383908     0.129114  43.90 -4.882132e-05    1.013    0.013
       203  -9.6219     42.3917     33.1731   3.0039398072e+01   6.8115984353e+01    0.1917534    0.1289254 -54.97 0.0009530355    1.768    0.434
       204  -9.8483     89.5156     31.0228   1.0400958493e+01   5.8389137374e+01    0.2037465    0.1391113 -34.94 0.0005645449    1.556    0.357
       205 -10.1861     77.6912     30.7656   1.3848560079e+01   6.1204852976e+01    0.2331439    0.1893902  60.96 0.0004893286    1.173    0.148
       206  -8.9450     61.5325     28.5038   1.8676631580e+01   6.5140138879e+01    0.1361147    0.1287427  49.42  0.000109017    1.043    0.041
       207 -10.8351     30.9659     31.6973   3.5970247738e+01   7.0261024650e+01    0.1959874    0.1683304  21.65 0.0009983233    1.110    0.099
       208  -9.0389      1.4701     25.4172   5.5104634849e+01   7.4828778184e+01    0.1240801    0.1103676 -22.53 9.585328e-05    1.036    0.035
       209  -9.6936    114.4537    248.9708   5.2823212739e+01   8.0380903449e+00    0.1494316    0.1192627 -54.27 0.0004798528    1.546    0.353
       210 -10.3783     70.0250     21.2318   1.1919310107e+01   6.4285165112e+01    0.2251299    0.1984926 -30.43 0.0006230819    1.229    0.186
       211  -8.9841     19.4850     23.5806   3.9646126615e+01   7.3417640680e+01    0.1288639    0.1145248  -1.65 0.0001792194    1.013    0.013
       212 -10.1953    132.8851     16.9623   3.5650385329e+02   4.9442007927e+01    0.1941878    0.1748203 -85.70 0.0003490282    1.056    0.053
       213  -9.9051     54.4848    249.5019   6.6052244892e+01   1.4461813889e+01    0.1206966   0.09595264  37.26 0.0008104967    1.002    0.002
