#   1 NUMBER                 Running object number                                     
#   2 MAG_AUTO               Kron-like elliptical aperture magnitude                    [mag]
#   3 X_IMAGE                Object position along x                                    [pixel]
#   4 Y_IMAGE                Object position along y                                    [pixel]
#   5 X_WORLD                Barycenter position along world x axis                     [deg]
#   6 Y_WORLD                Barycenter position along world y axis                     [deg]
#   7 A_WORLD                Profile RMS along major axis (world units)                 [deg]
#   8 B_WORLD                Profile RMS along minor axis (world units)                 [deg]
#   9 THETA_WORLD            Position angle (CCW/world-x)                               [deg]
#  10 FWHM_WORLD             FWHM assuming a gaussian core                              [deg]
#  11 ELONGATION             A_IMAGE/B_IMAGE                                           
#  12 ELLIPTICITY            1 - B_IMAGE/A_IMAGE                                       
         1 -12.2235    236.2743     46.6869   3.5601519031e+02   2.3363163010e+01     1.301131    0.7194029  42.54  0.001966135    3.117    0.679
         2 -11.2339    249.6266     36.1005   3.5289316368e+02   2.2316224455e+01    0.7577132    0.2203093 -31.59  0.003173178    2.941    0.660
         3 -10.2840    119.3200     10.2456   3.5812415462e+02   5.3900529101e+01    0.6278479    0.3610449  44.73   0.00299167    1.971    0.493
         4 -10.2166      2.7134      7.8313   5.0606627853e+01   7.8542842109e+01    0.5412402    0.2075174 -57.47  0.002446322    2.631    0.620
         5 -10.3815      8.8251      9.3123   4.5252455203e+01   7.7692392201e+01    0.2595851    0.2101506 -86.24    0.0015526    1.958    0.489
         6  -7.4290    212.5172      2.5735   3.4773652850e+02   3.2878615257e+01     0.119428   0.08826793 -59.80 6.124324e-05    1.029    0.028
         7  -8.6460     70.0572    228.7465   6.3837745430e+01   1.7258614896e+01    0.2692702    0.1475121 -45.82  0.001376989    2.321    0.569
         8  -9.5260    247.2553    249.8428   3.1648771326e+01  -5.2820859449e+00    0.2097274     0.104565  27.59  0.001476625    2.037    0.509
         9  -9.8293    237.6038    249.5437   3.3059047954e+01  -4.4367870596e+00    0.3029675    0.1300721  -2.76  0.001530935    3.299    0.697
        10  -8.9107     28.8161    248.4037   7.4434585227e+01   1.7746132055e+01    0.2265201    0.1715069 -75.80 0.0006668298    1.577    0.366
        11 -13.1226     10.1600    207.0525   7.7073382035e+01   2.7878573058e+01     4.803096    0.2544273  28.49   0.01546565    4.562    0.781
        12 -12.3365     10.2700    186.2531   7.6176835874e+01   3.2694133268e+01    0.9861813    0.7245142 -88.27  0.002030653    1.309    0.236
        13 -14.2426     22.1268    179.6326   7.2524079368e+01   3.3315021631e+01     6.649891     2.508576  70.26   0.02449971    3.159    0.683
        14 -10.9707      6.7633    229.3439   7.8621661645e+01   2.3407397663e+01    0.4401116    0.2719215  45.37  0.001054106    1.233    0.189
        15  -9.5971     63.7095    229.2678   6.5376592034e+01   1.7870208519e+01    0.2044967    0.1887382   3.76  0.000296605    1.242    0.195
        16  -8.3889     41.5508    229.2686   7.0593995329e+01   2.0226948322e+01      0.20417    0.1646041  85.20 0.0006319129    1.331    0.249
        17 -12.3379     11.6623    240.9350   7.7884802816e+01   2.0698828651e+01     1.187661    0.9164289  43.90  0.006215355    1.055    0.052
        18  -7.9357    156.5401    222.5053   4.3686498804e+01   7.7430905055e+00    0.1234911    0.1010171   6.64  0.000114045    1.015    0.015
        19  -9.8730     73.9121    220.1040   6.2149889474e+01   1.8542500541e+01    0.3549181    0.2656323  38.13    0.0021391    1.126    0.112
        20  -8.5057    238.9876    216.2280   2.8012408320e+01  -6.5472478848e-01    0.1321503   0.07641914  23.08 0.0008907895    1.699    0.411
        21  -9.6923     77.1971    198.4791   5.9110481309e+01   2.2748900620e+01    0.5690989    0.2721193 -82.99  0.002207624    3.272    0.694
        22 -10.0726     70.3829    198.6168   6.0908492956e+01   2.3572171752e+01       0.4305    0.2494999 -84.21  0.002025377    2.161    0.537
        23  -7.8336    249.6999    192.0054   2.2594175092e+01   1.3325294270e+00    0.1558877   0.07370082 -49.43 0.0007007011    4.042    0.753
        24  -8.7120     85.6908    187.6584   5.5556569915e+01   2.4069235666e+01    0.2879484     0.213463 -18.69   0.00146337    1.711    0.416
        25  -8.1791    110.7952    168.0600   4.5886604427e+01   2.4854355849e+01    0.2076691    0.1914263  70.24 0.0004652688    1.188    0.158
        26 -10.3402     44.3900    165.8592   6.4798496809e+01   3.4586523028e+01     0.392817    0.3109301 -19.33  0.001397324    1.582    0.368
        27  -9.5743    232.5130    166.4475   2.0690727850e+01   6.8027030320e+00    0.2255976   0.08894473 -29.40  0.001039751    2.443    0.591
        28  -7.4891     67.2434    167.0328   5.8039382997e+01   3.1504353646e+01    0.1744928     0.121788 -67.39 0.0002856916    1.476    0.323
        29 -10.2180     51.3739    161.0546   6.2108782883e+01   3.5027401365e+01    0.3074469    0.2806612  -5.90 0.0006792934    1.259    0.206
        30  -9.8425    237.5029    161.0382   1.8988360503e+01   6.9568868655e+00    0.1703617    0.1436981  -3.46 0.0008682788    1.184    0.155
        31  -9.1755     79.3456    161.0181   5.3577763890e+01   3.1336309214e+01    0.3286074    0.1462834  51.48  0.001166556    2.684    0.627
        32 -11.2727     77.5040    135.5829   4.9811077967e+01   3.8118124020e+01     1.162809    0.4667949 -55.85 0.0008756687    2.395    0.582
        33 -11.9604     60.1339    133.5833   5.5296469434e+01   4.1197133001e+01     1.282849    0.8293791  76.12  0.004417105    1.913    0.477
        34 -11.1865     68.1827    143.3995   5.4239143333e+01   3.7463206603e+01    0.7151748    0.4058551  32.35   0.00133695    1.714    0.417
        35  -8.5246    241.3146    152.3345   1.6865672772e+01   7.7229846500e+00    0.1194062   0.07628015 -11.71 0.0007046551    1.688    0.408
        36 -11.6623     48.8938    148.6758   6.1356791463e+01   3.8580743882e+01    0.5752064    0.4182204 -21.11  0.001167852    1.779    0.438
        37 -10.2751     24.6409    149.8663   6.9501747996e+01   4.0776538586e+01     0.324152    0.2962818  82.94 0.0009101064    1.039    0.038
        38  -7.8674    149.1797    143.9587   3.1642711135e+01   2.3592197085e+01    0.1910417    0.1726633 -33.94 0.0003406989    1.062    0.059
        39  -8.3010    249.3180    146.3740   1.4708726542e+01   7.5497064993e+00    0.1199914   0.07430293 -12.54 0.0007031381    1.801    0.445
        40  -8.8406     89.8741    137.2227   4.6192380386e+01   3.5699041568e+01    0.2693551    0.2544881  64.04  0.001422969    1.055    0.052
        41  -9.0549     34.3899    133.5166   6.4401237901e+01   4.4289533512e+01    0.3113908    0.1574014  54.13  0.001255014    2.117    0.528
        42 -11.4382     54.4622    125.3778   5.5894011723e+01   4.4176624875e+01     1.577593    0.7296227  76.23  0.004010097    5.643    0.823
        43 -10.9511     63.6947    153.5425   5.7252148460e+01   3.5427571627e+01    0.9007078     0.794471  -1.48 0.0004326192    1.296    0.229
        44 -11.5005     71.1587    147.6157   5.3972769853e+01   3.5935648762e+01    0.9649615    0.5138126 -73.44  0.002978783    2.156    0.536
        45  -8.4205    104.2923    128.0619   3.9872298222e+01   3.5443574999e+01    0.3436404    0.2282997  17.39  0.001341423    1.988    0.497
        46  -8.5165     90.6104    123.8404   4.3144377581e+01   3.8952967413e+01    0.2819688    0.2181713  48.00 0.0008145997    1.305    0.234
        47  -7.9935     77.9150    124.3852   4.7444310711e+01   4.0968722133e+01    0.2083241    0.1903752  31.67  0.001075724    1.120    0.107
        48  -8.1651    103.0689    117.5013   3.7782092904e+01   3.8231106340e+01    0.2159198    0.2060181 -55.90 0.0003824735    1.041    0.039
        49  -9.9367     51.7012    111.8692   5.4426771987e+01   4.8212375540e+01    0.5737035     0.321534 -70.27  0.002370118    1.827    0.453
        50  -9.8744     53.5248    104.7449   5.2232868495e+01   4.9887690484e+01    0.6093654    0.2618384 -51.84 0.0005744697    2.226    0.551
        51  -7.5525     63.9740    106.0016   4.8415951148e+01   4.8017247384e+01    0.1826358    0.1777969 -83.01  0.000349732    1.002    0.002
        52  -7.8657     73.6830    105.3718   4.4626911073e+01   4.6605572645e+01    0.1669077    0.1196142  74.78 0.0007033786    1.792    0.442
        53  -9.0318     37.2049    102.8352   5.8594852255e+01   5.2443048469e+01    0.3643581    0.1863767  65.67  0.001301402    2.838    0.648
        54 -12.5978      4.7797    221.8036   7.8854608789e+01   2.5124857870e+01     2.183601     0.755542  25.00  0.006257623    2.468    0.595
        55  -9.7889      2.7452    101.1005   7.3260483412e+01   5.5630187806e+01     0.391905    0.2470469  53.88  0.001326014    1.640    0.390
        56  -7.9413    106.9442     95.7145   3.0894964914e+01   4.2571804029e+01    0.2072839     0.192911  58.15 0.0002577094    1.080    0.074
        57  -9.4970      4.1848     89.3270   7.1400939219e+01   5.8767054246e+01    0.4697881      0.20676  39.08  0.001431841    2.382    0.580
        58  -7.6246     56.5354     87.5244   4.6820689577e+01   5.3974381784e+01    0.1504592    0.1463492 -83.29 -8.656408e-06    1.032    0.031
        59  -8.4721    147.9549     84.9947   1.7423539100e+01   3.5756155485e+01    0.2154246    0.2006357 -60.45 0.0002945612    1.010    0.010
        60  -9.1346      3.1372     80.4173   7.0839837924e+01   6.1214690205e+01     0.359311    0.1469079 -87.37  0.001381617    2.574    0.611
        61  -8.4810     58.6269     76.6970   4.2799139554e+01   5.6351276268e+01    0.1586846    0.1168715 -15.12 0.0007030638    1.757    0.431
        62  -8.1233    191.0866     61.8886   4.0549953877e+00   3.0120364192e+01    0.1941016    0.1521448 -57.67 0.0003671514    1.137    0.121
        63  -9.7044    207.2977     60.8216   1.8794363702e+00   2.6953078950e+01    0.2690316    0.1615416 -54.37  0.001448154    1.513    0.339
        64 -12.1697    228.3049     51.9249   3.5779766186e+02   2.4139787011e+01    0.8508273    0.7251284 -67.21  0.005490668    1.158    0.137
        65  -7.7723     42.0805    247.6914   7.1509021725e+01   1.6604069326e+01    0.1599703    0.1233744  38.78 0.0004982589    1.034    0.033
        66 -11.9930     19.5500    219.9790   7.5320153263e+01   2.4257040888e+01     1.182988    0.5208809  26.57  0.003864181    1.965    0.491
        67  -7.8845     77.1161     40.1017   2.1271294174e+01   6.0407698357e+01    0.1883957    0.1674344  86.95  0.000335762    1.259    0.206
        68  -7.4071    101.0236     39.0067   1.3293985769e+01   5.4949874675e+01    0.1710311    0.1636874  80.71 0.0004722748    1.019    0.018
        69  -7.0346    108.3111     33.2916   9.2059942449e+00   5.3978866109e+01    0.1432788    0.1073409  33.51 0.0007000768    1.587    0.370
        70  -7.9889     99.6153     30.1362   1.0049039901e+01   5.6579039251e+01    0.1889227    0.1781886 -42.41 0.0004878082    1.128    0.113
        71  -8.4297     83.7502     28.9846   1.4023484354e+01   6.0603345670e+01    0.2310642    0.1886814  58.67 0.0003807724    1.150    0.131
        72  -7.7272    141.8503     42.1421   5.6576767215e+00   4.4362763563e+01    0.1853275    0.1641289  45.63 0.0004175751    1.288    0.224
        73  -7.8647    215.0092     20.2716   3.5166580632e+02   3.0528053717e+01     0.157042    0.1291163 -67.89 0.0004109945    1.107    0.097
        74  -8.1913     99.0473     13.8664   3.2412770786e+00   5.8691663062e+01    0.2059342     0.168567 -78.42 0.0002519824    1.252    0.201
        75  -8.9733     37.4371    233.4156   7.1787065821e+01   1.9805364069e+01    0.3243099    0.1641411  78.00   0.00167745    2.277    0.561
        76  -8.2744     48.1339    233.5999   6.9326559810e+01   1.8686949879e+01    0.1946107    0.1445614  72.74  0.001058608    1.397    0.284
        77  -9.5087     94.0673    242.8099   5.9603706807e+01   1.1873083558e+01    0.3857321    0.2040791 -70.08  0.001589357    2.590    0.614
