#   1 NUMBER                 Running object number                                     
#   2 MAG_AUTO               Kron-like elliptical aperture magnitude                    [mag]
#   3 X_IMAGE                Object position along x                                    [pixel]
#   4 Y_IMAGE                Object position along y                                    [pixel]
#   5 X_WORLD                Barycenter position along world x axis                     [deg]
#   6 Y_WORLD                Barycenter position along world y axis                     [deg]
#   7 A_WORLD                Profile RMS along major axis (world units)                 [deg]
#   8 B_WORLD                Profile RMS along minor axis (world units)                 [deg]
#   9 THETA_WORLD            Position angle (CCW/world-x)                               [deg]
#  10 FWHM_WORLD             FWHM assuming a gaussian core                              [deg]
#  11 ELONGATION             A_IMAGE/B_IMAGE                                           
#  12 ELLIPTICITY            1 - B_IMAGE/A_IMAGE                                       
         1 -12.5132    166.5853     51.1657   6.3653921262e+01   3.6366470975e+01     1.264019     1.022573  -5.81  0.004060767    1.342    0.255
         2 -12.8520    182.6001     21.8832   5.1629324957e+01   3.5867521318e+01      1.07383     1.021424  47.68  0.004299839    1.095    0.087
         3 -10.4097    171.3490      4.5593   4.7111923237e+01   4.0553408821e+01    0.3474695    0.2541597  -2.30 0.0006054211    1.521    0.342
         4 -10.0044    179.3064      4.9871   4.6437489538e+01   3.8392045544e+01    0.1995746    0.1859066 -19.61  0.001149471    1.105    0.095
         5  -9.7509    120.1053      9.1366   5.6388788057e+01   5.3962544392e+01    0.4370684    0.3576506  33.70  0.001770255    1.222    0.182
         6  -8.5709    138.0089      4.0551   5.1132790915e+01   4.9646790072e+01    0.2101219    0.2045714  20.86 0.0003332917    1.043    0.042
         7  -9.5690    141.1767    181.2178   1.0024312653e+02   1.9429421214e+01    0.2266235    0.1962142 -58.31 0.0003731519    1.401    0.286
         8 -18.8533     60.5320    224.3851   1.2089124270e+02   2.3617904591e+01     4.282356     3.785606  76.46   0.01635781    1.285    0.222
         9  -9.5813    226.4610    187.3118   8.5646673702e+01   4.9034998391e+00    0.2448156    0.1613039  37.17 0.0002081357    1.417    0.294
        10 -10.5891    165.5672    184.6219   9.5934171554e+01   1.4908144226e+01    0.3365059    0.3236488 -11.68  0.001281847    1.233    0.189
        11 -10.2830    129.5520    186.3586   1.0337417495e+02   2.0458440713e+01    0.2590762    0.2001086  75.55 0.0007906079    1.641    0.390
        12  -9.6942    125.1344    185.8989   1.0422402421e+02   2.1226480883e+01    0.2203557    0.1560255  43.72 0.0008042119    1.188    0.159
        13  -9.6969    195.4918    183.9122   9.0290376314e+01   1.0123729748e+01    0.2244984    0.1922865 -25.43  0.001211189    1.355    0.262
        14  -9.1097      5.5759    226.8765   1.3092755635e+02   2.8742950262e+01    0.1889292    0.1104933  83.58  0.001474953    1.549    0.354
        15  -7.9387     98.8376    249.9785   1.1582120285e+02   1.5317834589e+01    0.1213057   0.09531482  47.86 0.0003439515    1.117    0.105
        16  -9.5748    117.4553    233.3956   1.1113588145e+02   1.5154491261e+01    0.1677487    0.1548301  59.06   0.00025047    1.267    0.211
        17  -9.4344    227.0820    182.4798   8.4714007011e+01   5.3382291283e+00    0.1878489    0.1488482 -13.05 0.0003294043    1.263    0.208
        18 -11.3553    149.8705    178.1826   9.8005539376e+01   1.8479017748e+01    0.4826553    0.3163624 -59.56  0.001439186    2.101    0.524
        19 -10.3134    227.3208    177.7496   8.3842029762e+01   5.8270966539e+00    0.2185695    0.1573021  21.69  0.000548036    1.140    0.123
        20 -10.0663    195.3919    174.5317   8.8685790888e+01   1.1354289484e+01     0.215896    0.2041138  18.40 0.0002742697    1.269    0.212
        21  -8.8802    193.2002    170.5999   8.8376876203e+01   1.2247026249e+01    0.1869038    0.1405799  27.73 0.0005393495    1.137    0.121
        22 -10.0512    159.5889    173.1178   9.5224969869e+01   1.7630822721e+01    0.2990389    0.2307818 -88.69  0.001651398    2.156    0.536
        23 -10.7758    124.7162    172.2002   1.0234768362e+02   2.3636782778e+01    0.3707964    0.3077312  24.88  0.001260044    1.249    0.199
        24  -9.7551      1.7361    178.4840   1.3024204046e+02   3.7580452507e+01    0.1841538    0.1254186 -78.00  0.001127347    1.497    0.332
        25  -9.4292     24.9843    165.7525   1.2450438404e+02   3.8100409545e+01    0.2777562    0.2161777 -22.45  0.001766824    2.077    0.519
        26 -10.1169     19.0261    167.0284   1.2594744667e+02   3.8389106896e+01     0.290192    0.2101119  70.56  0.001105811    1.092    0.084
        27  -9.4295     21.0203    162.9792   1.2525307612e+02   3.9035760488e+01    0.2245565    0.1990006 -33.64 0.0008751975    1.629    0.386
        28  -9.1849    188.0887    164.1451   8.8130287495e+01   1.4018354188e+01    0.2494657    0.1791085 -38.15 0.0006772492    1.576    0.365
        29 -10.0720    125.1291    162.9506   1.0081445887e+02   2.5222478096e+01    0.2773545    0.2204381  62.95 0.0004334312    1.336    0.251
        30  -9.0534     22.9862    157.0647   1.2441482851e+02   4.0085435003e+01    0.1834086     0.138446  54.85 0.0003786932    1.151    0.131
        31  -8.5937     14.1826    163.2122   1.2685073713e+02   3.9590124920e+01    0.1619992    0.1449296  46.89 0.0004676676    1.297    0.229
        32  -9.3106     17.2201    159.8215   1.2595682784e+02   4.0026268070e+01    0.2301021    0.2042052 -89.48 0.0009027377    1.240    0.194
        33  -9.0465     18.1317    155.8656   1.2550556566e+02   4.0772222234e+01    0.2516814    0.1539668  67.58  0.001436392    1.365    0.267
        34  -8.5490    215.4989    157.9710   8.2100958743e+01   1.0100574473e+01     0.180375    0.1415057  26.09 -5.308715e-05    1.130    0.115
        35  -9.5977    148.4687    156.6278   9.4632646549e+01   2.2269563228e+01    0.3503967    0.1150318  38.30  0.001266294    2.964    0.663
        36 -11.2999    153.3632    151.8633   9.2704827500e+01   2.2193083451e+01    0.6271182    0.4303728  84.95  0.002521915    2.939    0.660
        37 -12.0961    142.3064    145.7612   9.3933923469e+01   2.5307262736e+01    0.8013257     0.525856  66.27  0.003697543    2.148    0.534
        38 -12.0210    135.4004    125.6810   9.1380084987e+01   3.0384966322e+01     1.121896    0.3289561 -48.87  0.003550372    3.837    0.739
        39  -7.9966      6.1352    233.8329   1.3100600128e+02   2.7597739106e+01    0.1441657   0.07618065  57.95   0.00048347    1.288    0.224
        40  -9.8036    201.7047    222.9547   9.5201701576e+01   4.6785652361e+00    0.1502143    0.1185572  17.31 0.0009162941    1.107    0.096
        41  -8.8164    150.7269    229.5476   1.0477773616e+02   1.1096915406e+01    0.2004105    0.1360792 -51.46  0.001401549    2.031    0.508
        42  -8.8899     12.9582    144.7908   1.2610357687e+02   4.3569569464e+01     0.185667     0.170741 -61.46 0.0007577649    1.374    0.272
        43  -8.4109     16.6800    142.7337   1.2502419044e+02   4.3709598926e+01    0.1862347    0.1126169  21.36 0.0002285303    2.014    0.504
        44  -9.5650     10.3736    153.0803   1.2721331481e+02   4.2009165489e+01    0.3621141    0.2086689 -25.68  0.001814039    3.664    0.727
        45 -10.1865     32.5020    140.9684   1.2076723877e+02   4.2652712077e+01    0.3906846    0.2049168  13.23  0.001849667    3.042    0.671
        46  -8.6545     15.0399    222.7988   1.2914167184e+02   2.8560808816e+01    0.1518218   0.08533579  54.89   0.00045685    1.235    0.191
        47  -8.4748     28.1151    136.8859   1.2156837802e+02   4.3984248957e+01    0.1482238    0.1371984 -59.73 0.0004424725    1.318    0.242
        48  -9.6497    165.9784    217.2745   1.0056211863e+02   1.0446357025e+01    0.1892999    0.1650112  16.80 0.0004866129    1.175    0.149
        49  -9.9068    161.8450    216.8666   1.0124962328e+02   1.1102534548e+01     0.219477    0.2066254  81.93 0.0004327503    1.484    0.326
        50 -10.1417    160.3649    128.6608   8.6421887760e+01   2.4852341129e+01    0.3003639    0.2647293  54.74  0.001704748    1.206    0.171
        51 -11.1103    137.2076    138.7582   9.3705278329e+01   2.7548590282e+01    0.6736831    0.2151076 -48.86  0.002330158    3.499    0.714
        52  -8.8447    125.2046    229.5290   1.0935464168e+02   1.4635013828e+01    0.3200085    0.1687777  29.66  0.001900353    1.792    0.442
        53 -10.2914    114.1550    117.5160   9.4859898204e+01   3.6129728691e+01    0.2677814    0.2364468 -62.05 0.0004708164    1.168    0.144
        54 -10.4558    106.1815    118.1727   9.7110749718e+01   3.7464424839e+01    0.2695467    0.1961183  43.00 0.0006328779    1.340    0.254
        55  -9.2478    152.6223    218.9271   1.0317610774e+02   1.2181576655e+01    0.2184091    0.1332348  26.95 0.0009000688    1.511    0.338
        56  -9.8984     32.4848    114.9909   1.1805945646e+02   4.8592370825e+01    0.2605945    0.1874521  73.30 0.0008151581    1.298    0.230
        57  -9.6195    168.1516    113.9883   8.1356109961e+01   2.5772172780e+01    0.3651621     0.287832 -81.66   0.00165257    1.857    0.461
        58 -10.4155    143.3667    152.3150   9.4940855439e+01   2.3941265188e+01    0.4112804    0.2651324 -54.93  0.001607436    1.856    0.461
        59  -8.1070    240.0478    210.4700   8.7294044392e+01   6.6023988351e-01    0.1467536   0.08400581  32.97 2.111383e-05    1.434    0.303
        60 -11.8527    118.2487    110.6435   9.2212825187e+01   3.6775499480e+01    0.7017049    0.3518723  54.33  0.002761281    2.304    0.566
        61 -10.1927    204.2598    199.5346   9.1315800758e+01   6.8726913216e+00    0.2591488    0.1444252 -31.36   0.00155206    2.012    0.503
        62  -8.4333    159.4866    108.1068   8.1729639080e+01   2.8657836066e+01     0.209476    0.1870538  39.19 0.0003906089    1.093    0.085
        63 -10.4139    121.9507    104.8988   8.9846447860e+01   3.7222851177e+01    0.3605193    0.2236349 -42.21 0.0009641132    1.660    0.398
        64  -9.9507     41.1809    106.0912   1.1414076081e+02   4.9810243745e+01    0.2646421    0.1907948  11.28 0.0007987398    1.852    0.460
        65 -14.1169     31.3423    248.1355   1.2721136773e+02   2.3101061091e+01    0.2519237    0.2282629  62.74  0.001251593    1.431    0.301
        66  -9.3794    215.9365    103.2100   7.0016602861e+01   1.7329866893e+01    0.2133088    0.1797886 -13.43 0.0003684405    1.078    0.073
        67  -9.1261    238.2548    192.5284   8.4677575353e+01   2.6387177807e+00    0.1777986    0.1651351  -7.88 0.0007257816    1.566    0.361
        68 -10.0007    152.9311    186.0940   9.8621705260e+01   1.6754184685e+01    0.3185744     0.215134  13.08  0.001477034    1.851    0.460
        69  -9.4280     97.7230     98.6198   9.4967511598e+01   4.3265423901e+01      0.27149    0.1735367 -41.70  0.001247124    1.663    0.399
        70 -12.0498    143.3091    173.9382   9.8674264645e+01   2.0259982543e+01    0.8723871    0.4594681  45.15  0.004396941    1.693    0.409
        71  -9.3980     91.1800     95.1581   9.6054346356e+01   4.5219471019e+01      0.31206    0.1988651  46.88  0.001106924    1.600    0.375
        72 -10.0300     65.9116     94.7430   1.0396925329e+02   4.9400998185e+01    0.5376252    0.1958033  38.98   0.00206036    2.746    0.636
        73  -8.3742      8.2658     93.0219   1.2343503242e+02   5.5756951854e+01    0.1678121    0.1352251 -83.14 0.0003889677    1.031    0.030
        74  -9.1147    103.5666     86.6075   9.0074309209e+01   4.4762865735e+01    0.3139921    0.2368246  72.90 0.0001365671    1.656    0.396
        75 -10.2367     27.5211     86.7463   1.1580917649e+02   5.5809588313e+01    0.5543507    0.2569025  15.15  0.002452046    3.015    0.668
        76  -8.9452    160.9774     81.9461   7.4299253931e+01   3.2886951032e+01    0.2343094    0.1837198 -71.86 0.0004991314    1.643    0.391
        77 -11.9505    139.2325    168.2487   9.8610059381e+01   2.1900759490e+01    0.8825936    0.5006918  18.02  0.003602981    2.940    0.660
        78 -11.9971    154.5334     65.0085   7.0476232508e+01   3.7280824302e+01    0.9781675    0.6503201  47.94  0.002500442    1.511    0.338
        79 -10.3364    148.4097    191.2746   1.0027926169e+02   1.6699984662e+01    0.3746331      0.29912 -72.66  0.001376523    1.776    0.437
        80 -10.2074    118.2409     65.3190   7.9275399869e+01   4.5949449165e+01    0.2635401    0.2480952 -13.57 0.0003153756    1.084    0.078
        81  -9.7445    143.5179    185.0338   1.0033839373e+02   1.8442762798e+01    0.3281327    0.2226031 -75.06  0.001746308    2.480    0.597
        82  -9.0893    109.6999     60.2368   7.9921135304e+01   4.8847688917e+01    0.4896574    0.2105781  59.64  0.001581231    3.291    0.696
        83  -8.6176    214.3907     54.9771   5.7605191445e+01   2.4068493140e+01    0.3113492    0.1282939 -25.05  0.001208938    2.274    0.560
        84 -11.2012    171.7694     42.7239   6.0003507826e+01   3.6197654557e+01    0.4896745    0.4668282  51.52 0.0008490575    1.069    0.064
        85  -9.2296    101.6686    243.9677   1.1486456483e+02   1.5765308174e+01    0.1678788    0.1247541 -87.17  0.001313992    1.743    0.426
        86 -10.4703    212.7396    242.7150   9.6069768445e+01   1.2840132097e+00    0.3538482    0.1154983  42.04  0.001833097    2.713    0.631
        87  -8.4661    135.8416    238.9997   1.0841771517e+02   1.1957869071e+01    0.1644233    0.1067749  19.43 0.0008490302    1.753    0.429
        88  -9.1944    129.8516    237.2342   1.0929475884e+02   1.2986952439e+01    0.1437853    0.1050954  42.01 0.0002744082    1.059    0.055
