#   1 NUMBER                 Running object number                                     
#   2 MAG_AUTO               Kron-like elliptical aperture magnitude                    [mag]
#   3 X_IMAGE                Object position along x                                    [pixel]
#   4 Y_IMAGE                Object position along y                                    [pixel]
#   5 X_WORLD                Barycenter position along world x axis                     [deg]
#   6 Y_WORLD                Barycenter position along world y axis                     [deg]
#   7 A_WORLD                Profile RMS along major axis (world units)                 [deg]
#   8 B_WORLD                Profile RMS along minor axis (world units)                 [deg]
#   9 THETA_WORLD            Position angle (CCW/world-x)                               [deg]
#  10 FWHM_WORLD             FWHM assuming a gaussian core                              [deg]
#  11 ELONGATION             A_IMAGE/B_IMAGE                                           
#  12 ELLIPTICITY            1 - B_IMAGE/A_IMAGE                                       
         1 -11.2701    248.8238      4.5798   2.4340041892e+01   2.5294093474e+01    0.6379503    0.2437477 -44.01  0.002925298    2.076    0.518
         2 -14.0339    240.9382    107.1006   4.4635415284e+01   1.2549446042e+01     5.243042     1.101783 -40.21   0.01251091    4.017    0.751
         3 -14.8086    240.9531     64.7012   3.6125965897e+01   1.9216214617e+01       3.1002     1.900827  56.91   0.01816923    1.913    0.477
         4 -10.9762    205.7249     33.3600   3.3280397162e+01   3.0556188415e+01    0.8596787    0.3795754 -25.71  0.001983879    3.382    0.704
         5 -13.4488    219.5490     30.2906   3.1291360248e+01   2.8040514550e+01     2.544059    0.9501715 -45.47   0.01237225    2.269    0.559
         6 -13.5543    248.7028     37.7850   3.0278739445e+01   2.1447949194e+01     1.872352    0.6184862 -35.24  0.004986838    3.150    0.683
         7 -11.8961    169.7316     59.4264   4.4346624358e+01   3.5095858772e+01     1.284909    0.6488502 -58.79  0.005222385    2.562    0.610
         8 -10.1381    203.4137     20.3013   3.0685013907e+01   3.2585493161e+01      0.47172    0.3312923 -11.36  0.002631083    2.328    0.571
         9 -10.5975    203.1376     11.5436   2.8845196296e+01   3.3589943164e+01     0.728415    0.3743778 -13.55  0.002623355    4.375    0.771
        10 -10.7233    142.7484     11.3110   3.5521841472e+01   4.7255350041e+01    0.8149089    0.3378034 -16.87   0.00295924    3.708    0.730
        11 -13.1566    242.0522     20.2940   2.7559198286e+01   2.4808820465e+01     1.693916    0.8851341 -21.53   0.00801699    3.810    0.738
        12 -11.3457    119.2957      9.8297   3.8886093875e+01   5.2855045585e+01    0.6778263    0.4102111  58.87  0.002417263    1.345    0.257
        13 -10.7404    134.9986     18.2280   3.8743897909e+01   4.8420382162e+01    0.4618183    0.2840647   0.32  0.002282512    2.548    0.607
        14  -8.7463    156.4247     10.1538   3.3358227249e+01   4.4173976739e+01    0.3109889    0.2130816  -2.81  0.001758661    2.194    0.544
        15  -8.3538    220.0489     10.3301   2.7255689581e+01   3.0211022207e+01    0.1640474    0.1445782  66.20 0.0008724385    1.444    0.307
        16  -9.6694    114.6281      4.8234   3.8107040111e+01   5.4340008380e+01    0.3290663    0.1980291 -89.63  0.001293911    2.072    0.517
        17  -9.0064    232.8947      4.9190   2.5351218184e+01   2.8244383631e+01    0.2464863    0.2213973  67.51  0.001953832    1.518    0.341
        18  -9.4023    209.8541      4.3031   2.6815030292e+01   3.2918105211e+01    0.2046813    0.1815148 -13.38 0.0008631859    1.678    0.404
        19  -8.9204    228.1478      5.8767   2.5835924411e+01   2.9067483248e+01    0.2023327    0.1585759  81.94  0.000583261    1.272    0.214
        20  -7.8225    171.4824      1.9838   2.9616355398e+01   4.1465775150e+01    0.1656677   0.07486636 -55.59 0.0008070989    2.346    0.574
        21  -9.0370    235.7081    197.0218   6.3245748335e+01  -2.2803079572e+00    0.2337749     0.185002  23.88 0.0008176622    1.386    0.279
        22  -9.2621     21.0950    200.6233   1.1460024598e+02   2.8429986432e+01    0.2211458    0.1766028 -74.10 0.0004353535    1.189    0.159
        23  -9.1077    191.0968    191.5294   7.0852982093e+01   5.3128762763e+00    0.5916731    0.3053305 -61.19  0.001966348    4.204    0.762
        24  -9.7571    221.8761    186.4248   6.3737901854e+01   1.5007328370e+00    0.3119887    0.2387907  44.97  0.001504022    1.676    0.403
        25  -8.7561     23.9592    185.0541   1.1253711412e+02   3.2001471579e+01    0.1917177    0.1704673 -88.86  0.001190513    1.037    0.036
        26  -9.5660    221.3809    176.3559   6.1855339429e+01   3.4004944593e+00    0.4771704    0.2603525 -58.92  0.001879178    3.246    0.692
        27  -9.9753    237.2298    174.9398   5.8780208608e+01   1.2973142590e+00    0.2979849    0.2693647  86.15  0.001568388    1.695    0.410
        28  -8.6609    100.9941    176.0028   9.0107670792e+01   2.4336101792e+01     0.206425    0.2053356 -15.00            0    1.008    0.008
        29  -9.7324    228.3972    171.1640   5.9565787970e+01   3.2722011626e+00    0.3005133    0.1485626 -45.78  0.001380629    1.907    0.476
        30 -10.1425    230.1893    167.0415   5.8435424414e+01   3.7417526533e+00    0.4049434    0.2568437 -59.25  0.001940192    2.254    0.556
        31  -9.1916    193.8849    171.0225   6.6137802842e+01   8.9152028217e+00    0.4125538    0.2870927 -88.00  0.001580871    3.466    0.711
        32  -9.0643    249.1423    248.9781   6.9958141515e+01  -1.1749424319e+01     0.264722    0.1291915 -19.79  0.001468517    1.892    0.471
        33 -12.0215    197.9092     87.5207   4.6636462108e+01   2.4251168157e+01     1.963769    0.5912897  43.93  0.005575294    5.523    0.819
        34 -12.7650    178.1509     82.4948   4.8772676582e+01   2.9445859860e+01      1.53992    0.8705701  43.18  0.001930794    2.049    0.512
        35  -8.7752    236.9789    249.0199   7.2127261881e+01  -1.0466897534e+01    0.1484814    0.1086415  -6.08  0.001012304    1.003    0.003
        36  -9.7114    179.8445    245.0460   8.2721193853e+01  -2.7858955693e+00    0.3139445    0.3095035 -85.69  0.001203371    1.507    0.336
        37 -11.7061      3.5188    159.1161   1.1562315533e+02   4.0204724155e+01    0.9369758    0.3938906 -74.86  0.004221971    1.976    0.494
        38  -8.4672     42.1763    246.8645   1.1342228975e+02   1.5745029277e+01    0.1493595    0.1434298  18.20 0.0004159396    1.322    0.243
        39  -8.1590    199.3306    163.6494   6.3488908049e+01   9.4415793583e+00    0.1413663    0.1153684 -77.58  2.06173e-05    1.771    0.435
        40 -12.0239    228.3799     91.3861   4.3055238369e+01   1.7452312415e+01     1.471161    0.4822183 -52.53  0.005065851    3.668    0.727
        41  -7.7390    203.4962    160.5272   6.2008635316e+01   9.3325495468e+00    0.1433253      0.12836 -30.63 0.0001269896    1.048    0.046
        42  -9.6658    168.7838    156.9984   6.8617475763e+01   1.6435971090e+01    0.2710581    0.2355453 -34.75 0.0002703413    1.091    0.084
        43  -8.7041    193.7509    156.9726   6.3197413807e+01   1.1773236095e+01    0.2772815    0.2070802 -37.24  0.001413312    1.223    0.182
        44  -9.0763    192.4778    153.0040   6.2598881028e+01   1.2811253685e+01    0.3340053    0.2273544 -66.12  0.001470862    2.116    0.527
        45 -12.1554    240.4098     51.8446   3.3659253001e+01   2.1133730200e+01    0.6323462    0.3371092 -49.05 0.0004868095    1.541    0.351
        46  -8.3227    174.1125    154.1120   6.6770576757e+01   1.6039724090e+01    0.2300169    0.1957557 -11.18 0.0004179951    1.224    0.183
        47  -8.3773    112.0698    151.9344   8.2190039239e+01   2.8480417344e+01    0.2242829    0.2192484 -14.33  0.001167695    1.006    0.006
        48 -11.6010     48.8004    142.5064   9.9858144403e+01   4.0555568746e+01     0.952648    0.6381862 -65.35  0.002193407    1.390    0.280
        49 -11.2623     34.1512    147.2806   1.0525175710e+02   4.0835587034e+01     0.500803    0.4147075   8.43  0.001288704    1.393    0.282
        50 -11.8585     41.5073    144.0536   1.0244883684e+02   4.0947892129e+01    0.9333402    0.7753342 -69.28  0.003232126    1.110    0.099
        51 -10.2964     20.3341    152.3224   1.1011427864e+02   4.0732223135e+01    0.3713471    0.1638955 -45.43  0.001550373    2.365    0.577
        52 -11.5555     65.3863    139.9035   9.4014947033e+01   3.9156281745e+01     1.449319    0.9502332 -87.76  0.006099956    2.069    0.517
        53  -9.1296    133.7758    146.6400   7.4978245834e+01   2.5650642979e+01    0.7098193    0.2236616 -55.06  0.001853873    4.265    0.766
        54 -13.0627    216.4935     80.3931   4.2287676133e+01   2.1574051666e+01     1.541964     1.230189 -59.68  0.009280787    1.113    0.102
        55  -8.1448    215.6281    144.7907   5.6419990338e+01   1.0249045288e+01    0.1999589    0.1167437 -49.09  0.000364101    1.659    0.397
        56  -8.2564    192.2891    143.6917   6.0589882496e+01   1.4736488179e+01    0.2545183    0.1710182 -42.94 0.0003662423    1.371    0.271
        57  -9.0528    193.4991    140.5186   5.9641895745e+01   1.5146009400e+01    0.3058305    0.2372382 -63.44 0.0008624505    1.515    0.340
        58 -10.2784    200.7259    239.9639   7.7579982901e+01  -4.7561161558e+00    0.2353948    0.1931689  -0.15 0.0004051424    1.060    0.057
        59  -9.0960    209.6393    136.9416   5.5805948567e+01   1.2818274492e+01    0.3396369    0.2820038  -2.29  0.001873218    1.397    0.284
        60  -9.2063    190.5645    132.0022   5.8302094339e+01   1.7428800390e+01    0.2781256    0.2141369  68.45  0.001348085    1.649    0.393
        61 -12.7221    247.2591     78.8660   3.8242202978e+01   1.5955322140e+01      1.47246    0.4089532 -44.22  0.005972988    2.807    0.644
        62  -8.2622    197.4148    129.1798   5.6337825466e+01   1.6640782386e+01    0.2156144     0.126159 -51.44 0.0009470676    1.727    0.421
        63  -8.5382    160.9499    128.4780   6.3833133743e+01   2.4226887283e+01    0.3132716    0.2167211 -58.21  0.001267044    1.624    0.384
        64 -10.1804    185.2969    123.8616   5.7468591179e+01   2.0121284057e+01    0.6484087    0.3583713 -51.44  0.002725753    1.865    0.464
        65  -8.2096    180.5173    121.5015   5.7878319686e+01   2.1582216756e+01    0.2597909    0.1330053 -51.91 0.0007514613    2.085    0.520
        66  -7.9643    167.7746    124.9619   6.1428329907e+01   2.3540350913e+01    0.2087739     0.122256 -42.45 0.0008692197    1.637    0.389
        67  -7.5775     92.6693    125.7091   8.2062617826e+01   3.8536124979e+01    0.1620523    0.1213114 -14.12 0.0007019488    1.626    0.385
        68  -8.2312    135.0000    119.9975   6.8170111153e+01   3.1587078902e+01    0.2633346    0.0892817 -45.69 0.0007982518    2.914    0.657
        69  -8.0180    216.7439    118.0876   5.0493235357e+01   1.5021957260e+01    0.2998859    0.1989361   0.55  0.001256148    2.956    0.662
        70  -8.4894     62.1953    118.1502   9.0523435918e+01   4.5218084633e+01    0.2192976    0.1865364 -28.29 0.0003884661    1.157    0.136
        71 -11.6897    231.2045     75.8448   3.9457090586e+01   1.9391872179e+01    0.5017866    0.3430975  59.98  0.001790482    1.636    0.389
        72  -8.6499    199.2803    114.0617   5.2555903427e+01   1.9177784744e+01    0.2652258    0.1727636 -54.43 0.0007036261    1.558    0.358
        73  -9.6796    205.3760    110.8983   5.0779966696e+01   1.8543176034e+01     0.415514    0.3579279 -13.81  0.002345145    1.355    0.262
        74  -8.4677    134.6019    113.7552   6.6654994361e+01   3.3056654070e+01    0.3119175    0.1495623 -41.26  0.001139456    2.108    0.526
        75  -9.0411    177.0113    110.9003   5.6038883388e+01   2.4435979458e+01    0.3599096    0.2886895 -14.12  0.001283936    1.515    0.340
        76  -9.4422    130.7939    101.8957   6.4479747697e+01   3.6428091292e+01    0.3239011    0.2541359 -58.40 0.0006671134    1.408    0.290
        77  -9.0083    134.8445    108.2357   6.5127356787e+01   3.4201323346e+01    0.4718356    0.2178705 -52.65  0.001639089    2.518    0.603
        78 -10.1781    135.2648    100.6588   6.2965133174e+01   3.5703721538e+01    0.5151625    0.3013492 -33.09  0.001231307    1.913    0.477
        79  -7.6462     96.0155    109.7764   7.6930925212e+01   4.1781637924e+01    0.2013745    0.1278232  36.57 0.0002281241    1.588    0.370
        80  -9.5294    188.3364    105.3310   5.2499640734e+01   2.3088398476e+01     0.312179    0.2465422   1.33  0.001546935    1.752    0.429
        81  -8.4893    149.5470    105.0137   6.0587846016e+01   3.1642628273e+01    0.2784289    0.2133272  29.45 0.0005981126    1.477    0.323
        82 -11.6055    123.2263    103.1405   6.6891564727e+01   3.7799514648e+01    0.8664423    0.7507074  73.31  0.004312454    1.350    0.259
        83  -9.4956    207.2058    103.6701   4.8846392180e+01   1.9489221988e+01     0.285951    0.1935372 -79.75 0.0008842977    2.063    0.515
        84  -9.5995    159.9161    101.2738   5.7231647849e+01   3.0082098400e+01     0.498129    0.2461123  41.49  0.001915613    2.232    0.552
        85 -10.2445     81.2783    100.9672   7.9475352808e+01   4.6463636309e+01     0.252869    0.2298142   9.61 0.0002723706    1.083    0.077
        86  -9.2854    168.4921    100.0418   5.5082082464e+01   2.8410331781e+01    0.4340453    0.1983645 -48.66  0.001637769    2.256    0.557
        87  -7.4043     92.7354    101.2750   7.5675222944e+01   4.4349046857e+01    0.1421615    0.1233796  81.88            0    1.474    0.322
        88 -10.7348    177.0037     95.2385   5.2174323958e+01   2.7426475746e+01    0.5917454    0.3898771  39.80  0.002755807    1.750    0.429
        89 -10.2308    143.2661     95.2829   5.9485875726e+01   3.5003625181e+01    0.5083431    0.3581443 -60.35  0.001463499    1.665    0.399
        90 -11.0743    158.9932     92.4859   5.5133310672e+01   3.1981630436e+01    0.4469438    0.3664705 -26.87 0.0007245039    1.336    0.251
        91  -8.4018    125.2807     85.7921   6.1389328482e+01   4.0891441391e+01    0.3045526    0.1276191 -47.75  0.001059598    2.638    0.621
        92  -8.8607    170.0262    230.1242   8.2426272410e+01   1.2214756684e+00    0.2205397    0.1922724 -39.21 0.0003740805    1.310    0.236
        93  -7.9218    130.6514     81.8429   5.8830070632e+01   4.0434334015e+01    0.1988069    0.1375941 -50.32 0.0001098838    1.560    0.359
        94 -12.1240    235.3320    119.3110   4.7906401582e+01   1.1438974982e+01     2.181724     1.125124 -68.01  0.004571689    4.943    0.798
        95  -8.3880    154.9346     71.3659   5.0293674803e+01   3.6664425483e+01    0.2374231    0.1858479 -50.13 0.0004919869    1.304    0.233
        96  -8.7545    192.9311     69.9266   4.3259806031e+01   2.8224611116e+01    0.2117047    0.1848027 -64.55 0.0006940084    1.047    0.045
        97  -8.8247    181.8183     67.2533   4.4340817639e+01   3.1125114859e+01    0.3121175    0.1936212 -40.61  0.001227148    1.588    0.370
        98  -7.4056    163.4803     68.4750   4.7843092811e+01   3.5145107450e+01    0.1429233    0.1312608 -86.15 0.0002369471    1.048    0.046
        99  -9.4490    167.1957    239.1859   8.4511105696e+01   2.4521588939e-05    0.3201803     0.237445  44.13 0.0009900538    1.565    0.361
       100 -10.3459    162.6023     50.4284   4.3177772490e+01   3.8061905432e+01    0.5134051    0.3246723  66.45  0.002110114    1.501    0.334
       101  -9.5121    193.0399     63.7184   4.1769438099e+01   2.9159283725e+01    0.3402495    0.2199732 -31.18  0.001735104    1.741    0.426
       102  -9.8248    135.6211     62.5655   5.1937163638e+01   4.2609191786e+01    0.5245888    0.2255494 -38.68  0.002063127    2.419    0.587
       103  -8.7145    199.4129     47.1897   3.7073895587e+01   3.0130695662e+01    0.4451398    0.1407785 -35.94  0.001740873    3.110    0.678
       104 -10.0766    197.9079     57.1964   3.9564931341e+01   2.9055898602e+01    0.5984619    0.4218968 -59.00  0.002321393    1.334    0.250
       105  -8.2274    187.0920     58.9157   4.1484627807e+01   3.1202553121e+01    0.2151347    0.1649709 -76.45 0.0008512078    1.302    0.232
       106  -9.4896    191.3587     53.0152   3.9467606304e+01   3.1100025020e+01    0.4162624    0.3511996 -56.72   0.00256124    1.127    0.113
       107  -9.6840    188.4276     44.9285   3.7938009802e+01   3.2866889015e+01    0.5288761    0.1683937 -42.33  0.002098257    2.869    0.651
       108  -8.7807    147.0608     54.6186   4.7183246261e+01   4.1127858086e+01     0.214487    0.1815831 -53.80 0.0002518526    1.238    0.192
       109 -10.6828    132.7037     37.3626   4.4952879068e+01   4.6846364370e+01    0.4780099     0.271777  45.74  0.002303327    1.711    0.415
       110 -11.5518    150.1878     47.0108   4.4425055550e+01   4.1459955445e+01     0.797808    0.5392135  89.59  0.003936176    1.778    0.438
       111 -10.4786    135.8966     48.3241   4.7616911185e+01   4.4658265524e+01    0.4277999    0.3612679 -57.91  0.002017903    1.291    0.226
       112 -11.7536    140.1689     41.9467   4.4854348097e+01   4.4503520132e+01    0.8761977    0.4815808  68.10  0.004032647    1.836    0.455
       113  -8.0153    211.9965    166.4388   6.1603495998e+01   6.7478407472e+00     0.190982    0.1370358  35.87 0.0003657707    1.536    0.349
       114  -8.7358    206.1777     43.8741   3.5534986216e+01   2.9113904185e+01    0.2900615    0.1690434 -34.41   0.00154537    1.835    0.455
       115  -8.7506    116.0158     46.0260   5.1442692333e+01   4.9600430258e+01    0.2032322    0.1847642  47.50  0.001198797    1.010    0.010
       116  -8.5749    192.3336     38.4480   3.5922646431e+01   3.2839013720e+01    0.2917736    0.1543065 -41.93  0.001389599    1.819    0.450
       117  -8.4731    189.6422     36.1256   3.5705513551e+01   3.3731259966e+01     0.224257    0.1965725  22.23   0.00141352    1.599    0.375
       118  -9.7982    122.4743     38.7963   4.7573462968e+01   4.9063981077e+01    0.3292888    0.1797906  57.12  0.001552605    1.628    0.386
       119  -7.9302    196.2972     37.5248   3.5241939429e+01   3.2080298235e+01    0.2199223    0.1085574 -35.89   0.00108046    2.077    0.518
       120  -9.1613    166.1308     35.9039   3.8782772746e+01   3.9139867496e+01     0.371991    0.3311417  28.13   0.00231933    1.406    0.289
       121  -7.4417    201.2469     35.3602   3.4197346202e+01   3.1271956482e+01    0.1091506   0.09762652  23.63 0.0004060529    1.604    0.377
       122  -9.6708    133.8920     31.3720   4.2897246030e+01   4.7280835719e+01    0.2140291    0.1825119 -55.50 0.0006861152    1.292    0.226
       123  -8.5696    111.4834     30.8545   4.7486043292e+01   5.2556101294e+01    0.2148034    0.1613785  38.25 0.0005571973    1.271    0.213
       124  -9.8452    126.7714     29.8083   4.3807885875e+01   4.9133689899e+01    0.2454646    0.1740285 -42.49 0.0007168481    1.585    0.369
       125 -10.2550    140.1468     26.9032   4.0431419397e+01   4.6306403740e+01    0.2944417    0.2554749  18.56  0.001461779    1.393    0.282
       126  -9.8028    169.2120    235.1919   8.3432794617e+01   4.2161540293e-01    0.2870446    0.2336093  40.80 0.0003834479    1.402    0.287
       127  -7.3222    180.4961    231.4363   8.0370903352e+01  -5.3921263986e-01    0.1352345     0.113077   4.73 8.718992e-05    1.010    0.010
       128 -10.0783    130.7920     18.5964   3.9577429308e+01   4.9371906700e+01    0.2716582    0.1907862  74.85  0.001362007    1.326    0.246
       129  -7.9590    113.0000     21.9124   4.4122161025e+01   5.3179026743e+01    0.1906666     0.076073 -26.50  0.000799116    2.919    0.657
       130  -7.1977     90.0000    229.9785   1.0100686727e+02   1.3221023433e+01    0.2002729   0.07809936 -62.03 0.0003983455    2.810    0.644
       131  -7.7862    161.5531     16.5510   3.4377726715e+01   4.2366507161e+01    0.1256953     0.106113  77.88 0.0002017614    1.039    0.037
       132  -7.5706    198.0262    227.9855   7.6104790442e+01  -2.4106468676e+00    0.1566095    0.1279835  -1.35 0.0003197186    1.008    0.008
       133  -9.3410    126.0286     14.4963   3.9154346443e+01   5.0876364198e+01    0.2076549    0.1697814 -80.31  0.001287034    1.330    0.248
       134 -10.2080    137.0529    223.0493   8.8810774335e+01   7.6271426094e+00    0.2591952    0.2418337 -31.79 0.0004438971    1.152    0.132
       135  -8.7478    239.9869    218.4589   6.6381641490e+01  -6.2944718286e+00    0.1727863    0.1110294  25.04 0.0007795811    1.602    0.376
       136  -8.3073     88.8904    216.7519   9.9607498970e+01   1.6333207752e+01    0.1952296    0.1831175  -0.13 0.0005227644    1.178    0.151
       137  -8.6238    160.0851    209.6384   8.1155295881e+01   6.7166861534e+00    0.2065379    0.1880961 -37.95 0.0005456438    1.195    0.163
       138  -9.4191    243.9634    208.2050   6.3851750954e+01  -5.1634893142e+00    0.2160198    0.1519674 -29.51 0.0007831622    1.181    0.153
       139 -10.4620    247.9723    202.3730   6.2110042559e+01  -4.7265245623e+00    0.6536512    0.4368027  57.25  0.003258749    3.397    0.706
       140  -9.3498    230.9683    194.9476   6.3703405885e+01  -1.2878777280e+00     0.292119    0.2083309  43.24 0.0007907386    1.836    0.455
       141  -9.8483    239.9889    199.0060   6.2862575393e+01  -3.1727100354e+00    0.2835342    0.2728381 -75.10 0.0009386396    1.652    0.395
