#   1 NUMBER                 Running object number                                     
#   2 MAG_AUTO               Kron-like elliptical aperture magnitude                    [mag]
#   3 X_IMAGE                Object position along x                                    [pixel]
#   4 Y_IMAGE                Object position along y                                    [pixel]
#   5 X_WORLD                Barycenter position along world x axis                     [deg]
#   6 Y_WORLD                Barycenter position along world y axis                     [deg]
#   7 A_WORLD                Profile RMS along major axis (world units)                 [deg]
#   8 B_WORLD                Profile RMS along minor axis (world units)                 [deg]
#   9 THETA_WORLD            Position angle (CCW/world-x)                               [deg]
#  10 FWHM_WORLD             FWHM assuming a gaussian core                              [deg]
#  11 ELONGATION             A_IMAGE/B_IMAGE                                           
#  12 ELLIPTICITY            1 - B_IMAGE/A_IMAGE                                       
         1 -13.1454    236.5491     26.4320   3.4911424176e+02   2.6295070105e+01    0.7676721     0.582866 -51.92   0.00400768    1.087    0.080
         2 -11.0463     16.6511     11.3418   3.3286780385e+01   7.6077488996e+01    0.2671599    0.1949726  47.24 0.0006993445    1.604    0.377
         3  -9.6569     71.7046    223.6431   5.8768948735e+01   1.7581678676e+01    0.2305275    0.1740852 -52.41 0.0007590083    1.523    0.343
         4 -10.4984    100.8886    247.3020   5.4289255717e+01   9.7356018636e+00    0.4821427    0.2643244 -73.25  0.002511405    2.764    0.638
         5 -16.1391     70.5841    148.5047   4.9705986788e+01   3.5628961673e+01     16.11859     8.520069 -88.85   0.03516921    3.093    0.677
         6 -18.4061      5.7847    219.8075   7.4752206120e+01   2.4994998921e+01     5.810728     3.552163 -85.47   0.02199915    1.673    0.402
         7  -8.5380     70.2306    239.6335   6.0521067808e+01   1.4554700013e+01    0.1216723   0.08089132  57.87 0.0006894571    1.591    0.372
         8 -10.0486    174.9522    179.4899   2.8861769223e+01   1.2571588545e+01    0.1921978    0.1777961 -48.44 0.0006239261    1.289    0.224
         9 -10.9934    179.5059    166.3376   2.5604721280e+01   1.4280279866e+01    0.7610824    0.4047105 -45.81  0.003767041    1.782    0.439
        10 -11.1794    171.6110    175.0869   2.8732364765e+01   1.3842587744e+01    0.3752071    0.2976576  28.13   0.00124611    1.301    0.232
        11 -11.0374    173.1680    171.1563   2.7713546104e+01   1.4335278255e+01    0.4103193    0.2976596  57.68  0.001516465    1.997    0.499
        12 -10.2520    102.8873    237.9186   5.2884667993e+01   1.1177336051e+01    0.2560026    0.1722392 -54.54 0.0004765775    1.731    0.422
        13 -11.2212    104.7951    171.6395   4.3601399237e+01   2.4731471084e+01    0.4159976    0.3732936 -65.25   0.00137692    1.180    0.153
        14 -10.2391    110.5070    167.0737   4.1316805227e+01   2.4901732529e+01    0.2952919    0.2384357 -75.55 0.0008686839    1.434    0.303
        15 -12.7724    133.6201    229.5282   4.5126590875e+01   9.0389418952e+00    0.9907967    0.4678704  21.04  0.004801405    2.051    0.512
        16 -10.7770     60.4121    158.1265   5.4402229026e+01   3.4509523981e+01    0.5165557    0.4065063 -35.98  0.001381835    1.463    0.316
        17 -11.4816     49.6812    154.7293   5.7370843729e+01   3.6767855488e+01    0.3039905    0.2582193  66.52 0.0004452295    1.142    0.125
        18  -8.6437    115.3928    155.2742   3.7883645370e+01   2.6834959161e+01    0.1522983     0.113818  -7.09 0.0006991611    1.734    0.423
        19 -11.6375    133.6490    145.3231   3.1284148682e+01   2.5944423075e+01      1.30131    0.3418181 -55.32  0.003205393    5.791    0.827
        20  -9.9976    129.1272    141.2262   3.1537369930e+01   2.7653228960e+01    0.2654023    0.2307876 -73.17 0.0004829485    1.269    0.212
        21  -8.9935     39.7358    147.4092   5.9738344038e+01   3.9904411144e+01     0.194472    0.1447735   9.38 0.0009408261    1.548    0.354
        22  -9.8000    143.4793    145.4706   2.8999308950e+01   2.4188691900e+01    0.2665257    0.1348627 -58.28  0.001039383    2.419    0.587
        23 -11.5598     88.0010    144.2219   4.3524110976e+01   3.4051707751e+01    0.6972582    0.4941809 -33.50  0.003177132    1.674    0.403
        24 -10.4818     31.5060    144.4821   6.2213460972e+01   4.1579957345e+01    0.3231634    0.2986311  74.52  0.001085542    1.004    0.004
        25 -11.0365     36.2924    142.7983   6.0347670416e+01   4.1543217777e+01    0.4253288    0.3543138  -5.24  0.001456555    1.413    0.292
        26  -9.5864    146.5477    142.5076   2.7684448681e+01   2.4273496320e+01    0.1419497     0.134053 -36.66  0.000467435    1.012    0.012
        27 -11.4267    126.7393    228.5811   4.6498753061e+01   1.0031100665e+01     0.398425    0.2847827  19.39  0.002424143    1.221    0.181
        28 -11.0234    102.8377    132.7292   3.6784172460e+01   3.4374042684e+01    0.5439505    0.3865506 -25.21  0.002176989    1.831    0.454
        29 -11.5975     89.5630    131.7987   4.0571395757e+01   3.6936226641e+01    0.2973605    0.2694264 -53.34 0.0004316904    1.107    0.096
        30 -10.1278    136.0000    130.9083   2.7614947363e+01   2.8667265813e+01    0.4078034   0.08097593 -47.98  0.001039803    4.830    0.793
        31 -10.7873     43.0482    130.1158   5.6160869852e+01   4.4273649869e+01    0.5075211    0.3092188  59.24  0.001779991    1.816    0.449
        32  -9.7341     22.4918    129.7248   6.3768519938e+01   4.6522623277e+01    0.2583449    0.2030591  24.82  0.001177224    1.333    0.250
        33  -9.6956    162.1142    126.8395   2.0967938654e+01   2.4651594456e+01    0.4450784    0.2665702 -56.12  0.001568402    1.823    0.451
        34 -10.9378    111.7721    126.0235   3.2755617197e+01   3.4338576879e+01    0.5216175    0.3207882  24.34  0.001275952    2.121    0.529
        35 -10.8575    117.0178    122.0093   3.0388480602e+01   3.4274653076e+01    0.3101351    0.2505886 -32.31 0.0007049566    1.352    0.260
        36  -9.5837    194.2762    224.5059   3.2510563807e+01   2.9081819785e+00    0.1950162    0.1310403 -32.40 0.0006511605    1.372    0.271
        37 -10.4176     75.5876    121.8846   4.3009593124e+01   4.1840334380e+01    0.5221496    0.3841066  84.72  0.002347834    1.656    0.396
        38 -10.3926     98.3953    121.3101   3.5544519397e+01   3.7970447815e+01    0.2891052    0.2644188 -10.99  0.000649598    1.237    0.191
        39 -11.2512    159.8108    223.2971   3.8837742938e+01   6.9730995960e+00    0.2748688    0.1838975 -32.05  0.001680447    1.463    0.316
        40  -9.6864     27.5981    121.2301   6.0728155868e+01   4.8415806127e+01    0.4491891     0.213416  48.09  0.001768502    2.202    0.546
        41 -10.7447     69.1422    244.0530   6.1128551202e+01   1.3830907831e+01    0.2610675    0.2159173 -17.65  0.001406066    1.454    0.312
        42  -9.5917    135.0000    119.9953   2.5341566818e+01   3.1222368729e+01    0.2477656   0.08155286 -46.97 0.0007379877    2.904    0.656
        43 -10.6150    105.8614    214.1772   4.9459933983e+01   1.5350758251e+01    0.3874943    0.2454721 -52.52  0.001289961    1.725    0.420
        44  -9.5186     71.9870    232.8471   5.9532947997e+01   1.5685446717e+01    0.2411765    0.1732616  32.66  0.001059947    1.158    0.136
        45 -10.4540    122.9610    116.3234   2.7455988472e+01   3.4403266044e+01    0.2127694    0.1958705  42.01 0.0004846985    1.132    0.116
        46  -9.8391    107.6074    115.9740   3.1559695090e+01   3.7502511191e+01    0.2631919    0.2200179  52.57 0.0002987252    1.222    0.181
        47  -9.3843    243.4887    114.4650   5.9935418503e+00   1.3426841804e+01    0.1170682   0.08837169 -39.55 7.077371e-05    1.015    0.015
        48 -10.6338     40.1832    113.3094   5.4460394885e+01   4.9251513576e+01    0.5131584    0.1802127  29.88  0.001758255    2.697    0.629
        49  -9.4593    111.2680    214.4144   4.8210657832e+01   1.4612361668e+01    0.2049508     0.177482 -50.36 0.0004033553    1.288    0.224
        50  -9.1923     81.0445    214.8203   5.5585080859e+01   1.8321967907e+01    0.2002362    0.1544568  45.85 0.0005126098    1.217    0.179
        51 -12.0580    115.9636    108.0829   2.7253131193e+01   3.7658399650e+01    0.6313205    0.4791096 -11.19  0.002844241    1.895    0.472
        52 -11.0706     38.1021    102.3176   5.3244529337e+01   5.2506227264e+01    0.4811446    0.3158212  31.89  0.002230748    1.538    0.350
        53 -16.1637      4.6121    243.4659   7.5757815961e+01   2.0156617033e+01     1.274862    0.3789234  47.68  0.006027869    2.325    0.570
        54  -8.8259    164.8145    211.0193   3.6036702652e+01   8.4107574130e+00    0.1586317   0.08883023 -44.26 0.0006078117    1.803    0.445
        55 -10.4793    192.9310    194.9710   2.8153019987e+01   7.5818580121e+00    0.8380973    0.4416706 -63.23  0.002229106   10.511    0.905
        56 -11.0123     59.7201     92.6544   4.1947777814e+01   5.2009880522e+01    0.5351304    0.3616099 -29.61  0.002166383    1.876    0.467
        57 -10.0084    210.7328    198.8800   2.5735672283e+01   4.8757321306e+00    0.2073535    0.1603122  -2.68 0.0005051623    1.141    0.124
        58  -9.2421     87.1340     95.7959   3.2668165291e+01   4.6297828041e+01    0.2243249    0.2046651  81.51 0.0004363497    1.127    0.113
        59 -10.1949    134.4856    105.7647   2.1969545231e+01   3.4356045339e+01    0.4433057    0.1338418 -50.55   0.00131025    3.602    0.722
        60  -9.3952    102.7556     92.2160   2.6720864280e+01   4.3951803823e+01    0.4220516    0.2627809  81.35  0.001491697    2.972    0.664
        61  -9.2827     74.1065    193.8916   5.5029074734e+01   2.3836707052e+01    0.2008528    0.1703277  60.77 0.0004254595    1.186    0.157
        62  -8.7512    234.4069    191.2020   2.0806804317e+01   3.3878589482e+00    0.1424591   0.08690861 -40.27 0.0003239202    1.525    0.344
        63  -9.0661     75.1009     82.4902   3.3056774864e+01   5.1765605041e+01    0.2269639    0.1481665  44.10  0.000885916    1.526    0.345
        64 -10.9785    126.3942    232.2265   4.7026674868e+01   9.4293768762e+00    0.2289186    0.2046402 -67.41  0.001204912    1.456    0.313
        65 -11.0335     30.2091     71.3247   4.9773381130e+01   6.1580523279e+01    0.3691735    0.2410198 -62.23  0.001774089    1.492    0.330
        66 -12.2753    187.9828     64.3940   1.8631449238e+00   3.0543683309e+01    0.4770395    0.3802418 -33.33 0.0008112245    1.313    0.238
        67 -13.9071    205.0539     52.6426   3.5718037973e+02   2.8827385925e+01     1.119569    0.9139123  40.00  0.004951902    1.746    0.427
        68 -12.9377    211.0134     47.8453   3.5553133203e+02   2.8324904971e+01    0.5875397      0.52328 -63.70  0.001128876    1.172    0.147
        69 -10.3267     35.9600     52.8521   4.0762698807e+01   6.5228933370e+01    0.2561973    0.2110703  34.55 0.0004117688    1.216    0.178
        70  -8.7773     47.3223     38.7243   2.8805915513e+01   6.6271217207e+01     0.189476    0.1562429  13.12 0.0002406397    1.312    0.238
        71  -9.0386     43.8260     37.5930   3.0089413305e+01   6.7110835587e+01    0.2643837    0.1202706  47.51 0.0004536897    2.327    0.570
        72  -9.4469     71.6826    226.7036   5.9056419037e+01   1.6955416265e+01    0.1778043      0.16714  21.58 0.0004196434    1.119    0.106
        73  -9.2356     70.1347    185.4496   5.5104325829e+01   2.6344876050e+01    0.2278748    0.1803648  67.66 0.0008519465    1.327    0.246
        74  -9.9605     61.0089     21.4962   1.4152052091e+01   6.6281743986e+01    0.2918329    0.2074955  63.43 0.0009767128    1.424    0.298
        75  -8.8768    189.3812     15.2105   3.4960796433e+02   3.6660919624e+01    0.1710044   0.08790289 -44.64 0.0006159616    1.571    0.363
        76 -10.6316     76.1547    245.2020   5.9625574241e+01   1.2854818410e+01    0.2853857    0.1974856 -53.95 0.0007233932    1.722    0.419
