#   1 NUMBER                 Running object number                                     
#   2 MAG_AUTO               Kron-like elliptical aperture magnitude                    [mag]
#   3 X_IMAGE                Object position along x                                    [pixel]
#   4 Y_IMAGE                Object position along y                                    [pixel]
#   5 X_WORLD                Barycenter position along world x axis                     [deg]
#   6 Y_WORLD                Barycenter position along world y axis                     [deg]
#   7 A_WORLD                Profile RMS along major axis (world units)                 [deg]
#   8 B_WORLD                Profile RMS along minor axis (world units)                 [deg]
#   9 THETA_WORLD            Position angle (CCW/world-x)                               [deg]
#  10 FWHM_WORLD             FWHM assuming a gaussian core                              [deg]
#  11 ELONGATION             A_IMAGE/B_IMAGE                                           
#  12 ELLIPTICITY            1 - B_IMAGE/A_IMAGE                                       
         1 -12.4914    188.5500     31.7375   6.2015097734e+01   3.4025148321e+01     1.050823    0.9491394  22.56   0.00361058    1.134    0.118
         2 -12.2693    196.8667     20.1871   5.7133682534e+01   3.3162293828e+01    0.8262727    0.6994064   6.84  0.001759208    1.267    0.211
         3 -10.8566     46.3875     11.5504   9.1608830209e+01   6.7893795631e+01    0.2697676    0.1869535  38.11  0.001647148    1.715    0.417
         4  -9.4458     58.4989      4.4983   8.3007909353e+01   6.7231514228e+01    0.1274036    0.1052575 -13.05 0.0008106924    1.004    0.004
         5 -13.0786    114.6472    229.4889   1.1829741180e+02   1.6554416288e+01     1.329647    0.3013102  47.71   0.00575226    3.304    0.697
         6 -13.4932    137.9254    240.4561   1.1558900214e+02   1.1784448661e+01     1.612185     0.317257  44.27  0.006647385    3.621    0.724
         7 -11.5393     97.9770    248.5753   1.2250019590e+02   1.6228321731e+01    0.5348044     0.296556  66.25   0.00281247    1.705    0.413
         8 -19.3137     10.2851    131.1205   1.2962597278e+02   4.6334264548e+01      15.6548     1.527341 -76.55   0.03945475    9.897    0.899
         9 -11.7235    133.5243    229.2116   1.1517797166e+02   1.3870313712e+01    0.3791643    0.2864101  85.67  0.002840554    1.601    0.375
        10  -8.6427     77.6485    232.6902   1.2451692556e+02   2.1012641134e+01   0.08565734   0.07522728  29.79 0.0007044334    1.718    0.418
        11 -11.2352    141.5074    229.5508   1.1390480086e+02   1.2641733709e+01    0.3909765     0.150307  35.94   0.00189076    2.775    0.640
        12 -12.4788    121.2944    249.1323   1.1897429220e+02   1.3045998344e+01    0.8039593    0.3781497  44.16  0.004556753    1.551    0.355
        13 -10.0505     67.2841    225.3179   1.2566352443e+02   2.3377587197e+01    0.1872603    0.1256507 -74.35   0.00135599    1.644    0.392
        14 -10.8271     85.7884    223.0595   1.2248544452e+02   2.1402508219e+01    0.3034069    0.1642778  64.87  0.001998157    1.677    0.404
        15  -7.9548    115.2976    210.9620   1.1637383860e+02   1.9145708035e+01    0.1605698   0.08176106 -86.69 0.0007031604    4.152    0.759
        16 -10.3740    197.1994    197.2851   1.0030540970e+02   7.7738955874e+00    0.4709719     0.308916  52.85  0.002844555    1.559    0.359
        17 -10.1314     57.2441    188.3483   1.2466630664e+02   3.0659529003e+01    0.1903339    0.1356714  85.60  0.001397883    1.213    0.175
        18  -8.7991    208.0833    185.2847   9.6503753859e+01   7.3654405812e+00    0.1757465    0.1405933  34.62 0.0009875488    1.053    0.051
        19 -10.6008     78.4950    181.6486   1.2007311660e+02   2.9198829758e+01    0.3217669    0.2180264 -49.75   0.00205404    1.991    0.498
        20 -10.4950     82.3540    175.9017   1.1872152700e+02   2.9722790513e+01    0.2961113    0.2021407 -53.25 0.0008011193    1.796    0.443
        21  -8.7083     73.2874    180.9528   1.2100126334e+02   3.0006100591e+01    0.2212578    0.1351135  79.20   0.00136949    1.631    0.387
        22 -10.2964    101.1160    232.6642   1.2076939749e+02   1.7974927324e+01    0.2236662     0.155211  71.09 0.0005777835    1.334    0.250
        23 -10.2014    101.3177    170.7784   1.1434517379e+02   2.7939821526e+01    0.3154338    0.1275855  53.51  0.001226484    2.453    0.592
        24  -9.2709    184.9261    168.5187   9.7691890902e+01   1.3827623578e+01    0.2270846    0.1898168 -56.02  0.001400132    1.507    0.336
        25 -13.3861     66.5257    142.0157   1.1805673325e+02   3.8408872627e+01     2.425424     1.065386  84.15  0.007791897    5.763    0.826
        26 -10.6631     89.2437    166.0791   1.1620187221e+02   3.0585618155e+01    0.3707071    0.2237121  60.39 0.0005953352    1.560    0.359
        27 -11.8566     78.2863    161.7766   1.1794106584e+02   3.2930233769e+01    0.3693351    0.3428087 -32.88  0.001201795    1.540    0.351
        28 -10.6371     95.3208    158.7600   1.1399320509e+02   3.1088455130e+01    0.4536905     0.329778 -35.64   0.00204278    2.060    0.515
        29 -11.5036     56.7118    150.8292   1.2126076187e+02   3.7819675361e+01     0.409914     0.276697  82.56  0.002635546    1.344    0.256
        30  -9.5655    107.4118    142.1719   1.0887675631e+02   3.2431498347e+01    0.4727495    0.1856996 -40.97  0.001622677    4.487    0.777
        31 -10.3755     95.0652    142.9812   1.1176636739e+02   3.4222946145e+01    0.2259272    0.2206721 -63.46 0.0004477146    1.245    0.197
        32 -10.6514     70.6916    134.6818   1.1611669674e+02   3.9388470282e+01    0.2708108    0.1628004  49.18   0.00153088    1.614    0.380
        33 -12.7710     40.8499    127.8751   1.2227414651e+02   4.4300136831e+01    0.6660523    0.4170419 -86.13  0.004122749    1.412    0.292
        34  -9.2606    102.0814    128.5312   1.0774062469e+02   3.6050903683e+01    0.2397494    0.1806058 -49.81 0.0008699383    1.405    0.288
        35  -8.2880    109.9613    120.3033   1.0430037764e+02   3.6415865624e+01    0.1784627    0.1677154  67.90  0.000385387    1.054    0.052
        36  -9.3304    114.1893    132.0734   1.0557374160e+02   3.3299423776e+01    0.1936014    0.1862424 -13.85  0.001215557    1.254    0.202
        37  -8.8205    105.8337    131.0829   1.0732194160e+02   3.4913471464e+01    0.2144243    0.1713476  80.34  0.001243452    1.291    0.226
        38  -8.2548    167.8592    113.0359   8.9547064967e+01   2.6321028963e+01    0.2412592    0.1681588 -67.95  0.001076433    2.060    0.515
        39 -11.8194     98.8311    227.0470   1.2067010586e+02   1.9084532236e+01    0.6796662    0.1987148  53.40  0.003132104    3.155    0.683
        40 -11.5636    178.4174     40.3146   6.6463435830e+01   3.5584995403e+01    0.4837712    0.4486706  10.27  0.001318349    1.086    0.079
        41 -10.1171     87.1124    239.9650   1.2354773292e+02   1.8786986113e+01    0.1967539    0.1288673  75.95 0.0007768013    1.449    0.310
        42 -12.9600    131.2342    247.7143   1.1731667679e+02   1.1842801277e+01     1.435817    0.2776086  41.35  0.005663509    4.259    0.765
        43  -8.9150     73.6644    238.0018   1.2549912000e+02   2.0737282749e+01    0.1520939   0.06218015  82.39 0.0007051696    4.431    0.774
        44 -11.1836    110.2816    247.6299   1.2054460878e+02   1.4729253296e+01    0.4869383    0.1812955  37.59  0.002610652    2.669    0.625
