#   1 NUMBER                 Running object number                                     
#   2 MAG_AUTO               Kron-like elliptical aperture magnitude                    [mag]
#   3 X_IMAGE                Object position along x                                    [pixel]
#   4 Y_IMAGE                Object position along y                                    [pixel]
#   5 X_WORLD                Barycenter position along world x axis                     [deg]
#   6 Y_WORLD                Barycenter position along world y axis                     [deg]
#   7 A_WORLD                Profile RMS along major axis (world units)                 [deg]
#   8 B_WORLD                Profile RMS along minor axis (world units)                 [deg]
#   9 THETA_WORLD            Position angle (CCW/world-x)                               [deg]
#  10 FWHM_WORLD             FWHM assuming a gaussian core                              [deg]
#  11 ELONGATION             A_IMAGE/B_IMAGE                                           
#  12 ELLIPTICITY            1 - B_IMAGE/A_IMAGE                                       
         1  -9.5191     11.7295      9.9835   1.0388223092e+02   7.2345384024e+01    0.1902602     0.141237 -21.72 0.0005907104    1.294    0.227
         2  -8.9995    185.6523    241.3202   1.0611318171e+02   3.3703996932e+00    0.1040772   0.07304449  59.85 0.0007049006    1.735    0.424
         3  -9.8035    233.8223    249.4638   9.9772235659e+01  -4.3932182162e+00    0.3239146    0.1150323  27.71  0.001212172    3.328    0.700
         4 -10.3658    196.4217    250.0995   1.0549577634e+02   8.7039712970e-01    0.2971628    0.1090886  42.87  0.001650292    1.996    0.499
         5  -8.4039    233.5026    238.4658   9.8326726204e+01  -3.3962561575e+00    0.1078844   0.07671193  26.68 0.0005208362    1.008    0.008
         6  -9.3051    193.9745    238.4796   1.0444317167e+02   2.4264536620e+00    0.1740503   0.08205514  42.57  0.001034063    1.601    0.375
         7  -9.0472    219.4998    235.3243   1.0002937455e+02  -1.0675562979e+00    0.2008517   0.07682617  41.83  0.001086849    2.001    0.500
         8  -8.5537    238.9774    231.0000   9.6435574137e+01  -3.5131079517e+00    0.1785018   0.04764677  42.60 0.0008041915    2.955    0.662
         9  -9.0726    108.6571    154.3245   1.0829451066e+02   2.9368898956e+01    0.1387895   0.09282245  74.55 0.0007050795    1.734    0.423
        10 -11.5438     91.4905    144.6987   1.1061231826e+02   3.4074365861e+01    0.3196109    0.2334272 -74.43  0.001848934    1.327    0.246
        11 -10.7639    109.1263    126.8569   1.0331348137e+02   3.4962157843e+01    0.2238479    0.1832457  84.68  0.001247607    1.274    0.215
        12 -11.9668     99.8529    123.1403   1.0483918335e+02   3.7343708750e+01    0.5385398    0.2597492 -67.43   0.00214935    2.610    0.617
        13 -10.1749     89.9596    122.8172   1.0723654682e+02   3.9015180187e+01    0.2309511    0.1421757  67.41  0.001089052    1.995    0.499
        14  -9.5974     69.6173    117.8306   1.1152664046e+02   4.3093360463e+01    0.1898118    0.1117531 -75.21 0.0005563065    1.713    0.416
        15 -10.4876     91.9813    116.0078   1.0540398413e+02   4.0191739555e+01    0.2243549    0.1587413  81.65 0.0009158754    1.686    0.407
        16 -11.8747     96.7589    110.8956   1.0310831540e+02   4.0533462796e+01    0.4389493    0.2769883  67.43   0.00202634    2.042    0.510
        17 -11.4830     80.8939    108.2456   1.0674440097e+02   4.3639069143e+01    0.4321255    0.2560038  77.98  0.001839879    2.641    0.621
        18 -10.4093    133.8496    108.8426   9.3370362939e+01   3.4030297543e+01    0.2083846    0.1763798 -89.21 0.0008940706    1.338    0.253
        19 -10.5341    141.7105    103.9813   9.0296459415e+01   3.3364364051e+01    0.2179465    0.1980747 -49.82 0.0007503281    1.090    0.082
        20 -12.8955    112.6348     96.2042   9.5487637522e+01   4.0876698572e+01    0.6200202    0.4237684 -47.52   0.00303264    1.400    0.286
        21 -11.1232    102.5629    101.9905   9.9571703650e+01   4.1483359829e+01    0.3041238    0.1808302 -69.38  0.001304082    2.121    0.529
        22 -11.7098     81.9726     97.6574   1.0417557530e+02   4.5848699503e+01    0.4253842     0.243498 -64.65  0.001993902    1.755    0.430
        23 -11.2081     94.7597     95.4799   1.0010681406e+02   4.4263151261e+01     0.282385    0.1915298 -54.30  0.001050416    1.367    0.269
        24 -10.0975     62.3901     92.2134   1.0861608365e+02   4.9845355019e+01    0.1952845    0.1135788 -69.89 0.0009556169    1.687    0.407
        25 -11.6021    122.7702     88.6338   9.0829887328e+01   4.0452534237e+01    0.2923793    0.2846809  -9.18  0.001651448    1.087    0.080
        26  -9.4344     36.3259     85.6696   1.1520434412e+02   5.4263521215e+01    0.1273346   0.08522312  78.42 0.0007050786    1.706    0.414
        27 -11.1074     98.5993     88.8067   9.7349630065e+01   4.5052453582e+01    0.2930548    0.2191112 -82.32  0.001452531    1.660    0.398
        28 -11.8796     98.7638     80.2231   9.4957015914e+01   4.6866639119e+01    0.4457828    0.3111151 -12.35  0.001983835    2.261    0.558
        29 -11.6223     88.3830     81.0698   9.8200213319e+01   4.8491571392e+01    0.4082986    0.2299986 -56.11  0.001862171    1.704    0.413
        30 -10.8413     81.2595     82.1116   1.0059078683e+02   4.9416922888e+01    0.2737272    0.1877808 -69.18  0.001372314    1.581    0.368
        31 -11.3849    112.3995     81.2193   9.1454225888e+01   4.4073347569e+01    0.3876702    0.1794838 -46.56  0.001528402    2.049    0.512
        32  -9.9287     17.2530     80.0043   1.2020855388e+02   5.7145316988e+01     0.213296   0.09250256  62.13 0.0009027749    3.608    0.723
        33 -11.0301     75.9959     77.7268   1.0102447675e+02   5.1191863309e+01    0.3261961     0.181085 -60.79  0.001499436    1.792    0.442
        34 -10.3927    184.0369     77.9674   7.4013779871e+01   2.8294162508e+01    0.2541446    0.1837302  20.85   0.00108399    1.693    0.409
        35 -11.0867     97.0990     72.3939   9.3143087202e+01   4.8819667638e+01    0.3057455    0.2060421 -53.26  0.001489103    1.434    0.303
        36 -12.0924    107.5442     68.7399   8.9007522359e+01   4.7581906062e+01    0.5371167    0.2970698 -54.74  0.002234149    2.019    0.505
        37 -10.3046     57.0029     68.9935   1.0478502394e+02   5.5745862902e+01    0.2187463    0.1466574 -31.74  0.001149935    1.746    0.427
        38  -9.3676      6.3162     67.3304   1.2178357702e+02   6.0689911673e+01    0.1212983   0.06570878 -49.38 0.0003139896    1.682    0.406
        39 -10.4606    129.7463     69.4365   8.3303306755e+01   4.2765623901e+01    0.2953952    0.1514049  55.56  0.001151306    2.180    0.541
        40 -11.4511     94.6675     63.1461   9.0957971604e+01   5.1165637724e+01    0.6249973    0.1733113 -40.43  0.001887151    3.713    0.731
        41 -11.0839    102.4090     70.1839   9.0923646177e+01   4.8286348634e+01    0.2761043    0.2454071  83.73  0.001117469    1.298    0.229
        42  -9.6965     54.0137     63.5040   1.0430844388e+02   5.7322150939e+01     0.177862    0.1321189  33.27  0.001033083    1.591    0.371
        43 -11.5940     85.9243     65.4665   9.4379995726e+01   5.2232932389e+01    0.4774599    0.2129893 -42.21  0.001944078    2.110    0.526
        44  -9.5620     79.4985     60.4918   9.4835878783e+01   5.4333294278e+01    0.1402227    0.1240517 -39.51 0.0008104006    1.034    0.033
        45 -10.3397     72.3010     59.1527   9.6772276181e+01   5.5743544795e+01    0.2336488    0.1581819 -35.56  0.001207577    1.460    0.315
        46  -9.2782    105.3330     49.3363   8.2997039315e+01   5.1749132673e+01    0.1518658    0.1121661   2.87 0.0007052107    1.739    0.425
        47  -9.0578     55.3099     49.3325   9.9534561641e+01   6.0177494275e+01    0.1356249   0.09066301 -27.43 0.0007042579    1.673    0.402
        48  -8.6915     48.3006     47.3116   1.0149438214e+02   6.1466468032e+01    0.1310596   0.08693556 -30.09 0.0001848233    1.606    0.377
        49 -10.4950     95.8425     45.5150   8.4387597601e+01   5.4338640205e+01    0.2878688    0.2207889  -6.81  0.001113743    1.511    0.338
        50  -9.0828     10.9871     42.0108   1.1493189292e+02   6.5954002368e+01    0.1442023    0.1053166 -59.00            0    1.036    0.034
        51  -9.1325      1.5970     31.0312   1.1620755718e+02   6.8798749081e+01     0.164541    0.1068935 -59.58  0.000521642    1.130    0.115
        52  -8.3217     84.7583     21.3584   7.7803204535e+01   6.0498374791e+01    0.1332966    0.0996847 -50.13 0.0003257881    1.592    0.372
