#   1 NUMBER                 Running object number                                     
#   2 MAG_AUTO               Kron-like elliptical aperture magnitude                    [mag]
#   3 X_IMAGE                Object position along x                                    [pixel]
#   4 Y_IMAGE                Object position along y                                    [pixel]
#   5 X_WORLD                Barycenter position along world x axis                     [deg]
#   6 Y_WORLD                Barycenter position along world y axis                     [deg]
#   7 A_WORLD                Profile RMS along major axis (world units)                 [deg]
#   8 B_WORLD                Profile RMS along minor axis (world units)                 [deg]
#   9 THETA_WORLD            Position angle (CCW/world-x)                               [deg]
#  10 FWHM_WORLD             FWHM assuming a gaussian core                              [deg]
#  11 ELONGATION             A_IMAGE/B_IMAGE                                           
#  12 ELLIPTICITY            1 - B_IMAGE/A_IMAGE                                       
         1 -12.9466    243.7983    117.0163   6.3216293367e+01   7.6005481987e+00     2.707658    0.9743918 -32.89  0.009926992    2.602    0.616
         2 -10.6482    194.7935     11.1500   4.2710460865e+01   3.4715933088e+01     3.012294     1.337278 -88.74   0.01120658    3.006    0.667
         3 -12.8119    229.7687     43.0826   4.7087479376e+01   2.2182729181e+01     1.952794     1.167635 -39.25  0.009640535    1.528    0.345
         4 -11.1022    221.6366     37.8852   4.6720430752e+01   2.4830395821e+01     1.134765    0.3716277 -50.66  0.003758044    3.503    0.715
         5 -11.7379    164.1179     53.3868   6.0003000058e+01   3.7260180482e+01     2.666584     1.387535 -75.94  0.006366307    6.793    0.853
         6 -11.8655    182.9526     78.1469   6.3745584816e+01   2.8347580261e+01     3.305985    0.6262655 -41.71  0.008039579    4.966    0.799
         7  -9.0671    223.9357     16.7657   4.1174923658e+01   2.6883211670e+01    0.3430472    0.1555623 -46.15  0.000974262    2.007    0.502
         8  -9.7963    134.4779     13.4292   5.2295883551e+01   4.9929732437e+01     0.330321     0.241548 -22.47 0.0008785206    1.482    0.325
         9  -9.1045    120.2487      9.2975   5.3613067220e+01   5.3804219232e+01    0.2935384    0.2572455 -25.00  0.001238261    1.254    0.203
        10  -9.5010    216.4331      5.4141   3.9060310518e+01   2.9930320205e+01    0.6152056      0.27537 -40.22  0.002870143    2.042    0.510
        11 -10.2425    224.5038      1.7539   3.7492265291e+01   2.8369717137e+01    0.7189405    0.1858856  72.53  0.002053326    3.447    0.710
        12  -8.9785    208.4169      4.7815   3.9629995724e+01   3.1956221584e+01    0.4430852    0.1518503  60.68   0.00178426    2.612    0.617
        13 -12.5086    242.2776     86.3275   5.6135800722e+01   1.2881712288e+01     3.307505    0.6007626 -41.68   0.00904258    4.621    0.784
        14  -8.3977    105.4844      5.2944   5.5307997058e+01   5.7616871541e+01    0.2909129   0.09809209 -32.20  0.001104788    3.070    0.674
        15  -7.8760     94.6402      5.7968   5.8248325047e+01   5.9977194512e+01    0.1651518    0.1156123 -28.36 0.0002652135    1.548    0.354
        16  -8.9955     69.1212    181.2000   1.1420770973e+02   2.8710737876e+01    0.1961779    0.1623435 -80.82 0.0003403441    1.135    0.119
        17  -7.6296     79.9942    250.2582   1.1886803836e+02   1.3662693046e+01    0.1443229   0.07742349  45.08  0.000404848    1.485    0.327
        18  -8.9126    237.8451    175.5193   7.7135673735e+01  -6.0510104203e-01    0.2688691    0.2179974  68.85  0.001165911    1.973    0.493
        19  -9.1062    215.1309    198.7252   8.5850347349e+01  -1.3551595713e-01    0.2791646    0.2107524  39.45 0.0008302924    1.302    0.232
        20  -8.4130     69.7281    165.8600   1.1210183953e+02   3.2107951396e+01    0.1887111    0.1722517  48.60  0.000288095    1.232    0.188
        21  -8.8527    204.8792    169.0313   8.1950682814e+01   6.5613611072e+00    0.2049942    0.1906882  11.77 0.0003699549    1.049    0.047
        22  -7.2609    132.5498    162.4147   9.6390043810e+01   2.2354175047e+01    0.1462517    0.1376066  60.07 7.083505e-05    1.010    0.010
        23  -7.2069    155.5386    153.5262   8.9183948718e+01   1.9637727193e+01    0.1505581    0.1447529  63.24 9.959601e-05    1.054    0.051
        24  -9.4701     69.3364    144.6694   1.0905399374e+02   3.7162395619e+01     0.401823    0.2622118  75.80  0.001462677    1.782    0.439
        25  -9.5762     66.3831    144.2273   1.0975590422e+02   3.7672043354e+01    0.4569147    0.2714299 -80.71  0.001422262    1.808    0.447
        26 -10.3042    242.8199    144.3687   6.9616896276e+01   3.3518335479e+00    0.2834077    0.2612531 -63.21  0.001008699    1.384    0.277
        27  -7.9348    222.9077    144.8547   7.3215265932e+01   7.1535792269e+00    0.1846767    0.1744982  87.53 0.0008231631    1.327    0.246
        28  -8.2964    192.4608    144.0850   7.8963197969e+01   1.3656064849e+01    0.2305576    0.2005866  39.54 0.0006096325    1.144    0.126
        29 -10.1069    116.1846    245.6769   1.1192748507e+02   9.1429381168e+00    0.2063621    0.1850952  74.46 0.0004207828    1.205    0.170
        30  -8.4431    118.8078    231.5749   1.0986680334e+02   1.1096563420e+01    0.1566656    0.1395926  58.85  0.001074414    1.114    0.102
        31  -7.9031    223.1703    128.8475   6.9455723568e+01   9.8665570093e+00    0.1959341    0.1622703   8.04 0.0003399122    1.300    0.231
        32  -7.5341    154.6796    127.3139   8.3328987210e+01   2.5404434154e+01    0.1595972    0.1261141 -88.72 0.0007039015    1.654    0.395
        33  -9.0296    201.5298    125.6419   7.2730366386e+01   1.5147228771e+01    0.2930844    0.2528559  85.50 0.0008718795    1.436    0.304
        34  -7.7710    134.6211    123.7597   8.7403557009e+01   3.0558096237e+01    0.2249983    0.1458393 -57.09 0.0009448908    1.668    0.400
        35 -10.4310    187.0215    118.0230   7.3751408064e+01   1.9904774737e+01    0.6529449    0.3206041 -31.07   0.00237709    2.295    0.564
        36  -8.8131    215.3876    118.2645   6.8301894444e+01   1.3410531100e+01    0.2821433    0.1859196 -43.11  0.001203923    1.480    0.324
        37  -8.5895    150.4659    117.9829   8.1985300654e+01   2.8349887012e+01    0.2228316      0.20838  44.37 9.321483e-05    1.075    0.070
        38  -9.6664    206.7506    115.0393   6.9093762110e+01   1.5928600211e+01    0.2582013    0.2320846  47.66 0.0002892334    1.162    0.139
        39  -7.9809    174.3887    114.7499   7.5604196391e+01   2.3498443969e+01    0.2140923     0.150074 -30.10  0.000306812    1.511    0.338
        40  -9.4799    167.9008    113.5121   7.6724430773e+01   2.5268956492e+01    0.3329233    0.2901585  84.10 0.0006736248    1.325    0.245
        41  -7.3015    113.4804    113.4986   9.0466964888e+01   3.7228866553e+01    0.1528475    0.1475254 -59.50 5.775072e-05    1.001    0.001
        42  -8.3816    212.0178    111.7120   6.7286029500e+01   1.5335672094e+01    0.2072994    0.1990968  -4.16 0.0006119287    1.046    0.044
        43  -9.7117    205.0925    110.2637   6.8197054100e+01   1.7180132139e+01     0.386473    0.2662665  32.75  0.001739334    1.676    0.403
        44 -11.8572    133.9946     38.9315   6.1587699270e+01   4.7001260487e+01     1.686156    0.5744704  65.86  0.004534788    4.918    0.797
        45  -9.4958    197.6840     97.7011   6.6321577847e+01   2.1215718699e+01    0.4047352    0.3566279 -78.54  0.001421139    1.267    0.211
        46  -8.7758    152.5899     96.3308   7.5579801932e+01   3.2391390307e+01     0.357234    0.2614822  29.74  0.000974692    1.579    0.367
        47  -8.1875    137.4439     94.1706   7.8726592204e+01   3.6371315908e+01    0.2441961    0.2106287  87.34  0.000450111    1.365    0.267
        48  -7.8242     95.7630     93.9222   9.0421909014e+01   4.5046831976e+01    0.1944963    0.1768587 -52.19 0.0002145539    1.063    0.059
        49  -7.6983    153.0006     91.9630   7.4224677088e+01   3.3171077277e+01    0.1909562    0.1716183 -38.74 0.0003240404    1.105    0.095
        50  -8.5581    228.1890    221.7464   8.7577838347e+01  -5.4907851979e+00     0.176705    0.1549202 -16.68 0.0004707882    1.313    0.238
        51  -8.3112    162.8258     89.2081   7.1150609918e+01   3.1326714481e+01    0.2505691    0.2105745  24.85 0.0003564642    1.326    0.246
        52  -9.4172    166.6433     86.8413   6.9617679050e+01   3.0838650336e+01    0.3403858    0.2944269 -37.94 0.0008899249    1.148    0.129
        53  -9.4751    146.7289     85.2710   7.3762599190e+01   3.5997417390e+01    0.3236522    0.2839438 -17.69 0.0006785624    1.212    0.175
        54 -10.2668    210.2025     57.1889   5.3289470219e+01   2.4911406189e+01    0.4504278    0.2992183  33.75  0.001307057    1.991    0.498
        55  -9.4524    207.3332     66.6809   5.6283763752e+01   2.4157137024e+01    0.4990064    0.2901596 -39.43  0.001464179    1.623    0.384
        56 -10.4570    203.4535     61.5135   5.5483105936e+01   2.5932052497e+01    0.3473153    0.3260496  46.79 0.0007742642    1.146    0.127
        57 -10.9541    215.4647     74.7977   5.7178188561e+01   2.0873672499e+01     1.521054    0.7198514 -65.21  0.004162868    5.191    0.807
        58 -10.5075    213.6074     67.6520   5.5577301782e+01   2.2464641547e+01    0.9601536    0.3927865 -57.57  0.001523733    4.551    0.780
        59  -8.2551    202.3369     80.2235   6.0779109006e+01   2.3164246395e+01    0.2672764    0.1882872 -79.30  0.001164681    1.882    0.469
        60 -10.7919    163.8312     76.7444   6.7252392058e+01   3.3407275407e+01    0.3805874    0.3041245 -16.99 0.0006925549    1.407    0.289
        61 -11.3385    243.2183     35.0475   4.3705819966e+01   2.0134640681e+01    0.5176697    0.3119753  60.32  0.001227019    1.766    0.434
        62 -10.0170    247.8523     72.6648   5.2118462695e+01   1.3788776701e+01    0.5181071    0.2376587 -57.60  0.001766884    2.970    0.663
        63  -8.2782    151.8503     71.9065   6.8451161462e+01   3.7267015480e+01    0.2820989    0.2265475 -40.05  0.001358219    1.248    0.199
        64 -10.1156    111.2584     73.1145   7.9451768892e+01   4.6430188395e+01    0.2447447    0.2320809  27.10 0.0002658611    1.068    0.064
        65  -9.0917    137.6706     69.9672   7.1245706430e+01   4.1072685749e+01    0.4112523    0.2503996 -44.35  0.001213533    1.685    0.407
        66 -10.0033    191.8132     69.3954   5.9616310294e+01   2.7600819745e+01    0.3173676    0.2921726 -58.74 0.0004841778    1.067    0.063
        67  -8.2308    145.3793    220.5282   1.0321230142e+02   8.6107756597e+00    0.2549699    0.1561873  64.95  0.001245865    2.153    0.536
        68 -11.8739    185.1430     58.2786   5.7589055759e+01   3.1083930239e+01    0.5300175    0.3822853  12.28  0.001610986    1.951    0.488
        69  -9.1108    144.3712     59.3608   6.6167336937e+01   4.1299244684e+01    0.2780501    0.2544523 -74.34 0.0006028023    1.203    0.169
        70  -7.3158     80.4784     60.4889   8.4985912389e+01   5.4788293271e+01    0.1413107    0.1286455 -22.24  0.000166763    1.027    0.026
        71  -7.5449     72.7034     58.3179   8.6963105600e+01   5.6492024019e+01    0.1292036    0.1112527 -79.30 0.0003859821    1.611    0.379
        72  -8.2655    195.8899     56.3125   5.5231223787e+01   2.8638601904e+01    0.3119589    0.2227136  31.61   0.00143875    1.761    0.432
        73  -8.4765    191.4908     53.8594   5.5242202656e+01   3.0131383513e+01    0.4353644    0.1923384 -50.47  0.001551192    2.629    0.620
        74  -7.9979    137.5386     55.0808   6.6356766823e+01   4.3684676985e+01    0.2193729    0.1486081 -34.02 0.0004348386    1.496    0.331
        75 -10.3132    123.9977    205.9989   1.0553537169e+02   1.4912824943e+01    0.1888501    0.1629061  55.52  0.001158113    1.004    0.004
        76  -7.5296     69.7191     50.3396   8.5182356324e+01   5.8478049067e+01    0.1268129    0.1084831 -70.35 0.0004168027    1.625    0.385
        77  -9.0767    210.9636     47.9829   5.0712687877e+01   2.6067203296e+01    0.3438602    0.1776751 -42.27 0.0008973142    1.816    0.449
        78  -8.8481    188.3851     46.4895   5.3614260609e+01   3.2008326518e+01    0.3736384    0.2133539 -40.18  0.001636538    1.715    0.417
        79  -9.9045    185.5353     40.1429   5.2208361699e+01   3.3628208647e+01    0.5575244    0.2475606 -37.65  0.002209149    2.176    0.540
        80  -8.0470    197.4739     43.9984   5.1521100293e+01   3.0027376917e+01    0.2156327     0.135212 -38.70 0.0007412396    1.551    0.355
        81  -7.9295    144.8399    101.6335   7.8976035760e+01   3.3112064246e+01    0.2240391    0.1501151  58.37  0.000938682    1.654    0.396
        82  -8.0905    125.0776     48.1275   6.7037798473e+01   4.7784844298e+01     0.220203    0.1915287  18.01 0.0003509651    1.167    0.143
        83  -8.8624    226.5946    204.0684   8.4720295509e+01  -2.8566853199e+00    0.2513572    0.2181048 -67.63  0.001210325    1.911    0.477
        84 -11.2508    145.1684     27.8449   5.5320542954e+01   4.5650904941e+01     0.567439    0.4370985 -19.94   0.00296295    1.405    0.288
        85  -9.3003    248.0463     23.9013   4.0683172126e+01   2.0451213947e+01     0.413668    0.1689001 -50.44  0.001630014    2.203    0.546
        86 -10.0808    136.9377     25.5530   5.6171163066e+01   4.7997552320e+01    0.3238457    0.2498771 -79.34 0.0008241088    1.616    0.381
        87  -9.7232    180.0410     23.5726   4.8125052910e+01   3.7141951975e+01    0.5492874    0.3984932  83.06   0.00281814    1.371    0.271
        88  -9.3143    162.1190     22.0558   5.0369646682e+01   4.1969487938e+01    0.2114871    0.1955391  65.78 0.0003859396    1.012    0.012
        89 -13.0074     14.2423    190.7321   1.2663242962e+02   3.2948732379e+01     1.026107     0.733145  78.82  0.003157528    1.047    0.045
        90  -8.8070    174.9306     16.8494   4.6826279053e+01   3.9218334137e+01     0.213043    0.1810384  43.99 0.0005114214    1.240    0.193
        91 -12.9798     33.6840    178.2026   1.2169249848e+02   3.3703947651e+01     1.503427       1.1255 -15.84  0.008843154    2.454    0.593
        92  -7.8486     63.3353     12.7419   7.1538883318e+01   6.5335417920e+01    0.1721991    0.1044206 -16.77 0.0007591538    1.590    0.371
        93 -10.4816    246.0956    196.7309   7.9881437605e+01  -5.0090288367e+00    0.2491417    0.2113142  13.28 0.0005122302    1.131    0.116
        94  -8.8592    215.7991    194.0188   8.4837498332e+01   4.5952138363e-01    0.2132482    0.1692319  25.85  0.000395726    1.122    0.109
        95  -8.9758    216.1045    189.0889   8.3831682424e+01   1.1643717395e+00    0.1985263    0.1739407  13.15 0.0003856476    1.032    0.031
        96 -10.0082    184.0762    185.1646   8.9393593755e+01   7.7652296228e+00    0.2280454    0.2204844  40.48 0.0003091867    1.138    0.121
        97  -8.1641    136.2810    185.2076   9.9659641593e+01   1.6844969999e+01    0.1877685    0.1812537  12.18 0.0003687222    1.159    0.137
        98  -8.7251    167.0573     15.5258   4.7541248209e+01   4.1398943385e+01    0.2122701    0.1279111  67.35 0.0003732465    1.511    0.338
        99  -8.6684    242.4393    183.8890   7.8016729220e+01  -2.6226463829e+00    0.2173335    0.2130004 -79.90   0.00142947    1.509    0.337
