#   1 NUMBER                 Running object number                                     
#   2 MAG_AUTO               Kron-like elliptical aperture magnitude                    [mag]
#   3 X_IMAGE                Object position along x                                    [pixel]
#   4 Y_IMAGE                Object position along y                                    [pixel]
#   5 X_WORLD                Barycenter position along world x axis                     [deg]
#   6 Y_WORLD                Barycenter position along world y axis                     [deg]
#   7 A_WORLD                Profile RMS along major axis (world units)                 [deg]
#   8 B_WORLD                Profile RMS along minor axis (world units)                 [deg]
#   9 THETA_WORLD            Position angle (CCW/world-x)                               [deg]
#  10 FWHM_WORLD             FWHM assuming a gaussian core                              [deg]
#  11 ELONGATION             A_IMAGE/B_IMAGE                                           
#  12 ELLIPTICITY            1 - B_IMAGE/A_IMAGE                                       
         1  -9.9415     10.0680     18.8790   1.0459282177e+02   6.9212156496e+01    0.8141729    0.3447682  -5.41  0.003136517    5.089    0.803
         2 -10.6334     37.3708      9.8188   8.8952626840e+01   6.7161906696e+01    0.6816579    0.2412949 -34.14  0.002359371    3.014    0.668
         3 -10.9610     22.4022      7.9738   9.4389830414e+01   6.9256644960e+01     1.116104    0.7500407  51.08   0.00620524    3.028    0.670
         4 -10.8232     22.9692     34.3750   1.0470077349e+02   6.5809920457e+01    0.6244016     0.421784  -0.60  0.003103787    1.312    0.238
         5 -10.7205      6.7112     29.8258   1.1029123626e+02   6.7940270919e+01    0.5479156    0.3727173 -37.04  0.002753251    1.325    0.245
         6  -9.3460      2.4389     14.4241   1.0646419600e+02   7.0450873794e+01    0.3318089    0.1857331 -49.32   0.00184502    2.472    0.595
         7 -10.5094      5.2397      4.6902   1.0095852696e+02   7.1415041804e+01     0.457597    0.3089511   0.16  0.001721485    1.104    0.095
         8 -10.9194     37.0210     39.0920   1.0058307920e+02   6.3557762462e+01    0.6341796    0.3867565 -39.31 0.0009604672    1.640    0.390
         9  -9.7763     63.9138      2.9471   7.6975636901e+01   6.3644260790e+01    0.4682421    0.2678306 -41.40  0.002718778    2.566    0.610
        10 -10.0247     69.4758     40.3772   8.9179052368e+01   5.8695314383e+01    0.8886484    0.3814661 -30.76  0.003417404    2.474    0.596
        11 -10.5306     45.5299     29.2024   9.3569892510e+01   6.3814411255e+01    0.4884528    0.4461077 -53.97  0.003252416    1.765    0.433
        12 -10.4037     51.1057     14.9179   8.5914915312e+01   6.4646361386e+01     1.247881    0.5413642  19.63  0.005130615    3.803    0.737
        13 -10.2108     60.8354     31.4414   8.8862868251e+01   6.1256831501e+01    0.8984619    0.4973195  -8.33   0.00338901    2.393    0.582
        14 -10.4299     73.6570     18.3988   7.9915004408e+01   6.0545972023e+01     1.177646    0.2776564 -29.41  0.004461907    4.522    0.779
        15  -9.6747     62.9941     21.2832   8.4328597359e+01   6.2083606037e+01    0.3938389    0.2241419 -42.01  0.001878207    2.361    0.576
        16  -9.8993     64.6180     13.4142   8.0805084878e+01   6.2608221619e+01    0.3710515    0.2646215   1.03  0.001949411    1.388    0.280
        17  -9.3038     78.1373      4.2715   7.3481964503e+01   6.0984918444e+01    0.4774415    0.2487828  -1.96  0.002375975    2.540    0.606
        18  -9.3131    152.6951     28.8495   6.5684342546e+01   4.2951983769e+01    0.3873091    0.2089093  -4.34  0.001480028    4.421    0.774
        19  -8.9021    119.8011     16.6125   6.8112741071e+01   5.1520907468e+01    0.3889046    0.2128912  19.46  0.001800074    2.938    0.660
        20  -9.0370    112.4173     16.0721   6.9436971318e+01   5.3145991768e+01    0.3287515    0.1839108 -30.65  0.001361394    2.051    0.513
        21  -9.2958    114.0401     10.1409   6.7278577911e+01   5.3329547674e+01    0.3713452     0.173765  40.44 0.0003871915    2.118    0.528
        22 -10.0767    132.6137      8.1407   6.3358477887e+01   4.9492897555e+01    0.6616111    0.3123769 -36.51  0.003464681    2.412    0.585
        23  -8.2551    136.1219      1.4877   6.0978308607e+01   4.9272441575e+01    0.1831338   0.09650091  65.45 0.0007339023    1.529    0.346
        24  -8.5879    120.9828      5.9934   6.4732508419e+01   5.2193977187e+01    0.2267442    0.1450656  61.52 0.0007652198    1.286    0.222
        25  -9.2659    132.6812     17.2757   6.5915029561e+01   4.8648937620e+01    0.3257675    0.2104602  51.42  0.001283168    1.347    0.258
        26  -8.7519    125.5741      5.2230   6.3708173298e+01   5.1267651048e+01    0.3355094    0.1791627  31.03   0.00140566    2.403    0.584
        27  -8.6853    125.3313     12.9539   6.5988047315e+01   5.0660352355e+01    0.2777241    0.2064965 -53.57 0.0009262052    1.624    0.384
        28  -8.6682    126.9901      8.5687   6.4426222161e+01   5.0683253352e+01    0.2530226    0.1442546  56.94 0.0003960823    1.418    0.295
        29  -9.3770     96.2287     14.7188   7.2602569437e+01   5.6604239057e+01    0.5617042    0.2472236 -13.82  0.002531077    3.295    0.697
        30  -7.8523     97.7195      5.6968   6.9258448202e+01   5.7069521865e+01    0.1832596    0.1359612  38.48  0.000190626    1.171    0.146
        31  -8.4653     95.8211      2.8280   6.8724553807e+01   5.7672109543e+01    0.1955305    0.1874961  17.83 0.0008270401    1.217    0.178
        32  -8.4985    104.5505     15.0898   7.0814062802e+01   5.4878624198e+01    0.3113295    0.1650105  18.14  0.001440849    2.911    0.656
        33  -9.5697     85.3907     13.1526   7.4761331789e+01   5.8868574033e+01    0.3488077    0.2597584 -67.99  0.001458669    2.248    0.555
        34  -7.9002     80.5063     12.5243   7.5834085094e+01   5.9848932944e+01    0.2127512    0.1336175 -39.19  0.001261056    2.030    0.507
        35  -8.4514    141.3313     12.4766   6.3146367679e+01   4.7184540372e+01    0.2314996    0.1631722 -66.34 0.0006919205    1.667    0.400
        36  -8.7783    101.9459      7.9522   6.9075865230e+01   5.6030200000e+01    0.2840939    0.1501933 -34.39   0.00065806    2.236    0.553
        37  -8.2942    104.7142      2.3903   6.6712734587e+01   5.5897835282e+01    0.2899546    0.1196812  44.96  0.001365055    2.053    0.513
        38  -9.3238    110.5307      6.5339   6.6856243329e+01   5.4367440442e+01    0.3853064    0.2204156 -14.09  0.002180773    2.216    0.549
        39  -8.6332    108.6792      2.3142   6.5906005928e+01   5.5082549485e+01    0.1838719    0.1705092  73.10 0.0009149835    1.195    0.163
        40  -8.3745    143.7474      6.3413   6.1142453520e+01   4.7195346389e+01    0.3534695    0.1319127 -44.66  0.001589998    3.186    0.686
        41  -9.0075    115.2558      4.1846   6.5234169016e+01   5.3558415952e+01    0.2099394    0.1780021 -46.52 0.0006478485    1.436    0.303
        42  -8.5188     89.1493      2.8688   7.0251230596e+01   5.8989675372e+01    0.2879464    0.1560767 -28.67  0.001313518    2.154    0.536
        43  -8.1982     85.1308      4.6989   7.1853855507e+01   5.9628070415e+01    0.2452569    0.1544213 -16.68  0.001532167    1.819    0.450
        44  -7.0695    150.7029      1.6662   5.8964693738e+01   4.6053042558e+01    0.1187589   0.07739485  43.98  0.000702998    1.646    0.393
        45  -9.9123     26.1113     24.4887   9.9608382909e+01   6.6854900598e+01    0.8521757    0.3811109 -14.30  0.003682743    3.634    0.725
        46 -10.2058    139.3117    104.4235   8.8850726051e+01   3.3923579470e+01    0.9473146    0.4986888 -56.73  0.001507704    2.331    0.571
        47 -12.0130    199.5061    248.4605   1.0566296917e+02  -7.7119076253e+00     1.622262    0.4655182  39.90  0.006058361    3.380    0.704
        48 -10.1085    167.6412    247.9211   1.1204716467e+02  -2.7125599017e+00    0.3892646    0.2441914 -44.07  0.002063178    1.734    0.423
        49 -10.2740    162.6600    249.5729   1.1333659129e+02  -2.2140937897e+00    0.5043769    0.2615286  51.06  0.002264771    2.305    0.566
        50 -11.0611    120.9541    109.7100   9.4935753349e+01   3.6709880971e+01     1.494088    0.6599694 -43.91  0.005020964    2.240    0.554
        51 -10.6960    109.0181    101.0948   9.5907661880e+01   4.0947306292e+01     1.042108     0.787411 -79.18  0.004736311    1.855    0.461
        52 -10.3793    131.6888    119.6433   9.4681034459e+01   3.2298703080e+01     1.085964    0.6341571  73.88  0.002869571    3.749    0.733
        53 -11.0259    133.2737    109.3039   9.1625581405e+01   3.4210292930e+01     1.096517    0.6036977 -40.42  0.004470583    1.852    0.460
        54  -7.3569    244.4852    126.4804   7.3884403124e+01   7.3975597366e+00      0.13746    0.1139674 -54.31 0.0001223286    1.047    0.045
        55  -9.8102     27.4980    123.0839   1.2614768706e+02   4.7703891115e+01    0.5591891    0.3257903  73.51  0.002068308    2.832    0.647
        56  -9.7770     41.3600    121.9544   1.2166342660e+02   4.6600951250e+01    0.4921098      0.24098 -72.82  0.001607191    2.554    0.608
        57  -8.5723    241.8987    122.5031   7.3457921522e+01   8.5991848257e+00    0.1799498    0.1356528  56.31 0.0007498821    1.537    0.349
        58  -7.0997    180.6100    122.7582   8.4196313417e+01   2.0995374223e+01    0.1486203    0.1193183  17.16 0.0006930915    1.657    0.397
        59  -8.8067    157.6068    121.9784   8.8981439140e+01   2.6198437378e+01    0.3700535    0.2476041  79.65  0.001465315    2.285    0.562
        60 -10.1548     92.0144    112.9911   1.0397744353e+02   4.1517457840e+01    0.6091534    0.4487502 -77.81  0.001602312    1.844    0.458
        61  -8.7732     92.5755    103.8429   1.0142620498e+02   4.3446947867e+01    0.5709075    0.3698319  12.37  0.002413386    2.234    0.552
        62  -8.3990      1.4032    116.2332   1.3294871834e+02   5.1252780880e+01    0.2945538    0.1022491 -69.85  0.001035188    2.471    0.595
        63  -8.8899    152.5162    115.6986   8.8598037236e+01   2.8661587068e+01    0.3012926    0.2351452  17.57 0.0009358382    1.682    0.405
        64  -9.2730     20.0489    115.8830   1.2716150462e+02   5.0039293994e+01    0.3142243    0.1661612  -1.23  0.001300047    2.792    0.642
        65  -7.7135    167.3197    114.4512   8.4982069918e+01   2.5644597807e+01    0.2631139    0.1768777 -64.21 0.0008146111    1.744    0.427
        66 -10.1920     78.1523    113.0523   1.0818839407e+02   4.3813211991e+01    0.5316262     0.350415 -76.53  0.001640724    2.260    0.557
        67  -7.9187     77.5961    106.1493   1.0662022114e+02   4.5460965025e+01    0.2985062    0.1599648 -38.11  0.001260149    1.926    0.481
        68 -11.2922     20.7919    100.8040   1.2403265286e+02   5.3428574573e+01     1.628239    0.9519981  70.51  0.006225731    3.455    0.711
        69  -9.3724     43.7727     54.2229   1.0317095909e+02   6.0363710646e+01    0.3553527    0.2152085 -26.60 0.0008852776    1.567    0.362
        70  -9.5605     39.0664     54.9162   1.0520667246e+02   6.0813478150e+01     0.752978    0.2395205 -41.59  0.003169938    2.809    0.644
        71 -10.6457     30.8651     65.3414   1.1161164277e+02   5.9848828389e+01     1.526553    0.6501501 -19.99   0.00513513    4.969    0.799
        72 -10.0947     20.4202     84.7307   1.2063546918e+02   5.6940948274e+01    0.6545307    0.2348513 -51.82  0.002304294    2.141    0.533
        73 -10.1196     34.4289     90.3376   1.1699333720e+02   5.4495814633e+01    0.6490579     0.323983 -69.30  0.002059933    2.962    0.662
        74 -10.1182     37.4172     80.6131   1.1343969598e+02   5.6211252881e+01    0.6371924    0.3236349  -8.24  0.002545477    3.420    0.708
        75  -8.7127    158.9967    112.0792   8.6217383237e+01   2.7987009600e+01    0.2743244     0.221269 -64.80 0.0005381019    1.308    0.235
        76  -9.9823     65.9691    103.6718   1.0968142508e+02   4.7763654992e+01    0.7414494    0.5151803  10.55  0.003685911    1.739    0.425
        77 -10.3968     63.0359     95.8050   1.0860641894e+02   4.9895490137e+01    0.5556383    0.3732738 -78.41  0.001548977    2.501    0.600
        78  -8.8669     63.8698     86.8231   1.0588608169e+02   5.1653481924e+01    0.6434695    0.3508145  -5.05  0.002208748    4.097    0.756
        79  -9.9646     65.6588    110.8645   1.1155886172e+02   4.6184109518e+01     0.439993    0.3857409  52.91  0.001127199    1.323    0.244
        80  -9.2054     59.2604    109.4407   1.1325995983e+02   4.7386652731e+01    0.5378175    0.2621927 -64.82  0.001504232    2.561    0.609
        81  -9.8595     14.2407    111.3806   1.2818625145e+02   5.1527706285e+01    0.5061064    0.2844503 -83.96  0.001713196    2.287    0.563
        82  -8.7600     14.7322    105.0586   1.2687374137e+02   5.2934696892e+01    0.2800525    0.1385212 -38.78  0.001085772    1.917    0.478
        83  -8.8012    149.7259    109.5594   8.7695895467e+01   3.0568533025e+01    0.3981199    0.2148762 -40.60 0.0008703025    1.880    0.468
        84  -9.6885    149.6101    103.3268   8.6123056541e+01   3.1871869441e+01    0.4502588    0.2976247 -62.87   0.00106423    1.822    0.451
        85 -10.8446     44.5450    102.4657   1.1643160339e+02   5.0770884507e+01     0.795795    0.5024208  67.73  0.002897918    2.968    0.663
        86  -8.7139     39.9776    106.5520   1.1887677870e+02   5.0347220849e+01    0.2480504    0.1751917 -73.53 0.0007108223    1.629    0.386
        87  -9.6801      6.3072    103.6627   1.2936056389e+02   5.3817530537e+01     0.415139     0.274935  73.71  0.001627664    2.162    0.537
        88  -8.3054      1.5948    105.2286   1.3114412701e+02   5.3747269259e+01    0.2867356     0.102508 -56.73  0.001080137    1.975    0.494
        89  -8.1264     35.8144    104.7812   1.1986248820e+02   5.1178905947e+01    0.1722585    0.1537117 -89.43 0.0006933217    1.341    0.254
        90  -8.5005    166.0036    103.8703   8.2644640600e+01   2.8083552438e+01    0.2617296    0.2075012 -54.03 0.0006438399    1.241    0.194
        91  -9.6589     81.4885     99.6655   1.0369888388e+02   4.6249686033e+01    0.6450581    0.2655654 -50.23  0.002123151    2.380    0.580
        92  -8.4914     73.9448    102.7969   1.0690329348e+02   4.6772688190e+01    0.2520018    0.1782829 -62.13 0.0006423327    1.591    0.371
        93  -8.8388    159.0750    101.3012   8.3482031141e+01   3.0153634431e+01    0.2827235    0.2093211 -55.02 0.0005146038    1.374    0.272
        94  -9.5138     94.3609     97.2663   9.9108937316e+01   4.4525553213e+01    0.3286627    0.2834095 -72.67 0.0005815683    1.390    0.281
        95  -8.8736     95.8882     91.0162   9.6907201653e+01   4.5524925348e+01    0.5548761    0.3365271  -6.46  0.002003348    3.296    0.697
        96  -9.5955    150.6731     96.3933   8.4079506661e+01   3.3008371793e+01    0.5870672    0.3566391  38.43  0.002517133    1.870    0.465
        97  -9.3264    150.3522     89.0997   8.2235367431e+01   3.4470101519e+01    0.4655192    0.2583371 -33.11  0.001560563    2.072    0.517
        98  -9.8542    241.0295     94.7161   6.7933953619e+01   1.3733162503e+01    0.4071494    0.2219341 -82.28  0.001631001    3.237    0.691
        99  -9.6987    223.0589     93.2457   7.0106110783e+01   1.7579862689e+01    0.2649243    0.2263123 -53.10 0.0003232488    1.106    0.096
       100  -9.1152    164.4383     94.2704   8.0555835327e+01   3.0299273608e+01    0.3728348    0.2412497 -51.35   0.00143373    1.563    0.360
       101  -9.2308    138.7073     92.6167   8.5858716732e+01   3.6410347973e+01    0.3374234    0.2648047 -87.08 0.0008118108    1.608    0.378
       102  -8.5983    139.2583     87.8549   8.4439820917e+01   3.7192362711e+01    0.4182189    0.2882246  18.81  0.001334527    2.156    0.536
       103  -9.1658    140.4829     83.0717   8.2851439449e+01   3.7799135011e+01    0.5077816    0.2139728 -43.02  0.001591982    2.412    0.585
       104  -9.2087    140.0580     75.8152   8.0956902093e+01   3.9174345490e+01    0.5957478    0.2779141 -37.28  0.001531219    2.274    0.560
       105 -10.4183      4.6689     87.0907   1.2677200109e+02   5.7539365106e+01     1.302466     0.310239 -59.56  0.004453539    2.978    0.664
       106  -9.8727     15.3772     71.4650   1.1925858624e+02   6.0029196588e+01    0.6105013    0.2682556 -33.74   0.00127393    2.155    0.536
       107 -11.0943    178.4374    247.8730   1.0981485346e+02  -4.4071438336e+00     0.717802    0.3351579  23.95   0.00295818    2.682    0.627
       108  -9.9230     16.8497     61.4920   1.1600360182e+02   6.1823112579e+01    0.7115198    0.3365681 -46.18  0.003861207    1.707    0.414
       109  -9.3438    246.8502    243.2535   9.5836237025e+01  -1.3366742839e+01    0.2031999    0.1672073  -5.89 0.0004003243    1.082    0.076
       110  -9.9448    108.5021    114.2757   9.9539483142e+01   3.8188209767e+01    0.5756575    0.3875147 -77.37  0.001333022    2.325    0.570
       111 -10.3087    188.3167    233.5336   1.0540067230e+02  -3.4292498284e+00    0.4118142    0.2372984 -37.17  0.001588966    1.790    0.441
       112 -10.8513     21.9753     53.6033   1.1159579502e+02   6.2806645838e+01    0.7014638     0.454517 -74.76  0.002773067    3.664    0.727
       113  -7.2252    105.6467    236.7152   1.2362964431e+02   9.5807372917e+00    0.1293916    0.1074887  -3.08 0.0005906314    1.664    0.399
       114 -10.2799     14.7374     44.6837   1.1178870021e+02   6.4949190134e+01    0.6186386    0.3158237 -14.59  0.003314978    2.196    0.545
       115 -10.3300      5.0917     42.2465   1.1518937725e+02   6.6087090127e+01    0.6454357    0.3674355 -56.89  0.002523442    2.044    0.511
       116 -10.1050    140.8292    229.9640   1.1494192097e+02   5.1637145955e+00    0.2420376     0.227167 -53.87  0.000335614    1.142    0.124
       117  -7.8262     13.2604    219.9649   1.4124857465e+02   2.5729030793e+01    0.1739616    0.1251492 -87.33 0.0004699754    1.117    0.105
       118  -8.9183    157.6385     90.3156   8.0970092121e+01   3.2589750515e+01    0.3788579    0.1752359 -35.11  0.001418346    2.466    0.595
       119 -10.3519     47.9084     84.4500   1.1072717823e+02   5.4244545048e+01    0.6762767    0.3877363 -57.04  0.001612021    1.857    0.462
       120  -9.0257     49.0305     77.4578   1.0838012314e+02   5.5506067025e+01    0.5622094    0.3384292  -9.78  0.002688036    2.183    0.542
       121  -7.9596    227.4874     89.4861   6.8681709743e+01   1.7326891291e+01     0.202812    0.1236338  48.85 0.0006732302    1.970    0.492
       122 -10.2434     85.4567     86.7240   9.8855402423e+01   4.8249172555e+01    0.4528916     0.375194  81.01 0.0009708454    1.710    0.415
       123 -10.6779     25.7644     78.3129   1.1710555374e+02   5.7810378035e+01    0.7383743    0.5354329  86.90  0.002889153    2.431    0.589
       124  -8.3358    163.3438     87.0710   7.8946014959e+01   3.1885771180e+01    0.2113639    0.1774561 -55.66 0.0006677738    1.183    0.155
       125  -9.5753     87.4693     78.7899   9.5903221683e+01   4.9419746187e+01    0.5611839    0.3482777  16.97   0.00188745    2.154    0.536
       126  -8.9423    157.5851     83.8242   7.9293566065e+01   3.3789020149e+01    0.3822419    0.2461517 -52.65 0.0009420602    1.632    0.387
       127  -9.0326    157.4264     77.5438   7.7683562746e+01   3.4928311507e+01     0.511502    0.2160624 -50.91  0.001682064    2.775    0.640
       128  -9.9331    116.5300    125.1188   1.0005425453e+02   3.4151228533e+01    0.8373938     0.559109  88.53  0.002325558    2.663    0.625
       129 -10.3237    104.0459     82.6343   9.2119169362e+01   4.5596204921e+01     0.517601    0.3179818 -54.33 0.0009241658    1.944    0.485
       130  -9.4654    105.1633     71.5292   8.8513397850e+01   4.7370278727e+01    0.6581425    0.4533638 -23.49  0.002334212    1.646    0.393
       131  -7.7883    170.4970     83.5333   7.6633212570e+01   3.0883131055e+01    0.1457363    0.1345269 -85.48 1.663579e-05    1.025    0.024
       132  -8.2162    224.5286     82.2566   6.7564700778e+01   1.9168100752e+01    0.2707248    0.1498962  48.44  0.001281436    2.211    0.548
       133  -9.3213    150.1828     79.5868   7.9743553231e+01   3.6229276773e+01     0.553706    0.2930372 -28.87  0.002202612    2.454    0.592
       134  -8.9239    118.9948     80.4524   8.7404896732e+01   4.2953504734e+01    0.3238394    0.2065793 -46.53 0.0006187904    1.646    0.392
       135  -8.1226    119.8351     76.1416   8.5943839770e+01   4.3544552923e+01    0.2244586    0.2023645  19.22 0.0005493751    1.145    0.127
       136  -9.2394     74.2226     79.2269   1.0025048551e+02   5.1578817657e+01    0.6219054    0.2447267 -43.88  0.001831127    2.444    0.591
       137  -8.4048     68.7070     79.9137   1.0227925528e+02   5.2308840293e+01    0.2569905    0.1577792 -47.45  0.001274479    1.621    0.383
       138  -8.1483    184.2154     78.2345   7.2831470406e+01   2.8667932850e+01    0.2267616    0.1902366 -36.12 0.0005831789    1.312    0.238
       139  -7.8236    173.9895     78.9490   7.4828496033e+01   3.0882324569e+01    0.2275841    0.1649584 -79.20 0.0005861405    1.610    0.379
       140  -8.1784    166.4726     78.8954   7.6235168470e+01   3.2617704538e+01    0.2041866    0.1395284 -42.95  0.000525299    1.478    0.324
       141  -9.4284    127.3725     75.2625   8.3795671929e+01   4.2077310461e+01    0.3826629    0.2861665 -66.80 0.0008884826    1.691    0.409
       142  -9.0813    129.5888     68.9035   8.1442455163e+01   4.2663234150e+01    0.4996916    0.2649769  34.86  0.002035321    2.357    0.576
       143  -8.8052    130.5845     64.7839   8.0027020501e+01   4.3107452301e+01    0.3396287    0.2131134 -35.09  0.001641987    1.707    0.414
       144  -8.1560    249.2023     76.1597   6.3265930130e+01   1.5248928595e+01    0.1783105    0.1240796 -71.11 0.0005144529    1.320    0.242
       145  -9.2366    115.2674     72.0492   8.5935496564e+01   4.5214127808e+01    0.4923516    0.2761257 -33.68  0.001548624    1.926    0.481
       146  -9.9385     81.5992     72.4737   9.5828143947e+01   5.1601477682e+01    0.3813792    0.3094346 -71.68 0.0009782207    1.773    0.436
       147  -9.0577     83.3295     64.7682   9.2877768684e+01   5.2634670432e+01    0.5264198    0.3316922  -1.14  0.002373637    2.350    0.574
       148 -10.5224     55.2889     71.0000   1.0424342709e+02   5.5924985139e+01    0.6030685    0.3650046  52.50  0.001256659    2.603    0.616
       149  -9.1127     54.8567     63.2947   1.0200609580e+02   5.7370623935e+01    0.5634696    0.2947308  32.63  0.002828136    1.928    0.481
       150 -10.2219     62.5506     60.8246   9.8486119291e+01   5.6690435305e+01    0.8755401    0.2976381  34.83  0.001093788    3.001    0.667
       151  -8.5440    169.1425     71.4893   7.3848718673e+01   3.3249773888e+01    0.3338191    0.1956445 -36.92  0.001377167    1.815    0.449
       152  -8.6657    162.6548     72.4834   7.5327014417e+01   3.4580485292e+01     0.337355    0.1963942 -48.83  0.001010592    1.775    0.437
       153  -7.4037    175.3279     72.6382   7.3017535851e+01   3.1637810611e+01    0.1527469    0.1031775 -74.70 0.0002404152    1.795    0.443
       154  -9.4346    147.0011     69.3014   7.7648498797e+01   3.8693149692e+01    0.4223965    0.2602942 -56.93 0.0009247017    1.933    0.483
       155  -8.2021    147.8056     63.3901   7.5871610861e+01   3.9449896030e+01    0.2077395    0.1196859  46.71 0.0009485352    1.717    0.418
       156  -8.6178    146.6979     59.2842   7.4977319187e+01   4.0329579782e+01    0.3090743     0.186713 -55.25 0.0007411913    1.961    0.490
       157  -8.7884    147.5849     53.6357   7.3256815180e+01   4.0954367409e+01    0.4588679    0.2490612 -17.27    0.0016931    3.168    0.684
       158  -8.3312    156.4978     70.0206   7.5891230836e+01   3.6402032765e+01    0.2014059    0.1390435 -41.42 0.0004156957    1.498    0.333
       159  -9.7727     94.8579     68.2981   9.0480441699e+01   4.9928692925e+01    0.3932142    0.2392117 -43.57 0.0008238628    1.734    0.423
       160  -9.6268     97.1772     58.6594   8.6793523445e+01   5.1045482324e+01     0.721462    0.4744531 -16.17  0.003596526    1.855    0.461
       161  -8.8977    139.4179     40.0251   7.1085026954e+01   4.4632303613e+01    0.4748498    0.2523217 -52.17  0.001475576    2.361    0.577
       162  -9.3163    138.2356     65.1838   7.8406515720e+01   4.1338296650e+01    0.5529934    0.2532995 -33.32  0.001609463    2.471    0.595
       163  -9.3527    138.8299     56.7368   7.5904462441e+01   4.2492948324e+01    0.5396702    0.2784138 -51.00  0.001649578    2.348    0.574
       164  -9.9969    142.1648     47.2441   7.2563900671e+01   4.3074278048e+01    0.9452651    0.5346833  32.15  0.002750093    2.503    0.600
       165  -9.4554    130.1725     47.2940   7.5058487572e+01   4.5758224479e+01    0.6499894    0.2697752 -24.24  0.001224833    3.638    0.725
       166  -8.9822    132.8648     36.0546   7.1245406465e+01   4.6586436083e+01    0.4412289    0.2093915 -39.48  0.001478896    2.311    0.567
       167 -10.7878    134.0912     30.9277   6.9537306108e+01   4.6909506876e+01    0.3013423    0.2434718  12.44  0.001821848    1.521    0.343
       168  -9.3346    118.4458     54.9341   8.0019764399e+01   4.7247213885e+01    0.5056083    0.3019316 -47.39  0.001309556    1.939    0.484
       169  -9.2205    121.2319     65.9757   8.2621558665e+01   4.4956057119e+01    0.3366706    0.2438268 -51.82 0.0009150119    1.568    0.362
       170  -8.8431    123.3424     59.9884   8.0341832387e+01   4.5438489193e+01    0.3897544    0.2704367  -1.01 0.0009074446    2.092    0.522
       171  -9.4886    109.9427     63.9410   8.4915335185e+01   4.7658517503e+01    0.3701127    0.2576168 -48.86 0.0005801743    1.634    0.388
       172  -9.0677    110.7080     58.2813   8.2986970457e+01   4.8381566887e+01    0.3655072    0.2548622  24.13  0.001278963    1.651    0.394
       173  -7.8610    170.8506     65.3242   7.1984484956e+01   3.3845916349e+01    0.2190281    0.1625874  83.51 0.0005534007    1.424    0.298
       174  -8.4009    157.8294     63.3113   7.3862601623e+01   3.7162303776e+01    0.3054429    0.1762794 -53.42 0.0009765652    1.942    0.485
       175  -8.5180     87.5442     58.5431   8.9589136240e+01   5.2884684976e+01    0.2635135    0.2210955 -50.40  0.000690466    1.432    0.302
       176  -8.5762     89.0183     53.0480   8.7364344933e+01   5.3449822900e+01    0.4414601    0.2636108  18.67  0.002039184    2.226    0.551
       177  -9.9569     73.0516     58.9427   9.4307815594e+01   5.5348952366e+01    0.4928346    0.2375733 -46.70  0.001032111    2.390    0.582
       178 -10.2980     89.6072     38.3758   8.2318959254e+01   5.5348426148e+01      0.86548     0.308769  35.99  0.003190585    3.402    0.706
       179  -9.1738     76.0006     49.8645   9.0328795689e+01   5.6254754684e+01     0.460635    0.2998379  15.71  0.002426667    1.736    0.424
       180 -10.2290     85.1469     48.0827   8.6883282878e+01   5.4885956204e+01    0.3595772    0.3003615 -66.65 0.0009977554    1.738    0.425
       181  -9.2553     79.9949     46.3319   8.7870847104e+01   5.6063984969e+01    0.3221563    0.2104577 -22.77 0.0005318449    1.617    0.382
       182  -8.3898     10.3169     60.4587   1.1833531592e+02   6.2506284186e+01    0.2638868    0.1961816 -84.08  0.001587084    2.280    0.561
       183  -8.0390    164.4359     60.2968   7.1851266419e+01   3.6100498487e+01    0.1866986     0.124053 -52.45 0.0009327354    1.575    0.365
       184  -7.6504    152.4310     60.2084   7.4083983882e+01   3.8878371504e+01     0.188723    0.1257041 -51.71 0.0009345216    1.618    0.382
       185  -8.7135    130.0251     58.0054   7.8201144525e+01   4.4272751290e+01    0.2886994    0.1928544 -46.54 0.0004848515    1.642    0.391
       186  -8.0976    130.2091     53.9998   7.6998869928e+01   4.4818043483e+01    0.2816477     0.160281  33.86  0.001245076    2.170    0.539
       187 -10.1165     50.1476     54.3318   1.0081060603e+02   5.9524295827e+01    0.5201669    0.3324077 -51.15  0.001645368    1.944    0.486
       188  -9.7474     56.1051     43.4426   9.4881978321e+01   6.0366969336e+01    0.7364181    0.3780345   5.17  0.002803518    3.999    0.750
       189  -8.5780     53.4338     39.2485   9.4351367789e+01   6.1353000223e+01    0.2358845    0.1692657 -32.06  0.000855784    1.412    0.292
       190  -8.3964     54.7044     35.5757   9.2550942489e+01   6.1667120089e+01    0.2108271    0.1713483   9.49 0.0005936723    1.023    0.022
       191  -9.1442    162.6469     53.1781   7.0336917648e+01   3.7559835737e+01    0.3669017    0.2295888 -36.40  0.001435594    1.731    0.422
       192  -9.0678    105.6076     52.0785   8.2400198768e+01   5.0345241550e+01    0.5216758    0.2567607 -31.09  0.001694571    2.249    0.555
       193  -8.0476    152.6494     53.0067   7.2112052527e+01   3.9884509041e+01      0.24506    0.1341717 -26.97  0.001093474    2.306    0.566
       194  -8.1471    157.5212     49.0369   7.0166344615e+01   3.9320499505e+01    0.1903655    0.1302739 -41.99 0.0005273052    1.549    0.355
       195  -8.3624    149.9637     47.8771   7.1237436517e+01   4.1212505981e+01    0.2186653    0.1908832 -47.59  0.000467768    1.230    0.187
       196  -9.1664    121.0973     46.7659   7.6931163908e+01   4.7818486788e+01    0.3392573    0.1960318 -30.81 0.0005479408    1.925    0.481
       197  -8.1300    122.7611     41.0107   7.4827014880e+01   4.8205170533e+01     0.344934    0.1909236  26.17  0.001466239    2.758    0.637
       198  -9.4614    219.6371     44.7540   6.0348086918e+01   2.5966223451e+01    0.3621137     0.223635 -44.06  0.001125309    1.577    0.366
       199  -9.0249    112.5089     45.1354   7.8474921584e+01   4.9870302248e+01    0.6245906    0.3110702 -15.57  0.002339351    3.480    0.713
       200  -7.6275    162.4362     46.2397   6.8587052992e+01   3.8570714525e+01    0.1778705    0.1187997 -52.00 0.0006251268    1.588    0.370
       201  -7.3732    142.6030    215.4966   1.1217085877e+02   7.9054801208e+00    0.1402448    0.1358082  60.14 -8.815207e-05    1.042    0.040
       202  -9.9924      9.6191    207.4138   1.4098870982e+02   2.8945350962e+01    0.4219248    0.2859148  12.37  0.002451448    2.338    0.572
       203  -8.5621    249.8671    200.5447   8.7591333528e+01  -6.9450348838e+00    0.2197135    0.1564046 -38.88 0.0003824663    1.253    0.202
       204  -9.1407    192.0475    194.5285   9.7412769443e+01   3.4649425398e+00    0.9085045    0.4304673 -64.07  0.002266926    6.911    0.855
       205  -9.4164    247.5104    182.3193   8.4514718034e+01  -3.4055613485e+00    0.3004464    0.2414204 -69.22 0.0008620782    1.723    0.420
       206  -7.3650    160.7535    180.9650   1.0153786700e+02   1.2222917073e+01      0.19296    0.1270823 -47.12 0.0003504556    1.490    0.329
       207  -9.1120    235.9226    177.6160   8.5584961093e+01  -7.3145231204e-01    0.2995348    0.2262782  36.51  0.001089438    1.497    0.332
       208 -10.1264     76.2170     32.0296   8.4071171302e+01   5.8595064038e+01    0.5025908    0.3259842  63.79  0.001116322    2.333    0.571
       209  -7.4829     18.4868    178.4165   1.3631996910e+02   3.4990152824e+01    0.1293653    0.1056463 -84.00 9.491579e-05    1.015    0.015
       210  -8.9289    236.4359    172.7028   8.4518557420e+01   1.0537273088e-01    0.2489222    0.2052601 -14.76 0.0002450687    1.253    0.202
       211  -9.7343     79.6137     23.6776   8.0081353909e+01   5.8923380731e+01    0.5184695    0.2236677  33.87  0.001791421    2.434    0.589
       212  -9.1838     84.6936     21.9169   7.8026688240e+01   5.8159526880e+01     0.287917    0.2097985  26.53  0.001559372    1.258    0.205
       213  -9.0318    104.9662     41.1756   7.9111157809e+01   5.1951764384e+01    0.3167152    0.1997211 -40.64 0.0008594383    1.796    0.443
       214  -8.6168    106.3549     36.1359   7.7153493107e+01   5.2289271327e+01    0.3404052    0.1871986  40.05 0.0009888337    1.717    0.418
       215  -9.1245    110.3521     33.3459   7.5306799209e+01   5.1785654893e+01     0.340566    0.2079173 -43.05  0.001109166    1.935    0.483
       216  -8.8821    236.7491    167.9723   8.3518549532e+01   9.4450398806e-01    0.2482899    0.2137305 -57.15 0.0003940688    1.252    0.201
       217  -8.8492    153.3836     40.7903   6.8721267404e+01   4.1361465301e+01    0.2805007    0.1922278 -77.58 0.0009218021    1.783    0.439
       218  -7.8001    160.4350     39.4565   6.7176379320e+01   3.9915601612e+01    0.2261525    0.1067406 -46.80 0.0008238929    2.298    0.565
       219  -9.1612    144.8399     37.0302   6.9234641134e+01   4.3775952249e+01    0.4586768    0.2722258 -82.52  0.001364809    2.675    0.626
       220  -7.2508    193.2519     36.9642   6.1824109403e+01   3.2770704585e+01    0.1436872    0.1034488 -46.50 0.0002448342    1.418    0.295
       221  -8.8515    118.9321     34.7356   7.3780674547e+01   4.9798314585e+01    0.2855372     0.173293 -36.49 0.0007311583    1.835    0.455
       222  -9.2982    100.9359     32.6678   7.7385842468e+01   5.3806148444e+01    0.3860925    0.2713206 -25.95  0.001514096    1.571    0.363
       223  -8.5909    153.5326     34.9631   6.7154658808e+01   4.2048487632e+01    0.1787419    0.1270572 -38.82 0.0005308143    1.549    0.354
       224  -8.3549    246.2883    167.5647   8.1834184004e+01  -5.3199294691e-01    0.2128741    0.1330251  48.83 0.0006515778    1.967    0.492
       225  -7.9542    119.2886     28.1781   7.1710665015e+01   5.0462364913e+01    0.2297612    0.1185107 -18.26  0.001073735    2.613    0.617
       226  -9.0170     91.4040     26.3329   7.7741910024e+01   5.6407008121e+01     0.284348    0.2078872 -48.82  0.001268324    1.817    0.450
       227  -8.6159     92.1250     21.1435   7.5786890114e+01   5.6805064997e+01    0.2589691    0.1737948  29.29 0.0007742622    1.436    0.303
       228  -8.8828    144.1247     25.6509   6.6255815536e+01   4.5243329780e+01    0.2008444    0.1675014 -56.41 0.0006197375    1.325    0.245
       229  -8.5937    128.4560     25.7606   6.9132790849e+01   4.8723434306e+01    0.2215069    0.1918481 -84.27 0.0006860521    1.284    0.221
       230  -7.2426    123.3094     26.6709   7.0422218967e+01   4.9753323253e+01    0.1239809   0.09483462 -77.77 0.0007040536    1.663    0.399
       231  -8.4404    156.5030     27.4619   6.4716173945e+01   4.2243169201e+01    0.2302726    0.1345917 -62.88  0.001141434    2.132    0.531
       232  -9.0410     40.9619     21.1223   9.2179994926e+01   6.5431570315e+01    0.2356202    0.1408676 -23.32  0.000535099    1.599    0.375
       233  -8.6651    139.3392     22.2194   6.6136335117e+01   4.6678359083e+01    0.2659588    0.1643098  62.52  0.001478979    1.382    0.277
       234  -9.2675    118.8082     21.4507   6.9770637388e+01   5.1266565173e+01    0.2362552    0.2129499  30.68 0.0005311629    1.145    0.127
       235  -9.0423     91.0568    169.5472   1.1658548298e+02   2.7859483676e+01     0.263425    0.2036091 -58.76 0.0003287609    1.224    0.183
       236  -7.6579    111.7163     22.3390   7.1540481188e+01   5.2688795926e+01    0.1926427    0.1419818 -54.05 0.0006240043    1.738    0.425
       237 -10.2354    204.6318    165.3319   8.8879008730e+01   7.1648312558e+00    0.2595392    0.2569945 -77.48 0.0003962121    1.109    0.098
       238  -8.5007    157.6664    168.1590   9.9582325111e+01   1.5749862783e+01    0.2305878    0.2115972  66.69 0.0003851916    1.162    0.139
       239  -8.9405    103.0836     21.2733   7.3148363883e+01   5.4591819310e+01    0.2430235    0.1922007 -34.38 0.0008635817    1.475    0.322
       240  -7.6711    140.0754     18.1457   6.4890867827e+01   4.6924165595e+01    0.1674478    0.1346755 -86.05 0.0004828157    1.313    0.238
       241  -8.4481     90.3330    154.1307   1.1381315110e+02   3.1865297725e+01    0.2132306    0.2027518  -9.49 0.0003363652    1.173    0.148
       242  -8.2227    134.2317    149.2497   1.0111541275e+02   2.4915322692e+01    0.4084308    0.1796093 -59.30  0.001303131    2.910    0.656
       243  -8.0688    133.4839    144.9821   1.0033254896e+02   2.6081277704e+01    0.3698491    0.1525942 -49.42   0.00126416    2.355    0.575
       244  -9.0626    224.2803    148.0290   8.1585207462e+01   6.9824969581e+00    0.2203876    0.2088354  53.21 0.0001941426    1.196    0.164
       245  -7.9567    128.7079     16.3143   6.6349497543e+01   4.9614080342e+01     0.178271    0.1476851 -63.74 0.0003754238    1.408    0.290
       246  -8.1934    210.3290    147.0110   8.3878433872e+01   9.8304770854e+00    0.2978699      0.17272 -57.03  0.001059173    1.913    0.477
       247  -9.0117     67.6997    145.3442   1.1841218631e+02   3.7563042474e+01    0.3337002    0.2751351  50.89  0.001015639    1.319    0.242
       248  -8.9064     65.3351    142.7134   1.1857928579e+02   3.8552988059e+01    0.2894302     0.257249 -86.36 0.0008412205    1.160    0.138
       249  -8.8516    238.0047    145.7586   7.8809173781e+01   4.9434135393e+00    0.1634645    0.1190283  48.30 0.0008821534    1.603    0.376
       250  -7.3520    152.4526    145.4724   9.5780909046e+01   2.2051084428e+01     0.157122    0.1505261 -64.68  0.000127896    1.024    0.023
       251  -7.5511    250.6941    135.3173   7.4743049390e+01   4.6847793437e+00    0.1337154   0.09410017 -67.00 0.0004306683    1.629    0.386
       252  -8.6343    111.8101    133.3960   1.0334243204e+02   3.3125090390e+01    0.4004339    0.2769752 -89.87  0.001479291    2.255    0.556
       253  -7.2629    189.4549     15.5281   5.7523586775e+01   3.6137434227e+01    0.1223378   0.09858444  89.33 0.0001797748    1.009    0.009
       254  -9.7820    133.9109    131.8685   9.7132793463e+01   2.9064001693e+01     0.527108    0.4560055  45.52   0.00264449    1.187    0.158
       255  -7.4553     86.9336    134.0000   1.1049687593e+02   3.7425952294e+01    0.3256223    0.0871128  35.85 0.0008765001    3.984    0.749
       256  -8.3753     82.2419    130.6171   1.1110440956e+02   3.9012312170e+01    0.4012709     0.240478 -89.46  0.001348077    3.598    0.722
       257 -10.1613     58.3330    124.7045   1.1699086691e+02   4.3920509130e+01    0.8814963    0.5154248  79.46   0.00309379    3.836    0.739
       258  -9.4502     67.1367    128.8681   1.1521070673e+02   4.1717046145e+01    0.3613358    0.2912599 -50.86  0.001163652    1.126    0.112
       259 -10.0253     71.2035    125.8741   1.1332816795e+02   4.1854688613e+01    0.5640261    0.3942165 -84.45  0.001311386    1.954    0.488
       260  -9.6893     98.4323    128.5596   1.0593452939e+02   3.6757388660e+01    0.6119227    0.3973434  77.37  0.002306688    2.735    0.634
       261  -8.1325    161.4064    130.1911   9.0104866986e+01   2.3583014247e+01    0.2201346    0.1441043 -55.02 0.0004246629    1.567    0.362
       262 -10.2718    140.6957    118.4588   9.2118996395e+01   3.0642805192e+01    0.7516686    0.4089833 -48.91  0.001079458    1.825    0.452
       263  -9.3821    110.6882     90.0522   9.2380808946e+01   4.2854648339e+01    0.9786578    0.4011761  31.91  0.003020798    3.865    0.741
       264 -10.7309    123.7217     90.9139   8.9127225896e+01   3.9990580833e+01      1.11476    0.6150606 -31.51  0.002497507    2.152    0.535
       265 -10.3018    128.4692    100.7011   9.0573985915e+01   3.7030407422e+01    0.9541416    0.4922479 -29.98  0.002576839    2.649    0.623
