#   1 NUMBER                 Running object number                                     
#   2 MAG_AUTO               Kron-like elliptical aperture magnitude                    [mag]
#   3 X_IMAGE                Object position along x                                    [pixel]
#   4 Y_IMAGE                Object position along y                                    [pixel]
#   5 X_WORLD                Barycenter position along world x axis                     [deg]
#   6 Y_WORLD                Barycenter position along world y axis                     [deg]
#   7 A_WORLD                Profile RMS along major axis (world units)                 [deg]
#   8 B_WORLD                Profile RMS along minor axis (world units)                 [deg]
#   9 THETA_WORLD            Position angle (CCW/world-x)                               [deg]
#  10 FWHM_WORLD             FWHM assuming a gaussian core                              [deg]
#  11 ELONGATION             A_IMAGE/B_IMAGE                                           
#  12 ELLIPTICITY            1 - B_IMAGE/A_IMAGE                                       
         1  -9.0259     45.7241     20.8053   5.7130847366e+01   6.5402536516e+01    0.4956038    0.1995782 -40.93  0.002389435    2.067    0.516
         2  -9.4807     26.9887     21.2937   6.5024605331e+01   6.7283888000e+01    0.5908702    0.3134006 -35.47  0.003482423    1.522    0.343
         3  -9.7492     77.4450     12.9141   4.2053219338e+01   6.1883081536e+01    0.6677228     0.252799  39.80  0.002834428    2.695    0.629
         4  -9.2866     63.8607     14.0436   4.7251534412e+01   6.3955101169e+01    0.4150829     0.239425  11.59  0.002048224    2.230    0.552
         5  -9.8324     31.8043     10.7910   5.8569188289e+01   6.8561038501e+01    0.3452697    0.2072823 -11.58 0.0003067757    1.792    0.442
         6  -9.1459     31.9719      5.8487   5.6208533795e+01   6.9299826248e+01    0.2060422    0.1299359 -28.05 0.0003233624    1.236    0.191
         7  -8.0481     96.9754     11.6142   3.5535297406e+01   5.8360591220e+01    0.2366485    0.1674377   1.22   0.00124073    1.384    0.278
         8 -10.2271     19.9540      8.5007   6.2871531941e+01   7.0052366766e+01    0.4512194    0.2681251   1.59  0.002826185    1.956    0.489
         9  -9.1231      3.8030      6.5532   6.9723678802e+01   7.1569660599e+01    0.4106425    0.1762802 -22.09  0.001974099    2.837    0.648
        10 -10.5266     13.4413      4.1215   6.4002445976e+01   7.1293182350e+01    0.3245643    0.2202355   3.08   0.00027221    1.564    0.361
        11  -9.7805    125.3606      9.8770   2.7733289728e+01   5.2320980918e+01    0.2747866    0.2189108  30.56 0.0003148029    1.153    0.133
        12  -8.9796    142.8129      9.3274   2.3954374589e+01   4.8140863409e+01    0.2507471    0.2088185  26.79 0.0003035271    1.143    0.125
        13  -9.3834     77.1333      6.2308   3.9063065551e+01   6.2764816026e+01    0.2946846    0.2026281  33.24 0.0009168831    1.391    0.281
        14  -8.8433     41.5200      5.5613   5.1951885193e+01   6.8237795171e+01    0.3030483    0.2091485   6.21  0.001246435    1.425    0.298
        15  -9.5609     85.1814      4.5569   3.5773532241e+01   6.1473425698e+01    0.3914295     0.226377  -1.95 0.0005943546    1.876    0.467
        16  -8.3214    131.5217      5.0278   2.4514908392e+01   5.1330240946e+01    0.1970288    0.1341561 -18.00 0.0003909749    1.497    0.332
        17  -8.2447    125.4892      3.3415   2.5083813788e+01   5.2930128555e+01    0.2327179    0.1843834 -11.36 0.0005576127    1.267    0.210
        18  -8.8633    110.4642      2.9433   2.8275074755e+01   5.6415484916e+01     0.369794    0.1865656 -30.31  0.001711642    2.014    0.504
        19  -9.7838     57.5017      3.3561   4.4508213831e+01   6.6340419239e+01    0.2443922    0.1961166  -6.08 0.0007988493    1.034    0.033
        20  -8.3841    153.7214      3.0141   1.9715724515e+01   4.5970562385e+01    0.1922188     0.176127  17.56 0.0002523681    1.088    0.081
        21  -8.1578     91.6419      5.0825   3.4128671305e+01   6.0161102192e+01    0.2607171    0.1690356  37.77  0.001305839    1.433    0.302
        22  -7.2070    105.3047      1.3242   2.8824290041e+01   5.7700744443e+01    0.1444609   0.08787277  24.29 0.0004203517    1.642    0.391
        23  -7.7830      2.5136      1.4498   6.8232003990e+01   7.2498638746e+01    0.1096878   0.07501136 -33.70  1.89263e-05    1.033    0.032
        24  -8.1945     68.5125    127.4858   7.8259977305e+01   4.0865626770e+01    0.1273434    0.1088336 -81.67  0.000111467    1.020    0.020
        25  -9.5902    199.0248    249.6013   7.0687165262e+01  -9.6544404471e-01    0.2331241    0.1556708  48.98  0.001619423    1.337    0.252
        26  -9.5180    147.0993    248.6165   7.8845903534e+01   7.3021846638e+00    0.2021881    0.1687065  82.43 0.0005232525    1.401    0.286
        27  -7.4013    119.4799    118.4878   6.4083449037e+01   3.4742078816e+01    0.1402362    0.1352569 -73.49 0.0008101856    1.014    0.014
        28  -9.2343     65.7614    112.2985   7.6313813211e+01   4.4535039087e+01    0.2299185    0.1914045 -73.37 0.0002459409    1.058    0.055
        29  -8.4757      1.4405    110.2480   9.2136220818e+01   5.0926917904e+01    0.2124037   0.07314571 -69.05  0.001118625    2.043    0.511
        30  -7.4318     39.3653    109.8517   8.2691904117e+01   4.8021911839e+01     0.175624   0.08619634 -57.67  0.000505297    1.690    0.408
        31  -8.6801    250.1903    106.8007   3.4772673726e+01   7.9744488548e+00    0.2337307    0.1469872 -63.46 0.0009482556    2.835    0.647
        32  -7.8308    125.0042    106.4835   5.9896574551e+01   3.6183795074e+01    0.2073175     0.128529  20.95 0.0008103363    2.616    0.618
        33  -9.0565     14.9384    104.4666   8.8162555925e+01   5.1247549471e+01    0.3639425    0.1540659 -39.82  0.001696972    3.537    0.717
        34  -7.8402     94.0108    102.9926   6.6982539372e+01   4.2496282513e+01    0.2127362    0.1681639 -14.66  0.001006432    1.685    0.406
        35  -8.1703    133.9367    106.1325   5.7627780267e+01   3.4458416991e+01    0.2820945    0.1945339 -16.59  0.000765492    2.086    0.521
        36  -7.5416     64.9608    100.7685   7.4296601002e+01   4.7165241799e+01    0.1521011    0.1094724  35.37  0.000871429    1.615    0.381
        37  -8.0001    130.4613     96.6850   5.6018953402e+01   3.7086498935e+01    0.2628092    0.1816261  24.90  0.001178938    1.841    0.457
        38  -9.8012     12.6503     93.7665   8.7336534156e+01   5.3693771297e+01    0.3526146    0.2222586 -30.91  0.001726871    2.130    0.531
        39  -9.3065     20.2069     92.3116   8.5072637006e+01   5.3469773284e+01    0.5106717    0.2008095 -46.16  0.002492151    2.627    0.619
        40  -8.8183     43.7634     92.3248   7.8505283422e+01   5.1412993590e+01     0.279161    0.1907947 -30.55  0.001627754    1.844    0.458
        41  -7.6325     83.9886     93.0000   6.7331983863e+01   4.6219525134e+01    0.2065259   0.07850292  38.53 0.0007999209    2.925    0.658
        42  -8.2593     96.3536     90.5164   6.3300646882e+01   4.4775174257e+01    0.3470155    0.2373868   2.54  0.001542048    2.468    0.595
        43  -8.5608    246.3225     88.9747   3.0929664342e+01   1.1363522711e+01    0.2503422   0.08022282 -45.70 0.0007049385    4.390    0.772
        44  -7.6795    110.9513     90.0000   5.9225255037e+01   4.2292557580e+01    0.2296958   0.08282728  43.68 0.0008013393    2.935    0.659
        45  -7.1858      1.3199     89.3155   8.9787818307e+01   5.5335947311e+01    0.1119394   0.06220042 -50.89 0.0007039999    1.656    0.396
        46  -8.7670     66.3062     83.8483   7.0168663453e+01   5.0670134762e+01    0.2117315    0.1934842   2.48 0.0006087152    1.285    0.222
        47 -10.2657     38.0819     80.5870   7.7834110929e+01   5.4506072784e+01    0.5460618    0.3066865 -20.21  0.002601679    3.117    0.679
        48  -7.9286    126.5883     83.3103   5.3267421969e+01   4.0555361783e+01    0.2627856    0.1803692  25.07  0.001178119    1.821    0.451
        49  -8.9441     89.4473     78.0763   6.1899501111e+01   4.8517985452e+01    0.5557071    0.2448417  29.62  0.002060505    3.359    0.702
        50  -7.1693     64.3115     79.2774   6.9641588776e+01   5.1903584621e+01     0.127167   0.09253008 -28.25 0.0002758183    1.561    0.359
        51  -9.6816      8.3941     76.9687   8.6032482201e+01   5.7535730168e+01    0.4473865    0.1765371 -41.27  0.002180993    2.825    0.646
        52  -7.9590    184.2946     77.9737   3.8581790006e+01   2.8061933041e+01    0.2206331    0.1966305 -23.29   0.00051784    1.114    0.102
        53  -8.8105     49.5418     76.9571   7.3561773291e+01   5.4134122036e+01     0.365771     0.223326  -4.10  0.001768495    2.885    0.653
        54  -7.4097    105.6581     76.3161   5.6796284920e+01   4.6060651548e+01    0.1432418    0.1140576 -84.23 0.0007048382    1.710    0.415
        55 -10.2780     25.4129     70.5745   7.9664150522e+01   5.7725480532e+01    0.6147572      0.37374 -35.59  0.003597455    1.774    0.436
        56  -8.3668    103.4868     72.7155   5.6327526071e+01   4.7176945366e+01    0.2668532    0.1318843 -47.31 0.0006897319    1.945    0.486
        57  -8.5428     21.0261     84.0799   8.3515356647e+01   5.5177342113e+01    0.1708757    0.1330456 -65.54 0.0002807042    1.015    0.014
        58  -7.6047    209.0482     69.5551   3.1630788116e+01   2.3166413430e+01    0.2138828    0.1499279  58.06  0.000127958    1.460    0.315
        59  -8.4811    105.7569     66.8539   5.3875927336e+01   4.7897947386e+01    0.3127304    0.2153009 -18.63  0.001475644    1.736    0.424
        60  -8.9169     83.7040     64.0397   5.9474203541e+01   5.2280928935e+01    0.5131776    0.3161852  -9.34  0.002135155    2.853    0.649
        61  -7.3606    221.6698     66.2804   2.8673353569e+01   2.0491881796e+01     0.150932    0.1142239 -66.03 0.0004787585    1.604    0.377
        62  -8.7312     14.2228     63.6357   8.1834872519e+01   5.9977524975e+01    0.3080511    0.1494337  47.99  0.001644099    2.971    0.663
        63 -10.5025     61.9801     60.9821   6.5412407251e+01   5.6003904943e+01    0.4644161    0.2596406  24.37 0.0003771542    2.295    0.564
        64  -8.0310     74.8938     73.9021   6.5041934231e+01   5.1606128223e+01     0.202592    0.1665937 -26.23 0.0005828098    1.263    0.208
        65  -8.6253     19.5837     60.7446   7.9462455243e+01   6.0218012527e+01     0.223403    0.1350642 -41.99 0.0006581279    1.496    0.332
        66  -9.4922     36.2706     59.5863   7.3578695833e+01   5.9106464455e+01    0.3191572     0.178509 -17.60  0.001569307    2.797    0.643
        67  -9.0450     49.5944     58.6063   6.8823152339e+01   5.7960313080e+01    0.2241872    0.1911233 -63.98 0.0001622538    1.243    0.196
        68  -7.5531    111.2547     57.6298   4.9319435229e+01   4.8546921672e+01     0.198628     0.131972  34.42   0.00071805    1.622    0.384
        69  -9.0234     99.8313     54.8579   5.1634501879e+01   5.1250668043e+01    0.3259886     0.212719 -28.62 0.0003514723    1.514    0.339
        70  -7.8648     18.5123     54.4895   7.8407288406e+01   6.1582288946e+01    0.1164591   0.08948919 -56.09    2.531e-05    1.035    0.034
        71  -9.8571     75.2751     49.8863   5.7526513111e+01   5.6309311592e+01    0.3265153    0.2435509 -18.67 0.0003549966    1.375    0.273
        72  -7.5744    118.7033     50.9922   4.5005453727e+01   4.8169373332e+01    0.2035528    0.1809369 -16.49 0.0005178908    1.059    0.056
        73  -8.1914    106.5716     48.4700   4.7454305230e+01   5.1085877320e+01    0.3298556    0.2066091   7.94  0.001367346    2.454    0.593
        74  -8.8072     45.4886     48.4037   6.7218087250e+01   6.0442090543e+01    0.2425163    0.1722989 -30.94 0.0005265177    1.307    0.235
        75  -8.9414      9.5253     47.1300   7.9860240732e+01   6.3650066653e+01    0.3450187    0.2039213  17.80  0.002112092    2.196    0.545
        76  -9.4270     14.6587     43.9946   7.7202758920e+01   6.3959405951e+01    0.6314205     0.172316 -42.38  0.002687556    3.216    0.689
        77  -9.2799     19.3856     34.7218   7.2775434456e+01   6.5441932813e+01    0.3847332    0.2338794 -64.59  0.001641334    1.718    0.418
        78  -9.0311     22.0195     31.9943   7.0867297924e+01   6.5759302884e+01    0.1953647    0.1755622 -35.08 0.0003077434    1.212    0.175
        79  -7.4724    157.4392     46.4680   3.4218261865e+01   3.9834039156e+01    0.1542226    0.1419169  17.65 0.0001459118    1.064    0.060
        80  -8.5228     92.9653     42.7829   4.9390128101e+01   5.4632081403e+01    0.4795429    0.2902086   1.58  0.001983775    2.688    0.628
        81  -7.6394     58.5165     40.4488   5.9927004211e+01   6.0408244682e+01    0.1665465    0.1168569  14.22  0.000575565    1.661    0.398
        82  -8.7492      2.4385     44.4599   8.1822287928e+01   6.4571219227e+01    0.2395938    0.1492083 -43.27  0.001654395    1.347    0.258
        83  -7.9486    114.0860     41.1965   4.2719754215e+01   5.0745294547e+01    0.2220055    0.1807714  10.13 0.0004700982    1.253    0.202
        84  -8.6331     54.8805     44.1067   6.2489323715e+01   6.0188871032e+01    0.3857758     0.188897 -23.63  0.001558314    3.247    0.692
        85 -10.0519     83.5593     39.5340   5.1114299167e+01   5.6828655339e+01    0.4048653     0.251543  23.83 1.037246e-05    1.910    0.477
        86  -8.4067    123.9131     39.3215   3.9449464873e+01   4.8899335765e+01    0.2822493    0.1951841  12.50 -0.000275831    1.726    0.421
        87 -10.1263      4.9679     33.5530   7.8160495984e+01   6.6585532077e+01    0.5379043    0.3204994 -58.26  0.002729349    1.286    0.222
        88  -8.7278      3.3686     24.7880   7.6307926946e+01   6.8339005470e+01     0.261745    0.1168763 -49.47 0.0007535025    1.537    0.349
        89  -9.5177     68.1553     36.7703   5.5194930085e+01   5.9731673549e+01    0.5462115    0.2983095  18.67  0.002240312    2.650    0.623
        90  -7.2115     53.2809     38.2686   6.1028843292e+01   6.1466953172e+01    0.1222812    0.0835683 -20.32 0.0006891194    1.490    0.329
        91  -8.6850     35.6081     37.2569   6.7277171404e+01   6.3586812646e+01    0.3085268     0.118768 -49.38  0.001126006    2.041    0.510
        92  -8.7136     38.7952     34.9961   6.5287512531e+01   6.3693103038e+01    0.2625919    0.1638378 -14.37 0.0006152722    1.918    0.479
        93  -8.6097    105.7629     36.2907   4.3174608712e+01   5.3228283424e+01    0.3123039    0.2119217  26.95 0.0006429897    1.583    0.368
        94  -7.6757    153.0704     34.9579   3.1190753658e+01   4.2560103764e+01    0.2275461    0.1648782  22.53            0    1.520    0.342
        95  -9.1362     56.4772     34.9148   5.8637465514e+01   6.1666526035e+01    0.2941922    0.2109247  23.89  0.001075023    1.555    0.357
        96  -8.3073      1.3239     28.3341   7.8197814492e+01   6.7776873726e+01    0.2312557    0.1004768 -46.30 0.0008926544    1.631    0.387
        97  -8.9773     96.3347     32.7812   4.4546467681e+01   5.5620304264e+01    0.2450113    0.2018684   1.26 0.0002628077    1.156    0.135
        98  -9.0060     70.9580     30.0301   5.1595730320e+01   6.0441674303e+01    0.2995999    0.1760615 -19.81  0.001087938    1.830    0.454
        99  -9.7078     70.2141     26.2266   5.0299173137e+01   6.1163720141e+01    0.4388888    0.2738483   0.57  0.002186001    2.059    0.514
       100 -10.9424     80.2838     23.1656   4.5621228295e+01   5.9975750845e+01    0.4484037    0.2855586  32.47 0.0006802673    1.615    0.381
       101  -9.0335     84.5502     21.5059   4.3542837675e+01   5.9462245833e+01    0.2212154    0.1931757 -31.01  0.000536934    1.253    0.202
       102  -8.4878     42.0732     27.8395   6.1397237229e+01   6.4633173033e+01    0.2075574    0.1445884  -9.40 0.0007734581    1.524    0.344
       103  -8.4329    217.6780    249.6714   6.7753878948e+01  -3.8837215985e+00    0.1133256   0.06649546  22.82 0.0007048781    1.692    0.409
       104  -9.1708     61.8791     26.6187   5.3417635995e+01   6.2341201639e+01    0.2433782    0.1600228 -14.96 0.0004903629    1.559    0.358
       105 -10.4730    156.6861    248.7932   7.7337567240e+01   5.7937400918e+00    0.3829685     0.260036  56.32  0.002114854    1.292    0.226
       106  -7.4171    109.4304     25.1662   3.7791874343e+01   5.4075679679e+01    0.1809927    0.1248629 -36.33 0.0004483183    1.496    0.332
       107 -10.2471    128.9783     22.0163   3.1684746574e+01   5.0100427365e+01     0.255999    0.2284701  21.89            0    1.029    0.028
       108  -7.0438    172.2867     22.6962   2.3428123921e+01   3.9128577645e+01    0.1476095    0.1112164 -61.13 0.0002772716    1.563    0.360
       109  -7.4297    179.1341     21.5927   2.1956766087e+01   3.7449754267e+01    0.2006213    0.1250361  50.33 0.0003038813    1.520    0.342
       110  -8.9328     92.1219     20.6474   4.0842081425e+01   5.8176368430e+01    0.2804253    0.2099004   7.88 0.0005189013    1.313    0.238
       111  -7.3364    100.5252     19.9722   3.8112922341e+01   5.6610147689e+01    0.1957006    0.1098921   0.31  0.000666581    2.433    0.589
       112  -7.8650     16.3480     16.6929   6.7872158507e+01   6.8967096660e+01    0.1655819    0.1462356   9.86  0.001170218    1.420    0.296
       113  -9.1721      9.0475     19.3754   7.2089780141e+01   6.9000287752e+01      0.29906    0.1661491 -40.19 0.0009329997    1.337    0.252
       114  -8.2557     12.5176     17.9911   7.0060416397e+01   6.9016973128e+01    0.2037234    0.1191647 -25.82 0.0006500597    1.606    0.378
       115  -7.0747    146.6750     18.7190   2.6679746067e+01   4.6179057168e+01    0.1542189     0.100673  31.38 0.0002211278    1.594    0.373
       116  -8.5380    127.7393     16.3901   2.9780964014e+01   5.1055096096e+01    0.2432509    0.1852755 -18.09 0.0004088633    1.305    0.234
       117  -9.8962    174.9452    247.4821   7.4264717698e+01   3.0779290578e+00    0.2442655     0.162327  52.13 0.0003604927    1.299    0.230
       118  -8.0811     65.0707    242.9853   9.1121733181e+01   1.9645843714e+01    0.1554959    0.1108193  67.03 0.0005635375    1.027    0.026
       119  -7.6289    189.5238     15.0267   1.8333089322e+01   3.5414561687e+01    0.2089505    0.1176331  15.96 0.0008079027    2.567    0.610
       120  -8.0362    146.9744     14.0146   2.4899787994e+01   4.6617611481e+01    0.2165816    0.2005523  54.23 0.0006363536    1.090    0.082
       121  -7.5131     33.2404    241.0085   9.5668940967e+01   2.3619521033e+01    0.1111664   0.06377553 -85.93 0.0003312187    1.544    0.352
       122  -8.4528    113.8201    238.4326   8.3150590860e+01   1.3719068163e+01    0.2005291    0.1252847  55.14  0.001374379    1.224    0.183
       123  -8.0268     88.0999     12.9239   3.8699847755e+01   5.9942398337e+01    0.2150699    0.1382951  16.59 0.0005757152    1.651    0.394
       124  -9.7778    188.3408    234.0651   7.0369003868e+01   2.4916742436e+00     0.222981     0.200796 -56.07  0.001098682    1.520    0.342
       125  -8.7434     64.9396    229.1017   9.0168765080e+01   2.1822192443e+01    0.1524391    0.1233165  76.92            0    1.194    0.162
       126  -8.7714    137.8960    226.9967   7.7954654784e+01   1.1686682615e+01     0.167681    0.1336177  53.01 0.0003367122    1.027    0.027
       127  -8.1990    242.9517    226.2891   6.0298391160e+01  -5.5605822597e+00    0.1631342    0.1151313  30.08 0.0005178612    1.077    0.072
       128  -7.7497    123.2947    222.5957   7.9942276322e+01   1.4646483138e+01    0.1762889    0.1091457  68.07 0.0005509681    1.698    0.411
       129  -8.6426     11.1778    207.3238   9.7227355615e+01   3.1331929677e+01    0.1642419   0.08862299  30.73  0.001100903    2.690    0.628
       130  -7.5617    177.6615    204.6975   6.7969682406e+01   8.1600315992e+00    0.1256128   0.08801039  21.40  0.000703804    1.669    0.401
       131  -7.8671    249.5046    200.4698   5.4870693517e+01  -3.9578570533e+00    0.1224682   0.09642034  20.29  6.06822e-05    1.029    0.028
       132  -8.0844    149.2970    174.9481   6.8525862041e+01   1.8092160586e+01    0.1789111    0.1695639  71.05 0.0006430795    1.083    0.077
       133  -7.4585    107.4413    151.4659   7.3301147540e+01   3.0001746948e+01    0.1306632    0.1186749  82.19  0.000193487    1.011    0.011
       134  -8.5057    233.9823    147.7112   4.6988894254e+01   5.5147650000e+00    0.1951556    0.1699363  22.87 0.0004494941    1.059    0.056
       135  -8.7707     67.0397    144.2786   8.1142085753e+01   3.7454769470e+01    0.3829948    0.2144816  71.80  0.001910446    2.205    0.547
       136  -7.4032    140.3422    138.3177   6.3539922143e+01   2.6679439744e+01    0.1424538    0.1137171   4.55  0.000498138    1.715    0.417
       137  -8.0052    160.1779    129.7214   5.7299809325e+01   2.4272539502e+01    0.2806664    0.1939194 -12.47  0.001220517    2.128    0.530
       138  -7.6352     45.4643    127.4947   8.3757074579e+01   4.3574742329e+01    0.1203263   0.09801019 -78.56 0.0008094836    1.022    0.021
       139  -7.7030    132.5562    124.4688   6.2322077738e+01   3.0997053491e+01    0.1403466    0.1382337 -87.84 0.0001575773    1.026    0.025
