#   1 NUMBER                 Running object number                                     
#   2 MAG_AUTO               Kron-like elliptical aperture magnitude                    [mag]
#   3 X_IMAGE                Object position along x                                    [pixel]
#   4 Y_IMAGE                Object position along y                                    [pixel]
#   5 X_WORLD                Barycenter position along world x axis                     [deg]
#   6 Y_WORLD                Barycenter position along world y axis                     [deg]
#   7 A_WORLD                Profile RMS along major axis (world units)                 [deg]
#   8 B_WORLD                Profile RMS along minor axis (world units)                 [deg]
#   9 THETA_WORLD            Position angle (CCW/world-x)                               [deg]
#  10 FWHM_WORLD             FWHM assuming a gaussian core                              [deg]
#  11 ELONGATION             A_IMAGE/B_IMAGE                                           
#  12 ELLIPTICITY            1 - B_IMAGE/A_IMAGE                                       
         1 -10.2623    171.5731     13.5139   5.4706444403e+01   4.0464424926e+01    0.2757361    0.2056382  69.92  0.001474464    1.257    0.204
         2 -11.1389    165.4303      4.9010   5.2820990305e+01   4.2847976036e+01    0.6023484    0.3861847  34.53  0.002998319    1.756    0.431
         3  -9.4672     79.2047      4.6070   7.0380584216e+01   6.3182193653e+01    0.1919172    0.1004349  41.27 0.0009556941    1.713    0.416
         4 -11.9921    200.7490    193.6686   9.5907781128e+01   4.8745753127e+00    0.4565436    0.3013417 -41.72  0.002492765    1.723    0.420
         5 -17.6193     65.0489    233.7502   1.2746819870e+02   1.9531834128e+01     4.188019     3.229005  40.37   0.03063565    1.390    0.280
         6 -16.0797     36.1839    218.6918   1.3156289180e+02   2.5640359806e+01     2.785282     1.552623 -79.52   0.01817156    1.664    0.399
         7 -11.9705    155.7750    187.3065   1.0374653555e+02   1.3999945421e+01    0.3225562    0.2568175  15.40  0.001808865    1.410    0.291
         8 -12.7435     98.5499    165.4190   1.1281877105e+02   2.8298191343e+01    0.6943114    0.3397585  62.58  0.002630401    3.101    0.678
         9 -11.9848    190.1107    186.5578   9.6649736918e+01   7.8852654262e+00     0.500457    0.1969653  35.99  0.001978506    2.529    0.605
        10 -12.7455     92.3282    157.2550   1.1299257635e+02   3.1073589375e+01    0.6143482    0.3145327  53.83  0.002699647    2.140    0.533
        11  -9.0429     12.7226    186.0012   1.3386565323e+02   3.4363550932e+01    0.1522097    0.1092785  88.06 0.0003823395    1.101    0.092
        12 -14.1255    111.2107    181.2509   1.1237914809e+02   2.2913198592e+01     1.127307    0.7109743 -64.92  0.005821415    1.727    0.421
        13 -12.9085    176.7565    180.9425   9.8270239972e+01   1.1278097203e+01    0.4868898    0.4029566  70.04  0.002716339    1.560    0.359
        14 -11.5686    180.8175    223.3185   1.0460791149e+02   3.8624816322e+00    0.3476068    0.2283925   0.54  0.001870947    2.139    0.533
        15 -13.2498    146.8152    221.4342   1.1079196570e+02   9.6985790239e+00    0.8110691    0.5993477  25.70  0.004273118    1.403    0.287
        16 -12.8329    128.6604    175.7094   1.0761391309e+02   2.1070142466e+01    0.6343845    0.4061384  86.62  0.002724966    2.651    0.623
        17 -11.9804    157.2913    180.8418   1.0229219236e+02   1.4902090650e+01     0.366433    0.2336439  22.57  0.001718069    1.940    0.485
        18 -12.1971    175.2511    173.6178   9.7184269249e+01   1.2846066734e+01    0.3959093    0.2606166 -37.38  0.001989136    1.618    0.382
        19 -12.3235    136.8336    169.5932   1.0471679399e+02   2.0832655110e+01    0.3761963    0.2967799  44.09  0.002054821    1.192    0.161
        20 -12.3146    122.2290    151.1328   1.0464267474e+02   2.7360844521e+01    0.4855297    0.3487923  83.11  0.002285592    1.880    0.468
        21 -13.1843    120.8070    157.1730   1.0613202748e+02   2.6318295262e+01    0.5504246    0.4619392  40.64  0.003056445    1.181    0.154
        22 -13.5381    124.7157    166.6657   1.0694161912e+02   2.3617489898e+01    0.8809492    0.4993156 -37.11  0.003853938    2.287    0.563
        23 -12.8011    192.1316    217.5428   1.0160624696e+02   2.8340930220e+00    0.5296786    0.4705321  24.92  0.003633293    1.116    0.104
        24 -11.5856    144.7761    200.9358   1.0823506917e+02   1.3495498438e+01    0.3071031    0.2648602 -18.18 0.0004315886    1.399    0.285
        25 -10.5051    200.9165    180.3131   9.3366138511e+01   6.9217373033e+00    0.2164155    0.1710354  53.62  0.001018969    1.493    0.330
        26 -13.3006    157.7894    166.4529   9.9492244981e+01   1.7512529361e+01    0.9266179    0.3121012  43.13  0.003263277    2.799    0.643
        27 -13.2733     92.9313    167.3453   1.1443355682e+02   2.8757957907e+01    0.7341229    0.4602461  70.29  0.003558361    1.935    0.483
        28 -13.1422    172.5294    211.9147   1.0442548650e+02   6.9371921466e+00    0.6013116    0.3871861 -39.52  0.003396429    1.792    0.442
        29 -12.5474    159.5395    211.0523   1.0682083213e+02   9.2692808714e+00    0.4113683    0.3664966 -48.08  0.002714361    1.320    0.243
        30 -11.1041    198.3440    161.1012   8.9982624415e+01   1.0572299468e+01    0.4650069    0.1307466 -36.76  0.001476889    3.787    0.736
        31 -12.1638    134.1138    161.9254   1.0391708018e+02   2.2894341993e+01    0.4125876    0.2646348 -37.10  0.001939861    1.823    0.451
        32 -10.9032     54.3207    162.1079   1.2278027371e+02   3.5203532718e+01     0.195458    0.1744411  34.91 0.0004927102    1.343    0.255
        33 -13.5416    150.7143    156.5772   9.9089444895e+01   2.0819200848e+01     0.842165    0.4890427 -31.21  0.003567724    2.196    0.545
        34 -12.4314    113.6264    157.0886   1.0782677659e+02   2.7602090169e+01    0.5426795    0.2380641 -54.40  0.002199055    2.318    0.569
        35 -12.2485    102.0908    157.6540   1.1069760259e+02   2.9425986840e+01    0.5167911    0.2432061 -66.00  0.001988019    2.551    0.608
        36 -10.8618    204.1732    213.2182   9.8679232623e+01   1.4636369677e+00    0.2688408    0.1684366  10.12  0.001424352    1.907    0.476
        37 -11.0609     57.6589    151.9303   1.2068858971e+02   3.7099089018e+01    0.2018301    0.1873149  21.43 0.0009625165    1.353    0.261
        38 -12.7875    154.0043    209.4152   1.0766496081e+02   1.0472842744e+01     0.551999     0.439677 -50.14  0.003427855    1.468    0.319
        39 -13.0307    144.6254    194.7518   1.0730187882e+02   1.4627873962e+01    0.5204186    0.4142441  66.25   0.00302075    1.399    0.285
        40 -12.6954    186.3008    204.8720   1.0062923729e+02   5.6746278727e+00     0.572336    0.3466384   7.56  0.002634346    2.555    0.609
        41 -11.3980    108.5602    148.2154   1.0742003741e+02   3.0427264653e+01    0.2907098    0.2011088 -81.65  0.001161875    1.819    0.450
        42 -13.2619    122.4765    144.1769   1.0319439681e+02   2.8825544256e+01    0.6760317    0.5017392  20.94  0.003293995    1.674    0.403
        43 -12.2539     80.9358    144.0146   1.1363309893e+02   3.5795784466e+01    0.5203108     0.396313 -85.98  0.002103372    1.354    0.261
        44 -12.3719     87.6271    144.6011   1.1202407121e+02   3.4658308619e+01    0.4672188    0.2979974  50.75   0.00233045    1.608    0.378
        45 -11.1230     86.4024    139.7575   1.1147692385e+02   3.5957460628e+01    0.2257708    0.2129384  87.19   0.00102096    1.037    0.036
        46 -11.7642    143.6864    143.0791   9.7865768211e+01   2.4966571448e+01    0.3014806    0.2606649  63.63  0.001457888    1.237    0.192
        47 -11.4777     94.0117    138.2491   1.0921874906e+02   3.5108593860e+01    0.3005131    0.1991549 -54.23  0.001491235    1.455    0.313
        48 -12.8498     56.7338    128.2786   1.1741624730e+02   4.2700297686e+01    0.6807151    0.4514169 -44.60  0.003639477    1.631    0.387
        49 -13.3911    116.5643    121.1197   9.9636527434e+01   3.5031490955e+01    0.8079023     0.739629 -24.61   0.00390141    1.169    0.144
        50 -11.5491    243.0915    106.7253   6.9669243577e+01   1.0449480056e+01    0.7752607    0.4998625 -43.17  0.003906521    1.512    0.339
        51 -11.6124    198.1918    207.4074   9.8807035307e+01   3.2766267179e+00    0.2864905    0.2000635  45.74  0.001659229    1.453    0.312
        52 -11.2524    160.7806    100.5967   8.3365561509e+01   2.9929371819e+01    0.5955809    0.4254873 -31.84  0.002734507    1.426    0.299
        53 -10.3653    154.1932    225.9499   1.0999782457e+02   7.7953734639e+00    0.2832366    0.1467482  37.99 0.0007957821    1.628    0.386
        54  -9.7938     48.2863     99.1383   1.1457304544e+02   5.0516993848e+01    0.2275125    0.1421278 -47.68  0.001196818    1.469    0.319
        55 -10.4754     37.9056     98.3706   1.1769925438e+02   5.1763284258e+01    0.2634805    0.2400169   1.52  0.001746384    1.323    0.244
        56  -8.9828    107.3282     95.3116   9.5585605795e+01   4.2482655247e+01    0.1521208    0.1171688  -7.84 0.0004100531    1.666    0.400
        57  -9.9266     14.1308     94.6903   1.2457551183e+02   5.4537240266e+01    0.2883575    0.1901317 -31.15  0.001736865    1.793    0.442
        58 -10.6881    211.4146     87.7402   6.9941406336e+01   2.0335371545e+01    0.5680723    0.2393493 -39.44  0.002155499    2.211    0.548
        59  -9.9708    129.1767     83.4612   8.6126820098e+01   4.0450135668e+01    0.3044675    0.2453271  -1.09  0.001465922    1.472    0.320
        60 -10.8150     82.5613     82.6935   9.9515404772e+01   4.9605975442e+01    0.3184708    0.3136111 -64.10  0.001911059    1.108    0.098
        61 -10.7662     86.0082     80.4866   9.7775983090e+01   4.9511512592e+01      0.39933    0.2853254 -50.99  0.002020199    1.345    0.257
        62  -9.5696    228.6886    110.3398   7.2785135809e+01   1.2858295804e+01    0.3513562    0.1655595 -32.78  0.001453085    1.967    0.492
        63 -10.0803      5.0179     68.3212   1.2326257304e+02   6.1013920231e+01     0.315369    0.1208948 -45.51  0.001567648    2.194    0.544
        64 -10.3300    141.4901     67.5255   7.8041052701e+01   4.0611415229e+01    0.2990269    0.2701001 -63.24  0.001178122    1.228    0.186
        65 -10.6480    138.5039     62.8544   7.7242175406e+01   4.2125834480e+01    0.4604064    0.3803647  41.28  0.002341379    1.205    0.170
        66 -10.6502     87.5803     64.2680   9.2160204209e+01   5.2569581380e+01    0.3925642    0.2937268 -50.23  0.002036413    1.386    0.278
        67  -9.6107     19.8019     56.7910   1.1503052687e+02   6.2608416628e+01    0.2198618   0.08736251 -34.70  0.000952997    2.820    0.645
        68 -10.1038     95.7466     54.1392   8.6011830504e+01   5.2949034804e+01    0.3474769    0.2269305 -17.94  0.001603255    1.782    0.439
        69  -9.9916    234.1542     47.7843   5.6395980491e+01   2.0961303651e+01    0.4115338    0.2541867  19.34  0.001750589    2.804    0.643
        70 -10.4485    199.2634     41.5627   5.9184890794e+01   3.0154174493e+01    0.3554445    0.2813465  68.39  0.001891136    1.262    0.207
        71 -10.9748     80.8783     44.3998   8.7236761523e+01   5.7418684793e+01    0.5535666    0.3366414 -19.29  0.002580369    1.893    0.472
        72 -10.1417     50.9046     40.8654   9.7103210356e+01   6.2675638957e+01     0.223629    0.1817728  29.42  0.001388337    1.383    0.277
        73 -10.2797    140.7513     38.0198   6.8268665743e+01   4.5406060446e+01     0.376374     0.330735 -67.34   0.00203343    1.307    0.235
        74  -9.6739    172.8131     36.4920   6.1707561529e+01   3.7515771567e+01    0.2758859    0.2104931 -29.10  0.001406833    1.342    0.255
        75 -10.1104    181.2138     25.8979   5.7160705810e+01   3.6660615735e+01    0.3484242    0.2074259  24.31  0.001463295    2.423    0.587
        76  -9.8036    108.8124     25.1913   7.1023330708e+01   5.4617667407e+01    0.3594867    0.1229149  36.50  0.001077701    4.226    0.763
        77  -8.9642     65.3619     24.6734   8.4610652552e+01   6.3227799874e+01    0.1203522    0.1057122 -70.79 0.0007040992    1.792    0.442
        78 -10.1547    119.4869     17.9978   6.5546759154e+01   5.3004162159e+01    0.2794471    0.1782117  -2.00  0.001332144    1.828    0.453
        79  -9.3583    203.3085     18.3473   5.2193666177e+01   3.1931540141e+01     0.139301    0.1002224  33.52 0.0007044089    1.705    0.413
        80 -10.0431    142.5220     17.9898   6.0828414558e+01   4.7390302307e+01    0.4352541    0.1860273  57.66  0.001775942    2.063    0.515
        81 -13.3097    169.1164    192.9625   1.0198151674e+02   1.0610288574e+01    0.6909212    0.3985908  52.36  0.003318826    1.886    0.470
        82 -14.3285    154.3439    198.1459   1.0584483576e+02   1.2331383528e+01    0.9408185    0.7952256  62.23  0.005733742    1.283    0.221
