#   1 NUMBER                 Running object number                                     
#   2 MAG_AUTO               Kron-like elliptical aperture magnitude                    [mag]
#   3 X_IMAGE                Object position along x                                    [pixel]
#   4 Y_IMAGE                Object position along y                                    [pixel]
#   5 X_WORLD                Barycenter position along world x axis                     [deg]
#   6 Y_WORLD                Barycenter position along world y axis                     [deg]
#   7 A_WORLD                Profile RMS along major axis (world units)                 [deg]
#   8 B_WORLD                Profile RMS along minor axis (world units)                 [deg]
#   9 THETA_WORLD            Position angle (CCW/world-x)                               [deg]
#  10 FWHM_WORLD             FWHM assuming a gaussian core                              [deg]
#  11 ELONGATION             A_IMAGE/B_IMAGE                                           
#  12 ELLIPTICITY            1 - B_IMAGE/A_IMAGE                                       
         1 -12.9578    201.5849     64.7059   5.5943128151e+01   2.5942815822e+01     3.022781    0.8598239 -30.61  0.008809677    3.886    0.743
         2 -13.7052    232.9614     73.5867   5.3547225657e+01   1.7069933162e+01     5.614262    0.8695394 -40.65   0.01485137    4.873    0.795
         3 -12.9313    246.9594     36.1869   4.2928143341e+01   1.9285928275e+01     2.277783      1.59108   4.30   0.01074458    2.408    0.585
         4 -13.5750    170.3523     53.9238   5.8309647099e+01   3.5559554967e+01     1.877792     1.201124 -58.60  0.008061957    1.896    0.473
         5 -12.8308    147.3563     61.8923   6.5676943292e+01   4.0097800491e+01    0.7650756    0.5622401  29.42  0.003531585    1.532    0.347
         6 -13.8529    213.9754     68.2613   5.4949887086e+01   2.2347153144e+01     4.453688     1.916603 -40.46   0.01734447    2.141    0.533
         7 -11.1614    247.5951     22.9630   3.9865262154e+01   2.0806966196e+01    0.7452646    0.4710634  45.76  0.003945708    2.116    0.528
         8 -13.1157    116.8650     64.8792   7.4558307571e+01   4.6740428852e+01    0.9191324    0.6524535  69.10  0.004095687    1.926    0.481
         9 -10.7143    212.7876     29.9401   4.5053185272e+01   2.8087937489e+01    0.9011346    0.5306739  24.16  0.003615717    3.177    0.685
        10 -10.5397    249.4858     12.0658   3.7300477335e+01   2.1669239151e+01    0.6895989    0.2706967 -39.17  0.001806117    2.124    0.529
        11 -13.4582    248.2074     58.3471   4.7943729604e+01   1.5969614221e+01     4.803433    0.9044107 -31.45   0.01267008    5.661    0.823
        12  -9.3186    241.5276     15.6068   3.8720104624e+01   2.3028963316e+01    0.3580908    0.2279159 -11.87  0.001824577    2.304    0.566
        13  -8.9226    243.3549      8.4430   3.6970006824e+01   2.3427306289e+01    0.2586186    0.1580083  -6.59  0.001246982    2.799    0.643
        14  -9.6012    245.3306      2.9555   3.5621818275e+01   2.3583572639e+01    0.2284485     0.202548  -2.87 0.0004417802    1.562    0.360
        15 -11.2101     30.5931    244.7443   1.2669023547e+02   2.0430414470e+01    0.3451713    0.1920584  30.26  0.002133646    2.394    0.582
        16 -11.5533    244.1385    247.6986   8.8312447276e+01  -1.0990096350e+01    0.4543107    0.2957601 -10.29  0.003064559    1.461    0.315
        17  -9.6458    130.4505    250.0073   1.0933898824e+02   5.9749142093e+00    0.2632796    0.1325744  28.70  0.001277133    2.417    0.586
        18 -10.3137     89.2483    246.5437   1.1658663495e+02   1.2677730525e+01    0.2221195    0.1532992  63.06 0.0007863722    1.224    0.183
        19 -11.2372     99.5338    249.0644   1.1494373197e+02   1.0777573583e+01    0.5754582    0.1985412  33.27    0.0022776    3.692    0.729
        20 -10.9530     24.4186    249.7200   1.2795047866e+02   2.0235693793e+01    0.4229478    0.1745405  36.00  0.002458502    2.489    0.598
        21 -11.3924     12.8693    248.6337   1.2973267502e+02   2.1631248433e+01    0.5010556      0.18768  44.76  0.003103603    2.020    0.505
        22 -10.9063      5.6309    244.5586   1.3069834274e+02   2.3058116567e+01    0.3778073    0.1557892  55.31  0.002457981    1.718    0.418
        23 -11.6200     72.1897    248.4133   1.1980149163e+02   1.4702209289e+01    0.6897235    0.1857518  37.89  0.002919115    3.331    0.700
        24  -9.8352      5.7363    237.4402   1.3039393105e+02   2.4308176033e+01    0.1879784   0.07050293  43.37  0.001090258    2.115    0.527
        25  -9.7801    247.6080    236.2162   8.5853269945e+01  -1.0197386872e+01    0.1570657   0.09291633 -14.00 0.0007952088    1.663    0.398
        26 -10.1488     46.8138    235.9885   1.2338648637e+02   2.0135120316e+01    0.2807135   0.09237244  51.54  0.001397154    2.353    0.575
        27  -8.9185    243.3383    234.2921   8.6267794390e+01  -9.3797316684e+00    0.1233543   0.07263277  10.59 0.0007025799    1.646    0.392
        28  -8.2647    238.5258    150.4986   7.0869835343e+01   3.2261990112e+00    0.1390939    0.1234672 -14.75 0.0001181066    1.047    0.045
        29  -9.3335    247.3875    136.9591   6.6368627371e+01   3.7629215548e+00    0.4318923    0.2890506 -87.21  0.001652745    3.992    0.749
        30  -9.5409    245.0083    124.8541   6.4010146031e+01   6.1821907693e+00    0.3314252    0.1648749 -48.65  0.001365125    2.327    0.570
        31  -9.4597    248.8060    120.5010   6.2414167856e+01   6.1515728650e+00    0.3208354    0.2090386 -51.66  0.001572016    1.743    0.426
        32  -8.6698    175.0000    122.0169   7.6628399311e+01   2.1871916106e+01    0.2632548   0.08885954 -40.62 0.0007480779    2.936    0.659
        33  -9.7744    243.5405    118.4627   6.2768086038e+01   7.5200468975e+00     0.385431    0.1754192 -47.13  0.001526005    2.400    0.583
        34  -9.9538    247.5010    115.0784   6.1366821571e+01   7.2866169509e+00    0.3113555    0.2300449 -85.37  0.001530814    2.115    0.527
        35  -9.6510    199.7683    249.4320   9.6415620824e+01  -4.7728856638e+00    0.2400405   0.09304974  41.45  0.001152854    2.151    0.535
        36 -13.0941    150.6845     81.1292   7.0911879227e+01   3.5812154666e+01      1.40208    0.4506472 -35.61  0.004155773    3.305    0.697
        37 -12.5666    158.6063     97.7926   7.3898916036e+01   3.0633823632e+01    0.8374579    0.5607795 -40.28  0.003636302    1.480    0.324
        38  -9.0794    186.4399    249.3741   9.8845609302e+01  -2.7149356582e+00    0.2484067   0.08569672  30.50 0.0009533234    3.365    0.703
        39 -11.3781    221.2245     94.0113   6.0444125231e+01   1.6402550962e+01    0.7380195    0.2565379 -34.55  0.002516498    2.723    0.633
        40  -9.6863    153.9366    247.9620   1.0470586514e+02   2.6017844633e+00    0.3272687    0.1815033  14.98  0.001366867    3.744    0.733
        41 -10.8789    194.5963     95.0719   6.5458512717e+01   2.2464228588e+01    0.5703245    0.3104862 -59.80  0.001997113    2.787    0.641
        42 -11.8733    176.3911     94.8256   6.9077983149e+01   2.6921669205e+01    0.7247444    0.4864614  88.47  0.002767316    2.462    0.594
        43 -12.5622    134.2097     92.9519   7.8608636674e+01   3.7311503494e+01    0.8350893    0.5838744 -89.77  0.003253261    2.424    0.587
        44 -12.3340    193.4316     73.9794   5.9899212280e+01   2.6458365465e+01     1.104736     0.396916 -33.44  0.003668489    2.790    0.642
        45 -12.8359    168.3762     67.9517   6.2967650904e+01   3.3792500154e+01    0.9674142    0.6072275 -20.31  0.004000199    1.940    0.484
        46  -9.3434    222.7788    246.9459   9.1909866096e+01  -7.9012638005e+00    0.1387679   0.08961964 -25.77 0.0008796704    1.699    0.411
        47 -11.5712    174.6059     83.2119   6.6169755018e+01   2.9531555459e+01    0.5616122    0.4671564  -0.21  0.002656722    1.417    0.294
        48 -13.1496    185.0140     79.8764   6.3124149149e+01   2.7540167327e+01     1.034095    0.8097241  70.33  0.004959409    1.392    0.282
        49 -11.8670    175.8265     74.0240   6.3254525304e+01   3.0865964175e+01    0.6665571    0.5233613 -25.69  0.003031035    1.343    0.256
        50 -12.7977    160.6245     65.7375   6.3924334195e+01   3.6127665078e+01     1.870015    0.4719056 -31.39  0.004723882    4.853    0.794
        51 -10.6803    204.3332     92.7115   6.3016494154e+01   2.0559961300e+01    0.5152258    0.1676565 -35.44   0.00163293    2.964    0.663
        52 -10.7233    210.0220     90.8245   6.1515807311e+01   1.9544310271e+01    0.4993946    0.2040143 -41.02  0.001815094    2.293    0.564
        53  -8.9782    108.3287     92.3256   8.5700970354e+01   4.2944744367e+01    0.1586644    0.1202511  -7.17 -0.0001576968    1.701    0.412
        54 -11.3264    194.7566     87.2397   6.3310672875e+01   2.3835910646e+01     0.446286    0.3639625 -62.26  0.001608616    1.335    0.251
        55  -9.1845      1.5070     85.4916   1.1951390180e+02   5.7401842020e+01    0.1210194   0.09113797 -64.34 0.0008105505    1.015    0.015
        56 -10.8431    101.4914     80.2785   8.4168507084e+01   4.6873637399e+01    0.4130738    0.1907383 -46.91  0.001579162    2.126    0.530
        57 -10.0257    108.1746     85.8469   8.3835666209e+01   4.4378409295e+01    0.2195504    0.1815174 -10.42 0.0008025778    1.354    0.262
        58 -12.4602    138.4740     74.9871   7.2031232194e+01   3.9905734435e+01    0.9642411    0.3752206 -29.95  0.002917319    3.390    0.705
        59 -11.9893    143.8786     76.3626   7.1105891412e+01   3.8357419437e+01    0.6379895    0.3807214  22.58  0.002281593    2.687    0.628
        60 -10.6063      3.9016     71.6115   1.1643285770e+02   6.0412986727e+01    0.2832037     0.170046 -81.63   0.00164414    1.688    0.407
        61 -11.9293    183.1764     67.9345   6.0058677311e+01   3.0044433534e+01    0.6628646      0.46859 -26.39  0.003055403    1.510    0.338
        62 -11.6760     53.4609    247.8690   1.2302267704e+02   1.7200652813e+01     1.016637          nan  47.05  0.003323216    5.662    0.823
        63 -12.6951    130.0606     67.7805   7.1896854860e+01   4.3221035244e+01    0.8810064    0.4030216 -32.50  0.003206576    2.350    0.574
        64  -8.4623    218.4387    105.2395   6.3738215830e+01   1.5092120109e+01    0.2147534    0.1309748 -45.38  0.000941799    1.614    0.381
        65 -11.3879    187.6741     55.4523   5.5649937843e+01   3.0885764714e+01    0.7044122    0.4192094  -1.07  0.002526497    3.155    0.683
        66 -10.8299    154.4332     53.8698   6.1507529218e+01   3.9632726084e+01    0.3829318    0.2766242   1.85  0.001712364    1.817    0.450
        67 -10.5143    231.7352    245.9128   9.0172624298e+01  -9.0697500291e+00    0.2684768    0.1393698   5.54  0.001325668    2.652    0.623
        68  -9.4870      3.4912    249.7209   1.3122615239e+02   2.2372775957e+01    0.2296451    0.1290896  70.21  0.001732278    1.242    0.195
        69 -12.4392    184.9952     90.1625   6.6005263224e+01   2.5693613310e+01     1.114144    0.6230117 -57.31  0.004124352    2.389    0.581
        70 -13.2549    167.0783     81.3206   6.7224210929e+01   3.1747907679e+01      1.23866    0.6742207 -49.27  0.004777138    2.027    0.507
        71  -9.8759    190.4037     42.7009   5.1546199696e+01   3.2039121236e+01    0.4474237     0.130809 -32.04   0.00145071    3.289    0.696
        72  -9.7117    196.7545     39.8365   4.9797580730e+01   3.0811943343e+01    0.4143207    0.2630022  29.04  0.001796107    2.269    0.559
        73  -9.3121      3.0000     39.9842   1.0979635172e+02   6.7181686000e+01    0.1955988   0.05177523 -61.55 0.0008075793    2.978    0.664
        74 -10.4064    115.4312    249.4989   1.1206771027e+02   8.3503676506e+00    0.2616742    0.1747011  68.81  0.001622599    1.613    0.380
        75  -9.4555    143.5570    249.8293   1.0687698118e+02   3.9606448526e+00    0.3417433     0.144099  26.50  0.001213019    4.519    0.779
        76 -10.6761    228.3985    101.2849   6.1086543128e+01   1.3565159383e+01    0.5110188    0.2840616 -61.08  0.001930302    2.804    0.643
        77  -9.6209     35.3347    250.1491   1.2620152934e+02   1.8953391861e+01    0.1772285    0.1236839  44.44  0.001320302    1.438    0.304
        78  -9.7712    228.6082     27.3850   4.2679302759e+01   2.4597875966e+01    0.3140979    0.2506613  33.33  0.001601217    1.658    0.397
        79 -10.1807     56.6853    242.1199   1.2206860849e+02   1.7812466206e+01    0.1863537    0.1108871  73.41  0.001194269    1.490    0.329
        80  -9.8115    100.8419    241.5674   1.1397642244e+02   1.1850523340e+01    0.3023901   0.06880648  46.16  0.001135306    3.379    0.704
        81 -11.5385     42.1711    247.4766   1.2491410414e+02   1.8628599603e+01    0.6950375    0.1653297  50.44   0.00323577    2.926    0.658
