#   1 NUMBER                 Running object number                                     
#   2 MAG_AUTO               Kron-like elliptical aperture magnitude                    [mag]
#   3 X_IMAGE                Object position along x                                    [pixel]
#   4 Y_IMAGE                Object position along y                                    [pixel]
#   5 X_WORLD                Barycenter position along world x axis                     [deg]
#   6 Y_WORLD                Barycenter position along world y axis                     [deg]
#   7 A_WORLD                Profile RMS along major axis (world units)                 [deg]
#   8 B_WORLD                Profile RMS along minor axis (world units)                 [deg]
#   9 THETA_WORLD            Position angle (CCW/world-x)                               [deg]
#  10 FWHM_WORLD             FWHM assuming a gaussian core                              [deg]
#  11 ELONGATION             A_IMAGE/B_IMAGE                                           
#  12 ELLIPTICITY            1 - B_IMAGE/A_IMAGE                                       
         1 -14.5398     68.7450    145.8114   7.8628059126e+01   3.6907641462e+01     2.028048     1.128551 -88.39  0.008296923    2.598    0.615
         2 -13.0936      2.5745      9.4853   6.8306576579e+01   7.2200353389e+01     1.051572    0.2827494 -45.47  0.005095125    2.638    0.621
         3 -13.1589    237.3350     19.9394   9.8668924491e+00   2.3358277854e+01    0.8418254    0.7061545 -62.38  0.004821702    1.067    0.063
         4 -11.2456     14.0200     10.7196   6.2648079606e+01   7.1170620976e+01    0.1598568    0.1183162  -9.78 0.0005607283    1.109    0.098
         5 -11.5844    130.9019    234.6857   7.7241505884e+01   8.1699992424e+00    0.1951427    0.1754598 -41.64  0.000783975    1.385    0.278
         6  -9.9484    154.5976    249.7952   7.4564569025e+01   1.8695770918e+00    0.1416836    0.1194405 -75.57 0.0008361237    1.599    0.375
         7 -11.0939     79.8775    248.0978   8.8441973316e+01   1.3612883595e+01    0.3409919    0.2088555  78.36  0.001257437    1.714    0.417
         8 -11.0445     74.9904    249.0287   8.9404359686e+01   1.4125007508e+01     0.239126    0.2241797 -58.13  0.001193347    1.533    0.347
         9 -12.0422     75.8812    243.8268   8.8802003051e+01   1.4921472003e+01    0.3088194    0.2071687 -73.30  0.001212968    1.606    0.377
        10 -16.0014     54.3031    233.5815   9.1918462094e+01   1.9656862011e+01     2.657541     2.255475 -87.64   0.01509851    1.269    0.212
        11 -10.5071     91.9808    213.4808   8.2575999686e+01   1.8346162501e+01    0.1891995    0.1619193 -88.61  0.000582733    1.167    0.143
        12 -10.7071    130.7062    206.2935   7.3336940258e+01   1.3411033769e+01     0.228919     0.188526  62.21 0.0004380142    1.201    0.167
        13 -11.8980    128.4917    198.8846   7.2682735152e+01   1.5268942307e+01     0.326424    0.2654064  89.21  0.001088403    1.415    0.293
        14 -11.9745     82.7983    196.4883   8.2488740248e+01   2.3257635826e+01    0.4384028    0.3168801 -55.44  0.001139983    1.530    0.346
        15 -15.4694      8.4877    207.6115   9.8541136715e+01   2.9775356690e+01    0.9008222    0.6671959 -17.87  0.005165224    2.789    0.641
        16 -13.5721    110.0729    228.3841   8.0634102602e+01   1.2659264278e+01    0.9597581    0.2242683  41.50  0.003405679    3.405    0.706
        17 -10.8550    117.6219    196.2006   7.4691953968e+01   1.7717941299e+01    0.1893363    0.1269936 -46.21 0.0007179495    1.717    0.418
        18 -10.7148     77.3429    186.2696   8.2416334029e+01   2.6288504214e+01    0.2839232    0.1677533 -60.71  0.001016474    1.683    0.406
        19 -10.9477     75.6183    181.8019   8.2230379999e+01   2.7535080070e+01    0.3692684    0.2182932 -84.56  0.001415496    1.922    0.480
        20 -11.7309     97.9965    180.9070   7.6874328691e+01   2.4311292512e+01    0.4561406    0.2738454  39.59  0.001552579    1.615    0.381
        21 -11.6648    143.7157    228.9203   7.3896039235e+01   7.0220358303e+00    0.2681874    0.1841782  68.64  0.001429012    1.882    0.469
        22 -12.2856     69.4448    171.9680   8.2369155655e+01   3.0642026398e+01    0.5742639    0.2550574  43.67  0.001540506    2.158    0.537
        23 -10.9318    104.0001    171.4985   7.3934400998e+01   2.5429785088e+01    0.2224947    0.1348552  41.01 0.0007082431    1.597    0.374
        24 -10.6529    101.6187    242.1996   8.3829112179e+01   1.1487019425e+01    0.1818614    0.1443598 -24.37   0.00111583    2.082    0.520
        25 -11.6622     67.7083    164.2619   8.1721978870e+01   3.2669574225e+01    0.3525874    0.2995963 -18.53  0.001310853    1.610    0.379
        26 -11.8789     72.0303    160.0142   8.0023301117e+01   3.3072096930e+01    0.3919204    0.3023724 -43.94   0.00113519    1.484    0.326
        27 -10.0797    110.5003    166.9796   7.1562123836e+01   2.5331145418e+01    0.2182506    0.1421077 -58.82  0.001025345    1.573    0.364
        28 -11.1186    247.1183    163.9400   4.1369711192e+01  -6.9992906518e-01    0.3625903    0.1330552 -39.48  0.001427622    2.612    0.617
        29 -11.3903     56.8726    164.0040   8.4341110222e+01   3.4138802341e+01    0.3937203    0.2140458  69.36  0.001689316    2.277    0.561
        30  -9.5742     61.1178    159.1518   8.2635129397e+01   3.4740724068e+01    0.1856377    0.1415164  74.81 0.0004376171    1.298    0.230
        31 -11.0308     92.9445    164.0503   7.5415654099e+01   2.8972037972e+01     0.280165    0.2017256 -73.28 0.0008715009    1.429    0.300
        32 -11.6273     23.7021    156.8450   9.1479665068e+01   3.9358569064e+01    0.3462029    0.1852825  69.17  0.001799117    2.007    0.502
        33 -11.8378     80.7014    151.7992   7.6479216360e+01   3.3764110326e+01    0.4808792    0.2489519 -71.73  0.001067839    2.220    0.550
        34 -11.2003    134.1577    147.8754   6.1860456444e+01   2.5191508987e+01    0.5660095    0.1963204 -53.83  0.001734606    3.367    0.703
        35 -10.1988    167.6068    223.8177   6.8288190154e+01   3.7710611009e+00    0.1685553    0.1281671 -62.46  0.000759392    1.781    0.439
        36 -11.9777     87.3331    147.5209   7.3977416325e+01   3.3764991420e+01    0.4644103     0.354042  -2.10  0.001134451    1.913    0.477
        37 -11.3398     77.7439    170.0039   8.0093270574e+01   2.9920983104e+01    0.3220658    0.2518903 -58.89  0.001142892    1.291    0.225
        38 -12.0518    104.1392    132.2041   6.6333407759e+01   3.4576286597e+01      0.70976    0.4299051 -23.54  0.002640838    2.831    0.647
        39 -11.0669     46.7717    128.2673   8.1777856384e+01   4.3822458451e+01    0.2609315    0.2243368   6.55 0.0004445993    1.448    0.309
        40 -11.4341     89.4404    133.5331   7.0695433790e+01   3.6773268283e+01    0.2642986    0.2499033 -53.68 0.0004267693    1.059    0.056
        41 -10.2604     98.1734    122.4002   6.5799967038e+01   3.7947748631e+01    0.2630986    0.2195415 -21.83 0.0005024176    1.373    0.272
        42 -12.5099     54.0933    132.9596   8.0492645246e+01   4.1864896939e+01    0.5034345    0.3007552  53.91  0.002479132    1.915    0.478
        43  -9.8421     72.3833    119.2314   7.2637276365e+01   4.2794690009e+01    0.2721185    0.1219081 -54.34  0.001109098    1.997    0.499
        44 -10.5367     32.3087    118.2816   8.4333128939e+01   4.7637296875e+01    0.2169682    0.1864553 -87.53 0.0003304665    1.144    0.126
        45 -11.0995    153.9895    223.4493   7.1009878000e+01   6.1976251210e+00    0.1871338    0.1801758 -42.13 0.0005838681    1.227    0.185
        46  -9.1021    107.5181    116.5533   6.1730593491e+01   3.7614145737e+01    0.1505603    0.1467895 -38.66 0.0001337829    1.011    0.011
        47 -11.1017     18.6655    115.8188   8.7916643157e+01   4.9327731737e+01     0.253543    0.1621188 -36.91  0.001225534    1.766    0.434
        48 -18.0465      8.0643    233.7897   9.9983163332e+01   2.4775406162e+01     5.383615     2.478616 -72.92   0.03135572    2.013    0.503
        49  -9.6759     39.9428    113.2820   8.1237044350e+01   4.8104855820e+01    0.1691928    0.1603295 -64.24 0.0003465025    1.114    0.102
        50  -9.7091    205.2136    110.1616   3.6579087119e+01   1.7133270563e+01    0.2268552    0.2065134   2.64 0.0006412058    1.158    0.137
        51 -11.0324     75.0087    166.2827   8.0217038457e+01   3.1180136780e+01    0.3072666    0.2454601  72.09  0.000680686    1.217    0.178
        52 -10.9071     23.5260    104.9823   8.4835181580e+01   5.1489726259e+01    0.2826881    0.1479273 -43.44  0.001457535    1.861    0.463
        53 -11.1585    148.4397    228.1909   7.2835247216e+01   6.3436415355e+00    0.2856145    0.1324497 -53.31  0.001312371    2.669    0.625
        54 -10.0329      7.6678     91.6756   8.7691596824e+01   5.5584879127e+01    0.1289277    0.0680986 -44.35 0.0006078435    1.707    0.414
        55  -9.5273    142.0000    213.9478   7.2076046758e+01   9.9785691502e+00     0.193041    0.0786027 -51.30 0.0004666117    2.832    0.647
        56 -10.4520     32.1697     68.4711   7.4280772858e+01   5.8998977481e+01    0.2309257     0.156848 -51.69 0.0008338475    1.232    0.188
        57 -11.8115      2.2732     63.6416   8.4576904282e+01   6.1997196468e+01    0.4583229   0.08870678 -66.58  0.001549882    4.489    0.777
        58  -9.5466     63.5258     62.5188   6.0672924990e+01   5.6659519628e+01    0.2286371    0.1214076  44.57  0.001026028    2.355    0.575
        59 -11.2675    188.8094     59.8069   2.6181022627e+01   2.9770742963e+01    0.3173334    0.3025367  47.36 0.0006483464    1.091    0.083
        60 -11.3612     13.4015     60.1645   7.9485133357e+01   6.2139826430e+01    0.1970794    0.1826058 -54.15  0.000596394    1.230    0.187
        61 -12.9196    203.5643     49.6119   2.1063453379e+01   2.7579537740e+01    0.9218136    0.7593217  48.16  0.003657528    1.295    0.228
        62 -12.9948    210.6368     43.6455   1.8521988256e+01   2.6666215554e+01    0.9223939    0.5816516  48.73  0.001528535    1.724    0.420
        63 -11.5746    111.0728    236.2358   8.1350483725e+01   1.1083215901e+01     0.270131    0.1941686 -53.03  0.001409216    1.701    0.412
        64  -9.9447    125.0000    243.9752   7.9535974676e+01   7.5528247257e+00    0.1729753   0.07155477 -56.03 0.0008047156    2.958    0.662
        65  -9.8986     60.2974     21.0253   4.6003217044e+01   6.4085857439e+01    0.1787573     0.140924  -8.82  0.000487788    1.099    0.090
