#   1 NUMBER                 Running object number                                     
#   2 MAG_AUTO               Kron-like elliptical aperture magnitude                    [mag]
#   3 X_IMAGE                Object position along x                                    [pixel]
#   4 Y_IMAGE                Object position along y                                    [pixel]
#   5 X_WORLD                Barycenter position along world x axis                     [deg]
#   6 Y_WORLD                Barycenter position along world y axis                     [deg]
#   7 A_WORLD                Profile RMS along major axis (world units)                 [deg]
#   8 B_WORLD                Profile RMS along minor axis (world units)                 [deg]
#   9 THETA_WORLD            Position angle (CCW/world-x)                               [deg]
#  10 FWHM_WORLD             FWHM assuming a gaussian core                              [deg]
#  11 ELONGATION             A_IMAGE/B_IMAGE                                           
#  12 ELLIPTICITY            1 - B_IMAGE/A_IMAGE                                       
         1 -13.3266    123.1608     13.4110   7.6609934215e+01   5.2630138308e+01     2.711346      1.77393  68.63   0.01210331    1.612    0.380
         2 -14.8480    246.9922     24.2969   6.2928824841e+01   2.0701142596e+01     1.239987    0.8251282 -41.97  0.006984427    1.335    0.251
         3 -13.9437    142.4091     36.8566   8.1093185773e+01   4.5184466507e+01     8.709134     1.631673  49.62   0.02349143    4.547    0.780
         4 -14.8770    246.8159     10.6279   5.9787113077e+01   2.2293157015e+01     1.416563    0.3459871  62.93  0.005298533    3.654    0.726
         5 -13.9346    249.1474      3.0026   5.7897123093e+01   2.2582950452e+01    0.4530699    0.3777696 -82.85   0.00137172    1.104    0.094
         6 -15.1314    206.0251     57.2780   7.6142968665e+01   2.6151267898e+01     4.231047     2.826281 -10.90   0.01905586    1.944    0.486
         7 -16.0311    224.1877     32.9875   6.7317124816e+01   2.4975134064e+01     7.383155     4.180217   6.08   0.02690562    3.899    0.744
         8 -14.7218    241.4191    102.1284   8.2346791027e+01   1.1010143194e+01     11.93317     1.793826 -35.00   0.03037865    5.379    0.814
         9  -9.4782    151.6166     11.9685   7.0831322763e+01   4.5748340747e+01    0.2949042    0.2323077 -12.05 0.0009176022    1.408    0.290
        10 -11.0081      8.6637      8.6123   1.1608398243e+02   7.2417568483e+01    0.2840346    0.2242337  10.76   0.00149132    1.408    0.290
        11  -8.0040    211.9458      9.0582   6.2406199892e+01   3.0700216393e+01    0.1477556    0.1312706 -70.99            0    1.034    0.033
        12  -9.0187    183.6329      3.2441   6.3758903819e+01   3.8384020505e+01    0.3794222    0.1981384 -22.72  0.001766543    2.108    0.526
        13 -14.1382    169.8722     64.1264   8.4336984499e+01   3.4219116854e+01     6.808343     1.662453 -41.95   0.00794399    4.127    0.758
        14  -9.2257    171.3838      2.5544   6.4998492000e+01   4.1573540419e+01    0.4903499    0.2368833 -69.73  0.001884898    2.998    0.666
        15  -8.4090    165.1307      2.4473   6.5758557859e+01   4.3180527619e+01     0.223779    0.1716776  -5.05  0.001015348    1.528    0.346
        16  -9.6729     52.0380      4.9827   9.3640974426e+01   6.7819594468e+01    0.3239462    0.1503003 -30.06 0.0007716424    2.002    0.501
        17  -9.3086    209.9826      1.4140   6.0607002580e+01   3.1941835728e+01    0.2659534    0.1150542  72.47 0.0008301933    2.103    0.525
        18  -9.5192    124.0380    145.4722   1.1643959965e+02   2.8315238072e+01    0.2520256    0.2073632 -54.69 0.0006011314    1.223    0.183
        19  -9.2307     56.0139    250.0488   1.4341849106e+02   1.8118459625e+01    0.1547938    0.1141105  64.42  0.001198907    1.051    0.049
        20  -8.9465    192.1449    144.1011   1.0101791067e+02   1.4495268132e+01    0.2176276    0.1922794   3.80 0.0003309629    1.169    0.144
        21 -10.8350    155.1794    137.7905   1.0747161883e+02   2.3640445990e+01    0.5646991    0.4006952  74.51  0.002491286    1.936    0.483
        22 -10.7525    135.7698    128.4608   1.0987422480e+02   2.9676417719e+01    0.8676921     0.213079 -49.92  0.002314836    4.489    0.777
        23 -10.0432    188.9996    136.8554   9.9986757510e+01   1.6500005821e+01    0.3156129    0.2139037 -28.60  0.001457331    1.577    0.366
        24  -9.9238    210.3547    136.8708   9.5839959842e+01   1.1905004192e+01    0.2819009     0.241318 -35.67  0.001339491    1.163    0.140
        25 -10.6194    213.3896    131.7013   9.4075915290e+01   1.2147609933e+01    0.4373956    0.2798768  42.88  0.001828968    1.586    0.370
        26  -8.3117    119.3236    132.6606   1.1489004112e+02   3.2033004966e+01    0.2641993    0.1825656  79.66   0.00115007    2.031    0.508
        27  -8.2190    121.5510    130.4446   1.1384121566e+02   3.2094347477e+01    0.1983571    0.1386064 -41.26 5.876159e-05    1.509    0.337
        28  -9.6655     89.8045    246.3979   1.3746139965e+02   1.4262855123e+01    0.1536817   0.09158945  37.81 0.0009484032    1.664    0.399
        29 -12.1318    206.0904    123.2872   9.3419273421e+01   1.5193826899e+01    0.7451109    0.5609716  44.89  0.003733128    1.350    0.259
        30 -13.4014     45.5609    174.5719   1.3921732063e+02   3.3816431595e+01     1.629434     1.248361 -33.69  0.003284816    2.045    0.511
        31 -10.9078    227.1280    119.9435   8.8877921694e+01   1.1191172199e+01    0.7917631    0.5078527 -75.91  0.003029422    3.260    0.693
        32  -9.9697    199.0328    106.9881   9.0675796983e+01   1.9680489471e+01     0.429156     0.276748 -71.83  0.001657665    2.609    0.617
        33 -11.8494    205.5596    110.7385   9.0416841149e+01   1.7515818022e+01    0.7279795    0.6491608 -28.92  0.003435962    1.085    0.078
        34 -11.2194    214.3584    116.2133   9.0187186124e+01   1.4589378025e+01      0.71467    0.5369014 -88.39  0.002920215    1.954    0.488
        35  -9.1564    134.6959    112.3998   1.0620166438e+02   3.3339082926e+01    0.5091507    0.1338657 -45.26   0.00143865    3.760    0.734
        36  -8.8379    135.0230    107.0146   1.0471528799e+02   3.4407238952e+01    0.2369053    0.2140124  -4.23  0.001221698    1.239    0.193
        37  -8.7541    152.1291    107.1443   1.0060458183e+02   3.0583251643e+01    0.3946763    0.2428497 -70.08 0.0008752525    2.785    0.641
        38  -9.0096    214.7866    241.8125   1.1488152000e+02  -4.4066146714e+00    0.2043427    0.1075519  12.47 0.0009662731    2.910    0.656
        39  -8.7157    214.3885    103.1320   8.6927439675e+01   1.6806785318e+01    0.3637811    0.1118471 -42.32  0.001142365    3.194    0.687
        40  -7.8075     68.6547    121.3182   1.2596702645e+02   4.3030503834e+01    0.1419073   0.09909528  76.52 0.0007048933    1.724    0.420
        41  -8.7447    141.3065    103.3610   1.0217862926e+02   3.3789892144e+01     0.236009    0.1378786  26.02 0.0008461227    2.632    0.620
        42  -9.7086    221.0244    119.5559   8.9828282906e+01   1.2564323706e+01    0.2694843    0.2572266 -84.50 0.0009328405    1.201    0.167
        43  -9.0665    121.7132    101.3448   1.0662537028e+02   3.8418833226e+01    0.2485144    0.1885885 -87.53  0.001126601    1.799    0.444
        44  -9.3606    146.9422     99.1418   9.9657272771e+01   3.3376924371e+01    0.2937376    0.2492708  39.00 0.0006851957    1.209    0.173
        45  -9.7814    227.9539     96.9012   8.3132102294e+01   1.4767860927e+01    0.4848749    0.3742394 -67.76   0.00140911    1.569    0.363
        46  -8.9910    133.4727     96.0254   1.0210586493e+02   3.7027780484e+01    0.2760859    0.2245873  58.50 0.0009533037    1.307    0.235
        47  -9.5374    156.9004     91.8174   9.5276047370e+01   3.2494088822e+01    0.4907844    0.3296116  19.34  0.001976026    2.180    0.541
        48  -8.6270     34.0021    228.0724   1.4568633298e+02   2.4509446793e+01    0.1613547    0.1184929  70.43 0.0004731386    1.034    0.033
        49  -9.0181    213.7258     88.3234   8.3241985708e+01   1.9427898927e+01    0.5177036     0.271286 -67.14  0.001549287    4.442    0.775
        50  -9.9219    140.5966     88.3741   9.8130920426e+01   3.6965367609e+01     0.308839    0.2964367 -77.80 0.0007888862    1.093    0.085
        51 -11.6226      4.6483     82.9703   1.3841996777e+02   5.7977501375e+01    0.5406919    0.3217194 -75.01  0.002704428    1.405    0.288
        52 -11.2940    154.8599     81.4382   9.2720902576e+01   3.4931194147e+01    0.3970165    0.3582526  14.85 0.0007555651    1.197    0.164
        53  -8.4292    151.0924     69.6069   8.9973875695e+01   3.7964024956e+01    0.3210427     0.223016  88.47  0.001328964    2.140    0.533
        54  -9.0304    222.5703     81.7219   8.0132524666e+01   1.8417621373e+01    0.5931911    0.1569461 -43.91  0.001730917    3.899    0.744
        55  -8.5171    244.4940     60.3951   7.1816939417e+01   1.6577165248e+01    0.2290507    0.1612951  75.40 0.0008285454    1.573    0.364
        56  -8.6463    187.1828     58.9979   7.9640885094e+01   3.0636586421e+01    0.2828439     0.188778 -52.11  0.000942912    1.595    0.373
        57 -13.0735     15.0600    196.3902   1.4708313450e+02   3.2493404042e+01    0.8283037    0.6032741  80.23  0.003912616    1.021    0.020
        58  -8.2674    147.0302     57.0013   8.6865927879e+01   4.1068343988e+01    0.2307363    0.1804615 -69.97 0.0005054243    1.578    0.366
        59 -10.7889    133.5776    144.5822   1.1397973941e+02   2.6657197035e+01     1.189184    0.3135634 -54.34  0.003073515    5.249    0.810
        60  -9.5828    130.8953     54.6515   8.9853131301e+01   4.5321188632e+01    0.2398487    0.1981919 -16.84 0.0003127489    1.262    0.207
        61  -9.2338    245.6767     53.6607   7.0049022333e+01   1.7246252513e+01    0.2717934    0.1764184  52.49 0.0005823793    1.717    0.418
        62 -10.2407     42.5131    205.1208   1.4256607135e+02   2.7867613698e+01    0.1682923    0.1528665  77.43  0.001288731    1.318    0.241
        63  -8.5407    203.5126    160.9383   1.0247188141e+02   9.1941450319e+00    0.2032258     0.136595 -37.33 0.0005062142    1.520    0.342
        64 -10.7522      5.8260     51.9001   1.3195658463e+02   6.4566147702e+01    0.2670932    0.2467586  42.55    0.0018573    1.422    0.297
        65  -9.7928    178.3408    199.7952   1.1482530161e+02   7.5254798791e+00    0.2212672    0.1917884  36.04 0.0003022896    1.020    0.020
        66  -9.4586    195.8920     42.6741   7.3553919930e+01   3.0761949246e+01    0.7264991    0.3663176 -71.55   0.00240559    3.623    0.724
        67 -10.9068    192.4106     35.3716   7.1960543076e+01   3.2608645237e+01    0.4092981    0.3383023  24.62  0.001464337    1.434    0.303
        68 -12.5546     56.5352    164.8327   1.3570269286e+02   3.4630136826e+01      0.86533    0.6231004 -78.92  0.003228852    1.227    0.185
        69  -9.8212    112.6745     29.5589   8.5310791094e+01   5.3195893348e+01    0.2589543    0.1246408  50.08 0.0008876603    1.944    0.486
        70  -8.1347    198.3560    153.2755   1.0182625344e+02   1.1558598415e+01    0.1488259    0.1076699  14.70 0.0007006035    1.650    0.394
        71  -9.3040    192.9900    194.4962   1.1106954826e+02   5.7048351972e+00    0.5752609    0.3004715 -63.13  0.001728879    6.559    0.848
        72 -11.6519     69.4240    149.9173   1.3063086899e+02   3.6305664191e+01      2.31313    0.7940803 -59.16  0.007754467    2.597    0.615
        73  -9.5401    221.6334    191.2728   1.0515878900e+02   1.0484183135e+00    0.2867374    0.2087646  54.45 0.0006152819    1.715    0.417
        74 -10.7959    216.1995    189.0587   1.0572385019e+02   2.3325385612e+00    0.7206917    0.3282946  54.97  0.001589329    3.390    0.705
        75  -7.6210    190.6622    181.2996   1.0907337428e+02   8.2781767169e+00    0.1320437    0.1087918  76.43 0.0007034785    1.661    0.398
        76  -8.2459    153.9450    158.2321   1.1215197173e+02   1.9759044989e+01    0.1972532    0.1788613  48.76 0.0004193466    1.054    0.051
        77 -10.1096    221.9759    177.4719   1.0242535648e+02   3.0169052442e+00    0.3267516    0.2173389 -56.43  0.001583384    2.347    0.574
        78  -9.4811    219.5630    170.0260   1.0136059043e+02   4.6044908225e+00    0.3838673    0.2273657  58.46  0.001729404    2.369    0.578
        79  -9.5996      7.5068    171.0302   1.4688574231e+02   3.8353184918e+01    0.1728285   0.08670775 -80.78 0.0007151956    1.581    0.368
        80 -11.2506    143.3183    145.6021   1.1191799401e+02   2.4489908333e+01    0.6517705    0.4142278 -65.46  0.002813541    2.015    0.504
        81  -8.7587     78.6718    249.3440   1.3960589982e+02   1.5312578816e+01    0.1190432    0.0628676  65.19 0.0007050805    1.747    0.427
