#   1 NUMBER                 Running object number                                     
#   2 MAG_AUTO               Kron-like elliptical aperture magnitude                    [mag]
#   3 X_IMAGE                Object position along x                                    [pixel]
#   4 Y_IMAGE                Object position along y                                    [pixel]
#   5 X_WORLD                Barycenter position along world x axis                     [deg]
#   6 Y_WORLD                Barycenter position along world y axis                     [deg]
#   7 A_WORLD                Profile RMS along major axis (world units)                 [deg]
#   8 B_WORLD                Profile RMS along minor axis (world units)                 [deg]
#   9 THETA_WORLD            Position angle (CCW/world-x)                               [deg]
#  10 FWHM_WORLD             FWHM assuming a gaussian core                              [deg]
#  11 ELONGATION             A_IMAGE/B_IMAGE                                           
#  12 ELLIPTICITY            1 - B_IMAGE/A_IMAGE                                       
         1 -14.5271    195.6178     33.5954   5.3874929408e+01   3.1437897152e+01     2.293648     1.523454  21.90  0.007777511    1.943    0.485
         2 -14.5905    206.3496     20.8172   4.8775556570e+01   3.0143276795e+01     1.896111     1.264119  11.65  0.004845666    1.938    0.484
         3 -10.9408     32.6260     11.1935   9.3018686378e+01   7.2819202331e+01     0.194463    0.1015015 -40.36 0.0009543644    1.701    0.412
         4  -9.8611     64.2334      9.2123   7.4570455471e+01   6.8020526091e+01    0.1820615    0.1661038 -63.97  0.001067075    1.372    0.271
         5 -11.1944     44.5720      5.2921   8.2099412592e+01   7.2179864053e+01    0.3862842    0.2129051  -5.63  0.001431417    3.724    0.731
         6 -11.3437    183.2523    234.2931   9.9582117853e+01   5.7958592614e+00     0.329896    0.1308245  45.93  0.001701289    2.539    0.606
         7 -14.6165     75.1820    161.0683   1.1274292690e+02   3.3152412276e+01      4.65499    0.3960183  42.04   0.00639572    5.492    0.818
         8 -14.8950     67.8384    144.1091   1.1258830225e+02   3.7745569815e+01     4.329766     2.141537  61.05   0.01711059    2.263    0.558
         9 -13.7395     24.3548    194.7650   1.2678143775e+02   3.2335414564e+01    0.8854898    0.1769585  41.74  0.003325672    2.779    0.640
        10  -9.7514     95.3086    200.3418   1.1237547447e+02   2.3011924230e+01    0.2327659    0.1270361  61.23 0.0009528262    1.969    0.492
        11 -11.0085    204.4045    199.1945   9.1090817479e+01   6.6662161822e+00    0.1957739    0.1681272 -36.28  0.001153876    1.610    0.379
        12  -8.8736    153.4161    195.4767   9.9963183140e+01   1.5095409081e+01    0.1221144   0.09840059  31.07 0.0001961716    1.050    0.047
        13 -14.6173     39.4805    246.0901   1.2600002242e+02   2.2379504488e+01    0.7187234    0.5014774  78.25  0.003497055    1.426    0.299
        14  -9.4361    180.1259    192.6610   9.4434916169e+01   1.1242522499e+01     0.189449    0.1331723  46.79 0.0008068167    1.452    0.311
        15 -17.4683      5.6670    238.9513   1.3155109206e+02   2.6634015428e+01     11.39595     1.354588 -82.73   0.01530876    8.229    0.878
        16  -9.7649    167.3473    188.0974   9.6162996620e+01   1.3926879020e+01    0.2115487    0.1789621  68.96  0.001313958    1.613    0.380
        17 -11.0659    206.1593    180.9007   8.7808297710e+01   8.5749169529e+00    0.2601435    0.2282458 -67.22    0.0017041    1.953    0.488
        18 -10.9280    210.6091    179.2957   8.6757068133e+01   8.0580584460e+00    0.3444026    0.2234478  23.82  0.002083833    1.337    0.252
        19 -12.1766     72.2925    180.0877   1.1540158187e+02   2.9755747553e+01    0.3691356     0.263584 -32.66  0.002137531    2.289    0.563
        20 -12.0075     76.4561    174.7084   1.1391979057e+02   3.0248138222e+01    0.2757289    0.2444906 -35.98 0.0008245005    1.539    0.350
        21  -9.9956     99.4731    180.7495   1.0936696930e+02   2.5870350576e+01    0.2209109    0.1723793  34.32 0.0005226136    1.241    0.194
        22 -10.4097    144.2679    179.0329   9.9430781168e+01   1.9107085836e+01    0.2365088    0.1634652  21.06  0.001322243    1.595    0.373
        23 -11.0303    189.6003    154.8036   8.6097204058e+01   1.4916859721e+01    0.3997235    0.3187923  25.31  0.002056555    1.099    0.090
        24 -11.3942    195.4469    169.5776   8.7751722574e+01   1.1810354287e+01    0.4453087    0.2943422 -38.27  0.001973598    1.752    0.429
        25 -15.0910     10.8821    206.4413   1.2986190911e+02   3.1472977370e+01    0.7094774    0.5683949  25.88  0.002457401    1.593    0.372
        26  -9.9252     71.4494    230.0334   1.1946150575e+02   2.1270910311e+01    0.2305968    0.1211872  44.03 0.0008717936    1.343    0.255
        27  -8.7346    166.6651    174.2870   9.4096007403e+01   1.6069616079e+01    0.1227702   0.09503596  61.16 0.0003219376    1.627    0.385
        28  -9.8628    231.3343    169.6667   8.1574959341e+01   5.8991798601e+00    0.1017076   0.09867153 -78.92 0.0007052223    1.735    0.424
        29 -10.4177    146.0003    168.4879   9.7411885571e+01   2.0553674282e+01    0.1828377     0.178046  13.10  0.000444038    1.151    0.131
        30  -8.9127    223.7104    164.3562   8.1843286637e+01   7.7422483996e+00    0.1059069   0.09916269 -57.18 0.0005496523    1.681    0.405
        31 -15.9747     85.5430    246.0014   1.1793894876e+02   1.7263811660e+01     8.162103     2.005061  31.86   0.03106136    4.768    0.790
        32  -8.5251    143.6552    154.3377   9.5509945756e+01   2.3415119160e+01    0.1382853    0.1028034  70.97 0.0007048767    1.775    0.437
        33 -11.1190    133.5700    142.9049   9.5725635687e+01   2.7369000322e+01    0.7618157    0.2543329 -55.85  0.002428497    4.407    0.773
        34 -10.8516    174.4330    148.4313   8.7833962022e+01   1.8699175237e+01    0.3237222    0.2814093 -26.81  0.001194563    1.236    0.191
        35 -10.2628    144.4790    146.3868   9.3863809150e+01   2.4693359919e+01    0.3733166    0.2409579 -86.29  0.001460347    3.459    0.711
        36 -12.3446     91.5977    142.3037   1.0608013329e+02   3.4706144187e+01    0.3288135    0.2742688   9.99 0.0003794026    1.552    0.356
        37 -11.1083    104.2865    141.7751   1.0272248728e+02   3.2768767245e+01     0.525784    0.3371571 -28.80   0.00237525    2.519    0.603
        38 -10.1963    112.7218    131.5466   9.8724268263e+01   3.3448125241e+01      0.31204    0.2336358  17.44 0.0007718535    1.706    0.414
        39 -10.2477    106.0269    130.7674   1.0032793586e+02   3.4794436539e+01    0.3052508    0.2694848 -88.48   0.00118333    1.174    0.148
        40 -11.1824    160.0174    128.2309   8.6671290030e+01   2.4933448037e+01    0.4677016    0.2840019 -32.42  0.002163031    1.845    0.458
        41 -11.1633    136.0000    128.9841   9.2377265104e+01   2.9596678658e+01    0.4221613    0.1537509 -51.06  0.001478567    3.176    0.685
        42 -11.5087    118.9420    125.5395   9.5926921021e+01   3.3562529767e+01    0.7385325    0.4139829 -34.87   0.00307236    2.429    0.588
        43 -11.1087    100.1181    127.9347   1.0138282934e+02   3.6421468090e+01    0.2780816    0.2385402 -16.83 0.0006233847    1.506    0.336
        44 -10.3851    163.9964    215.0831   1.0057776188e+02   1.0797569535e+01      0.17226    0.1577278  19.12 0.0006642803    1.237    0.191
        45  -9.8366    125.8107    127.4504   9.4569210932e+01   3.1870953722e+01    0.2768685    0.1891152 -70.50 0.0008570476    1.914    0.478
        46 -12.3549    194.0706    195.2557   9.2293500635e+01   8.7171190921e+00    0.8640135    0.5425846 -57.18  0.004491084    3.268    0.694
        47  -9.9112    108.8463    120.0086   9.7462481324e+01   3.6603398676e+01    0.2045837    0.1933389  55.45 0.0003902913    1.028    0.028
        48 -13.5080     36.7258    116.7028   1.1818078339e+02   4.7664726719e+01     0.825426    0.4354189 -50.06  0.004060632    2.178    0.541
        49 -10.8035     24.0203    120.4885   1.2239160579e+02   4.7937044544e+01    0.2330401    0.1225319  43.88 0.0008690713    1.755    0.430
        50 -10.8740     23.6476    116.7185   1.2217448880e+02   4.8850245583e+01    0.2526472    0.1520169 -87.37 0.0005935604    1.461    0.316
        51 -10.3618    167.7654    112.5141   8.1350122601e+01   2.6083615635e+01    0.3598219    0.2869215 -77.80  0.001219928    1.756    0.431
        52  -9.4504    107.7214    113.6599   9.6424873291e+01   3.8189421982e+01    0.4274653    0.2374767  69.68  0.001480012    3.383    0.704
        53 -10.5175    134.8886    111.6808   8.8778457048e+01   3.3248715844e+01    0.4284232   0.09259102 -44.77  0.001134608    4.845    0.794
        54 -11.6003    118.7706    109.8843   9.2546355853e+01   3.6887821459e+01    0.7012387     0.413584  49.78  0.003099821    1.683    0.406
        55 -10.1848    205.4381    110.1250   7.3479769334e+01   1.8425659390e+01    0.2985073    0.1993987  41.32 0.0009329338    1.471    0.320
        56 -11.7479     40.9553    107.8607   1.1576525077e+02   4.9347082682e+01     0.335183    0.2143197 -70.95    0.0012961    1.417    0.294
        57 -10.0964    134.4287    104.0174   8.7016669354e+01   3.4883615328e+01    0.4325676    0.1808421 -44.26  0.001581387    2.475    0.596
        58 -11.2890     19.8661    111.0836   1.2284155666e+02   5.0482159987e+01    0.2783743     0.171279  32.86  0.001023461    1.694    0.410
        59  -9.5625     67.3016    104.0204   1.0660450262e+02   4.7054382840e+01    0.1937561    0.1747826 -83.66 0.0007155195    1.034    0.033
        60 -11.5574    240.4594     99.8448   6.5573545966e+01   1.2785928034e+01    0.4883083    0.2511321 -50.06  0.002069843    2.901    0.655
        61  -9.8381     86.7760     99.6352   9.9492715208e+01   4.5072981450e+01    0.2635305    0.1882014  65.20  0.000569951    1.578    0.366
        62  -9.2728    121.5316     98.5254   8.9010693189e+01   3.8729130638e+01    0.1490949    0.1441795  67.28  7.95118e-05    1.019    0.019
        63 -10.5696     53.9708     95.9651   1.0955653255e+02   5.0754918182e+01    0.2295756    0.1501561  68.51  0.001137269    1.708    0.415
        64  -9.3817    156.5111     79.5574   7.4982267166e+01   3.4509746225e+01    0.1526423    0.1476388  22.57 0.0001121108    1.025    0.024
        65 -10.2516     62.4022     69.1533   1.0043227556e+02   5.6102661472e+01    0.2832185    0.2446785  61.82 0.0009148618    1.238    0.192
        66 -10.6243    156.8041     59.1162   6.8565378573e+01   3.7928447922e+01    0.3051294    0.2522593 -87.17 0.0006244516    1.418    0.295
        67 -10.3727    159.1252     52.9336   6.6050577084e+01   3.8315432505e+01    0.2999018    0.2425748 -88.75 0.0005492314    1.443    0.307
        68 -13.3038    186.4355     40.5824   5.7311943164e+01   3.2939918336e+01     1.011216    0.6782889  41.35 0.0009303096    1.628    0.386
        69  -9.9126    173.8813    248.0740   1.0275631027e+02   5.5975071686e+00    0.1589688    0.1123382  40.85  0.001225069    1.288    0.224
        70 -16.0392     54.2477    204.1191   1.2115686737e+02   2.7529435631e+01     3.503066     2.488101  51.20   0.02021256    1.061    0.057
        71 -10.6985     27.7353     35.4083   1.0639622703e+02   6.8140259699e+01    0.2288993    0.1185344  30.46  0.001130674    2.143    0.533
        72 -10.3850     20.6037     52.2254   1.1453254962e+02   6.4726643496e+01     0.192903    0.0954242 -59.73 0.0008224276    1.647    0.393
        73  -8.5718     94.6757     46.3235   8.0610427436e+01   5.5255491680e+01    0.1519934    0.1198208 -80.11 0.0007047767    1.685    0.407
        74 -10.3449    189.7532     15.0219   4.8746122841e+01   3.5051340541e+01    0.2474685    0.2113019  80.90 0.0007002469    1.170    0.145
        75  -9.6244    196.1579    245.7911   9.8826123393e+01   2.9011832728e+00    0.1454493   0.09042891  20.34 0.0003958025    1.329    0.248
        76  -9.8676    164.3657    206.0269   9.9314776704e+01   1.1923903037e+01    0.1871111     0.131135  28.91 0.0003738459    1.177    0.150
