#   1 NUMBER                 Running object number                                     
#   2 MAG_AUTO               Kron-like elliptical aperture magnitude                    [mag]
#   3 X_IMAGE                Object position along x                                    [pixel]
#   4 Y_IMAGE                Object position along y                                    [pixel]
#   5 X_WORLD                Barycenter position along world x axis                     [deg]
#   6 Y_WORLD                Barycenter position along world y axis                     [deg]
#   7 A_WORLD                Profile RMS along major axis (world units)                 [deg]
#   8 B_WORLD                Profile RMS along minor axis (world units)                 [deg]
#   9 THETA_WORLD            Position angle (CCW/world-x)                               [deg]
#  10 FWHM_WORLD             FWHM assuming a gaussian core                              [deg]
#  11 ELONGATION             A_IMAGE/B_IMAGE                                           
#  12 ELLIPTICITY            1 - B_IMAGE/A_IMAGE                                       
         1 -13.4541    159.2192     49.9043   8.3092483648e+01   3.9387297971e+01     1.607215     1.324856   7.90  0.005626006    1.424    0.298
         2 -13.6184    171.2978     34.3749   7.5861817707e+01   3.8403990754e+01     1.099374     1.008042 -11.96  0.003896425    1.194    0.163
         3 -12.5763    175.0010     27.0093   7.2941964409e+01   3.8345214823e+01    0.5554288    0.4905604  13.63  0.001445234    1.296    0.228
         4 -11.4256    189.9031     14.3269   6.7040457021e+01   3.5846084730e+01    0.3228234    0.2527378 -12.86  0.001285588    1.505    0.336
         5 -12.8736    187.4244      3.5453   6.4185190845e+01   3.7575182711e+01    0.9455808    0.4765345  69.50   0.00366094    1.760    0.432
         6 -10.0553    169.2779    237.0360   1.2313052181e+02   3.5121222971e+00     0.160185    0.1405852  38.83 0.0005219825    1.119    0.106
         7 -19.6624     57.2459    158.5825   1.3591353580e+02   3.6248158192e+01     19.09923     4.363845 -68.54   0.06141691    4.486    0.777
         8 -10.7309    131.3675    213.9721   1.2719148525e+02   1.3545255034e+01    0.4225624    0.1542508  34.08  0.001509288    3.712    0.731
         9 -10.7966    165.0909    205.4428   1.1933938507e+02   9.0369142450e+00    0.4487878    0.2548784 -65.74  0.001825463    2.999    0.667
        10 -10.2229     29.3826    208.1978   1.4617374141e+02   2.9113017032e+01    0.0871559   0.08094188  43.90 0.0006766024    1.585    0.369
        11  -9.6922     11.2019    206.0750   1.4929730860e+02   3.1372002946e+01    0.2799794    0.1987408  29.96  0.001759593    1.961    0.490
        12  -8.9768    170.3499    205.2673   1.1828480963e+02   8.1085705707e+00    0.1547808    0.1248891 -59.35 0.0003345231    1.532    0.347
        13  -9.2021    211.0662    201.6971   1.0997649012e+02   1.2777072918e+00    0.1832693    0.1404995  32.85  0.000402844    1.118    0.106
        14 -12.4991    193.7951    193.4440   1.1174057380e+02   5.6558083761e+00    0.8624167    0.6637684 -69.80  0.003666428    1.970    0.492
        15 -10.7943    179.4562    192.3994   1.1434385022e+02   8.5229122732e+00    0.5741466    0.3245283 -64.52  0.002314198    3.413    0.707
        16 -11.7482    137.6722    197.9169   1.2367625419e+02   1.5312995983e+01    0.6186999    0.2721387  56.68  0.002458193    2.723    0.633
        17  -8.9303    169.7925    195.5633   1.1680291874e+02   9.8147753964e+00    0.1848554     0.114614  52.29  0.000446239    1.563    0.360
        18 -10.3898    157.9761    193.2459   1.1879404122e+02   1.2430010272e+01    0.2186396    0.1939207 -78.19 0.0003172626    1.305    0.233
        19  -9.7273    178.0418    197.0261   1.1542142409e+02   8.0286757569e+00    0.2828318    0.1987163  58.30   0.00125724    1.568    0.362
        20 -11.2134    207.5062    183.9265   1.0737623615e+02   4.5571503193e+00    0.3370547    0.3183543  24.44  0.001139905    1.128    0.114
        21 -11.3060    210.7780    181.2578   1.0625108835e+02   4.3496281643e+00    0.3980475    0.2842059  -7.75  0.001428109    1.630    0.386
        22 -10.7499     17.4251    249.2856   1.5029828806e+02   2.3054711428e+01    0.1375225    0.0960382 -72.98 0.0007355289    1.742    0.426
        23  -9.2616    157.4822    178.4955   1.1635425989e+02   1.5206224542e+01     0.140787    0.1270689  47.73 8.990736e-05    1.004    0.004
        24 -10.3270    197.5842    175.9581   1.0773263013e+02   7.7392945371e+00    0.3533837    0.2613123 -58.74  0.001829241    1.806    0.446
        25  -9.5183      3.9912    176.1351   1.4897734102e+02   3.7955707810e+01   0.09491533   0.06572689  46.40 0.0006714238    1.503    0.335
        26 -12.1905    137.3742    171.2781   1.1940273983e+02   2.0498342591e+01    0.6456852    0.4112086  55.29    0.0031284    1.541    0.351
        27  -9.8367    204.8157    170.4053   1.0523340508e+02   7.2237361014e+00    0.2128317    0.1745277  56.61 0.0006574182    1.370    0.270
        28  -8.9309    207.7238    168.3347   1.0425859367e+02   6.9851551891e+00    0.1455948    0.1277335  15.57 0.0002765624    1.073    0.068
        29  -9.6322    181.8216    234.1613   1.2047455561e+02   1.8190018596e+00    0.1697582    0.1267314  22.20  0.001083159    1.352    0.261
        30 -10.8586    145.6166    169.1361   1.1720207526e+02   1.9331504251e+01    0.3572038    0.2735234 -85.86  0.001254642    1.626    0.385
        31 -10.4590    164.4641    157.7639   1.1087051126e+02   1.7751044237e+01    0.3257871    0.2092768  52.58 0.0009724184    1.540    0.351
        32  -9.8811      9.4146    152.9443   1.4627829832e+02   4.2406085994e+01    0.2689926    0.1678663  20.52  0.001658765    2.288    0.563
        33 -12.6847    132.8727    145.1202   1.1542889985e+02   2.6840037261e+01    0.9700429    0.5652527 -61.06  0.004152594    1.967    0.492
        34 -10.2321    174.6669    148.3186   1.0667428992e+02   1.7408360337e+01    0.3815683    0.2519111 -61.66  0.001418749    1.983    0.496
        35 -11.2922    144.1138    145.3664   1.1283950627e+02   2.4496603335e+01    0.3762191    0.2925831  66.80  0.001866289    1.390    0.280
        36 -10.4127     18.2018    231.1161   1.4936238802e+02   2.6072813805e+01   0.07317345   0.05385507  53.64 0.0005604633    1.339    0.253
        37 -11.4208    105.9158    130.6888   1.1912080381e+02   3.5206208608e+01    0.3940144    0.3362148 -83.38  0.001197159    1.176    0.149
        38 -10.7158    108.0656    126.1436   1.1758902208e+02   3.5846365568e+01    0.3313951    0.2730751 -44.67 0.0006788204    1.275    0.216
        39 -11.2474    119.1666    129.9380   1.1555716807e+02   3.2884141574e+01    0.3782943    0.3503343 -58.11  0.001319476    1.091    0.084
        40 -11.5002    135.7115    122.8758   1.0977869799e+02   3.1063896256e+01    0.7573212    0.2683457 -51.03  0.002437145    3.043    0.671
        41 -10.3563    161.1000    127.6963   1.0492466461e+02   2.4478178033e+01    0.2768727    0.2146598 -57.30 0.0009391519    1.395    0.283
        42 -10.1941    113.4423    119.0481   1.1456963454e+02   3.6434958864e+01    0.2728643    0.2192464  44.88 0.0003412915    1.271    0.213
        43 -10.3520    168.3409    113.9335   9.9874124137e+01   2.5573963278e+01    0.4600083    0.2928825 -64.37  0.001563922    2.182    0.542
        44 -11.1875    125.1047    127.0003   1.1339528821e+02   3.2359454908e+01    0.5775036    0.3608299  83.60  0.002115371    2.927    0.658
        45 -11.0986     93.9535    110.2912   1.1784745004e+02   4.1985074927e+01    0.2844248    0.2073645 -48.64 0.0008855577    1.327    0.247
        46 -10.8107      1.1819    229.4570   1.5200934308e+02   2.8042518572e+01   0.08988456   0.05747207 -81.15 0.0005297868    1.493    0.330
        47 -10.6317    156.9777    218.6935   1.2288863244e+02   8.3394130647e+00    0.1868183     0.147496  46.28  0.001159326    1.046    0.044
        48 -10.0592    205.6208    110.1274   9.1326259067e+01   1.7471171662e+01    0.2918985    0.2178643  43.44 0.0007161131    1.369    0.269
        49 -11.3879    120.1718    217.0745   1.2976349214e+02   1.4874452044e+01    0.6082713    0.3038081  64.94  0.002719331    2.666    0.625
        50 -11.9854     12.7243    245.1584   1.5084306440e+02   2.4224775843e+01    0.2482998   0.09574515 -68.99  0.001535718    2.719    0.632
        51 -10.3158      2.1951    246.1541   1.5246501721e+02   2.5102475376e+01   0.06991281   0.05247496  66.20 0.0004478146    1.263    0.208
        52 -10.6697     22.1214    243.0465   1.4929845260e+02   2.3599652044e+01    0.2321133    0.1381105  47.18  0.001315236    1.484    0.326
        53  -9.8044     13.4830     59.6169   1.3260589045e+02   6.2823089310e+01    0.2057339    0.1572455 -55.98   0.00050796    1.021    0.020
        54  -9.8454    133.1293     29.6171   8.1614003338e+01   4.8842915094e+01    0.4352547    0.2325009  82.11  0.001504043    3.421    0.708
        55 -11.0843     18.6649    241.7519   1.4978048170e+02   2.4184569686e+01    0.1045489   0.07872881  84.41 0.0004238471    1.279    0.218
