#   1 NUMBER                 Running object number                                     
#   2 MAG_AUTO               Kron-like elliptical aperture magnitude                    [mag]
#   3 X_IMAGE                Object position along x                                    [pixel]
#   4 Y_IMAGE                Object position along y                                    [pixel]
#   5 X_WORLD                Barycenter position along world x axis                     [deg]
#   6 Y_WORLD                Barycenter position along world y axis                     [deg]
#   7 A_WORLD                Profile RMS along major axis (world units)                 [deg]
#   8 B_WORLD                Profile RMS along minor axis (world units)                 [deg]
#   9 THETA_WORLD            Position angle (CCW/world-x)                               [deg]
#  10 FWHM_WORLD             FWHM assuming a gaussian core                              [deg]
#  11 ELONGATION             A_IMAGE/B_IMAGE                                           
#  12 ELLIPTICITY            1 - B_IMAGE/A_IMAGE                                       
         1 -14.5093     68.1208    144.3955   8.6236573517e+01   3.7577698409e+01      4.28395     2.023789  84.93  0.008185211    4.560    0.781
         2 -14.4253    218.7942     42.3314   2.6575091361e+01   2.4521186670e+01     2.964015      1.47508  38.03   0.01099609    2.799    0.643
         3 -13.6632    242.2317     24.0227   1.8994847352e+01   2.0947902057e+01    0.8748044    0.8209933 -38.77  0.002596456    1.146    0.128
         4 -13.3486      4.4141     11.7727   7.7290442506e+01   7.1096047767e+01     1.617869    0.3397213 -50.75  0.007291298    3.023    0.669
         5 -12.3725     18.8844      4.9922   6.7371697444e+01   7.1160632942e+01    0.4540085    0.3462502 -38.40  0.003383724    1.309    0.236
         6 -12.0955    236.1955    173.8058   5.5850829638e+01   2.9363997873e-01     1.383318     0.305669  39.16  0.003897762    5.144    0.806
         7 -12.3068    116.2870    245.5747   8.8669352895e+01   1.1207490435e+01    0.6130372    0.3536968 -68.98  0.003410026    2.149    0.535
         8 -15.9819     29.0260    239.2683   1.0215217566e+02   2.3829467988e+01     6.744605     2.251275  32.88    0.0273505    6.411    0.844
         9 -12.2947     57.6112    168.1271   9.1598180906e+01   3.3816082104e+01    0.4072964    0.2772603  63.79 0.0008625974    1.321    0.243
        10 -13.2425     19.9466    198.2158   1.0130429218e+02   3.2008895035e+01    0.3935525      0.32488 -65.09  0.001115482    1.640    0.390
        11 -16.1118     28.2200    184.0455   9.8867734216e+01   3.3897481141e+01     7.480657     2.630478  89.02   0.03205442    3.585    0.721
        12 -10.2355    115.9856    173.7560   7.9915931732e+01   2.3874893255e+01    0.2116436    0.1330584  46.10  0.001090537    1.465    0.317
        13 -12.3098     80.7894    138.4882   8.2283834568e+01   3.7116168464e+01    0.3537917    0.2807306 -61.83 0.0004361433    1.209    0.173
        14 -13.6622     55.0944    154.6446   9.0577313444e+01   3.6991259007e+01    0.7270151    0.4544474 -62.97  0.001713313    1.494    0.331
        15 -11.8151     68.9865    159.4145   8.8104156025e+01   3.4192497281e+01    0.3991221    0.2794993  70.08 0.0003633608    1.346    0.257
        16 -12.9463     76.7665    153.3836   8.5534777028e+01   3.4419300613e+01    0.8098574    0.6085687 -54.19  0.001004146    1.444    0.308
        17 -10.6683     29.0567    218.6193   1.0101347737e+02   2.7344987181e+01    0.4004348    0.1258092  51.83  0.002211427    2.371    0.578
        18  -8.9047    174.8186    148.8705   6.2550030338e+01   1.7100803792e+01    0.2027168     0.176505  89.83 0.0005704116    1.355    0.262
        19  -9.4312    134.0000    146.4850   7.1099867274e+01   2.6126452515e+01     0.455689   0.08242693 -49.52  0.001138685    5.760    0.826
        20  -9.6359     72.5476    204.1493   9.2366049376e+01   2.4680400367e+01    0.2365775    0.1395367  69.79   0.00125693    1.540    0.351
        21 -10.1286     96.7473    137.2600   7.8177232048e+01   3.4905698668e+01    0.3199937    0.2632019 -20.92  0.001742677    1.708    0.414
        22  -9.0475    124.0000    202.8917   8.2440871031e+01   1.6952064594e+01    0.1802076   0.07207191 -56.22  0.000656213    2.858    0.650
        23 -11.2959    244.8788    131.4529   4.5174405218e+01   4.7625808026e+00    0.2987029    0.1850669 -10.88  0.001346312    1.952    0.488
        24 -11.0691    106.4969    130.2882   7.4428345428e+01   3.4785000420e+01    0.4173086    0.3378197  34.83  0.001574971    1.376    0.274
        25 -11.7656    230.5980    169.2987   5.5934132109e+01   2.0126695926e+00    0.5078019    0.3118213 -20.50  0.002514374    1.798    0.444
        26 -10.4375     93.1418    140.3802   7.9612946115e+01   3.4801132988e+01    0.3144823    0.2748453 -65.08 0.0008673923    1.135    0.119
        27  -9.9299     92.6706    125.8037   7.7021816403e+01   3.8119917387e+01    0.2241935    0.2074208  75.27 0.0003454427    1.070    0.066
        28 -10.3151    192.0215    193.2899   6.7732967181e+01   5.9627597356e+00    0.5325642    0.2947613 -66.27  0.001785917    5.354    0.813
        29  -9.3297    113.9680    124.2244   7.1286079204e+01   3.4764245533e+01    0.2270241     0.171715   9.32  0.001064275    1.988    0.497
        30  -9.8091    110.7086    167.5152   8.0084276612e+01   2.6059508227e+01    0.2424994    0.1894257 -86.59 0.0006263174    1.300    0.231
        31 -10.3061     56.1290    196.0460   9.4663707343e+01   2.8376434601e+01    0.3896183    0.1727155 -89.64  0.001880926    2.685    0.628
        32  -9.8855    104.2085    118.7097   7.2577738850e+01   3.7751616596e+01     0.225636    0.2102674  56.96 0.0004186508    1.103    0.093
        33 -10.0533    205.0196    110.6559   4.7304731992e+01   1.7141542694e+01    0.3702552    0.2567467  39.36  0.001269451    1.472    0.321
        34 -11.3581     14.5351    109.9672   9.4795240369e+01   5.0663928246e+01    0.3638714    0.2203662  74.03  0.002226621    1.770    0.435
        35  -9.5083     84.8678     99.1677   7.3395840147e+01   4.5304298101e+01    0.3395868     0.213008 -80.44  0.001477872    2.363    0.577
        36 -10.3091     58.4826     96.3625   8.0389933602e+01   4.9550349225e+01    0.4445309    0.2490693  71.99  0.001824655    3.340    0.701
        37 -11.4003     53.0864     92.1034   8.1091561199e+01   5.1120645625e+01    0.8765398     0.217385 -61.03  0.002937274    3.773    0.735
        38  -9.0996     20.2898     90.4047   9.0481734013e+01   5.4505966416e+01    0.1328498     0.105849  50.58 0.0003573627    1.496    0.331
        39 -10.6781    163.0819     85.3667   4.9196511070e+01   3.2058431600e+01    0.4190455    0.2475148  30.71  0.001478222    2.236    0.553
        40  -9.1215    184.0835     77.9112   4.2562957938e+01   2.8101018934e+01    0.2618531    0.1907442  20.00  0.001130991    1.747    0.428
        41  -8.9326     99.3100    180.9444   8.4465161966e+01   2.5222145199e+01    0.1738819     0.149047  79.69 0.0004794632    1.050    0.048
        42 -14.5206      8.2671    207.3897   1.0375591057e+02   3.1446355438e+01     1.263752    0.7623087 -83.91  0.009640935    1.362    0.266
        43  -8.9681     72.6455     52.3069   6.3991061134e+01   5.6881242290e+01    0.1850697    0.1554914 -81.15 0.0007599918    1.699    0.411
        44 -10.2579     20.8524     48.5249   8.1696774169e+01   6.3255485689e+01    0.2099955     0.169633 -40.92 0.0004226377    1.086    0.079
        45 -11.4959    121.6800     29.8936   4.0849350839e+01   5.1168198745e+01    0.2745143    0.2605602 -63.71 0.0004746914    1.251    0.200
        46 -12.5473     51.2879    173.3504   9.3454960829e+01   3.3501251456e+01     0.509335    0.4457164  -0.27  0.001269716    1.905    0.475
        47  -9.8943    198.0360     23.9739   2.4267626149e+01   3.2324658704e+01    0.2379053    0.1675088  32.60 0.0007012505    1.686    0.407
        48  -9.7704    189.6992     15.4451   2.2902376081e+01   3.5519186286e+01     0.254483    0.1999585 -26.61 0.0007058814    1.377    0.274
