#   1 NUMBER                 Running object number                                     
#   2 MAG_AUTO               Kron-like elliptical aperture magnitude                    [mag]
#   3 X_IMAGE                Object position along x                                    [pixel]
#   4 Y_IMAGE                Object position along y                                    [pixel]
#   5 X_WORLD                Barycenter position along world x axis                     [deg]
#   6 Y_WORLD                Barycenter position along world y axis                     [deg]
#   7 A_WORLD                Profile RMS along major axis (world units)                 [deg]
#   8 B_WORLD                Profile RMS along minor axis (world units)                 [deg]
#   9 THETA_WORLD            Position angle (CCW/world-x)                               [deg]
#  10 FWHM_WORLD             FWHM assuming a gaussian core                              [deg]
#  11 ELONGATION             A_IMAGE/B_IMAGE                                           
#  12 ELLIPTICITY            1 - B_IMAGE/A_IMAGE                                       
         1 -11.3882     56.0530     32.3793   7.4076027651e+01   6.3773421352e+01    0.6098734    0.2322245 -42.20  0.001307715    2.852    0.649
         2 -10.2011      5.3963     13.2528   9.0763576159e+01   7.2668997420e+01    0.2025522    0.1653843 -42.32 0.0008236319    1.471    0.320
         3 -12.4172      8.0650      9.0603   8.7178420034e+01   7.3092201288e+01    0.4179683    0.1954049  30.81   0.00239631    2.381    0.580
         4 -12.1036      4.6738     18.5001   9.3493582219e+01   7.1874220212e+01    0.4611667    0.4258162  66.72  0.003447669    1.896    0.473
         5 -11.7816     10.0183     15.4949   8.9082268128e+01   7.1946624399e+01    0.2439195    0.1651433 -17.73 0.0003939182    1.173    0.147
         6 -12.2903    165.1003     22.9330   4.2656237355e+01   4.1009818468e+01    0.2976775    0.2393221  63.21 0.0003435199    1.155    0.134
         7 -11.4171    104.2560     20.0731   5.3214910511e+01   5.5911783364e+01    0.5069701    0.3422093 -84.49  0.001935104    2.411    0.585
         8 -11.3005     33.3762      1.7360   6.9446774008e+01   7.1120700350e+01    0.2325603     0.163954  29.80 0.0006983162    1.309    0.236
         9 -11.7605     12.2026      2.1367   8.1105478130e+01   7.3670624680e+01    0.3355317    0.2250713   7.43  0.001930547    1.256    0.204
        10 -11.3287     26.5166      2.7269   7.3433652347e+01   7.1941682235e+01    0.3039624    0.1905171  30.45  0.001040653    1.498    0.333
        11 -12.3397     17.0567      7.9367   8.1366825848e+01   7.2391259133e+01    0.5478461     0.230454 -32.88 0.0003704952    2.103    0.524
        12 -12.0634     20.2129     16.9934   8.4082266918e+01   7.0762058891e+01    0.6030059    0.4391134  31.20  0.003721206    1.652    0.395
        13 -10.6854     22.5697     13.1848   8.0976956943e+01   7.1063898889e+01    0.3013499    0.1314643 -33.52  0.001270109    2.048    0.512
        14 -11.2835     23.9866      7.9922   7.7583176607e+01   7.1604864901e+01    0.2863857    0.1884181  16.62   0.00096064    1.339    0.253
        15 -11.6225     21.0080      3.5110   7.6812272066e+01   7.2527953970e+01    0.3796358    0.2066911 -25.48  0.002017949    1.633    0.388
        16 -11.7679    129.5419     19.2507   4.7401736344e+01   5.0096117161e+01    0.2616998    0.2516453  44.60 0.0004969692    1.091    0.083
        17 -10.3817     33.4942     16.1929   7.6838289296e+01   6.9327736310e+01    0.4445846    0.2056776  12.20  0.001804378    3.641    0.725
        18 -11.4198     49.7552     15.3358   6.8993582280e+01   6.7085448359e+01    0.7582096    0.2716801  44.76  0.003321534    2.815    0.645
        19 -10.3365     39.9353     11.0504   7.1223122919e+01   6.9103948953e+01    0.2303886    0.1785655 -34.42 0.0007048796    1.569    0.363
        20 -10.4352    233.7399     15.7439   3.3613656471e+01   2.5889273331e+01    0.3278969   0.08099262 -46.17  0.001315754    3.101    0.677
        21 -10.8054    234.0000     12.0582   3.2823968563e+01   2.6252156898e+01    0.2725658    0.1106132 -47.44  0.001061635    2.041    0.510
        22 -11.0811     73.9351     15.7671   6.0127870418e+01   6.2749047480e+01    0.4143775    0.3734465  61.49  0.001646691    1.393    0.282
        23 -11.2727     78.9571     10.7389   5.6329888451e+01   6.2267709738e+01    0.2706757    0.1732578  33.80 0.0004648511    1.390    0.281
        24 -11.0074     75.5552     10.5006   5.7273519036e+01   6.2972447630e+01     0.315202    0.2350587  43.84  0.001061656    1.194    0.162
        25 -10.9658    156.5980      7.5443   3.9395384047e+01   4.4650496385e+01    0.4138092    0.1539848 -36.36  0.001785118    2.708    0.631
        26 -10.6906    118.0785     12.0346   4.7150691169e+01   5.3524525211e+01    0.4205711    0.2679359 -20.61  0.001739916    1.787    0.441
        27 -11.8963    128.7847     11.1573   4.4814184702e+01   5.1064534616e+01    0.4926359    0.3430315 -76.02  0.001715296    1.774    0.436
        28 -10.4846    229.6901     12.4612   3.3235021946e+01   2.7125067832e+01    0.2020433    0.1002669 -35.23 0.0006761348    1.972    0.493
        29  99.0000     43.3907      8.4760   6.8359904616e+01   6.8888430799e+01    0.4208526    0.3265625 -32.98  0.002800303    1.567    0.362
        30 -10.0926    100.2704     11.9654   5.1058911452e+01   5.7611299774e+01    0.1710807    0.1510506  27.75 0.0002271227    1.085    0.078
        31  -9.4332     65.3970     11.8248   6.1263023171e+01   6.4786781657e+01    0.1656071    0.1057844  -2.84 0.0003843456    1.667    0.400
        32 -11.9056    214.5057      7.8667   3.3443151079e+01   3.0950568841e+01    0.4723448     0.250303  61.27   0.00250314    1.904    0.475
        33 -11.9470    212.3257      4.0039   3.2757574319e+01   3.1837926114e+01    0.4416106    0.2260031 -86.82  0.002279655    1.890    0.471
        34 -10.2404    164.1807      9.1786   3.8885241831e+01   4.2653366850e+01    0.2211128    0.1692821  89.10 0.0003230022    1.199    0.166
        35 -10.0680    164.5693      5.5056   3.7811028613e+01   4.2900537174e+01    0.2256562     0.174861 -69.96 0.0005459284    1.277    0.217
        36 -12.1689    146.5859      5.6833   4.0213823071e+01   4.7250572015e+01    0.6123313    0.3977646  33.91  0.002170747    1.823    0.451
        37 -10.4318    145.1625      1.3403   3.9089702502e+01   4.7960276775e+01    0.1984241    0.1095832  70.50 0.0003949436    1.550    0.355
        38 -11.0617    191.3418      7.1350   3.5340798273e+01   3.6341520030e+01    0.3944576    0.2817553 -30.42  0.001483874    1.586    0.370
        39 -10.9733    194.6922      2.0406   3.3790336469e+01   3.6055497332e+01    0.3083508    0.1741547  88.44  0.001179051    1.622    0.383
        40  -9.6920     86.0193      7.9717   5.3105158951e+01   6.1066178121e+01    0.1459023    0.1254329  27.45  0.000941182    1.055    0.052
        41 -11.7620     98.0077      4.4206   4.8623384967e+01   5.8772576801e+01    0.3924161    0.2326244  31.73  0.002090184    1.694    0.410
        42 -10.4173     90.5133      7.2965   5.1625848058e+01   6.0168967954e+01    0.4417534    0.1602987  56.52   0.00189855    2.330    0.571
        43 -10.5332     93.4702      4.4731   4.9724585469e+01   5.9766945561e+01    0.1861291    0.1530395  36.01 4.625194e-05    1.064    0.060
        44  -9.5945     34.3765      7.7651   7.2170524058e+01   7.0291306818e+01    0.1639859   0.09409855 -18.09 0.0009488765    1.656    0.396
        45 -11.5001    230.6658      6.2772   3.1864547422e+01   2.7593259405e+01    0.2794033    0.1641589 -65.38  0.001646337    1.467    0.318
        46 -12.3825    178.9381      4.4322   3.5910679081e+01   3.9541941503e+01    0.3444088    0.2455923  75.03 0.0001377105    1.212    0.175
        47 -10.5845     74.0305      3.3797   5.4547428035e+01   6.3926668487e+01    0.3433868    0.2866514   7.35  0.002302898    1.169    0.144
        48  -9.0234     56.3071      5.7279   6.1681284154e+01   6.7046613605e+01    0.1004896   0.09731603  76.92  0.000212577    1.543    0.352
        49 -10.4652    223.3285      3.9750   3.1910623855e+01   2.9414360803e+01       0.1627    0.1353047 -67.69 0.0007794414    1.099    0.090
        50 -10.8595    203.5698      3.8351   3.3439597125e+01   3.3835140245e+01    0.2239285    0.1680806 -52.66  0.001243803    1.261    0.207
        51 -10.9070     67.2337      3.4473   5.6722991386e+01   6.5250133903e+01    0.2720666    0.2427182  69.27  0.001150344    1.489    0.329
        52 -10.5845    243.1655      2.8812   3.0339994398e+01   2.5351310375e+01    0.1831215    0.1217862 -64.88 0.0005155131    1.190    0.160
        53 -10.9077    237.6835      2.7937   3.0673535948e+01   2.6488467598e+01    0.2015957    0.1473643 -82.24 0.0008779801    1.133    0.117
        54  -9.9552    126.6237      2.6353   4.2316292844e+01   5.2307565883e+01    0.1978304    0.1505883   9.30 0.0006094212    1.571    0.363
        55  -9.5690    169.6116      2.3138   3.6354857152e+01   4.1970382229e+01    0.1399695    0.0820461 -69.80 0.0006148283    1.831    0.454
        56 -10.2031     81.3507      5.1713   5.3202491371e+01   6.2286154562e+01    0.2109783    0.1767337 -57.37  0.001328832    1.649    0.393
        57  -9.0813      1.3661      1.2684   8.7369943978e+01   7.4771998403e+01    0.1144346   0.06257066 -12.55 0.0003521089    1.657    0.397
        58 -12.2470     49.3394    161.7711   1.0953833256e+02   3.5530733482e+01    0.8747818    0.4556821  34.38  0.003234504    2.007    0.502
        59 -10.6915    249.0293    248.1310   7.9139101036e+01  -1.2105034449e+01    0.4324459    0.2082934  -5.64   0.00208221    2.877    0.652
        60 -11.2015     88.8694    249.6763   1.1044690903e+02   1.0641994144e+01    0.2964599    0.1963363  39.23 0.0008711172    1.317    0.240
        61 -10.0265     72.5996    250.1240   1.1369685901e+02   1.2800584417e+01    0.1888102    0.1626971   9.38  0.001266516    1.658    0.397
        62 -12.8258     19.3277    237.9729   1.2299052830e+02   2.1571489285e+01    0.7237159    0.3472535  49.69  0.004300878    1.650    0.394
        63 -11.4437      4.6027    235.8882   1.2556325560e+02   2.3459877246e+01    0.3991405    0.2918833  57.13  0.001895269    1.182    0.154
        64 -13.2895      5.7303    245.1244   1.2578271346e+02   2.1555101694e+01     0.875999    0.5590866  42.81  0.004287224    1.482    0.325
        65 -12.2165     21.9626    249.0995   1.2311676305e+02   1.9131328686e+01    0.4551312    0.2486111  40.84  0.002127829    1.629    0.386
        66 -11.2647     17.2710    247.4125   1.2386384328e+02   1.9949950410e+01    0.2253257    0.1639153  54.55 0.0007595848    1.180    0.153
        67  -9.2558    176.7239    168.6897   7.8457306904e+01   1.2067846183e+01    0.1486126    0.1134818  -6.65 0.0002061615    1.556    0.357
        68 -11.4671     40.0480    162.7350   1.1212030416e+02   3.6348946861e+01    0.2782259    0.2509398  58.92 0.0007764749    1.167    0.143
        69  -9.9665     99.1574    164.9195   9.6694681340e+01   2.7531908952e+01    0.2226942    0.1920933  79.12 0.0003543718    1.199    0.166
        70 -12.0552     36.1345    165.4760   1.1346160217e+02   3.6089819521e+01    0.6448591    0.3498856  86.65  0.002999252    2.001    0.500
        71  -8.8785    200.3187    162.6539   7.2215336147e+01   8.7447505696e+00    0.1424195    0.1172034 -77.99 0.0007048981    1.727    0.421
        72 -10.0774      9.2048    162.4521   1.1995305976e+02   3.9303671136e+01    0.2948401   0.06371728  36.47  0.001139921    3.800    0.737
        73 -12.3727     22.2964    156.8087   1.1609303596e+02   3.9579584998e+01    0.5774016    0.5364967 -25.51  0.003850118    1.369    0.270
        74  -9.3491    216.3879    155.2203   6.7511140934e+01   7.1414896749e+00    0.1932965    0.1243694 -46.38  0.000387284    1.559    0.359
        75  -9.4812    157.4752    155.0395   7.9889974352e+01   1.8790562180e+01    0.2298979    0.1306947 -25.08 0.0008099064    2.663    0.625
        76 -10.0827     11.4232    153.4894   1.1858337418e+02   4.1302222400e+01    0.2286501    0.1267392  23.80  0.001215875    2.183    0.542
        77 -10.0094    177.5364    151.0296   7.4426208397e+01   1.5556082767e+01    0.2931295    0.2181073  61.43  0.001362408    1.648    0.393
        78  -9.8165     33.1213    148.1275   1.1215977912e+02   4.0722852958e+01    0.1955679    0.1566684 -58.26 0.0004057382    1.208    0.172
        79 -10.1980    207.0682    146.3336   6.7312003068e+01   1.0574961702e+01    0.1974583    0.1874413  25.26 0.0006300355    1.122    0.109
        80 -10.3164     17.7227    146.9039   1.1624196259e+02   4.2418008687e+01    0.2671396    0.1995469 -21.42 0.0008546829    1.808    0.447
        81  -9.7337    220.4608    143.9924   6.4318119766e+01   8.4453291208e+00     0.217205    0.1279067 -39.16 0.0006502774    1.532    0.347
        82  -9.6924     10.4732    144.5073   1.1794818837e+02   4.3572346566e+01    0.1936963    0.1230633  -5.94 0.0009904142    2.365    0.577
        83  -9.6273     82.3940    139.7959   9.6580978088e+01   3.6543802605e+01    0.2179629    0.1295113 -48.89 0.0009420725    1.638    0.390
        84  -9.7217     55.7609    138.9622   1.0427915833e+02   4.0521155171e+01    0.3637508    0.1514779  41.98  0.001438811    2.528    0.604
        85 -10.9594      2.7586    137.2760   1.1932109404e+02   4.5869267721e+01    0.3000836    0.1372108 -77.51 0.0009448475    1.781    0.439
        86 -10.0080      9.3238    136.9061   1.1746642173e+02   4.5521918069e+01    0.1859709    0.1294129 -74.29 0.0004058311    1.159    0.137
        87  -9.8873     20.7193    135.4582   1.1405722956e+02   4.5016417878e+01    0.2356364   0.09781791 -69.96 0.0007925844    1.981    0.495
        88  -9.6446    122.7075    135.3174   8.4179539149e+01   3.0393613349e+01    0.1580588    0.1251232  86.18 0.0002820678    1.601    0.376
        89 -10.1050    249.3253    134.0037   5.7422852696e+01   4.9890793453e+00    0.1975562    0.1477517 -35.39 0.0007387119    1.125    0.111
        90 -10.5311    108.5174    133.5005   8.7684324063e+01   3.3583118365e+01    0.1549979    0.1504638 -50.51 0.0002185727    1.021    0.020
        91 -10.4427     55.2799    132.9885   1.0338049270e+02   4.2099721965e+01    0.3148114    0.1817849  41.86  0.001049584    1.855    0.461
        92 -11.1752     74.1546    129.7036   9.6987280139e+01   4.0353653713e+01    0.3223162    0.2871927 -88.04  0.001042867    1.158    0.137
        93 -11.0361     36.9321    130.3943   1.0852839410e+02   4.4814962168e+01    0.4569853    0.3299849  -6.33  0.002422079    1.862    0.463
        94 -10.1201     38.7077    126.9467   1.0742936793e+02   4.5504977814e+01    0.3273161    0.1879741  77.85  0.001406001    2.429    0.588
        95 -10.2656     24.2101    125.9352   1.1173754688e+02   4.7104262495e+01    0.1939002    0.1600421 -89.06 0.0004456996    1.163    0.140
        96 -11.5571     21.8377    121.1981   1.1178312192e+02   4.8477736198e+01    0.5903779    0.2450796 -38.21            0    3.076    0.675
        97 -10.6815     13.6373    126.2719   1.1497831817e+02   4.7839169664e+01     0.307166    0.1850913  33.10 0.0009172091    1.899    0.473
        98 -11.0818     11.0106    123.2330   1.1538382727e+02   4.8770517042e+01    0.2886508    0.2254286  85.15  0.001249576    1.245    0.197
        99  -9.6225    220.4389    124.4947   5.9944583753e+01   1.2022144386e+01      0.14412     0.128333 -35.83 0.0008074407    1.012    0.012
       100 -10.8101      2.7280    123.0079   1.1783182349e+02   4.9346281564e+01    0.2605074    0.2257999 -44.65  0.001528392    1.270    0.213
       101 -10.0701      1.3982    119.0076   1.1777414523e+02   5.0393702332e+01    0.1899221   0.09920556 -75.15 0.0003422321    1.544    0.352
       102  -9.1396     32.4528    121.5568   1.0850319927e+02   4.7470386536e+01     0.137178    0.1146519 -58.48  3.03246e-05    1.070    0.065
       103  -9.9734     72.2918    117.1910   9.4858020561e+01   4.3758858724e+01     0.367931    0.1303816 -58.99  0.001229244    2.806    0.644
       104 -10.1896     86.0065    116.6552   9.0397505879e+01   4.1719827929e+01    0.2030866    0.1970691  23.31 0.0004178749    1.088    0.081
       105  -9.9027    213.9684    115.6745   5.9009004719e+01   1.4953220933e+01    0.1927826    0.1821471  50.29 0.0004874705    1.164    0.141
       106 -10.6694     16.1579    115.8623   1.1279512152e+02   5.0226840427e+01    0.2102221    0.1862292 -17.48 0.0005363214    1.335    0.251
       107  -9.5530     35.3088    114.6794   1.0640651368e+02   4.8915869585e+01    0.1361684   0.09883397  74.12 0.0003300158    1.643    0.391
       108 -10.9794    249.3164    112.2010   5.2771280044e+01   8.6499979775e+00    0.2703106    0.1943101 -48.62 0.0006223973    1.249    0.200
       109  -9.9362     94.9825    112.6915   8.6633273858e+01   4.1114308772e+01     0.212348    0.2093321  46.37 0.0009605404    1.062    0.058
       110  -9.0279      3.6203    112.2990   1.1627907058e+02   5.1895147605e+01    0.1271239   0.08304317  65.67 0.0005797894    1.764    0.433
       111 -11.3704     55.0674    110.3415   9.8974395308e+01   4.7810577624e+01    0.2814307    0.2603374 -34.99 0.0004353381    1.094    0.086
       112 -11.4682     36.7033    109.8597   1.0505325003e+02   4.9974481412e+01     0.383821    0.2644322  64.33  0.001078006    1.835    0.455
       113  -8.9830     27.3212    111.3081   1.0845051793e+02   5.0475987846e+01     0.139892   0.08613165 -40.28 0.0007034239    1.643    0.391
       114 -12.3743     14.4467    108.5241   1.1225974199e+02   5.2143321192e+01    0.4569002    0.3316084 -46.20  0.002745282    1.290    0.225
       115 -10.0298      1.2084    109.0190   1.1662655160e+02   5.2816913063e+01    0.2819439   0.09804565 -67.21 0.0004870489    2.107    0.525
       116 -10.5943      2.4686    105.4886   1.1575857923e+02   5.3598931600e+01    0.1838575    0.1689895  45.61 9.990582e-05    1.324    0.245
       117  -9.4486     82.5480    108.4645   8.9468446575e+01   4.4277200823e+01    0.1497341    0.1412234 -48.01 0.0001225083    1.016    0.016
       118 -10.5875    243.9348    104.7085   5.1889715452e+01   1.0902314908e+01    0.1832616    0.1667373 -48.42 0.0006275305    1.071    0.067
       119 -10.2269     51.1654    104.8004   9.9076785187e+01   4.9645419448e+01     0.201682     0.152602 -33.75 0.0009469422    1.347    0.258
       120  -9.1968    186.4640    104.4187   6.1284033035e+01   2.3072220174e+01    0.1505164    0.1429479 -59.42 9.533235e-05    1.028    0.027
       121 -10.4283    119.6633    101.6506   7.6354014355e+01   3.8792642153e+01    0.3179358    0.2123056 -10.25  0.001208403    2.440    0.590
       122  -9.5552     88.0092    104.0149   8.6560411228e+01   4.4405155627e+01    0.1835283    0.1704581 -42.12 0.0004710065    1.022    0.022
       123 -10.0535     31.7907    103.6751   1.0554487459e+02   5.1955613837e+01    0.2634165    0.1653476  84.76  0.001238609    2.170    0.539
       124  -9.0892    223.2904    103.6928   5.4686048625e+01   1.5172847731e+01    0.1425667    0.1025203 -64.81 0.0003281014    1.577    0.366
       125 -10.5593     37.4117    102.2325   1.0329962356e+02   5.1773362556e+01    0.2971615    0.2276497  14.58  0.001043313    1.514    0.339
       126 -10.4449     25.5225    101.6836   1.0734558274e+02   5.2980551571e+01     0.421639    0.2236087  89.80  0.001752757    2.826    0.646
       127  -9.7574     57.5095     96.5273   9.4905028663e+01   5.0840575367e+01    0.1841829    0.1348647  40.67 0.0001213222    1.529    0.346
       128 -11.1790     62.0716     98.9226   9.3907347460e+01   4.9661121440e+01    0.3718127    0.3540905  68.31   0.00190493    1.191    0.160
       129 -10.3803     66.5199     98.4279   9.2242343043e+01   4.9151771751e+01    0.2340548    0.1901613 -26.15 0.0005744609    1.271    0.213
       130 -11.4219    143.0051     98.4068   6.9251196171e+01   3.4315941155e+01     0.620557    0.4028503  58.09  0.002639013    1.700    0.412
       131 -11.3321      2.2535     96.8818   1.1462025941e+02   5.5662582162e+01    0.3764123    0.2069705  83.19  0.001871825    2.246    0.555
       132 -11.1282     14.7654     97.8012   1.1041557448e+02   5.4713574891e+01    0.2686223    0.1594401 -75.19  0.001417103    1.580    0.367
       133 -10.6466     39.8040     96.0391   1.0111966186e+02   5.3024759037e+01     0.278278    0.2024362  51.24 0.0008540191    1.691    0.409
       134  -9.6986    250.0103     95.7303   4.9133653928e+01   1.1228897510e+01    0.1768655    0.1568056 -55.93 0.0004269053    1.082    0.076
       135 -11.6346     26.4581     91.9542   1.0510080590e+02   5.5236495320e+01    0.7378929    0.2975495 -73.63  0.002738206    3.212    0.689
       136 -10.6825     21.0022     93.0086   1.0730912078e+02   5.5416423793e+01    0.4865198          nan -57.04  0.001361399    4.926    0.797
       137 -10.9773     21.7006     86.9370   1.0582761543e+02   5.6794247124e+01    0.2644976    0.2605797 -27.31  0.001817113    1.193    0.162
       138 -12.4141    166.3918     84.3545   5.9979013671e+01   3.1555579069e+01    0.8670155    0.6647527  50.43  0.003933001    1.322    0.243
       139 -12.7712    158.0148     89.6251   6.3249231731e+01   3.2561235456e+01    0.6910206     0.447647 -52.26  0.002210289    1.640    0.390
       140 -10.5213     50.3992     99.2958   9.8085958625e+01   5.1068292656e+01    0.2562443    0.2048649  -4.60  0.001094512    1.430    0.301
       141  -9.9331    108.8073     92.4020   7.6839437774e+01   4.3069019817e+01    0.3085128    0.1176995 -47.40  0.001027093    2.642    0.622
       142  -9.5046     31.3890     93.1722   1.0354871162e+02   5.4520810810e+01    0.1803446     0.116782 -71.49 0.0004002346    1.563    0.360
       143  -9.4315    127.6573     92.7035   7.1586354549e+01   3.8968122977e+01    0.1595543    0.1237073   7.80 0.0003305229    1.665    0.400
       144 -11.2161    157.5340     82.0848   6.1221623492e+01   3.4095703007e+01     1.032551    0.4479079  34.14  0.002831235    4.695    0.787
       145 -10.0228     38.0140     90.4006   1.0048633719e+02   5.4543403918e+01    0.3286555    0.1583061 -35.42  0.001401685    2.301    0.565
       146 -11.2713     11.3000     90.8151   1.1043357635e+02   5.6594131443e+01    0.3151382    0.2239878  16.95  0.000855702    1.684    0.406
       147 -10.6267     96.5133     89.3866   7.9721887169e+01   4.6156850614e+01    0.3437241    0.2393326  18.33  0.001398186    1.779    0.438
       148 -10.4437     82.9793     88.8606   8.3983108536e+01   4.8735939678e+01    0.2249995    0.1882483 -16.41 0.0005391319    1.255    0.203
       149 -10.9000     78.5185     87.8691   8.5206272402e+01   4.9711236726e+01    0.3242784    0.2433491 -53.04  0.001629303    1.336    0.251
       150 -10.4217     67.9881     83.9969   8.7767949354e+01   5.2240973525e+01    0.3690876    0.1951891 -30.94   0.00148262    2.313    0.568
       151 -10.9637     46.4035     87.5055   9.6657436035e+01   5.4314897310e+01    0.4450333    0.2722131 -65.67  0.002135588    1.750    0.429
       152  -9.8101     43.0468     83.0040   9.6764796230e+01   5.5725362443e+01    0.3428183    0.1435991  39.92   0.00140139    2.847    0.649
       153  -9.2581    139.3198     87.7152   6.7105028923e+01   3.7326044566e+01    0.1546619    0.1233977 -85.11 0.0006999175    1.591    0.371
       154  -9.3093    120.6959     87.2961   7.1891808647e+01   4.1617763884e+01    0.1516582    0.1239204 -86.10 0.0004440375    1.582    0.368
       155 -11.6906      5.4852     83.8577   1.1134310199e+02   5.8547569774e+01    0.4772804    0.3604829 -38.72  0.003085791    1.235    0.190
       156 -13.0262     10.5353     75.4580   1.0775301888e+02   6.0185704542e+01    0.9627569    0.5469244  14.58   0.00535388    2.064    0.515
       157 -11.8923     20.0266     61.3049   1.0034702917e+02   6.2647111310e+01    0.5068656    0.3855104 -62.90  0.002135064    1.366    0.268
       158 -12.6223      4.0136     64.3009   1.0802741041e+02   6.3016071767e+01    0.5565915    0.4401036 -87.79  0.003046926    1.538    0.350
       159 -11.9694      5.1210     58.9706   1.0630783011e+02   6.4106284456e+01    0.3678368     0.268458  48.67  0.000364355    1.913    0.477
       160 -13.6181     16.3015     67.7968   1.0363901197e+02   6.1520375164e+01    0.3774876    0.3414453 -59.01  0.000743267    1.196    0.164
       161 -11.1154     21.8762     66.6587   1.0099446736e+02   6.1356637207e+01    0.2511821    0.1692384  40.66  0.000505801    1.899    0.473
       162 -10.2392    115.0617     84.1401   7.2528109665e+01   4.3481957003e+01    0.2774658    0.2020175  48.58 0.0009372087    1.402    0.287
       163  -9.4297     56.4343     83.5647   9.1865926216e+01   5.3975112071e+01    0.1396999    0.1247989 -35.30 7.615454e-05    1.009    0.009
       164 -11.2922     30.2620     81.8492   1.0140735049e+02   5.7265388307e+01     0.281375    0.2456964  12.85  0.001364214    1.290    0.225
       165 -10.2518     65.0160     87.4851   8.9831363380e+01   5.1900567859e+01    0.2475631    0.2052615  30.40  0.001357027    1.291    0.225
       166 -11.4941     21.6808     79.7808   1.0427934455e+02   5.8449144323e+01    0.5006592    0.3399163 -24.08  0.002500337    1.535    0.349
       167 -10.4145     21.9814     73.5032   1.0268503335e+02   5.9843260518e+01    0.2575616    0.1373512 -48.07 0.0007868123    1.509    0.337
       168  -9.9929     86.3312     80.3071   8.0273327633e+01   4.9987918366e+01    0.2423112    0.1783404  33.32 0.0003808922    1.395    0.283
       169 -11.2615     61.0415     78.5359   8.8698973604e+01   5.4456353025e+01    0.3248685    0.2441191 -53.59 0.0003248474    1.330    0.248
       170 -12.0644     62.4176     71.5816   8.6044493695e+01   5.5738855208e+01    0.4538961    0.3018898  -8.37 0.0001872494    1.913    0.477
       171 -10.3603     35.3567     78.8983   9.8682504386e+01   5.7457839586e+01     0.309144    0.1567689 -38.68  0.001444138    1.867    0.464
       172 -12.6720     44.7285     75.2913   9.4012791347e+01   5.7260955710e+01    0.2612131    0.2493295 -24.22 0.0005513373    1.133    0.118
       173 -10.2667     40.1914     72.1962   9.4939440577e+01   5.8443711516e+01     0.218487    0.1657039 -76.64 0.0008058799    1.732    0.422
       174 -10.1117     74.3151     75.3256   8.2861681602e+01   5.3105871646e+01    0.2522671    0.1977946 -21.76 0.0007692924    1.290    0.225
       175 -10.9502     76.2141     70.2278   8.0536389197e+01   5.3829512653e+01    0.4223103    0.3338437   3.07  0.002237783    1.363    0.266
       176 -10.7141     76.9484     64.2908   7.8276118283e+01   5.4865862213e+01    0.3639549    0.2936772 -39.89  0.001995844    1.229    0.186
       177 -11.0155    207.7119     73.4969   4.9828595203e+01   2.3701057798e+01    0.2459932    0.2196686 -56.01 0.0003009964    1.033    0.032
       178  -9.7344    145.7175     74.0505   6.1517947637e+01   3.8388800684e+01    0.2153092    0.1954824 -38.47 0.0006266212    1.118    0.106
       179  -9.8872    137.3412     73.9943   6.3485281234e+01   4.0389136885e+01    0.2131591    0.1863939 -34.40  0.000312196    1.166    0.143
       180 -10.5103     53.9857     74.0103   9.0021917370e+01   5.6397949670e+01    0.2581975    0.2241481  65.75 0.0006831891    1.535    0.349
       181 -11.6299     50.2345     68.5831   8.9831592726e+01   5.8033754276e+01    0.3262314    0.2175425 -39.23 0.0006039916    1.337    0.252
       182 -11.0990     51.4094     62.4226   8.7380603010e+01   5.9145627029e+01    0.3224983     0.290792 -55.63  0.001777827    1.304    0.233
       183 -10.6657     37.1073     67.6237   9.4876472640e+01   5.9756315154e+01    0.3085226     0.223431 -36.91 0.0009715994    1.191    0.160
       184 -10.1698     31.5899     68.1649   9.7322468200e+01   6.0189646535e+01    0.2269442    0.1618026 -13.49  0.000332218    1.469    0.319
       185 -10.3849     33.2994     64.3559   9.5506857668e+01   6.0836375759e+01    0.2291551    0.1966138  -3.05  0.001458528    1.186    0.157
       186 -11.4043     46.4972     54.5710   8.6738889829e+01   6.1323504762e+01    0.6266057      0.44355 -72.90  0.003077542    2.449    0.592
       187 -11.4931     42.2296     37.4630   8.2158638945e+01   6.4952801878e+01    0.6847746    0.3351462  43.82    0.0031796    2.733    0.634
       188 -11.0448     29.1408     61.0316   9.6299364267e+01   6.1931862164e+01    0.5323304    0.2912476  16.91  0.002700173    2.038    0.509
       189 -10.9885     26.7953     56.1356   9.5842120149e+01   6.3155344914e+01    0.2998494    0.2194602 -38.31 0.0008319964    1.125    0.111
       190 -12.0928     26.6885     49.3879   9.3718447724e+01   6.4510342941e+01    0.5083913    0.4275122 -66.68  0.002153199    1.542    0.351
       191 -11.8652     35.3638     42.4738   8.7249821243e+01   6.4913709667e+01    0.7332374    0.4078266   2.95  0.003296321    2.298    0.565
       192 -12.6684     38.6611     51.5683   8.9067422017e+01   6.2845283001e+01    0.7901505    0.3682877 -43.28  0.003793859    1.865    0.464
       193 -11.9268     33.2662     49.6858   9.0817477076e+01   6.3799189439e+01      0.38701    0.2854597 -34.54  0.001003943    1.144    0.126
       194 -10.8527    101.0417     72.5058   7.3025777104e+01   4.8723440174e+01    0.3962591     0.276035  73.69  0.001219346    2.321    0.569
       195 -10.0916    129.0153     71.5648   6.4814723532e+01   4.2774360958e+01    0.2162107    0.2045874 -27.42 0.0003383356    1.074    0.069
       196  -9.1447    194.6612     69.7045   5.0877682903e+01   2.7339519872e+01    0.1411412    0.1129835  25.30 0.0007030382    1.654    0.395
       197  -9.8284    110.3112     68.9871   6.9092542236e+01   4.7438312629e+01    0.2024952     0.183539 -21.77 0.0002339976    1.104    0.094
       198 -10.4195     42.8527     68.2941   9.2717204442e+01   5.8985443628e+01    0.2248238    0.1731023 -55.54  0.001286785    1.324    0.245
       199  -9.2113    189.3275     68.6994   5.1478410212e+01   2.8765612710e+01    0.1515997    0.1063436 -71.80 0.0002962908    1.640    0.390
       200 -11.2385     93.8123     66.5348   7.3321143404e+01   5.1307788674e+01    0.3591291    0.2670176  10.54  0.001753662    1.584    0.369
       201 -10.4184     99.6633     65.1377   7.0998737081e+01   5.0387754817e+01    0.3199392    0.2312473 -19.23  0.001430827    1.549    0.354
       202  -9.2203    222.7600     62.9965   4.5248971697e+01   2.1985597985e+01     0.166889     0.104499 -39.65 0.0001932203    1.471    0.320
       203 -10.1220    108.9867     62.4123   6.7283892231e+01   4.8903550756e+01    0.2450016     0.191571 -33.46  0.001250674    1.298    0.230
       204 -10.2173    201.7864     62.0266   4.7838904061e+01   2.6883313718e+01    0.2266065    0.1947317  84.13 0.0005245692    1.138    0.122
       205 -11.0253     85.5410     60.1739   7.3854387581e+01   5.4073855501e+01    0.4553229    0.2671871 -13.17  0.001800229    2.673    0.626
       206 -10.0564    119.4419     61.2494   6.3989935253e+01   4.6778142888e+01    0.2709709    0.1975803  48.38 0.0006390417    1.327    0.246
       207 -10.7689    154.2159     59.5554   5.5327932821e+01   3.8772270932e+01    0.4084172    0.2432052  79.32 0.0009123584    2.338    0.572
       208  -9.0005     98.2974     60.3020   6.9761901327e+01   5.1533518109e+01    0.1463884    0.1095642   7.59 0.0001732631    1.580    0.367
       209 -11.3426     59.2348     58.7671   8.3006725002e+01   5.8770886833e+01    0.2964835    0.2690271 -44.50  0.001499023    1.244    0.196
       210 -10.5330    147.0056     56.9102   5.6021357440e+01   4.0950730373e+01    0.2298107    0.2101251 -39.30 0.0003316949    1.135    0.119
       211 -11.6821     75.2789     56.0775   7.5977463169e+01   5.6678865592e+01     0.237302    0.2118032 -14.79 0.0002914742    1.047    0.045
       212 -10.0932    132.0466     54.5147   5.8608365483e+01   4.4933393063e+01    0.3407538    0.1853903  40.44  0.001033833    1.970    0.492
       213 -11.8440      6.0308     51.1085   1.0387740978e+02   6.5700996060e+01    0.4932739     0.388378 -47.14  0.003371769    1.090    0.083
       214 -11.1169     12.8494     51.9267   1.0093094067e+02   6.5113422698e+01     0.477956    0.2199695 -61.87  0.001562555    2.146    0.534
       215 -10.7771     11.7554     44.8737   9.9327197857e+01   6.6599565649e+01    0.3738737    0.2748746  48.01  0.002315084    2.037    0.509
       216 -10.8318    120.2595     52.1546   6.0723932585e+01   4.8064777258e+01    0.2732074    0.2203189  24.31 0.0004438891    1.326    0.246
       217 -11.6719    104.9084     52.6848   6.5101124688e+01   5.1417586125e+01    0.2558363    0.2359202  46.68 0.0001829152    1.111    0.100
       218 -10.1283     62.4120     52.3371   7.9446120919e+01   5.9483901581e+01    0.3134779    0.1507004 -36.21  0.001391012    2.020    0.505
       219 -11.3016     88.1174     51.3726   6.9821927930e+01   5.5101053997e+01    0.3314663    0.2346441  33.10 0.0008751902    1.376    0.273
       220 -10.7649    128.1807     50.6225   5.8248491346e+01   4.6447144558e+01    0.5016566    0.3457531  22.00  0.002323264    1.852    0.460
       221 -10.6973    129.6821     47.3271   5.6802188337e+01   4.6578503777e+01    0.3536262    0.2820786  24.36  0.001851776    1.391    0.281
       222  -9.8246     98.9780     56.0102   6.8047186592e+01   5.2130086558e+01     0.235209    0.1670866  15.93 0.0007126208    1.675    0.403
       223 -10.0167     52.8533     50.1405   8.2481887697e+01   6.1301097075e+01    0.1857637    0.1803933  -3.64 0.0006812204    1.270    0.212
       224 -10.6597     56.7745     47.4181   7.9849036958e+01   6.1218266879e+01    0.4105464    0.2188624 -21.41  0.001472762    2.391    0.582
       225  -9.5379    198.0402     49.4241   4.5178951211e+01   2.9632843542e+01     0.197718    0.1279714  66.06 0.0003173701    1.513    0.339
       226  -9.4166    181.5543     49.5569   4.7607773937e+01   3.3571678305e+01    0.1438623    0.1256421 -77.05 6.548706e-05    1.089    0.082
       227 -10.4719    153.7833     47.8020   5.1876988359e+01   4.0649832644e+01    0.5025197    0.2407599  70.17     0.001922    2.476    0.596
       228 -11.0061    121.1183     46.2897   5.8507732337e+01   4.8746758788e+01    0.7018681    0.3668616  25.11  0.002448339    3.413    0.707
       229 -10.2140    112.5010     46.9586   6.0960576992e+01   5.0624419228e+01    0.2697498    0.2076419  75.17  0.001000545    1.616    0.381
       230 -10.6213     77.9434     46.0272   7.1275525542e+01   5.7910041158e+01    0.3484664    0.2331567 -57.81 0.0007888843    2.278    0.561
       231 -10.4707    142.7841     45.5341   5.3355095571e+01   4.3671331792e+01    0.2951107     0.227464 -68.31   0.00106483    1.517    0.341
       232 -10.4789     91.9250     43.6894   6.5731509309e+01   5.5550219942e+01    0.3775151    0.1891259 -42.42  0.001637929    2.218    0.549
       233  -9.8510     50.8708     44.9020   8.1331095477e+01   6.2513351282e+01    0.1968239    0.1535399 -13.19 0.0004230674    1.158    0.137
       234 -10.4968     95.9935     42.6988   6.4106363115e+01   5.4854231415e+01    0.2475044    0.1807652  11.07  0.000697682    1.556    0.358
       235 -11.1278     71.0690     41.3545   7.1927580675e+01   5.9892117828e+01    0.3813748    0.2150086 -15.83  0.001569207    2.318    0.569
       236 -11.1576     69.0493     37.9984   7.1328926358e+01   6.0764268634e+01    0.5360678    0.3029139 -13.07  0.002389075    2.378    0.579
       237 -11.6159     75.3301     35.4619   6.8020825158e+01   6.0003811599e+01    0.7386655    0.3977163  16.80  0.002993013    2.883    0.653
       238  -9.3093     79.0000     29.9428   6.4496126001e+01   6.0066229243e+01    0.2608424    0.1638781 -22.62 0.0007851327    1.654    0.395
       239 -10.5595     23.8588     41.8372   9.2438671368e+01   6.6212870387e+01    0.2970265    0.2376194  87.10  0.001448683    2.294    0.564
       240  -9.9227     18.3427     42.4302   9.5319749954e+01   6.6579771434e+01    0.3635032    0.1208312 -42.78  0.001283969    2.378    0.579
       241 -11.0792     29.7063     32.9927   8.6209668251e+01   6.7200306412e+01    0.6054586    0.2044353  24.24  0.002489701    3.396    0.706
       242 -11.9847     27.7423     38.0767   8.9171661965e+01   6.6522798720e+01    0.4004772    0.2298174  20.64  0.001488855    1.794    0.442
       243 -11.9257     24.0359     35.2611   8.9901951390e+01   6.7390452215e+01     0.466135    0.2541883  -3.07  0.001070889    2.208    0.547
       244 -11.0922      6.8046     41.3515   1.0066042033e+02   6.7606815626e+01     0.265345     0.142161 -41.85 0.0005692025    1.433    0.302
       245 -10.0320    142.1330     40.8101   5.1989773942e+01   4.4480082489e+01    0.1934741     0.156435  37.22 0.0003297974    1.295    0.228
       246 -10.6752     78.9814     39.1720   6.8238741591e+01   5.8776667683e+01     0.358307    0.2398895  -1.17 0.0009778403    1.793    0.442
       247 -10.3742     81.4768     34.6894   6.5602100596e+01   5.8941522509e+01    0.2736118    0.2037956  -9.61 0.0007321937    1.387    0.279
       248  -9.4611     61.8105     40.9504   7.5298884298e+01   6.1522823063e+01    0.1914506    0.1304077  12.37 0.0006796346    1.561    0.359
       249 -10.7696    238.3046    246.6556   8.0761337963e+01  -1.0612773982e+01    0.1537493    0.1060213  35.30 0.0008015546    1.631    0.387
       250 -10.4454     53.4915     37.5438   7.7298390408e+01   6.3366354126e+01    0.3064318    0.2672541  68.36  0.001144215    1.836    0.455
       251 -11.2559    152.6148     39.1921   4.9481870797e+01   4.2119431663e+01    0.2723728    0.2381967 -58.09 0.0004874857    1.189    0.159
       252  -9.5468    167.5489     39.0161   4.6880251531e+01   3.8455333763e+01    0.1958637      0.13749 -33.15 0.0004332851    1.516    0.340
       253 -11.0253    100.5100     37.2748   6.0745116205e+01   5.4658385759e+01     0.413795    0.2647856   0.03   0.00129746    2.111    0.526
       254 -10.9938    101.9681     29.0347   5.7223681558e+01   5.5401604714e+01    0.3780772    0.2995095 -89.25 0.0007003376    1.743    0.426
       255 -10.5812     95.7147     35.5543   6.1479142459e+01   5.5920305607e+01     0.367119    0.2134133 -49.54  0.001660859    2.325    0.570
       256 -10.3800     96.9275     31.0155   5.9378920824e+01   5.6254276740e+01    0.3178761    0.2100999  44.97  0.001030489    1.367    0.269
       257 -10.0465    224.9782     38.2547   3.9307070546e+01   2.5008643704e+01    0.2210657    0.1531293 -86.25 0.0005398963    1.401    0.286
       258  -9.6951    220.8207     37.8238   3.9640396068e+01   2.5984725400e+01    0.2212389    0.1332115 -69.05 0.0009085531    1.689    0.408
       259  -9.2660     85.7037     38.7389   6.5816322294e+01   5.7534980269e+01    0.1357554   0.09638263  17.60 0.0001796233    1.505    0.335
       260 -10.0607      1.6280     37.3069   1.0201666104e+02   6.8683168948e+01     0.207817    0.1137334 -44.08  0.001252799    1.370    0.270
       261  -9.5242    177.2525     36.9829   4.4828186615e+01   3.6336299402e+01    0.1695811    0.1164371 -35.63 0.0007127239    1.516    0.340
       262  -9.9497    134.7972     35.7928   5.1864900674e+01   4.6921396603e+01    0.2118699     0.182118  32.29 0.0006086701    1.210    0.174
       263  -9.8257     63.6929     35.4455   7.2317346431e+01   6.2069377495e+01    0.2189208    0.1418967 -11.27 0.0007119128    1.703    0.413
       264 -11.3525     22.7329     26.3451   8.6937400757e+01   6.9037297952e+01    0.3309473    0.2802418   3.92  0.001867897    1.228    0.186
       265 -11.3639      8.4814     34.4894   9.7539247606e+01   6.8803082807e+01    0.4555298    0.2951454 -62.36  0.001737701    1.825    0.452
       266 -11.6881     16.7426     31.4824   9.2134866865e+01   6.8718757598e+01    0.6173234    0.3018204  10.25  0.003232154    2.291    0.564
       267 -11.3011    107.3581     34.9193   5.7991254293e+01   5.3461434641e+01    0.3940799    0.2028386  50.54 0.0006583058    1.758    0.431
       268 -10.7326    235.4621     30.9186   3.6690072958e+01   2.3693431291e+01    0.4316663    0.2150119  41.85  0.001775278    3.969    0.748
       269  -9.6948    184.6567     32.6898   4.2643560678e+01   3.5080059397e+01    0.1361262   0.09960738  38.86 0.0007045214    1.699    0.411
       270 -10.0402    166.4877     32.4673   4.5174393538e+01   3.9550162267e+01    0.1377987    0.1247379  80.48 0.0001617918    1.011    0.010
       271  -9.7334    124.4302     33.0000   5.3155389454e+01   4.9758503679e+01    0.3293305   0.07357316  58.74 0.0009562772    4.111    0.757
       272 -10.2331     88.9192     31.7992   6.2059900819e+01   5.7839260526e+01    0.2089875    0.1577108  32.07 0.0007471148    1.217    0.178
       273  -9.4083     44.5015     31.4475   7.8631893153e+01   6.5623256761e+01    0.1766357    0.1077308  21.26 0.0009618096    1.626    0.385
       274 -10.1059     48.7352     31.4293   7.6758868840e+01   6.5026113032e+01    0.2509111     0.138606  27.31 0.0007512946    1.792    0.442
       275 -10.4061     50.0264     27.9891   7.4704576434e+01   6.5348767693e+01    0.2732329    0.1833063   4.16 0.0008300628    1.528    0.346
       276  -9.4919    139.3640     30.5016   4.9230783336e+01   4.6464145545e+01    0.1333856    0.1263041  62.39 0.0007943673    1.039    0.038
       277  -9.9245    144.2267     25.8519   4.6853091412e+01   4.5815383716e+01    0.3542293   0.07841676 -38.12  0.001122719    4.236    0.764
       278  -9.6720    111.7834     27.7638   5.4241353248e+01   5.3343223311e+01    0.1682923    0.1548474 -77.82 0.0002247564    1.274    0.215
       279 -10.4214    128.0684     26.8124   5.0255837803e+01   4.9628123571e+01    0.2949051    0.2331725  67.00 0.0008007351    1.209    0.173
       280 -10.4574    131.5445     26.4590   4.9431087978e+01   4.8832773883e+01    0.2380386    0.2225995 -42.22 0.0009863611    1.175    0.149
       281 -11.1758     69.5642     26.4485   6.6306319680e+01   6.2300696224e+01    0.3948432    0.1968287  32.22  0.001349742    2.036    0.509
       282 -10.7260    193.8414     26.1311   3.9809984487e+01   3.3676810201e+01    0.2204564    0.1604006 -69.29  0.001243572    1.308    0.235
       283  -9.3571     16.5463     26.5115   9.0250344600e+01   6.9592882438e+01    0.1212805   0.09020802 -20.85 0.0002378009    1.049    0.046
       284 -10.0764      1.4690     25.2204   9.7983392339e+01   7.0927386303e+01    0.2886457    0.1005367 -50.55  0.001140112    2.221    0.550
       285 -11.3386      9.1666     24.8632   9.3572224378e+01   7.0474241671e+01     0.602339    0.2266087  10.30  0.002508004    3.387    0.705
       286 -12.2892    232.1927    245.3659   8.1636348512e+01  -9.6721361050e+00    0.5373344    0.2322424 -31.97  0.002811681    2.300    0.565
       287 -11.9561    224.8768    247.1651   8.3245321794e+01  -8.9530098728e+00    0.4927139    0.1850378 -29.07  0.002238908    3.034    0.670
       288 -11.9954     37.0196    243.7313   1.2004133616e+02   1.8486373257e+01    0.6695845    0.2870776 -87.33  0.003082588    2.514    0.602
       289 -12.8808     75.0210    238.7090   1.1218426483e+02   1.4663037653e+01    0.7112503    0.5259851 -76.29  0.004504961    1.427    0.299
       290  -9.5936    214.6371     25.6932   3.7478945945e+01   2.8904872201e+01    0.1236643   0.09434774  42.82 0.0004746947    1.740    0.425
       291 -10.1027    186.0510     22.9939   3.9927364731e+01   3.5904398932e+01    0.2422053    0.1517884 -49.66 0.0007077826    1.563    0.360
       292 -10.0351     62.9789    242.4813   1.1493744193e+02   1.5534746668e+01    0.1812478   0.09966837  41.75 0.0004170411    1.543    0.352
       293 -10.4435     97.9530     24.0000   5.6365869164e+01   5.6876001570e+01    0.6579487    0.2570237  63.58  0.001976184    3.473    0.712
       294  -9.3413     50.3293    240.3030   1.1724936505e+02   1.7568542516e+01     0.102338    0.0937995 -28.01  0.000508213    1.649    0.394
       295 -10.7034     62.4435     24.0246   6.7896488960e+01   6.3883145416e+01    0.1879872     0.116848 -25.55  0.001025497    1.595    0.373
       296 -10.8580     51.5068     40.4314   7.9304713622e+01   6.3185785180e+01    0.3792898    0.2144813  44.14  0.001415858    2.138    0.532
       297  -9.5308     68.8006     22.3205   6.4786048118e+01   6.2963109323e+01    0.1766639    0.1013741  37.36 0.0004424605    1.575    0.365
       298 -10.8493     59.0598     21.7081   6.8171481126e+01   6.4761561864e+01    0.1787839    0.1411596  19.35 0.0004723863    1.090    0.083
       299 -10.0701    195.2401    238.8433   8.7494494671e+01  -3.6342604565e+00     0.242507    0.1630968  17.51  0.001412506    1.368    0.269
       300 -10.5410    243.8849    237.3465   7.8246007283e+01  -1.0125516471e+01     0.192223    0.1445833 -26.61 0.0009979194    1.381    0.276
       301  -9.9122    135.3669    237.9498   9.9540117659e+01   5.7965459613e+00    0.2015775    0.0940549 -31.76 0.0007038311    4.543    0.780
       302 -11.6193     30.0370    234.1361   1.2074550598e+02   2.1184628333e+01     0.429082    0.1769529  79.69   0.00198259    2.782    0.641
       303 -10.3546    109.4274    242.7602   1.0554031008e+02   8.9199416884e+00    0.2428511    0.1582391  56.82 0.0007800875    1.497    0.332
       304  -9.7925    177.4004    234.8348   9.0404038809e+01  -2.9862143268e-01    0.1723394    0.1147431 -26.96 0.0009466347    1.692    0.409
       305 -11.1249     74.4664    233.4875   1.1179794254e+02   1.5778590639e+01    0.2378107    0.1642881  45.20 0.0008283586    1.252    0.201
       306 -10.1391     38.2292    232.7791   1.1906452844e+02   2.0530119498e+01    0.1766055    0.1265622  67.59  0.000689592    1.118    0.105
       307 -10.0306     23.9074    232.6059   1.2182089669e+02   2.2162771566e+01    0.1811633    0.1358269 -81.21 0.0006314212    1.310    0.237
       308  -9.9230     89.5832     20.7695   5.7418607261e+01   5.9033605830e+01    0.2522345     0.130538  42.74 0.0007107921    1.714    0.417
       309 -11.0830    238.0203     18.5786   3.3873108519e+01   2.4658087766e+01    0.2383096    0.1642424 -35.25 0.0004528547    1.533    0.348
       310 -10.5665    108.3261     17.8445   5.1392926965e+01   5.5221568037e+01    0.2905859    0.1860844  43.24  0.001541035    1.405    0.288
       311 -10.3539     88.8805    241.2608   1.0960435790e+02   1.2222606142e+01    0.2196506    0.1556367 -34.58  0.001226188    2.162    0.537
       312 -12.0848     29.1136    248.3635   1.2178799479e+02   1.8489583227e+01    0.5086029    0.2728643  75.26  0.003086755    1.665    0.399
       313 -10.9661    154.3985    227.5934   9.4044275089e+01   4.6024366533e+00    0.2749724     0.164381  46.60  0.001384053    1.646    0.393
       314 -11.2739     41.8430     19.1435   7.4294795000e+01   6.7789393844e+01    0.4722849    0.2634609  40.18  0.002608194    1.903    0.474
       315 -10.7414     40.1693     15.4141   7.3275413632e+01   6.8522320484e+01    0.2859749    0.1808098  30.76   0.00123483    1.471    0.320
       316  -9.9473    140.1820     19.6369   4.5587608548e+01   4.7479445272e+01    0.2006114    0.1046673  55.09 0.0006093878    1.674    0.403
       317  -9.2834     54.6799     19.2778   6.8809917737e+01   6.5800749474e+01    0.1053656    0.1016244  71.61 0.0004633259    1.578    0.366
       318  -9.1578     82.2862     17.6603   5.8294530235e+01   6.0884285493e+01    0.1181824    0.1018474 -64.89 0.0007017927    1.636    0.389
       319  -9.8353    190.5544    226.6468   8.6433266451e+01  -1.0261464468e+00    0.2222776    0.1199907 -35.31  0.000828716    1.976    0.494
       320 -10.9471    120.3931    226.2948   1.0116373998e+02   1.0350909590e+01    0.2189584    0.1735709 -78.22 0.0009672666    1.483    0.326
       321 -10.0928     65.9695    226.1935   1.1287003964e+02   1.8427861962e+01    0.2029283     0.167562 -88.65 0.0006232304    1.180    0.153
       322  -9.8656     17.5031    227.5034   1.2273877385e+02   2.3875494381e+01    0.1179571   0.08754029  71.27 9.193748e-05    1.018    0.018
       323 -10.4676      4.2366    225.9938   1.2515736802e+02   2.5483300904e+01    0.2190886    0.1253947  51.91 0.0009121913    1.439    0.305
       324  -9.6825    203.7087     14.9266   3.6025595383e+01   3.2644349942e+01    0.1703783    0.1459828 -63.87 0.0004527129    1.110    0.099
       325 -10.6105    177.9505     15.0355   3.8804242416e+01   3.8729117898e+01    0.2112782    0.1339458 -66.90 0.0004722424    1.641    0.391
       326 -11.3783     21.0341    222.3233   1.2174119457e+02   2.4588801015e+01    0.2740084    0.1622287  88.50  0.001066484    1.462    0.316
       327  -9.4356    126.5545    221.5464   9.9160713070e+01   1.0289217028e+01    0.1361753    0.1181488  50.37 2.732951e-05    1.075    0.069
       328  -9.7881    123.6910    221.6742   9.9808012563e+01   1.0729099397e+01    0.2628972    0.1756605 -24.91  0.001205961    2.269    0.559
       329  -9.7490     62.3148     14.5476   6.3642279459e+01   6.5052195182e+01    0.2270544    0.1147044  50.49  0.001125087    2.054    0.513
       330  -9.6879     26.1646     14.1917   7.9570297918e+01   7.0510887185e+01    0.1719911    0.1178634  -5.97    0.0002328    1.255    0.203
       331  -9.5749    169.7249    229.3285   9.1108047522e+01   1.8248256618e+00    0.1207603     0.101495  65.96 0.0003541155    1.590    0.371
       332 -11.8648      9.9221    217.3565   1.2361932505e+02   2.6742579802e+01    0.3300498    0.1879817  64.12  0.002030772    1.437    0.304
       333  -9.8250     31.0750     12.7135   7.6324901396e+01   7.0108257196e+01    0.1606046    0.1216165   6.55 0.0004969559    1.086    0.080
       334  -9.8213     37.9869    217.5315   1.1797527528e+02   2.3757097619e+01     0.175034    0.1097445  38.69 0.0007617747    1.561    0.359
       335 -11.3385     29.8643    215.7454   1.1951921947e+02   2.5051975873e+01    0.3301596    0.2685989   6.27  0.002129381    1.890    0.471
       336 -11.7695    237.7118    213.5505   7.5183268403e+01  -6.0255626989e+00    0.6032734    0.3158252   8.99  0.002280348    2.712    0.631
       337 -10.5832     21.6296    212.7257   1.2099500669e+02   2.6577027654e+01    0.2910552    0.1439422  50.75  0.001607687    1.732    0.422
       338 -10.0191    208.9330    212.0456   8.0264695612e+01  -1.5347575334e+00    0.2017878    0.1658568   0.57 0.0005110512    1.065    0.061
       339 -12.1393      4.7756    207.7045   1.2408904940e+02   2.9284659585e+01    0.5728663    0.2612511  83.30  0.003036212    1.955    0.489
       340 -10.5511     10.7894    208.4324   1.2292291372e+02   2.8575325598e+01    0.2179009    0.1675307 -65.32 0.0005069472    1.464    0.317
       341 -10.8035     19.6039    201.1685   1.2061032965e+02   2.9332163066e+01    0.2992556    0.1095789 -66.84  0.001397217    2.401    0.583
       342 -10.3256    175.4315    202.7945   8.5414999158e+01   5.6083231887e+00     0.244244    0.1812744  35.60 0.0005106371    1.268    0.212
       343  -9.9440     67.3193    215.3257   1.1149681596e+02   2.0562699911e+01    0.1867954    0.1514487 -33.26 0.0008189418    1.752    0.429
       344  -9.3441    188.3808    205.4585   8.3182071022e+01   2.9134066061e+00    0.1347981    0.1199964   2.40 0.0001551465    1.026    0.026
       345  -9.4515    215.6434    194.6974   7.5732102366e+01   2.6675600010e-01     0.141766   0.09503379   0.68 0.0007038761    1.713    0.416
       346 -10.9956     16.5660    193.1697   1.2068377165e+02   3.1437226443e+01    0.3036644    0.2319592  24.33  0.001270362    1.671    0.402
       347  -9.4364    211.4867    188.5081   7.5327662536e+01   2.0124415929e+00     0.138285     0.120066  -5.58 0.0008104512    1.014    0.014
       348 -10.3550    108.0226    209.9842   1.0168114694e+02   1.5667876610e+01    0.2272283    0.1549318  66.90 0.0008749615    1.676    0.403
       349 -10.9066     16.5261    184.5157   1.2003401397e+02   3.3439860053e+01    0.3707418    0.1877721 -78.14  0.001674971    1.673    0.402
       350 -10.0807     14.9962    180.7217   1.2008328728e+02   3.4467122554e+01    0.2000006     0.173468 -78.67 0.0005985483    1.189    0.159
       351 -10.0187    167.5044    183.4976   8.3510421007e+01   1.0794933356e+01    0.1456922    0.1372988  10.48 0.0008106774    1.002    0.002
       352  -9.7646     58.8162    182.1793   1.0972583906e+02   2.9325095828e+01    0.1813832    0.1587248 -47.07  0.001068403    1.344    0.256
       353  -9.4411      1.5290    180.4996   1.2310959969e+02   3.5650925566e+01    0.1219275   0.09378978  85.45 0.0001811194    1.002    0.002
       354  -9.9161    244.4659    178.4807   6.7347681902e+01  -1.6054187654e+00    0.2368674    0.1061823 -28.12  0.001022826    2.276    0.561
       355 -10.7073     46.5024    177.9081   1.1226735177e+02   3.1883465751e+01    0.2942415    0.2266508 -81.45  0.001228239    1.155    0.134
       356  -9.5527     69.7627    178.1567   1.0645660416e+02   2.8826397434e+01    0.1832051    0.1567613 -44.60  0.000526987    1.349    0.259
       357  -9.4063    200.6738    176.3060   7.5010972602e+01   6.0948253959e+00    0.1335709    0.1162144 -88.50 0.0003792317    1.649    0.394
       358 -11.4396     34.2451    174.2191   1.1489565186e+02   3.4147682963e+01    0.2544073    0.1936288 -72.30 0.0004278505    1.187    0.158
       359 -10.8566     98.9464     20.6837   5.4804884359e+01   5.7026860811e+01    0.3647792    0.1820727  49.23 0.0003904259    1.729    0.422
       360 -10.9247     18.1548    173.2364   1.1871615216e+02   3.5957882108e+01    0.3648987    0.1816847  63.34  0.001788216    2.062    0.515
       361 -10.3720     36.9348    157.9431   1.1235729682e+02   3.7876008725e+01    0.2571089    0.1726457 -84.15 0.0003757052    1.369    0.269
