#   1 NUMBER                 Running object number                                     
#   2 MAG_AUTO               Kron-like elliptical aperture magnitude                    [mag]
#   3 X_IMAGE                Object position along x                                    [pixel]
#   4 Y_IMAGE                Object position along y                                    [pixel]
#   5 X_WORLD                Barycenter position along world x axis                     [deg]
#   6 Y_WORLD                Barycenter position along world y axis                     [deg]
#   7 A_WORLD                Profile RMS along major axis (world units)                 [deg]
#   8 B_WORLD                Profile RMS along minor axis (world units)                 [deg]
#   9 THETA_WORLD            Position angle (CCW/world-x)                               [deg]
#  10 FWHM_WORLD             FWHM assuming a gaussian core                              [deg]
#  11 ELONGATION             A_IMAGE/B_IMAGE                                           
#  12 ELLIPTICITY            1 - B_IMAGE/A_IMAGE                                       
         1 -13.4505     11.9793     28.3569   1.1387056643e+02   7.0925331810e+01    0.8084206    0.5580881  30.17  0.004927934    1.702    0.412
         2 -13.1898     22.5212     25.1244   1.0632646966e+02   7.0915483159e+01    0.6641359     0.349667 -40.54   0.00337897    1.779    0.438
         3 -12.0657    209.9439     20.7651   4.8867759890e+01   2.9130818600e+01    0.5500948    0.3096376  23.90  0.001190601    2.605    0.616
         4 -12.7780    204.0242     27.4212   5.1471060659e+01   2.9906873465e+01    0.7169541    0.5189592 -61.46  0.003619383    1.454    0.312
         5 -13.1331    219.0174     10.6125   4.5125883169e+01   2.7895278926e+01    0.7312731    0.5950542 -44.78  0.003219655    1.114    0.102
         6 -12.3140      3.2911      5.1856   1.1232305473e+02   7.6571995973e+01    0.7519366    0.2919038 -55.13  0.003794248    1.870    0.465
         7 -11.3616    191.5408    239.4130   9.9329816244e+01   4.2571165284e+00    0.4262069    0.2313723  12.46  0.002543848    2.315    0.568
         8 -12.4112    181.9434    249.9514   1.0213401938e+02   4.4816842650e+00     1.393819    0.3334661  42.68  0.006095067    3.523    0.716
         9 -11.4783    204.1606    236.6622   9.6922606936e+01   2.8361526744e+00    0.5007178      0.31839  48.60  0.003393922    1.999    0.500
        10 -12.7362    215.7878    247.9110   9.6484836330e+01   3.0498710445e-01    0.5018925    0.2796837  26.59  0.002772881    1.259    0.206
        11 -12.8760    201.7540    247.1880   9.8607926488e+01   2.1624467723e+00    0.6976852    0.4395977  20.56  0.004938903    1.263    0.208
        12 -12.2505    210.3428    244.3219   9.6894424110e+01   1.3144617183e+00    0.4889969    0.2902232  10.74  0.002700765    1.663    0.399
        13 -11.0548    145.7525    249.4543   1.0815329994e+02   9.3168968157e+00    0.3756547    0.1959641  30.54  0.002309886    1.559    0.359
        14 -12.1816    135.1160    249.5251   1.0998695102e+02   1.0708231550e+01    0.8141509    0.1803844  37.13  0.003531644    3.225    0.690
        15 -10.7662    118.6610    250.3419   1.1290432726e+02   1.2742385800e+01    0.3843706    0.1101323  34.03   0.00178135    2.968    0.663
        16 -13.2187    100.9364    234.5546   1.1478026611e+02   1.7114048275e+01     1.648877     1.160095  40.91   0.01237881    1.085    0.078
        17  99.0000     30.5428    163.9271   1.2423716206e+02   3.7856165238e+01     1.873555      1.23752 -64.98   0.01201409    1.687    0.407
        18 -12.2233     67.6540    164.1122   1.1535488732e+02   3.3616165548e+01    0.3836907    0.2306623 -49.15  0.001363661    2.163    0.538
        19 -13.7570     53.0053    163.7333   1.1885121119e+02   3.5493717139e+01     1.357067     1.016721  15.76   0.00805534    1.789    0.441
        20 -12.8649     31.7331    201.8532   1.2600099653e+02   3.0479074360e+01    0.9409036    0.3658745  55.93  0.004999572    1.966    0.491
        21 -13.6286     36.5852    187.7359   1.2428080659e+02   3.2564155803e+01     1.584858     0.865878 -47.55  0.008737366    3.025    0.669
        22 -14.7732     80.1584    216.8230   1.1731642970e+02   2.2431418690e+01     1.694934     1.366323 -70.24   0.01134917    1.555    0.357
        23 -15.8753     14.1544    239.7702   1.3052353157e+02   2.5943888148e+01     1.868204     0.539476  57.82   0.01123644    2.309    0.567
        24 -11.9154     34.2259    241.0670   1.2712637913e+02   2.3836237580e+01    0.9412765     0.204498  56.15  0.004595782    3.372    0.703
        25 -16.2836     60.5442    240.9047   1.2250451450e+02   2.1071263917e+01     2.305787     1.154386  50.65   0.01604612    1.403    0.287
        26 -14.2891     34.2293    223.9180   1.2647214825e+02   2.6495606807e+01     1.535151    0.5328603  61.53  0.008550003    2.460    0.593
        27 -11.7832    183.9299    238.9958   1.0054522081e+02   5.3278537710e+00    0.3116226    0.1930827  39.02   0.00186983    1.292    0.226
        28 -12.1300    190.0290    227.3581   9.8075259776e+01   5.7132683564e+00    0.6119854    0.4070584   3.09  0.004210953    1.690    0.408
        29 -12.3925    240.5859    223.3322   8.9378127694e+01  -7.3714183832e-01    0.2755024    0.1811859 -23.36   0.00207647    1.737    0.424
        30 -13.0465    235.5212    219.8356   8.9646793173e+01   2.2979948432e-01    0.4084836    0.2338455  12.82  0.002745725    1.551    0.355
        31 -12.9720    214.6912    211.6851   9.1773958019e+01   3.8691902467e+00    0.8472506    0.5636619   3.73  0.005170385    1.460    0.315
        32 -13.0092    226.1322    201.4427   8.8347010784e+01   3.2822864687e+00     1.087692      0.55622   0.40  0.005616389    2.707    0.631
        33 -14.4035    221.9072    189.7743   8.7154813464e+01   5.1357937446e+00      1.72365    0.9184939 -10.11  0.009316069    2.301    0.565
        34 -10.2347     40.5033    213.8032   1.2484077821e+02   2.7515138265e+01     0.148499    0.1393496 -88.63 0.0007817875    1.455    0.313
        35 -12.0409    129.1565    215.8278   1.0770898247e+02   1.5927266141e+01    0.3780358    0.2718546  54.80  0.002505466    1.359    0.264
        36 -10.0835     48.8215    211.2910   1.2309148719e+02   2.7045863374e+01    0.1939993    0.1767836 -49.17  0.001570477    1.645    0.392
        37 -13.0726     48.5306    203.3745   1.2269549972e+02   2.8443069382e+01    0.5700446    0.4600405  44.74   0.00277104    1.222    0.182
        38 -10.7047    179.3861    209.3538   9.7526555243e+01   9.3213503267e+00    0.3539912    0.1112201  37.61  0.001586422    2.508    0.601
        39 -11.7396    110.6551    205.0355   1.1018309475e+02   2.0215994092e+01    0.4340137     0.402005  65.76  0.003309905    1.222    0.182
        40 -13.7715     96.4349    190.9318   1.1163987556e+02   2.4597051292e+01     1.379701    0.8278143  73.11  0.007214472    2.105    0.525
        41 -11.4458    126.4141    211.0588   1.0771289156e+02   1.7017706723e+01    0.5084026    0.3304803  11.90  0.002867064    2.326    0.570
        42 -10.0541     16.0232    207.0096   1.2928317572e+02   3.1070442167e+01    0.1980909    0.1153349  76.40  0.001039248    1.457    0.314
        43 -10.9826     11.7755    205.1280   1.3004187885e+02   3.1775514708e+01    0.2531245    0.1554052  74.19 0.0009979035    1.333    0.250
        44 -13.6282    168.2042    228.9901   1.0204938485e+02   8.6099516524e+00     1.188108    0.5858849  38.67  0.007203717    1.496    0.331
        45 -12.3770    206.0177    200.2105   9.1500462914e+01   6.3752526590e+00    0.4610707    0.4183368  27.96  0.003497406    1.382    0.276
        46 -11.1489    194.6373    199.5511   9.3379487550e+01   8.1833217544e+00    0.3504541    0.2187569 -13.39  0.002100455    1.945    0.486
        47 -10.6741     77.4982    174.3550   1.1409704660e+02   3.0280546954e+01    0.3531975    0.2290418  78.00  0.002043477    1.667    0.400
        48  99.0000     65.9784    184.5221   1.1765443076e+02   2.9828736404e+01    0.2938087    0.1871757 -26.37  0.001421436    3.604    0.723
        49 -12.1849     78.0173    184.9572   1.1503692632e+02   2.8202116595e+01    0.6421245    0.6072212 -52.73  0.003673556    1.395    0.283
        50 -11.9412     71.1168    178.5592   1.1597078089e+02   3.0310987137e+01    0.4176323    0.3245814  58.44  0.001073705    1.052    0.050
        51 -11.6542    127.2786    178.5974   1.0347391149e+02   2.2053367288e+01    0.4928569    0.4283236  81.49  0.003237329    1.335    0.251
        52 -13.5442    115.4498    189.6843   1.0745151344e+02   2.2022560671e+01     1.266484    0.7644008  37.41  0.007167965    1.388    0.280
        53 -11.6059    167.4045    181.5326   9.5646894539e+01   1.4941715204e+01    0.4698263    0.1926363  28.34  0.001810268    3.263    0.694
        54 -12.0324    121.6675    203.6510   1.0781676086e+02   1.8834633520e+01    0.7150313    0.3286153  33.43   0.00366217    1.942    0.485
        55 -13.1278    100.6024    147.1556   1.0501377512e+02   3.2321586634e+01    0.9472673    0.9065718  16.22  0.006018231    1.223    0.183
        56 -12.1337     88.6916    144.2250   1.0760275697e+02   3.4808421986e+01    0.3665407    0.3493573 -43.38 0.0005419865    1.263    0.208
        57 -12.2032     80.0804    164.9742   1.1246473507e+02   3.1775834643e+01     0.849672    0.4776602  62.05  0.004383764    1.848    0.459
        58 -13.0232     89.3329    159.3395   1.0954231037e+02   3.1581517120e+01     1.025548    0.7128745 -70.18  0.004887067    1.563    0.360
        59 -12.3727    159.2034    165.7589   9.4691501123e+01   1.8760463700e+01    0.3662693    0.3029017  13.75  0.002239859    1.245    0.197
        60 -12.7125    127.2734    196.2458   1.0580283196e+02   1.9153711633e+01    0.8146433    0.6029771  11.42  0.004999585    1.748    0.428
        61 -11.0238      7.3703    152.1711   1.2918046375e+02   4.2308240935e+01    0.4105137    0.1833687  69.58  0.002104075    1.878    0.467
        62 -12.4554    248.2240    147.5244   7.5272396961e+01   5.6913756924e+00    0.3883088    0.2945882 -13.03  0.002568043    1.177    0.150
        63 -11.1044     19.7883    148.1377   1.2591299900e+02   4.2162884428e+01    0.3581227    0.2661236   0.35   0.00228891    2.024    0.506
        64 -10.9065     70.3409    144.6935   1.1245724696e+02   3.7351676119e+01    0.3126365    0.2483305  65.71  0.001113829    1.127    0.112
        65 -11.3414     67.6815    142.3524   1.1286460812e+02   3.8219255904e+01    0.5343612    0.2486516  40.31  0.002534449    1.911    0.477
        66 -11.8562     12.0882    141.1165   1.2749293192e+02   4.4308289865e+01     0.552421     0.491643  81.33  0.004151502    1.190    0.160
        67 -10.1783     98.1300    129.3587   1.0267196374e+02   3.6492176052e+01    0.2237289    0.1893646 -44.17 0.0009589451    1.346    0.257
        68 -12.1136     70.7843    121.5457   1.0903801869e+02   4.2481423387e+01    0.7074902    0.4974411  82.97  0.003740774    1.523    0.344
        69 -11.4746     53.8296    115.5746   1.1321871562e+02   4.6095715500e+01     0.308006     0.221742 -29.97  0.001624991    1.973    0.493
        70 -12.0813      2.0880     78.5132   1.2653723744e+02   5.9400021755e+01    0.6665586   0.05284439 -79.88  0.001454941    9.687    0.897
        71 -11.8243    194.4394     34.5731   5.4816424494e+01   3.1536460816e+01    0.3097604    0.2573815  28.90  0.001026858    1.329    0.248
        72 -12.7724    248.6377    245.9514   9.1295251620e+01  -3.5429666046e+00    0.5657427    0.2602028 -15.88  0.003832942    2.384    0.581
        73 -12.3729    231.1268    242.6592   9.3463365388e+01  -1.1716424691e+00    0.2694733    0.1828245  13.68  0.001833996    1.137    0.120
        74 -13.4469    158.0342    233.4841   1.0435922377e+02   9.5108877053e+00     0.929621    0.8615937  43.13  0.007266512    1.351    0.260
        75 -14.5442    124.0877    231.4950   1.1026349452e+02   1.4462451383e+01     1.690026    0.9311018  48.55  0.009439409    1.503    0.335
        76 -12.7891    140.0337    230.3564   1.0723962619e+02   1.2411615618e+01    0.5716906    0.5169405  72.83  0.004677846    1.433    0.302
