#   1 NUMBER                 Running object number                                     
#   2 MAG_AUTO               Kron-like elliptical aperture magnitude                    [mag]
#   3 X_IMAGE                Object position along x                                    [pixel]
#   4 Y_IMAGE                Object position along y                                    [pixel]
#   5 X_WORLD                Barycenter position along world x axis                     [deg]
#   6 Y_WORLD                Barycenter position along world y axis                     [deg]
#   7 A_WORLD                Profile RMS along major axis (world units)                 [deg]
#   8 B_WORLD                Profile RMS along minor axis (world units)                 [deg]
#   9 THETA_WORLD            Position angle (CCW/world-x)                               [deg]
#  10 FWHM_WORLD             FWHM assuming a gaussian core                              [deg]
#  11 ELONGATION             A_IMAGE/B_IMAGE                                           
#  12 ELLIPTICITY            1 - B_IMAGE/A_IMAGE                                       
         1 -12.8604    177.7022     35.6453   7.4248517847e+01   3.6356656928e+01     1.023948    0.7863708  35.89  0.001200279    1.442    0.306
         2 -13.6008    186.8139     27.8624   7.0561055819e+01   3.4972272899e+01     2.129101     1.407209  -4.70  0.008436382    2.009    0.502
         3 -13.7402    195.7409     14.6083   6.5616882532e+01   3.4179699387e+01     1.748758     1.192089  39.33  0.003561794    1.721    0.419
         4  -9.7638    164.7284     12.2223   6.8911348585e+01   4.2374963975e+01    0.2291754    0.1715876 -28.80 0.0005100307    1.425    0.298
         5 -11.0670      3.7515      3.5270   1.1640657167e+02   7.3585869302e+01    0.3033978     0.237934   8.40  0.002380005    1.403    0.287
         6  -9.2666    234.6853      6.0621   5.9672779322e+01   2.5554856162e+01    0.2933761     0.153184 -32.93  0.001369935    1.824    0.452
         7 -13.7522     67.7709    203.9693   1.3759730017e+02   2.4945532882e+01     1.554743     1.003447  83.30  0.009438509    1.485    0.327
         8 -12.9593    174.5129    248.3191   1.2278104184e+02   1.0701260132e+00     2.596665    0.4468271  37.55   0.00661804    7.919    0.874
         9 -12.7719    151.0303    247.3593   1.2679845799e+02   4.9041218735e+00     1.945498     0.494278  36.98  0.006779463    4.304    0.768
        10 -10.0256    121.3983    248.7211   1.3217822382e+02   9.2861387867e+00    0.2259597    0.1872803  83.61 0.0009427028    1.321    0.243
        11  -9.2491     86.4333    250.5182   1.3838743802e+02   1.4067259298e+01    0.2110213    0.1013329  45.82  0.000613611    1.609    0.379
        12 -10.5810     95.8078    247.7346   1.3654234204e+02   1.3200001884e+01    0.3713827    0.1666068  59.55  0.001957428    2.206    0.547
        13 -10.7350     90.1634    245.9758   1.3736265223e+02   1.4281104350e+01    0.2643655    0.2013821  68.15 0.0004734912    1.114    0.102
        14 -14.7534     10.1997    207.7045   1.4861235768e+02   3.0753763424e+01     4.863642     2.028568 -67.56    0.0287953    2.275    0.560
        15 -10.1638      9.0471    183.5417   1.4740957987e+02   3.5631460346e+01    0.4730573    0.1730689  31.13  0.002467662    3.131    0.681
        16 -11.2454     11.3666    194.3901   1.4764369384e+02   3.3237194348e+01    0.4552693    0.2173412 -87.06  0.002102805    1.731    0.422
        17 -13.1438     79.0671    165.2263   1.3057882746e+02   3.1500267352e+01     1.339861    0.6340483  42.76  0.005718449    2.039    0.510
        18 -10.7700     12.4433    186.4953   1.4694701684e+02   3.4724761790e+01    0.2018641    0.1421427  79.69 0.0006405095    1.062    0.058
        19 -11.3170     79.5972    186.0969   1.3321324447e+02   2.6935081248e+01    0.3648542    0.2622417 -53.99  0.001709531    1.594    0.373
        20 -11.0904     83.1823    180.1687   1.3169155328e+02   2.7659554760e+01    0.3020144    0.2235118 -54.49 0.0006895385    1.507    0.337
        21  -8.9451     90.2079    184.6010   1.3075000588e+02   2.5674501856e+01    0.2716551    0.1695844  69.95   0.00102626    1.736    0.424
        22  -9.8475     93.2342    179.1060   1.2934391992e+02   2.6360140916e+01    0.4606159    0.2391765  65.23  0.001569559    2.468    0.595
        23  -9.2541     10.9207    176.4866   1.4657530774e+02   3.6919977683e+01    0.2854807    0.1130585  27.59  0.001458326    3.270    0.694
        24 -10.3737    125.7098    174.0066   1.2136297407e+02   2.1955696676e+01     0.626269    0.2306334  47.66  0.002353863    2.617    0.618
        25 -13.6069      3.5480    249.9683   1.5157536800e+02   2.3891209514e+01    0.6813213     0.514187  48.38  0.004944939    1.515    0.340
        26  -9.6096    137.7017    172.0817   1.1838192964e+02   2.0141306093e+01    0.3964037    0.2521152 -81.58  0.001684845    2.544    0.607
        27 -10.0742    227.9744    172.5999   1.0037338482e+02   2.6524748228e+00    0.2475985    0.1674913  -5.17  0.001275613    1.679    0.404
        28 -10.5348      6.9884    169.4157   1.4687955969e+02   3.8735538972e+01    0.4468636    0.1833859  32.37   0.00247428    2.695    0.629
        29  -9.8120      7.3072    161.5238   1.4624667393e+02   4.0383196114e+01    0.2136244    0.1629152  87.38  0.000763389    1.027    0.027
        30 -10.2868     23.2163    156.4879   1.4235242312e+02   4.0096368538e+01    0.2566677    0.2197678 -16.16   0.00178853    1.781    0.439
        31 -14.6339     52.2550    234.7540   1.4301142960e+02   2.1183736831e+01     2.102763     1.708178  56.14   0.01341497    1.266    0.210
        32  -9.1172    132.6251    140.2761   1.1328859284e+02   2.7770372094e+01    0.4383302    0.1384643 -55.16  0.001250278    4.171    0.760
        33 -10.0447    107.2030    144.6809   1.2038506733e+02   3.1576359878e+01    0.5481327    0.3018213 -38.18  0.002264752    2.396    0.583
        34 -11.5175     95.5852    145.5735   1.2343097319e+02   3.3353270969e+01    0.2556277    0.2538274  15.88   0.00156352    1.184    0.155
        35 -14.0249     68.1666    145.1512   1.3021215415e+02   3.7568275328e+01     10.24891     4.535645  65.01   0.03424335    4.349    0.770
        36  -9.0185    123.0943    146.1037   1.1679460914e+02   2.8356684926e+01    0.2070618    0.1960196  81.78 0.0003553779    1.013    0.013
        37  -8.9091    156.4885    233.4700   1.2406302557e+02   6.0450620455e+00    0.1226563   0.09902711  43.08 9.482776e-06    1.004    0.004
        38 -14.8551     60.5632    214.8565   1.3998025130e+02   2.3781381042e+01     6.904715    0.8401874  45.38  0.009172589    4.739    0.789
        39  -8.3763    188.1563    137.5197   1.0031247639e+02   1.6560335159e+01    0.2110182    0.1445577  46.75 0.0003219142    1.450    0.310
        40  -8.8777    111.0005    208.9460   1.2958535668e+02   1.7611674832e+01    0.1904318    0.1661925  59.04 0.0005824224    1.065    0.061
        41  -9.5320    114.6327    133.5613   1.1626468467e+02   3.2718670905e+01    0.2913895    0.2617152  -4.83  0.000665368    1.357    0.263
        42 -10.3996    234.3674    130.0680   9.0033691587e+01   8.0479831857e+00    0.2334218    0.2154131  33.75 0.0002192804    1.147    0.128
        43  -9.2244    120.9153    131.0506   1.1413575430e+02   3.2083506484e+01    0.2173066    0.2115797 -72.21  0.000309719    1.033    0.032
        44 -10.0153    102.4179    130.4511   1.1873066077e+02   3.5630578014e+01    0.2664333    0.2293658 -30.42 0.0007009659    1.350    0.259
        45  -9.5849     33.4870    128.9956   1.3674623710e+02   4.5332891719e+01    0.2256111    0.1745414  41.05 0.0006550853    1.470    0.320
        46 -10.2985     27.7350    127.5463   1.3805991812e+02   4.6203309131e+01    0.3467862    0.1913707  40.10  0.001942485    1.981    0.495
        47  -9.3178    119.8220    126.4750   1.1337980163e+02   3.3308107741e+01    0.3107883    0.1915381 -33.68 0.0009416562    2.021    0.505
        48 -10.2107    192.9007    195.4296   1.1125406727e+02   5.5744188015e+00    0.8310705    0.4251914 -62.07  0.002542971    6.363    0.843
        49  -8.4567    135.3507    123.6861   1.0884461942e+02   3.0788670573e+01    0.1575892    0.1199517  86.05 0.0007046366    1.727    0.421
        50 -10.2207     43.8449    115.3052   1.3184857588e+02   4.7451936918e+01    0.2653045    0.2006208  76.05  0.001573752    1.419    0.295
        51  -8.8601     65.4231    115.2241   1.2568833145e+02   4.4885951861e+01    0.1858917     0.120311 -71.58  0.000425105    1.539    0.350
        52  -9.1442    168.3796    113.7392   9.8657811327e+01   2.5548183658e+01    0.3186652    0.2470179 -81.52 0.0008659369    1.720    0.418
        53  -9.0267     18.2802    111.9450   1.3855380744e+02   5.0562181371e+01    0.1669519    0.1315169 -71.13 0.0005899197    1.034    0.033
        54  -9.8194      6.7282    112.4276   1.4180383706e+02   5.1272299801e+01    0.1871142    0.1092123  30.86  0.001143084    2.070    0.517
        55  -9.0920    110.0818    121.9116   1.1484955104e+02   3.6178097768e+01    0.2102032    0.2049796 -70.00 0.0003279432    1.038    0.036
        56  -9.9684    177.2439    200.9010   1.1522614066e+02   7.5448683833e+00    0.2183782     0.179517  39.77 0.0002897641    1.075    0.070
        57 -10.6430     63.0574    105.2654   1.2432878032e+02   4.7505848329e+01    0.3369931     0.283586   6.85  0.001962413    1.485    0.327
        58  -8.7173     11.8260    104.7941   1.3941590925e+02   5.2653679398e+01    0.1630165    0.1212988  79.73   0.00107051    1.359    0.264
        59  -8.2668     92.8150    198.8084   1.3200119811e+02   2.2393936774e+01    0.1686803    0.1238601  72.11 0.0002852415    1.278    0.218
        60  -8.2425    189.4127     67.5094   8.1706773264e+01   2.8747347053e+01    0.1480917    0.1450042  -3.77  0.000115881    1.067    0.063
        61  -9.1117     17.8609     60.6324   1.2934940077e+02   6.1987889939e+01    0.1475958    0.1056156  37.12 0.0009428635    1.761    0.432
        62  -9.7072    244.5497     54.9317   7.0484733572e+01   1.7324626855e+01     0.226126    0.1929949  68.86 0.0003667522    1.253    0.202
        63  -8.1766    130.3569     55.4918   9.0271851555e+01   4.5309663918e+01    0.1459029    0.1384306 -14.78 -3.584047e-05    1.044    0.042
        64 -15.3587     22.5864    244.2299   1.4843576546e+02   2.2925342726e+01     3.449838    0.8132789 -63.05   0.01268142    4.801    0.792
        65  -9.8602    134.1222    249.6857   1.3004776257e+02   7.2020345339e+00    0.2539874    0.1963845  76.02  0.001380215    1.464    0.317
        66 -14.1489     18.4253    227.9318   1.4828509380e+02   2.6198808968e+01     1.692163    0.7401317 -53.68   0.00877755    4.010    0.751
        67  -8.7444     78.4746     52.1285   1.0421192546e+02   5.6462015409e+01    0.2627493    0.1793361  58.28  0.001246162    2.054    0.513
        68 -10.3169    140.2938     31.9114   7.9811886469e+01   4.6354405027e+01    0.2463316    0.2140965  48.51 0.0002322124    1.089    0.082
        69  -8.2827    139.3023    241.3177   1.2817388902e+02   7.6372449038e+00    0.1100317   0.08633526  17.80 0.0004041328    1.622    0.384
        70  -9.9194    104.9293    240.4298   1.3425107211e+02   1.3056281663e+01    0.2110957    0.1594663  71.92 0.0004328326    1.244    0.196
