#   1 NUMBER                 Running object number                                     
#   2 MAG_AUTO               Kron-like elliptical aperture magnitude                    [mag]
#   3 X_IMAGE                Object position along x                                    [pixel]
#   4 Y_IMAGE                Object position along y                                    [pixel]
#   5 X_WORLD                Barycenter position along world x axis                     [deg]
#   6 Y_WORLD                Barycenter position along world y axis                     [deg]
#   7 A_WORLD                Profile RMS along major axis (world units)                 [deg]
#   8 B_WORLD                Profile RMS along minor axis (world units)                 [deg]
#   9 THETA_WORLD            Position angle (CCW/world-x)                               [deg]
#  10 FWHM_WORLD             FWHM assuming a gaussian core                              [deg]
#  11 ELONGATION             A_IMAGE/B_IMAGE                                           
#  12 ELLIPTICITY            1 - B_IMAGE/A_IMAGE                                       
         1 -13.6729     67.6785    144.0724   5.8516755055e+01   3.7641567423e+01     2.051594     1.144564 -89.96  0.002922762    2.515    0.602
         2 -14.0596    239.0992     53.7656   1.6547382732e-01   2.0404346175e+01     1.391165     1.157996  29.00  0.009353007    1.721    0.419
         3 -12.3012      3.2209     23.7272   6.3845654228e+01   7.5503572668e+01    0.5333157    0.3675815 -62.80  0.002709412    1.397    0.284
         4 -11.1577     31.1982     15.7045   3.5884808550e+01   7.4057817117e+01    0.3678472    0.2699581  59.46 0.0009904829    1.931    0.482
         5 -12.8846      4.1246      7.8613   5.5478233250e+01   7.8800655960e+01     1.319075    0.7951612 -14.82  0.007300355    1.668    0.401
         6 -11.6657     24.7394     11.6184   3.8087991779e+01   7.5750792929e+01    0.7835435    0.4894162  69.68  0.002566504    6.212    0.839
         7 -11.3493     29.8739      5.7416   2.9803373268e+01   7.5836924654e+01    0.3209656    0.1982825  39.60  0.001132577    1.492    0.330
         8 -10.6099    111.3352    229.1377   5.7998742335e+01   1.2594954397e+01    0.2354705    0.1519554  22.32  0.001335678    1.371    0.270
         9  -9.9314    112.3351    250.1922   5.9990004855e+01   8.9735686407e+00    0.2165608    0.1342305  32.76 0.0008549893    1.223    0.182
        10  -9.2510     28.0608    250.5156   7.8251045723e+01   1.8463769645e+01    0.1792275   0.08752142  30.55  0.001029655    1.581    0.368
        11 -12.9300     70.3307    187.8340   6.3558697670e+01   2.6508115380e+01     1.082999    0.9102138 -70.49  0.002283521    1.316    0.240
        12 -14.7003      5.2993    103.3464   7.6723636986e+01   5.5157168249e+01     6.185177     1.247747 -81.31   0.01726469    4.750    0.789
        13 -13.7375      4.6687    233.7952   8.2780830873e+01   2.3743330910e+01      1.87067      1.01905  68.05   0.01154371    1.594    0.373
        14 -15.4336     10.8243    206.5173   8.0569306382e+01   2.8814326690e+01     4.336524     2.425759  10.80   0.02256368    2.223    0.550
        15 -13.2935      2.1620    182.5943   8.1990096684e+01   3.4933143873e+01     1.014585    0.2977854  88.59  0.002218317    3.401    0.706
        16  -9.3669     93.0448    212.6487   6.0455762550e+01   1.8124363204e+01    0.2665792     0.180946   8.20  0.001389925    1.764    0.433
        17  -8.9815     72.1916    208.7634   6.5236213452e+01   2.1673288677e+01    0.2457586    0.1050742  56.75  0.000966186    2.855    0.650
        18  -8.3450    191.6238    206.2800   3.7912219821e+01   5.4202461040e+00    0.1093541   0.09230553  47.24 0.0007009832    1.707    0.414
        19 -15.6573     11.2484    174.9257   7.9179759884e+01   3.6057745388e+01      4.07364     1.654472 -85.12   0.01779619    2.393    0.582
        20  -9.3171     40.6742    222.0306   7.4041168597e+01   2.2626279194e+01    0.1708847    0.1412484  59.49 0.0005407324    1.122    0.108
        21  -9.5022    124.9072    187.6878   4.9274357398e+01   1.8453205316e+01    0.2312519    0.2063958 -70.73 0.0002190558    1.354    0.262
        22  -8.7540    130.6643    184.7990   4.7414857655e+01   1.8118439888e+01    0.1714897    0.1333116 -61.60  0.000343401    1.562    0.360
        23 -12.0812     45.4666    156.6349   6.7418262689e+01   3.7303390723e+01    0.5568771    0.3350636  32.06 0.0005893823    1.548    0.354
        24 -11.0278     98.9586    181.1263   5.4921821090e+01   2.3895004301e+01    0.3139325    0.2869366  33.64 0.0007624044    1.034    0.032
        25  -9.4117     63.0638    225.9785   6.8959516470e+01   1.9304369069e+01    0.2176313    0.1799961 -63.46  0.001268565    1.484    0.326
        26 -10.6605     65.5779    177.0819   6.3666722603e+01   2.9662390652e+01    0.3137471    0.2313329  79.43  0.001630463    1.461    0.316
        27  -8.5121    157.4860    174.5166   3.9421310991e+01   1.5736435517e+01    0.1367115      0.12429  12.79 -1.025157e-05    1.036    0.035
        28 -10.9776     99.9221    170.1597   5.2992764114e+01   2.6214184554e+01    0.5191646    0.1500977  42.37  0.001641799    3.188    0.686
        29 -10.2143     62.0578    168.6808   6.3700954096e+01   3.2174533590e+01    0.2889484    0.2076469 -80.64  0.000538655    1.481    0.325
        30 -12.5180    231.8333    165.9496   2.4046645267e+01   5.8432036241e+00    0.7441714    0.4451121  22.35  0.004376823    1.853    0.460
        31 -11.4823     70.0097    159.4028   6.0080401638e+01   3.3387645312e+01    0.9285887    0.5417567  61.39  0.003829074    1.968    0.492
        32 -12.1581     58.2675    148.5994   6.2278253188e+01   3.7784169156e+01    0.5905118    0.4466372  57.73  0.001569472    1.278    0.218
        33 -12.4160     77.3475    157.8605   5.7612962881e+01   3.2692501624e+01     1.457193    0.6181229  57.75  0.004522271    3.688    0.729
        34 -10.8942    211.2887    246.8157   4.0401653630e+01  -2.1616596782e+00    0.4099243    0.1130353 -39.69  0.001924745    3.976    0.748
        35  -9.1174    154.1447    163.2076   3.8047952396e+01   1.8447009975e+01    0.1852701    0.1725274  72.55 0.0006820285    1.321    0.243
        36 -12.2337     73.5895    132.0567   5.4464255030e+01   3.9867813926e+01    0.5258326    0.4510874 -68.46 0.0005244058    1.186    0.157
        37 -13.3114     43.4528    144.4948   6.6672951237e+01   4.0718853514e+01    0.5591877    0.4243461  -2.11  0.001440023    1.658    0.397
        38 -13.2392     52.3708    125.8822   6.0875761567e+01   4.4609252002e+01     2.108843    0.9455381 -79.63   0.00659164    2.860    0.650
        39  -9.0357     39.3008    136.2937   6.7100546006e+01   4.3381792574e+01    0.1438884    0.1089481 -36.31 0.0002124436    1.570    0.363
        40  -8.7181    144.6730    135.2651   3.4446556647e+01   2.5845453382e+01    0.1935933    0.1347942 -36.82 0.0002385593    1.489    0.328
        41 -10.0469     86.8799    134.8263   5.0612851214e+01   3.6950009826e+01    0.3429515     0.289891  24.99 0.0008152361    1.235    0.190
        42  -9.6209     90.5137    132.5333   4.8989490477e+01   3.6892081693e+01    0.3685044    0.2373688   2.50   0.00135935    2.682    0.627
        43  -9.4428    105.1086    130.3623   4.4012651625e+01   3.4735193425e+01    0.3259764      0.26463  88.79  0.001550446    1.461    0.315
        44  -9.6013    102.3789    126.4430   4.3966495912e+01   3.6205183674e+01    0.3571779    0.2688459  15.64  0.001348476    1.632    0.387
        45 -10.2154    125.7789    229.6403   5.4832211514e+01   1.0594379711e+01    0.2819239    0.1795691 -71.72  0.001507738    2.559    0.609
        46 -11.1060     37.4160    124.1142   6.6190349822e+01   4.6889601202e+01    0.4661412    0.2394307 -81.02  0.001376776    2.053    0.513
        47 -10.1311     88.3436    121.0441   4.7228700159e+01   4.0176653728e+01    0.3602195    0.2704892  12.91  0.001183949    1.667    0.400
        48  -8.8023    183.5115    116.4853   2.1884496798e+01   2.1715621673e+01    0.1402357    0.1292847 -23.96 0.0008100311    1.042    0.041
        49  -9.3870    101.7571    115.9228   4.1690563986e+01   3.8878336649e+01    0.2175422    0.2095035  -8.55 0.0004993744    1.124    0.110
        50  -9.9657    204.7659    110.7265   1.6987418506e+01   1.8600049918e+01    0.3311604    0.2257346  38.40    0.0012793    1.700    0.412
        51  -9.9527     38.2652    110.3159   6.3768941969e+01   5.0565893062e+01    0.3692758    0.2201106  62.57  0.001019342    1.917    0.478
        52  -9.3312     24.0935    105.1636   6.8909451611e+01   5.3375181597e+01     0.226406     0.183513 -44.26 0.0006137532    1.292    0.226
        53 -10.6505     22.2099     86.2695   6.6844340684e+01   5.8667859813e+01    0.7772652    0.3261919  64.98  0.002453081    4.020    0.751
        54 -10.1997     32.3764     98.1066   6.4194439400e+01   5.4525543883e+01    0.3186167    0.2248706  66.25 0.0006516366    1.546    0.353
        55 -10.6695     28.8525     94.0636   6.5071269923e+01   5.5971568181e+01     0.298009    0.2388782  55.10 0.0004228201    1.289    0.224
        56 -11.0316     52.2747     93.9819   5.4592925196e+01   5.3194850825e+01    0.6355068    0.1970044 -60.30  0.002011491    3.042    0.671
        57  -9.0298    168.7017     90.6960   1.8235350239e+01   2.9447161957e+01    0.1418418    0.1160182   8.72 0.0002281573    1.586    0.369
        58  -9.4813     91.6459     81.7528   3.5530599515e+01   4.9065873656e+01    0.2862825    0.2230019 -85.38 0.0007581628    1.610    0.379
        59  -9.0304     15.9778     79.3445   6.8777194327e+01   6.0993177704e+01    0.1832587    0.1799165   8.98 0.0004008202    1.093    0.085
        60  -9.0325    184.5222     77.1049   1.1986279269e+01   2.8209129065e+01    0.2150621    0.1295809 -36.65 0.0005811842    1.545    0.353
        61  -8.5428    129.5645     72.4652   2.1327349753e+01   4.2097610056e+01     0.157835    0.1437632 -81.80 0.0008043473    1.094    0.086
        62  -8.9780    109.2705     71.8285   2.6584503314e+01   4.7168516666e+01    0.2516195    0.1901425 -68.97 0.0008014435    1.551    0.355
        63  -8.6921     22.4898     72.4572   6.4032867123e+01   6.2311353816e+01    0.1391821    0.1325306 -62.51 0.0001077063    1.022    0.022
        64 -12.0590    215.7673     66.7507   5.3354889447e+00   2.3152489977e+01    0.8972833    0.4443837 -47.60  0.004385763    1.770    0.435
        65 -12.8716    223.2251     62.2007   3.4931210910e+00   2.2305758758e+01    0.9944302    0.4417431 -43.20  0.004633531    1.819    0.450
        66 -10.8575    111.8279    241.1958   5.9189213022e+01   1.0483788573e+01    0.2864448    0.2046399 -64.57  0.001033596    1.890    0.471
        67  -8.4128     27.9730     63.9675   5.8939424254e+01   6.3982654996e+01    0.1679759    0.1569697 -46.12 0.0003636894    1.013    0.013
        68  -9.0551     82.9254     61.7593   3.1807588808e+01   5.5322686765e+01    0.2099622    0.1915141  58.25 0.0003432124    1.084    0.077
        69 -13.2159     37.7947    160.9870   7.0283113533e+01   3.7047646254e+01     1.295073    0.9378355  -6.93  0.001087243    1.842    0.457
        70 -10.5682     13.3022     37.2139   6.0317509669e+01   7.1782543783e+01    0.2472378    0.1473557  44.70 0.0009359738    2.028    0.507
        71 -10.7967     20.6935     34.1889   5.3627320722e+01   7.1805068940e+01    0.2517764    0.2105543  73.98  0.001444905    1.574    0.365
        72  -9.6100     72.1417    242.5485   6.8126483053e+01   1.5128820184e+01    0.2224366    0.1385002  37.49  0.001343244    1.209    0.173
        73 -10.4995     15.0885     22.8369   5.2924523518e+01   7.4805749489e+01    0.1865512    0.1733554  34.37 0.0006679692    1.255    0.203
        74  -9.7745     60.1412     20.9719   2.2517591751e+01   6.7629700585e+01     0.239289    0.2224906  72.71 0.0009193845    1.201    0.167
        75 -10.0256    124.7842    223.6019   5.4315299661e+01   1.1755075613e+01    0.2236809    0.2186429 -22.78  0.000655396    1.260    0.206
        76  -9.6970     28.7773    241.5677   7.7741424128e+01   2.0032180708e+01    0.1975315    0.1475832  78.47   0.00103547    1.394    0.283
        77  -8.8031     62.1664    234.2019   6.9780705878e+01   1.7827510732e+01    0.1721892    0.1144315  51.34 0.0005642408    1.305    0.234
        78  -9.1014    189.3412     15.0813   3.5491788541e+02   3.5464922093e+01    0.1866433    0.1455413 -51.93 0.0006779073    1.119    0.107
