#   1 NUMBER                 Running object number                                     
#   2 MAG_AUTO               Kron-like elliptical aperture magnitude                    [mag]
#   3 X_IMAGE                Object position along x                                    [pixel]
#   4 Y_IMAGE                Object position along y                                    [pixel]
#   5 X_WORLD                Barycenter position along world x axis                     [deg]
#   6 Y_WORLD                Barycenter position along world y axis                     [deg]
#   7 A_WORLD                Profile RMS along major axis (world units)                 [deg]
#   8 B_WORLD                Profile RMS along minor axis (world units)                 [deg]
#   9 THETA_WORLD            Position angle (CCW/world-x)                               [deg]
#  10 FWHM_WORLD             FWHM assuming a gaussian core                              [deg]
#  11 ELONGATION             A_IMAGE/B_IMAGE                                           
#  12 ELLIPTICITY            1 - B_IMAGE/A_IMAGE                                       
         1 -16.1208    191.0308    153.7860   5.0199159094e+01   1.4689777022e+01     11.74741     7.352228 -54.56   0.05995841    1.673    0.402
         2 -16.4116    246.0967     64.7080   2.6218332741e+01   2.0409498847e+01     5.523643     2.288109 -66.83    0.0205978    3.404    0.706
         3 -16.9557    243.7586     99.9880   3.2585746124e+01   1.5763295689e+01     3.863238     2.426362  56.48   0.01373957    2.013    0.503
         4 -12.3222    249.3291     15.9727   1.7891454247e+01   2.5753833183e+01    0.2749454    0.1832435 -44.82 0.0007431107    1.428    0.300
         5  -9.8495    114.4442     13.1162   2.9461005590e+01   5.2866991237e+01    0.2221285    0.1638703  64.31 0.0004756471    1.146    0.127
         6  -9.0889     45.7277     13.6681   4.7690727147e+01   6.7696849235e+01    0.1247928   0.08066837  23.11 0.0002205568    1.592    0.372
         7 -10.0334    249.7018    249.3851   5.6505059970e+01  -7.8448607243e+00    0.1942875    0.1307709 -21.57  0.001470956    1.048    0.045
         8 -11.8769    236.2242    245.4738   5.8075554211e+01  -6.2111268125e+00    0.3497103      0.20748  12.62  0.002364636    1.634    0.388
         9 -12.1872    228.0946    248.6289   5.9902544482e+01  -5.9691995866e+00    0.5176998    0.2712336  27.18  0.003219251    2.078    0.519
        10 -10.2622    240.8886    214.3470   5.2514143386e+01  -2.0146509443e+00    0.2230138    0.1987935  -3.20 0.0009775538    1.388    0.280
        11  -9.9023     37.6836    213.6394   9.9130050997e+01   2.3164496484e+01    0.2799301    0.1399295  46.24  0.001110502    1.930    0.482
        12 -10.0090     97.9607    247.6651   8.7197562720e+01   8.4337320546e+00    0.2177333    0.1888402 -39.82 0.0005323822    1.263    0.208
        13  -9.1946    118.0308    166.1256   6.9185705101e+01   2.4170758977e+01    0.2172728    0.2147334 -76.58 0.0004629719    1.113    0.102
        14 -10.8816    218.4889    186.9842   5.1555908451e+01   4.8548389194e+00     0.480442    0.3597349  29.90  0.002737495    1.572    0.364
        15 -15.4412    232.6206     77.0376   2.9603155108e+01   2.0844915749e+01     1.419173      1.00112 -50.21  0.009875196    1.134    0.118
        16 -10.6291    161.7523    157.9640   5.6851255211e+01   1.8605953895e+01    0.3298909    0.2605369 -70.57 0.0008800899    1.607    0.378
        17  -9.1117    135.7785    185.2336   6.8239910602e+01   1.6868194179e+01    0.1967874    0.1869028  -8.69 0.0003471125    1.064    0.060
        18 -10.5221    229.0087    238.6684   5.8241746995e+01  -4.5899490940e+00    0.1768593    0.1481669 -36.33 0.0009751095    1.535    0.349
        19 -15.4255    243.2236    121.5365   3.6441884218e+01   1.2533802125e+01     1.792487     1.190311 -44.48  0.004432628    1.156    0.135
        20  -8.5212     38.9735    152.9881   9.1563685949e+01   3.9075971704e+01    0.1867288    0.1583929 -64.50 0.0004247398    1.145    0.126
        21  -9.7285     67.1388    143.3639   8.0171216565e+01   3.8108489243e+01     5.182057     1.575115 -55.50   0.01615825    2.998    0.666
        22 -13.3879     42.8312    124.1432   8.5173199638e+01   4.6428912380e+01     1.113472    0.9388894  12.78  0.003162087    1.203    0.169
        23 -13.4143     58.9575    123.9435   7.9041320195e+01   4.4365510428e+01     1.361664    0.8864693  17.08  0.004654114    1.658    0.397
        24 -12.5664     55.0569    118.5710   7.9312393563e+01   4.6295121732e+01    0.8562743    0.6249992 -20.18  0.001639636    1.535    0.349
        25 -12.6060      2.9801    134.8947   1.0202863874e+02   4.7001596846e+01     1.803779     0.454496 -77.72  0.005253416    4.249    0.765
        26 -13.7723     13.9776    128.0732   9.7033545174e+01   4.8132758800e+01     1.308462     1.227337  16.67  0.003833173    1.141    0.124
        27  -8.0783    166.3041    190.2397   6.2084461224e+01   1.1207583763e+01    0.1351606   0.09761394  -9.27 0.0001872779    1.488    0.328
        28 -11.3410     33.7358    131.8728   9.0074036492e+01   4.5373865017e+01    0.4071221    0.2572524 -87.24 0.0003636552    1.971    0.493
        29  -9.7863    130.1482    119.5072   5.5717293046e+01   3.2657747305e+01    0.2447359    0.2107243 -16.45  0.001177376    1.309    0.236
        30  -8.5355     94.2364    117.3625   6.5326884795e+01   4.0118454259e+01    0.2065971    0.1412131  44.90 0.0003723234    1.490    0.329
        31 -10.0941    116.2505    113.2975   5.7826117908e+01   3.6767671364e+01     0.375763    0.2561926  42.18  0.001737866    1.467    0.318
        32  -8.8163    146.8440    172.5220   6.3141890286e+01   1.7938521385e+01    0.2272862    0.1989514 -72.96 0.0006101097    1.402    0.287
        33 -11.8169    124.4783    104.4360   5.3411707805e+01   3.6958628627e+01     1.069396    0.6631493 -69.98  0.004267604    2.480    0.597
        34 -10.3611    111.0399    106.2266   5.7462503964e+01   3.9335831622e+01    0.7730461    0.4283062  22.91  0.002721181    3.011    0.668
        35 -10.1224    127.3886     91.0065   4.9207028638e+01   3.8982063955e+01    0.2739462    0.2401844 -46.74 0.0004691433    1.157    0.136
        36  -9.8621    157.9075     89.0537   4.2283498044e+01   3.2881247182e+01    0.4152173    0.1834835 -40.93  0.001740494    2.223    0.550
        37 -10.4593    176.6727     87.6999   3.8759880795e+01   2.9304248722e+01    0.2127861    0.2080032  26.30 0.0008869604    1.257    0.205
        38 -14.8296    249.6048     85.2035   2.9439222512e+01   1.7058177913e+01    0.8705142    0.4891706 -62.39  0.003265129    1.704    0.413
        39  -9.1227    142.3254     74.9564   4.1754450820e+01   3.8586712662e+01    0.1869625    0.1679992 -54.65 0.0004593338    1.120    0.107
        40  -8.3998     79.2204    173.3351   8.1757837607e+01   2.8458219909e+01    0.1546865    0.1098646 -34.53 0.0002711787    1.520    0.342
        41  -9.8031    236.3647    187.9188   4.8881194258e+01   2.6299487710e+00    0.2610079    0.2141159 -21.07  0.001309681    1.117    0.105
        42  -9.3626    218.1721    203.7285   5.4472140885e+01   2.0428949035e+00    0.2234292     0.176368  50.13  0.001382899    2.019    0.505
        43  -9.8533    156.3108     67.3498   3.7300102791e+01   3.6770990317e+01    0.2720398     0.205012  -6.06  0.001412477    2.149    0.535
        44 -10.3978    116.2213     62.5702   4.3966768634e+01   4.6350204899e+01    0.2659855    0.2561507   7.59 0.0007774034    1.183    0.154
        45 -10.7867    137.3810     61.9509   3.9300200575e+01   4.1728012659e+01    0.4421498    0.1913882  65.02  0.001775542    2.535    0.605
        46 -11.9203    210.4009    178.2242   5.1369519522e+01   7.4048759017e+00    0.7108775    0.6732545  83.16  0.004874045    1.493    0.330
        47 -11.4358    152.0839     48.0209   3.3170383212e+01   4.0455771726e+01    0.3387571    0.2671673 -34.01  0.002065626    1.462    0.316
        48 -11.5238    140.0572     43.2835   3.3839821164e+01   4.3738936387e+01    0.6197685    0.3612303 -11.59  0.002641047    3.503    0.715
        49  -9.7622    118.8068     49.8090   3.9645334417e+01   4.7657640554e+01    0.4219858    0.1988086 -27.02  0.001741357    2.952    0.661
        50  -8.2387     99.4842     52.4463   4.5041208712e+01   5.1609723314e+01    0.1380963    0.1220819  46.15  0.000137006    1.071    0.066
        51  -9.8392    142.6106     48.3160   3.4749335054e+01   4.2508171941e+01     0.205446    0.1375216 -74.15 0.0006330056    1.672    0.402
        52 -10.5871    146.9888     45.7509   3.3376946147e+01   4.1876938317e+01    0.2602286    0.1794379 -70.11 0.0002947745    1.516    0.340
        53 -11.7557    147.5345     42.5186   3.2462469087e+01   4.2173682800e+01    0.3924859    0.3226609 -44.09  0.001632068    1.310    0.237
        54  -8.9338    101.4038     44.1779   4.1896901735e+01   5.2347562289e+01    0.3627899    0.1416888 -25.72  0.001265893    4.178    0.761
        55  -9.0816    167.2966     40.3194   2.9219545507e+01   3.8166816750e+01    0.1115178   0.09349383  39.44  0.000452516    1.614    0.380
        56  -8.7914    122.5038    236.7953   7.9848334223e+01   7.6097161283e+00    0.1801808    0.1313161 -45.98 0.0009840552    1.456    0.313
        57  -9.9235    171.9737     34.5932   2.7349693383e+01   3.7879808413e+01    0.2215513    0.1590467  -7.67  0.001250186    2.443    0.591
        58 -10.4748    148.6990     33.5809   3.0010515137e+01   4.3010414195e+01    0.2383957    0.1981919  87.93 0.0008325539    1.024    0.023
        59  -9.5186    143.9268     32.8187   3.0488313595e+01   4.4157224521e+01    0.1797749    0.1556334  59.71 0.0005271938    1.237    0.192
        60  -9.3475     24.2379    202.5699   1.0184795288e+02   2.7264314131e+01    0.1939496    0.1325303   1.89 0.0009571278    1.731    0.422
        61 -10.0013    149.0657     22.5760   2.7178377989e+01   4.4158663016e+01    0.1962411    0.1750578   6.53 0.0008620378    1.598    0.374
        62  -8.5810     48.7654    235.4083   9.8201436446e+01   1.6810973605e+01     0.177629    0.1223233  10.57 0.0003873024    1.557    0.358
        63  -9.4659    236.1649     19.5149   1.9180236698e+01   2.7507177750e+01    0.2329044    0.1291043  58.99  0.001555225    2.406    0.584
        64  -8.4231    250.2925    234.3094   5.4166150788e+01  -5.7976576473e+00    0.1123554   0.06057719 -19.23 0.0007000055    1.585    0.369
        65 -11.4975    193.0944    194.4424   5.7394150523e+01   6.7125055388e+00    0.8459112    0.4806055 -63.04   0.00350636    3.377    0.704
