#   1 NUMBER                 Running object number                                     
#   2 MAG_AUTO               Kron-like elliptical aperture magnitude                    [mag]
#   3 X_IMAGE                Object position along x                                    [pixel]
#   4 Y_IMAGE                Object position along y                                    [pixel]
#   5 X_WORLD                Barycenter position along world x axis                     [deg]
#   6 Y_WORLD                Barycenter position along world y axis                     [deg]
#   7 A_WORLD                Profile RMS along major axis (world units)                 [deg]
#   8 B_WORLD                Profile RMS along minor axis (world units)                 [deg]
#   9 THETA_WORLD            Position angle (CCW/world-x)                               [deg]
#  10 FWHM_WORLD             FWHM assuming a gaussian core                              [deg]
#  11 ELONGATION             A_IMAGE/B_IMAGE                                           
#  12 ELLIPTICITY            1 - B_IMAGE/A_IMAGE                                       
         1 -11.9359    173.3667      4.3974   6.9637539806e+01   4.1065938015e+01     1.914563    0.9306546  82.81  0.007668652    2.408    0.585
         2 -13.8235    241.6231     87.4359   8.3795371202e+01   1.3061334138e+01     5.095409     1.125961 -41.38   0.01420142    4.443    0.775
         3 -13.9300    216.6017     36.1037   7.3542365152e+01   2.6326074713e+01     2.012528     1.662386 -85.10   0.01087639    1.253    0.202
         4 -12.2131    224.8790     26.7877   6.9999566492e+01   2.5379996854e+01    0.5811973    0.3954491  48.08  0.001595963    1.604    0.376
         5 -12.7490    206.2697     59.4302   8.1626800421e+01   2.5762235021e+01     3.226667     1.465382 -62.61  0.008296762    5.668    0.824
         6 -13.1298    177.4376     73.6911   9.0935665263e+01   3.0836417518e+01     3.029238     1.458632 -59.17  0.008789147    4.148    0.759
         7 -12.4871    203.9743     17.5786   6.9832645241e+01   3.1752664875e+01     2.682815     1.108702 -68.82  0.007294792    5.546    0.820
         8 -11.5966    100.9172     30.6495   9.4171058402e+01   5.5651919037e+01    0.6226368    0.3086994 -30.92  0.002760067    1.928    0.481
         9 -11.2103    178.5676     26.0061   7.5844149629e+01   3.7449342849e+01    0.8139178    0.5518551 -34.47  0.003936053    1.487    0.328
        10 -10.5252    157.5061     13.8322   7.5142838887e+01   4.4285596272e+01     0.625335    0.3149161 -18.40  0.002639598    2.173    0.540
        11 -11.6829    248.1530      2.4956   6.1674107202e+01   2.2408477278e+01    0.8962545    0.6983068 -43.48  0.004675514    1.178    0.151
        12 -11.8975    228.5718     13.4571   6.6073924174e+01   2.5964344453e+01     1.183129    0.4825709 -52.50  0.001991145    2.645    0.622
        13 -13.0362    236.7417      9.8331   6.4395960069e+01   2.4355174858e+01     1.601013    0.6579315 -63.63  0.001543742    3.250    0.692
        14 -10.5941    236.4242      1.6664   6.2375141407e+01   2.5264149226e+01    0.4508831    0.2446875 -82.65  0.001184509    1.984    0.496
        15 -11.7799    223.0117     15.4932   6.7161377441e+01   2.7126585267e+01    0.5131269    0.2652597 -40.67   0.00133617    1.803    0.445
        16 -12.5347    217.2960      8.1037   6.5740536714e+01   2.9338014884e+01    0.9221189    0.3458638 -47.22  0.002742886    2.686    0.628
        17 -10.3540    212.6868     16.3418   6.8485362309e+01   2.9645818764e+01    0.4075176    0.2663407 -62.33 0.0006779268    1.620    0.383
        18  -9.7233    210.3652     12.7195   6.7725928937e+01   3.0625281324e+01    0.2611587    0.2031657 -71.13 0.0006664498    1.287    0.223
        19 -12.0275      5.3020      9.5470   1.2286163765e+02   7.2072639563e+01    0.5354823    0.4917454 -89.12  0.004262246    1.765    0.433
        20 -11.6341    120.3717      8.8947   8.0314770974e+01   5.3976385676e+01    0.4604257    0.4129159  36.59  0.001396155    1.041    0.040
        21 -10.4815    149.2196      1.7005   7.2197410459e+01   4.7543201396e+01      0.36906    0.2474413  82.56 0.0006150745    1.640    0.390
        22 -10.9569    154.0163      2.0000   7.1563699062e+01   4.6292572810e+01    0.7277191    0.1360988  64.17  0.002161115    3.997    0.750
        23 -10.3222    116.1183     12.3603   8.2688422787e+01   5.4609926083e+01    0.3189737    0.2217445  51.13   0.00135236    1.358    0.264
        24 -10.5083    138.9770      1.7492   7.3902006583e+01   5.0118817652e+01    0.7455468   0.07282069  61.43  0.001981551    5.093    0.804
        25  -9.4159     73.2897    242.3222   1.4348325665e+02   1.8201475738e+01    0.1591682    0.1288763  61.37 0.0005637238    1.217    0.178
        26 -12.4725    244.6882    248.1047   1.1601637002e+02  -8.3843769255e+00     1.041474    0.4100423  37.68  0.005829486    1.926    0.481
        27 -11.1486    231.1374    249.9135   1.1840846944e+02  -6.5741998675e+00    0.4367321    0.1598154  42.56  0.002296145    2.163    0.538
        28 -12.8865    244.5139    112.7263   8.9605061341e+01   8.6458460997e+00     1.411764    0.7997299 -34.27  0.001571817    1.629    0.386
        29 -11.2729    223.0129    241.3251   1.1846833680e+02  -4.4838821875e+00    0.2598701     0.179239  -6.69  0.001770269    1.643    0.392
        30 -11.1027    233.1140     30.1005   6.9976614152e+01   2.2950010691e+01    0.5662809    0.3993844 -72.73  0.001307431    1.519    0.341
        31 -11.7830    244.1753    231.0750   1.1348817539e+02  -6.6664193870e+00     0.569097    0.3516315 -28.46  0.003729229    1.845    0.458
        32 -12.8200      9.5263    222.1356   1.5231666143e+02   2.8787511936e+01    0.6618698    0.4830674  82.86  0.004531987    1.181    0.153
        33 -11.1051    191.7344     55.9061   8.2971356213e+01   3.0006229748e+01    0.3857816     0.383503  48.91 0.0008810063    1.015    0.015
        34 -11.9025      5.6676    218.3286   1.5274092822e+02   2.9806552381e+01    0.4209238    0.2809955 -50.26  0.002792507    2.691    0.628
        35 -10.8426    184.5541    125.7749   1.0361290186e+02   1.9784469518e+01    0.3903782    0.2507304 -21.33   0.00167446    1.911    0.477
        36  -9.0168    160.4993    127.5065   1.0913928503e+02   2.4796906450e+01    0.1478813    0.1455848  57.49 0.0008106207    1.014    0.014
        37  -8.9469    136.5075    126.9965   1.1449136936e+02   2.9966373005e+01    0.2123617    0.1276625 -70.25 0.0008103675    2.551    0.608
        38 -10.5390    201.2238    123.7048   9.9810746818e+01   1.6397706012e+01    0.4107914    0.2185346 -44.30  0.001220968    1.988    0.497
        39  -8.8915    205.8510    122.1221   9.8545686701e+01   1.5628464800e+01    0.2222773    0.2038366 -67.34  0.000542886    1.270    0.212
        40  -8.8963    149.9832    121.9827   1.1017818654e+02   2.8176714758e+01    0.1835356    0.1693987  49.46 0.0004241514    1.078    0.072
        41  -9.3974    133.6064    119.8040   1.1349871812e+02   3.2064206426e+01    0.2573073     0.194606  37.05 0.0006497705    1.409    0.290
        42  -9.3407    218.0272    118.1418   9.5342098668e+01   1.3563632361e+01     0.334612    0.2062509  78.55  0.001232679    3.179    0.685
        43  -9.9628    200.5149    115.9619   9.8026013489e+01   1.7901001411e+01     0.240134    0.1995789  47.83 0.0007828283    1.215    0.177
        44 -11.8211    187.2977    112.9741   9.9858128778e+01   2.1487871214e+01     1.056323    0.3129228 -41.10  0.003222165    3.330    0.700
        45  -9.9890    138.1615     43.5502   8.9516198866e+01   4.5428309255e+01    0.2748748    0.2140884 -18.46 0.0001346864    1.312    0.238
        46 -12.8333    133.9032     38.5897   8.8715755576e+01   4.7172966369e+01     1.961135    0.7878712  66.57  0.005994479    4.022    0.751
        47  -8.4032     50.7922    221.6104   1.4565530997e+02   2.4464782931e+01    0.1426097    0.0750596  53.99 0.0004017368    1.494    0.330
        48 -11.0119    204.4519    110.2527   9.5833804056e+01   1.7975629674e+01    0.5541928     0.343249  38.98  0.002430601    1.707    0.414
        49  -9.7222    135.0000    108.4912   1.1035573257e+02   3.4142247555e+01    0.3387903   0.08425131 -44.46 0.0009365309    3.949    0.747
        50  -8.0128    119.2897    110.3120   1.1473466538e+02   3.6939446939e+01     0.143767    0.1168296 -11.85 0.0002743553    1.585    0.369
        51  -8.7220    142.4035    100.8070   1.0652748244e+02   3.4123016148e+01    0.2216356    0.1434799 -30.14 0.0009447049    1.735    0.424
        52  -9.4645    169.1908     96.3716   9.9195776989e+01   2.8818516753e+01    0.2977269    0.2336074 -88.40 0.0007922899    1.677    0.404
        53  -9.6432    148.4908     94.8093   1.0342063220e+02   3.3952989937e+01     0.366664    0.2648722 -14.20 0.0009318548    1.785    0.440
        54 -13.9182     38.4749    194.5641   1.4580845969e+02   3.0842513145e+01    0.9944688    0.8652561 -27.28   0.00735131    2.048    0.512
        55  -9.2530    134.6217     92.8590   1.0622877114e+02   3.7429563025e+01     0.274619     0.223079  59.29  0.000891402    1.326    0.246
        56 -13.1013    172.7846     53.5657   8.5650197167e+01   3.5246304474e+01     1.779827      0.95683  68.07  0.006928097    2.172    0.540
        57 -11.2877    159.4309     85.5504   9.8249113844e+01   3.3163462007e+01    0.7043718    0.4947289   7.23  0.002932063    2.067    0.516
        58  -9.8699    211.5911     87.5239   8.8567635991e+01   2.0074545824e+01    0.3644317    0.2723482 -88.50  0.001673641    1.802    0.445
        59 -10.1847    142.2785     83.4448   1.0161002695e+02   3.7576766441e+01    0.3327995    0.2829594 -53.32 0.0006502208    1.223    0.182
        60  -8.0886    203.3135     80.6919   8.8130250802e+01   2.3205183262e+01     0.156033    0.1174328 -66.30 0.0006334139    1.626    0.385
        61 -11.4931    156.9660     73.6889   9.5234094259e+01   3.5909714751e+01    0.3814328    0.2873063 -23.99 0.0005735324    1.394    0.283
        62 -10.0173    220.8727     73.5216   8.3269246800e+01   2.0017630651e+01    0.4206305    0.3336556  17.61  0.001095815    1.478    0.324
        63  -9.7657    216.6792     73.6364   8.3955465289e+01   2.1023885599e+01    0.3591556    0.2374668  38.18  0.001474867    1.705    0.414
        64 -12.2442    197.5192     51.3925   8.0676172729e+01   2.9169785043e+01    0.9455469    0.6676807 -34.48  0.001485912    1.383    0.277
        65  -9.2925    250.0416     66.9067   7.7464904602e+01   1.4120336755e+01    0.3190817    0.1937155 -24.42  0.001509854    1.615    0.381
        66 -10.5796    181.8549     64.7816   8.7407642176e+01   3.1178337378e+01    0.2978957    0.2879919  30.98 0.0003574104    1.042    0.041
        67  -8.8278     90.2054     63.7714   1.0964446926e+02   5.2025545697e+01     0.253617    0.1900138 -66.34 0.0007957807    1.718    0.418
        68  -8.4351     88.1683     60.3942   1.0915434853e+02   5.3033061722e+01    0.1850606    0.1592383 -62.37 0.0003675924    1.344    0.256
        69  -9.9940    144.1796     59.0950   9.3466591783e+01   4.1520455073e+01    0.3482332    0.2623879 -57.83 0.0007981546    1.565    0.361
        70  -8.9489    243.7860     59.3285   7.6326330579e+01   1.6602815102e+01    0.2030472    0.1658476 -43.55  0.001084907    1.135    0.119
        71  -7.9437     72.7260     58.3323   1.1344319317e+02   5.5929193963e+01    0.1279257    0.1036955 -71.85 0.0004743173    1.596    0.373
        72 -10.4160    248.6134     46.5055   7.2492614577e+01   1.7196380457e+01    0.5219507    0.2764599 -44.10  0.002401259    1.737    0.424
        73  -9.3391    241.7374     45.0732   7.2907217885e+01   1.8993044312e+01    0.2419409    0.1880401 -89.88 0.0009588638    1.398    0.285
        74 -10.4833    167.8738    113.5639   1.0407547709e+02   2.5864356429e+01    0.3306785      0.30469 -84.07 0.0006028098    1.201    0.167
        75 -12.6061    186.0757     92.2597   9.4567564949e+01   2.5488592225e+01     2.027149    0.4090587 -41.73  0.004985977    4.931    0.797
        76 -13.3652     51.3046    182.8479   1.4239178143e+02   3.1672800090e+01    0.9347683    0.7368061  62.85  0.003658055    1.166    0.142
        77 -10.6003    249.5962     31.3668   6.8597955315e+01   1.8865365449e+01    0.7217074     0.394731 -61.80  0.002998714    2.060    0.515
        78 -10.5710    244.1870     34.8396   7.0019816748e+01   1.9709451823e+01    0.5798088    0.3318107 -85.13  0.001951718    2.230    0.551
        79 -10.2669    242.8035     30.6238   6.9092346399e+01   2.0551231544e+01    0.5746641    0.3035481 -10.49  0.002344099    2.731    0.634
        80  -9.6981    165.6678     33.5653   8.0460034592e+01   3.9890992360e+01    0.4169363    0.2672981 -58.94  0.001809545    1.955    0.488
        81  -9.3437    162.9126     29.1963   7.9484517857e+01   4.1154866709e+01    0.2371558    0.2079557 -29.98 0.0003804657    1.170    0.145
        82  -8.2286     73.2863     33.6256   1.0413674379e+02   6.0293842034e+01    0.1267403    0.1014722 -59.46 0.0007017913    1.717    0.418
        83  -9.5409    198.3934     29.4099   7.4014558619e+01   3.1845050749e+01    0.3137351    0.1930482 -53.78 0.0007688936    1.771    0.435
        84 -12.7493    247.7981    195.2541   1.0674087769e+02  -3.3075187429e+00     1.363501     0.906055 -28.87  0.008275568    1.585    0.369
        85  -8.9872    185.3866     27.0526   7.5145929228e+01   3.5534298351e+01    0.1982852    0.1761304 -28.37 0.0003797471    1.158    0.136
        86  -9.0642    158.5085     21.4987   7.7628319795e+01   4.3202507537e+01    0.3198026    0.1405986 -45.17  0.001186123    2.657    0.624
        87 -11.3730    235.6356    174.4060   1.0477332363e+02   1.4605017354e+00    0.4781866    0.3102711  49.24  0.002569972    1.665    0.399
        88  -9.8072    192.5504    186.9874   1.1494354451e+02   7.6926620198e+00    0.2325858     0.170313  41.16 0.0003157194    1.208    0.172
        89  -9.6099    216.4294    168.9357   1.0705787999e+02   5.8563195550e+00    0.2429729    0.1831149  59.12 0.0007462301    1.629    0.386
        90 -11.8115    205.6014    151.1623   1.0532369145e+02   1.0810588002e+01    0.8658752    0.4270876  42.98   0.00370784    1.937    0.484
        91 -11.2741    191.8594    150.9720   1.0793188180e+02   1.3709721315e+01     0.445493    0.4364631 -86.04  0.002636277    1.159    0.137
        92 -10.7227    178.5154    147.3697   1.0982771999e+02   1.7157345354e+01    0.3027093    0.1754027  42.13  0.001310401    1.667    0.400
        93  -8.8354    223.1721    145.7611   1.0090290021e+02   8.0455442615e+00    0.2211041     0.157019 -76.50  0.000945833    2.774    0.639
        94 -10.1690    146.4791     19.4840   7.9092860794e+01   4.6500692317e+01    0.2586605    0.2171225  32.13 0.0006310753    1.166    0.143
        95  -8.5481    163.9965     19.5043   7.6020984877e+01   4.2002206968e+01    0.2132138     0.138206  65.87 0.0005878821    1.493    0.330
        96  -9.4481     91.8031     19.0767   9.1956094540e+01   5.9049767674e+01    0.2265053    0.1821121  36.03 0.0006080543    1.215    0.177
        97 -10.0852     69.5148    145.4924   1.3404766646e+02   3.7266354689e+01    0.3039809    0.2544328  86.57  0.001190527    1.054    0.051
        98 -10.3228     66.4886    144.4810   1.3460814038e+02   3.7889503273e+01     0.492209    0.2620939 -76.15   0.00173387    1.918    0.478
        99  -9.4764    192.4033     14.8442   7.0440937478e+01   3.5058118296e+01    0.5018362    0.2426073  77.11  0.002028658    2.220    0.550
       100  -9.2806    233.9390    145.0377   9.8858345215e+01   5.9761162194e+00    0.2164817    0.1894357   5.35 0.0006997014    1.036    0.035
       101 -10.1855    192.0535    144.0582   1.0637113309e+02   1.4866976472e+01     0.216635     0.210946  20.28 0.0004593866    1.055    0.052
       102  -9.8507    240.7247    141.1554   9.6842811813e+01   5.1981977671e+00    0.2188112    0.1709547 -43.60  0.001197646    1.454    0.312
       103  -8.7185    210.6660    136.6783   1.0111531031e+02   1.2124820450e+01    0.1531142    0.1086818  12.83  0.000705006    1.704    0.413
       104  -8.6808    136.7569    134.7880   1.1617503650e+02   2.8294005050e+01     0.193886    0.1658619 -88.66 0.0004625492    1.284    0.221
