#   1 NUMBER                 Running object number                                     
#   2 MAG_AUTO               Kron-like elliptical aperture magnitude                    [mag]
#   3 X_IMAGE                Object position along x                                    [pixel]
#   4 Y_IMAGE                Object position along y                                    [pixel]
#   5 X_WORLD                Barycenter position along world x axis                     [deg]
#   6 Y_WORLD                Barycenter position along world y axis                     [deg]
#   7 A_WORLD                Profile RMS along major axis (world units)                 [deg]
#   8 B_WORLD                Profile RMS along minor axis (world units)                 [deg]
#   9 THETA_WORLD            Position angle (CCW/world-x)                               [deg]
#  10 FWHM_WORLD             FWHM assuming a gaussian core                              [deg]
#  11 ELONGATION             A_IMAGE/B_IMAGE                                           
#  12 ELLIPTICITY            1 - B_IMAGE/A_IMAGE                                       
         1 -10.3173    111.6672     32.6582   2.9065901745e+02   6.7613992257e+00  0.007224372  0.004853101 -28.53 0.0007051079    1.753    0.430
         2 -12.3616    166.8488    248.1977   2.9130684831e+02   3.9383092000e+00   0.01500671   0.01121604   7.71  0.001393255    1.487    0.327
         3 -11.9346    154.7040    241.1566   2.9140600046e+02   4.0904035990e+00   0.01076287  0.008558742  86.69  0.000902047    1.446    0.308
         4 -11.8954    160.6589    239.6531   2.9132779692e+02   4.0734112072e+00   0.01417649  0.008943882  61.96   0.00132367    2.044    0.511
         5 -11.3983    147.7494    239.5918   2.9147752223e+02   4.1488278226e+00  0.009839976  0.005851446  38.04 0.0009562716    1.673    0.402
         6 -10.3387    114.3309    234.6474   2.9183669235e+02   4.3995382437e+00  0.007172874  0.004942697  63.51 0.0007046633    1.777    0.437
         7 -10.7047    145.0475    233.0290   2.9146977312e+02   4.2407232329e+00   0.01118386   0.00781988  63.42  0.001135615    1.734    0.423
         8 -10.3810    123.3161    233.6654   2.9172631654e+02   4.3590123770e+00  0.007017309  0.004982612  63.58 0.0004022289    1.692    0.409
         9 -11.3212    163.1852    225.6984   2.9121509729e+02   4.2209270382e+00   0.01672972   0.01235298 -51.85  0.001835733    1.326    0.246
        10 -10.4736     84.3322    227.6597   2.9214408121e+02   4.6540530669e+00  0.007130388  0.004945915  62.79 0.0007051516    1.748    0.428
        11 -10.9539    149.1282    223.2736   2.9136407977e+02   4.3304738541e+00   0.01316725  0.008585925  78.29  0.001236082    2.126    0.530
        12 -10.3927    143.6690    216.4814   2.9138701579e+02   4.4409976918e+00   0.01179964  0.006087222 -62.44  0.001069449    1.919    0.479
        13 -10.4891    111.9930    215.8584   2.9175182680e+02   4.6314470160e+00   0.01356433   0.00738631 -70.13  0.001230364    2.024    0.506
        14 -10.1072    186.3443    214.6833   2.9088002476e+02   4.2147569768e+00    0.0070945  0.004928645  60.78 0.0006253252    1.718    0.418
        15 -10.1713     76.3259    213.6536   2.9215380296e+02   4.8631056675e+00  0.007120569   0.00495634  63.51 0.0007050062    1.747    0.428
        16 -10.9649    116.5406    210.3846   2.9166624404e+02   4.6687805248e+00   0.01499652   0.01007819  69.35  0.001467501    1.937    0.484
        17 -10.1936    177.3400    210.6825   2.9096078880e+02   4.3134077405e+00   0.00707543  0.004938167  61.05 0.0003851266    1.709    0.415
        18 -10.5922     99.2354    206.2086   2.9184273056e+02   4.8173495322e+00   0.01061513  0.005653379 -78.52 0.0008829289    2.502    0.600
        19 -11.1513    186.1819    204.4196   2.9082053801e+02   4.3349260459e+00   0.01361905  0.009579105  57.45  0.001411705    1.639    0.390
        20 -11.5762    165.1274    202.2020   2.9105210787e+02   4.4826851092e+00   0.02609311   0.01399202 -73.85   0.00230893    2.226    0.551
        21 -11.7460    162.9989    194.2525   2.9102933634e+02   4.5873778881e+00    0.0211721   0.01352189  69.35  0.001700534    2.148    0.534
        22 -10.7965    149.6979    198.7474   2.9121093828e+02   4.6121813868e+00    0.0135434  0.008162862  85.62  0.001175148    2.496    0.599
        23 -10.6735     88.8163    199.2174   2.9192231251e+02   4.9588150287e+00   0.01192623  0.006464182  62.79 0.0009549413    2.845    0.649
        24 -10.7524    177.6825    198.1583   2.9088191668e+02   4.4569228404e+00   0.01078666  0.008564021  82.52  0.001189546    1.462    0.316
        25 -11.1387    124.4369    197.6499   2.9149831829e+02   4.7711282681e+00   0.01500576   0.01107773  57.68  0.001607993    1.531    0.347
        26 -10.8019    112.8427    197.7444   2.9163382667e+02   4.8370835504e+00   0.01325987  0.008631151  76.63  0.001243805    2.130    0.530
        27 -10.4857     66.3303    194.6565   2.9215694080e+02   5.1416615673e+00  0.007132106  0.004948661  63.08 0.0007050867    1.751    0.429
        28 -10.5795    186.4949    193.5185   2.9075168948e+02   4.4597450785e+00  0.006557362  0.006445691  67.00   7.9518e-05    1.042    0.040
        29 -10.8364    173.2051    191.8140   2.9089604089e+02   4.5565751383e+00   0.01034665  0.008895891  60.68 0.0006702229    1.252    0.201
        30 -10.7890    138.9491    189.1627   2.9127872180e+02   4.7857882044e+00   0.01666038  0.009848026 -78.88   0.00153124    2.103    0.524
        31 -10.6531    129.6775    188.5347   2.9138287303e+02   4.8467461680e+00   0.01170248  0.008272737  83.66  0.001098984    1.791    0.442
        32 -11.0641     86.8988    188.7973   2.9188246537e+02   5.0910249798e+00   0.01328754  0.008628908  76.90  0.001243654    2.140    0.533
        33 -10.1009    192.7001    188.3415   2.9064856186e+02   4.4839023122e+00  0.006951031  0.005011805  65.42 0.0007036337    1.670    0.401
        34 -11.5177     95.0690    186.7315   2.9177499834e+02   5.0678352940e+00   0.01539195  0.009826319 -86.28  0.001389571    2.032    0.508
        35 -10.5430    165.8224    186.7609   2.9095168933e+02   4.6580620282e+00   0.01302846  0.008583261  76.38  0.001235911    2.077    0.519
        36 -10.6280    156.3298    186.8742   2.9106280110e+02   4.7117379863e+00   0.01329748  0.006438691 -73.06  0.001084649    2.551    0.608
        37 -11.2624    120.2873    184.8816   2.9147034636e+02   4.9435315959e+00   0.02358362   0.00945284 -73.69  0.001618698    3.706    0.730
        38 -10.6373    109.2749    185.5622   2.9160261442e+02   4.9993114436e+00   0.01640059  0.009086862  70.01  0.001288669    3.087    0.676
        39 -10.7124    204.3544    184.6972   2.9049125485e+02   4.4586354571e+00  0.007085275  0.004902321  59.36   0.00045755    1.708    0.415
        40  -9.9284    183.3372    184.6607   2.9073540754e+02   4.5809467854e+00  0.007151835  0.004941393  62.55 0.0005286642    1.758    0.431
        41 -10.7743    174.6141    183.7563   2.9083144939e+02   4.6420186167e+00   0.01192431  0.008809893 -77.51  0.001050333    1.489    0.329
        42 -10.5862     74.4807    183.9968   2.9199843941e+02   5.2185462060e+00  0.009575084  0.005745967  82.56 0.0008100546    2.567    0.610
        43 -10.8880     83.4828    182.0016   2.9188168928e+02   5.1897558974e+00   0.01025958  0.006554163 -65.52  0.001022347    1.590    0.371
        44 -11.3696    147.7820    180.1147   2.9112183975e+02   4.8397878662e+00   0.01719364  0.009427905 -77.22  0.001503155    2.311    0.567
        45 -10.4299    138.0079    179.0250   2.9122907574e+02   4.9090447109e+00    0.0110208  0.007859254  65.23  0.001091662    1.699    0.411
        46 -10.2381    192.4910    177.9940   2.9058905350e+02   4.6053029104e+00  0.009284991  0.005727861  81.25 0.0007517144    2.415    0.586
        47 -11.6476     77.5535    176.0526   2.9191524131e+02   5.2931569555e+00   0.02315351  0.008750487  46.06  0.001693784    3.174    0.685
        48 -10.4601    183.0284    176.0048   2.9068719180e+02   4.6832849900e+00   0.01107594  0.007819115  62.86  0.001133388    1.701    0.412
        49 -10.4943     59.3586    176.6777   2.9213092484e+02   5.3909158377e+00  0.007191065  0.004889392  60.41 0.0007044196    1.770    0.435
        50 -10.4059    105.7895    175.2026   2.9158131581e+02   5.1398766512e+00   0.01193463  0.006461116  62.41 0.0009572351    2.831    0.647
        51 -10.1882    149.9977    169.5115   2.9103263396e+02   4.9501570379e+00   0.01399243  0.007478196  69.26  0.001035926    3.444    0.710
        52 -11.1677    121.3828    168.8638   2.9136186483e+02   5.1233521115e+00    0.0187817   0.01151085 -89.47  0.001699262    2.288    0.563
        53 -10.4004    168.1689    168.9957   2.9081809562e+02   4.8508550172e+00    0.0113856  0.007525967  76.17  0.001079528    2.062    0.515
        54 -10.4740     54.6843    169.3460   2.9214164780e+02   5.5031205344e+00  0.007059851  0.004977301  64.22 0.0007047936    1.719    0.418
        55 -10.3560     88.4026    168.2147   2.9174207174e+02   5.3215986714e+00   0.00959438  0.006424511 -79.86 0.0009514023    1.748    0.428
        56 -10.3220    111.7621    167.1840   2.9146384993e+02   5.1985322605e+00   0.01170933  0.006452911  63.49 0.0009497356    2.777    0.640
        57 -11.2506    139.5784    164.9544   2.9112664934e+02   5.0634539947e+00   0.02061858   0.01259155  68.88  0.001848855    2.358    0.576
        58 -10.9537     99.2560    166.1311   2.9160320645e+02   5.2830877266e+00   0.01394951   0.00766471  50.97  0.001250318    2.147    0.534
        59 -11.2796     79.7040    163.8359   2.9181725155e+02   5.4227501703e+00   0.02174399   0.01208091  74.84  0.001685221    3.233    0.691
        60 -10.0404    219.6848    163.3273   2.9018504011e+02   4.6178200543e+00  0.006979276  0.004989552  63.34 0.0004824617    1.673    0.402
        61 -10.8546    205.4844    162.9711   2.9034799228e+02   4.7043909600e+00   0.01031164   0.00650097 -63.19 0.0008086865    1.583    0.368
        62 -10.2132     69.5019    162.9951   2.9193109461e+02   5.4914382667e+00  0.009502151  0.005742648  82.19 0.0008102998    2.525    0.604
        63 -10.6315    177.7680    160.4395   2.9065519069e+02   4.8945927912e+00   0.01601433  0.009434301  89.98  0.001379772    2.527    0.604
        64 -10.3940    151.8790    160.7590   2.9095836557e+02   5.0409495726e+00   0.01336805  0.008621829  77.06  0.001241372    2.178    0.541
        65 -10.2307    128.4878    158.9897   2.9122009132e+02   5.1969758922e+00  0.009438263   0.00574063  81.98 0.0008099069    2.492    0.599
        66 -11.2129    105.4465    157.5825   2.9148001332e+02   5.3466483668e+00   0.01991219    0.0127668  73.62  0.001857482    2.183    0.542
        67 -11.0656    196.9287    157.4974   2.9041468926e+02   4.8176090467e+00   0.01319235   0.00961914 -88.66  0.001381271    1.641    0.391
        68 -10.9386    167.9964    157.4918   2.9075123487e+02   4.9854937480e+00   0.01403685  0.007505234  69.65  0.001035888    3.470    0.712
        69  -9.9682    188.3362    157.6599   2.9051560174e+02   4.8655788578e+00  0.007149546  0.004943641  62.67 0.0005203014    1.758    0.431
        70 -11.2128    119.3541    154.8458   2.9130166828e+02   5.2979939460e+00   0.01886561   0.01160332  88.91   0.00170327    2.310    0.567
        71 -10.9264    205.0038    155.0205   2.9030593962e+02   4.7995056626e+00  0.008237856  0.007832318 -56.95 0.0008238431    1.043    0.041
        72 -11.2470     92.5170    160.0136   2.9164515157e+02   5.3931460008e+00   0.01686274   0.01129169  74.05  0.001584301    1.994    0.499
        73 -11.3322     81.5719    154.2235   2.9173807357e+02   5.5236898390e+00   0.01901082   0.01158932  70.47  0.001691978    2.400    0.583
        74 -10.9982    133.2270    152.6467   2.9112696205e+02   5.2432406980e+00   0.01860503   0.01134956  78.35  0.001632896    2.489    0.598
        75 -11.1835     67.4926    153.1986   2.9189601261e+02   5.6169145639e+00   0.01605481   0.01072964  79.86  0.001551238    2.015    0.504
        76 -10.7760     98.4336    150.2261   2.9151772868e+02   5.4726952988e+00   0.01637426  0.006783166 -67.10  0.001287578    2.653    0.623
        77 -10.7334    189.8699    149.7854   2.9045058371e+02   4.9481331098e+00   0.01329989   0.00865976  78.07  0.001246287    2.136    0.532
        78 -10.9268    200.4331    148.7041   2.9032123728e+02   4.8993841063e+00    0.0127067  0.006676846 -69.23  0.001129911    2.087    0.521
        79 -10.3822    224.6773    147.3248   2.9003107466e+02   4.7746142335e+00  0.007010411  0.004975758  62.66 0.0007047613    1.684    0.406
        80 -11.8463    107.3439    144.8830   2.9138197564e+02   5.4832569510e+00   0.03022833   0.01819897  74.17  0.002635838    2.542    0.607
        81 -10.8604     49.2434    154.5139   2.9211655081e+02   5.7069337985e+00   0.01630919  0.009075304  70.28  0.001289017    3.053    0.672
        82 -11.9874     55.4412    144.3850   2.9198384116e+02   5.7889197094e+00   0.02830311   0.01525482 -86.30  0.002263837    2.952    0.661
        83 -10.7671     38.5026    146.9891   2.9219684527e+02   5.8563434144e+00  0.009638936  0.005751718  82.80 0.0008105269    2.601    0.616
        84 -11.4938    148.9779    144.3601   2.9089397156e+02   5.2482771642e+00   0.02562367   0.01510355  81.24  0.002162493    2.720    0.632
        85 -11.5667    124.6955    142.0962   2.9116318361e+02   5.4152252860e+00   0.02560335   0.01450928 -86.54   0.00216739    2.622    0.619
        86 -11.9193     87.9478    142.6849   2.9159482215e+02   5.6209540620e+00   0.02284772   0.01140917 -73.87  0.001915133    2.481    0.597
        87 -11.7475     68.8213    139.0469   2.9179598971e+02   5.7737303414e+00   0.02184221   0.01025454 -78.12  0.001634295    3.214    0.689
        88 -10.8835    197.8302    136.8268   2.9028031441e+02   5.0524097167e+00   0.02001154  0.009103721 -69.60  0.001631525    2.536    0.606
        89 -10.7459    179.4815    133.4872   2.9047377735e+02   5.1976867743e+00   0.01203007  0.006636077 -78.64  0.001035889    2.363    0.577
        90 -10.8943    112.6176    133.0054   2.9124947655e+02   5.5907595252e+00   0.01540932   0.01066821  66.68  0.001554029    1.805    0.446
        91 -12.3612     83.2963    129.1671   2.9156820819e+02   5.8049287729e+00   0.04062421   0.01380119 -66.61   0.00286637    3.348    0.701
        92 -10.8532    142.9982    131.0498   2.9088389090e+02   5.4375486692e+00   0.01832207  0.009397685 -69.52  0.001615027    2.161    0.537
        93 -11.4420    131.8294    130.2866   2.9100939907e+02   5.5111191361e+00   0.02418341   0.01302379 -79.54  0.002050958    2.519    0.603
        94 -10.8673    204.8404    130.0430   2.9015809360e+02   5.0904665280e+00   0.01136332  0.007549028  74.10  0.001084466    2.031    0.508
        95 -10.4180    192.9962    130.0014   2.9029562518e+02   5.1597250617e+00  0.008323783  0.007822833 -58.19  0.001015875    1.055    0.052
        96 -10.8093    152.9147    128.6135   2.9075382292e+02   5.4083730158e+00   0.01809086  0.009821008 -84.88  0.001468154    2.816    0.645
        97 -12.5666     98.5635    126.0395   2.9137155836e+02   5.7530035126e+00    0.0380963   0.01865454 -75.19  0.003108707    2.665    0.625
        98 -10.2467    212.3123    129.6471   2.9006881734e+02   5.0516638479e+00  0.007066642  0.004986234  64.99 0.0007045115    1.728    0.421
        99 -10.5717    168.5000    129.5096   2.9057774859e+02   5.3075881245e+00  0.006538366  0.006468135  70.98 6.778438e-05    1.032    0.031
       100 -11.1875     72.7426    128.3458   2.9168631976e+02   5.8754486843e+00   0.01761148  0.009493381 -71.66  0.001581454    2.110    0.526
       101 -11.5927    117.7178    124.6614   2.9114011099e+02   5.6581814076e+00   0.02355256   0.01496056  77.81  0.002170336    2.256    0.557
       102 -10.6794    179.7125    124.3634   2.9041639441e+02   5.3022954923e+00   0.01234964  0.008504419 -79.36  0.001100136    1.672    0.402
       103 -11.6243     42.4017    120.4730   2.9199304796e+02   6.1420602417e+00   0.03356281    0.0149648 -80.30  0.002235656    4.161    0.760
       104 -11.2511     28.0161    122.1910   2.9217109281e+02   6.2050237689e+00   0.01811501  0.009031224  85.03  0.001097803    5.237    0.809
       105 -10.4239    158.4154    121.2103   2.9064541190e+02   5.4624621803e+00  0.009550332   0.00644889 -80.12 0.0009514489    1.734    0.423
       106 -10.1292    172.3230    120.6580   2.9048018799e+02   5.3882021451e+00   0.00708423  0.004970709  63.60 0.0005056678    1.728    0.421
       107 -11.5006    141.4409    117.9360   2.9082346854e+02   5.5988968064e+00   0.02542024   0.01268427 -78.30  0.002026926    2.840    0.648
       108 -11.3084     70.7800    119.0991   2.9165391145e+02   5.9942357359e+00   0.01730819  0.009417871 -76.95  0.001508179    2.324    0.570
       109 -11.0394    130.6283    117.9818   2.9094969685e+02   5.6610137555e+00   0.02066595   0.01223956  83.82  0.001759829    2.650    0.623
       110 -11.9967    108.7389    112.3180   2.9117083596e+02   5.8535481950e+00   0.03447204   0.01618824 -74.23  0.002743124    2.784    0.641
       111 -10.7509    193.2266    114.9783   2.9020284221e+02   5.3328071663e+00  0.009179775  0.005443062 -63.03 0.0008839356    1.682    0.406
       112 -10.3711    185.7727    115.0410   2.9028995934e+02   5.3753604947e+00   0.00917321  0.005464926 -63.57  0.000884451    1.682    0.405
       113 -11.8784     78.3925    110.9215   2.9151623597e+02   6.0452711508e+00    0.0348749   0.01580346 -77.66  0.002531742    3.439    0.709
       114 -11.3215    122.0818    111.3861   2.9100976237e+02   5.7871269169e+00   0.01860309   0.01022631 -63.52  0.001753017    1.823    0.452
       115 -11.7672     58.4435    122.4537   2.9181781082e+02   6.0264864298e+00    0.0296702   0.01440889 -85.31   0.00204164    4.000    0.750
       116 -10.3546    159.3289    111.6705   2.9057758924e+02   5.5679499387e+00  0.007064857  0.004962081  62.49 0.0006603278    1.711    0.416
       117 -11.3809     65.9137    109.1280   2.9165102131e+02   6.1381995123e+00   0.02150759  0.009810764 -72.95  0.001693227    2.795    0.642
       118 -12.0776     13.9104    110.0491   2.9226314306e+02   6.4273842589e+00   0.01696487   0.01191195  82.01  0.001717636    1.820    0.450
       119 -12.1408     92.2631    110.0295   2.9134918311e+02   5.9754494420e+00   0.03977291   0.01347402 -66.26  0.002818616    3.311    0.698
       120 -11.0684    139.8217    103.7217   2.9075714341e+02   5.7733637589e+00   0.02006881   0.01000477 -72.96  0.001690525    2.435    0.589
       121 -11.2862    150.0762    101.8104   2.9062622917e+02   5.7361074779e+00   0.02367477  0.009863927 -75.30  0.001625697    3.754    0.734
       122 -11.9017     22.3367    102.2842   2.9211844565e+02   6.4690823904e+00     0.025477   0.01299845  70.28  0.001721153    4.270    0.766
       123 -11.7741     44.4945    101.4824   2.9185513159e+02   6.3506619160e+00   0.02379538   0.01223345  68.61  0.001668684    3.935    0.746
       124 -11.4768    128.4626    100.8870   2.9087250170e+02   5.8721093027e+00   0.01986613   0.01214145 -67.74  0.001958309    1.709    0.415
       125 -12.3574    108.4445     97.0854   2.9108303109e+02   6.0321850159e+00   0.03550962   0.02235874 -88.20  0.003328568    2.136    0.532
       126 -11.5566     81.6610     98.4120   2.9140325559e+02   6.1717067347e+00   0.02419086   0.01065721 -68.54  0.001959435    2.561    0.609
       127 -11.6432     94.9669     94.7593   2.9122622652e+02   6.1371922657e+00    0.0282343   0.01176913 -55.96  0.002379657    2.236    0.553
       128 -11.8338     62.9663     94.3777   2.9159714940e+02   6.3265850441e+00   0.03247771   0.01419997 -74.68  0.002401893    3.239    0.691
       129 -11.9240    230.5062     92.4932   2.8963421297e+02   5.3770817691e+00   0.01573641  0.002711469 -48.57  0.000810635    5.810    0.828
       130 -11.1589    138.7764     90.8664   2.9069224645e+02   5.9286981564e+00   0.01944536  0.009172915 -70.09  0.001617154    2.445    0.591
       131 -11.8972    124.6009     88.4288   2.9084282721e+02   6.0391529107e+00   0.03165967   0.01278761 -57.82  0.002627227    2.314    0.568
       132 -11.2685     34.1161     88.0788   2.9189607666e+02   6.5662349551e+00   0.02369533  0.009264508 -73.90  0.001572604    3.976    0.748
       133 -12.1075     86.3331     84.3831   2.9126475745e+02   6.3076393168e+00   0.03182181   0.01319606 -63.37  0.002609875    2.422    0.587
       134 -12.1511    104.3809     81.0035   2.9103403791e+02   6.2424679333e+00   0.03106606   0.01337155 -64.55  0.002575692    2.387    0.581
       135 -10.9680     47.8394     84.0171   2.9171163677e+02   6.5342586696e+00   0.01152779  0.007549135  73.37  0.001087641    2.085    0.520
       136 -11.3595    140.7146     82.1598   2.9061744116e+02   6.0185458307e+00   0.01598027  0.005458221 -59.94  0.001209123    2.742    0.635
       137 -10.9417    119.1594     78.9903   2.9084966421e+02   6.1802672215e+00   0.01678399  0.009614319 -63.02   0.00161541    1.741    0.426
       138 -10.7353     74.1176     78.9118   2.9137447284e+02   6.4417989312e+00   0.02100606  0.007841871 -70.31  0.001460116    3.510    0.715
       139 -11.4418    128.0879     73.0001   2.9070965449e+02   6.1980765623e+00   0.02608385   0.01023777 -58.24  0.002132254    2.380    0.580
       140 -10.6174    140.4689     74.0109   2.9057141413e+02   6.1145657720e+00    0.0105618  0.006456651 -62.17  0.001041253    1.621    0.383
       141 -10.5603    115.5738     71.2266   2.9084490829e+02   6.2911721311e+00   0.01684384  0.006008748 -59.92  0.001302181    2.636    0.621
       142 -11.7934     62.5397     69.2823   2.9145188407e+02   6.6205162125e+00   0.02932184  0.005017779 -60.06  0.001697771    4.738    0.789
       143 -11.2592    105.5276     69.7849   2.9095340946e+02   6.3660867752e+00    0.0201869  0.006143278 -61.13  0.001443107    3.110    0.678
       144 -11.6123     94.6852     68.4412   2.9107180814e+02   6.4444413999e+00   0.03084035  0.009037217 -66.09  0.001988464    3.981    0.749
       145 -10.9514     50.8739     68.6424   2.9158419640e+02   6.6953066661e+00   0.02030183  0.009516433 -86.04  0.001253781    4.933    0.797
       146 -11.7504     82.0439     69.5794   2.9122609277e+02   6.5043478924e+00   0.03516549   0.01047482 -60.12  0.002529529    3.096    0.677
       147 -10.6020    138.4984     65.0123   2.9054037775e+02   6.2304395156e+00   0.01052552  0.006473634 -62.30  0.001040661    1.613    0.380
       148 -10.9958    121.4932     64.0056   2.9073257470e+02   6.3407010298e+00   0.01805814  0.006392041 -62.13  0.001371488    2.766    0.638
       149 -11.2136    100.1545     56.6279   2.9093717184e+02   6.5499239428e+00   0.03090831    0.0092542 -59.18  0.002241045    3.033    0.670
       150 -11.3946     73.0218     56.5744   2.9125341935e+02   6.7074946243e+00   0.03405689  0.009182771 -61.70  0.002302054    3.528    0.717
       151 -11.0981    110.0303     61.7538   2.9085273282e+02   6.4332433616e+00    0.0217536  0.008935381 -57.68  0.001814172    2.278    0.561
       152 -10.8346    118.5962     54.2819   2.9070800783e+02   6.4703461275e+00   0.01327839   0.00663473 -68.77  0.001149902    2.201    0.546
       153 -10.5731    105.5451     51.2182   2.9084183782e+02   6.5815016579e+00   0.01687074  0.006001399 -59.60  0.001305062    2.632    0.620
       154 -11.5389     92.0700     47.6779   2.9097780148e+02   6.7005943788e+00   0.02902304   0.01028554 -64.06   0.00217698    2.904    0.656
       155 -10.9670     82.2454     43.5434   2.9106764317e+02   6.8054167365e+00   0.02990864  0.007074697 -50.09  0.001914921    3.907    0.744
       156 -10.6814    112.6914     44.1829   2.9071626061e+02   6.6217512816e+00   0.01764835  0.005576832 -46.29  0.001213029    3.414    0.707
       157 -10.5043    122.5045     42.5067   2.9059174645e+02   6.5843349377e+00   0.01298944   0.00507023 -50.89  0.001037627    2.442    0.591
       158 -10.9604    105.6733     39.4667   2.9076981841e+02   6.7171274584e+00   0.01258363  0.006035659 -62.03  0.001103446    2.055    0.513
       159 -10.9662     95.3204     36.1433   2.9087066380e+02   6.8156325276e+00   0.01425993  0.004935596 -54.80   0.00109568    2.625    0.619
