#   1 NUMBER                 Running object number                                     
#   2 MAG_AUTO               Kron-like elliptical aperture magnitude                    [mag]
#   3 X_IMAGE                Object position along x                                    [pixel]
#   4 Y_IMAGE                Object position along y                                    [pixel]
#   5 X_WORLD                Barycenter position along world x axis                     [deg]
#   6 Y_WORLD                Barycenter position along world y axis                     [deg]
#   7 A_WORLD                Profile RMS along major axis (world units)                 [deg]
#   8 B_WORLD                Profile RMS along minor axis (world units)                 [deg]
#   9 THETA_WORLD            Position angle (CCW/world-x)                               [deg]
#  10 FWHM_WORLD             FWHM assuming a gaussian core                              [deg]
#  11 ELONGATION             A_IMAGE/B_IMAGE                                           
#  12 ELLIPTICITY            1 - B_IMAGE/A_IMAGE                                       
         1 -14.3280    199.8987     17.0368   6.5495228987e+01   3.2798208130e+01     2.787938     1.528995  25.86   0.01185964    2.670    0.626
         2 -12.0575      2.0755     25.9255   1.3478516072e+02   7.1490711557e+01     1.250327    0.1567086 -69.90  0.002977424    8.216    0.878
         3 -13.5312      4.6556      8.2020   1.2664872509e+02   7.5259764336e+01     1.659719    0.9814944 -42.48  0.009783735    1.320    0.243
         4 -10.3870    144.7938    243.9516   1.2584327608e+02   9.0110368100e+00     0.157228    0.1176702  63.65  0.001082705    1.986    0.497
         5 -10.6849    248.7228    249.9211   1.0893633784e+02  -4.1639357358e+00    0.2562946    0.1193237  22.78  0.001725474    1.583    0.368
         6 -11.3248    138.4718    250.0098   1.2763891392e+02   9.0302590641e+00    0.2631291    0.1665862  29.06  0.001421649    1.194    0.163
         7 -12.6810    126.9388    245.1032   1.2926940275e+02   1.1102117099e+01    0.5361898    0.2721239  43.52  0.003297269    1.674    0.402
         8 -11.3431    106.0259    246.9530   1.3332918122e+02   1.3396666481e+01    0.2231341     0.164522 -50.61  0.001106733    1.791    0.442
         9 -12.4558     99.1118    248.7014   1.3475480901e+02   1.3967347734e+01    0.5706719    0.1932373  39.48  0.003064004    2.094    0.522
        10 -11.9799     80.8254    248.2618   1.3809236192e+02   1.6119112985e+01    0.3999375    0.2205895  51.14  0.002705747    1.553    0.356
        11 -11.6966     41.2936    206.4874   1.4308338459e+02   2.7224245743e+01    0.5957217    0.2705002 -60.55 0.0003118308    2.508    0.601
        12 -14.6659     32.2396    247.4993   1.4681183471e+02   2.1197661476e+01     10.19406     3.027292  21.58   0.03017747   10.344    0.903
        13  -9.6317    229.6271    230.2230   1.0912941641e+02  -1.6364963256e-01    0.1395401   0.08235301 -11.73 0.0004522304    1.579    0.367
        14 -15.7979      6.8470    215.2482   1.5031967918e+02   2.8696045602e+01     7.963118     1.475177 -78.51   0.02931824    4.956    0.798
        15 -10.7487     69.0055    234.8080   1.3938421486e+02   1.9472282184e+01    0.2453315     0.190651  51.50  0.001437759    1.076    0.070
        16  -9.1868     94.2384    216.5505   1.3287685598e+02   1.9489919731e+01    0.2237166    0.1200025  61.92  0.001015616    2.412    0.585
        17  -8.7857    152.5376    213.0537   1.2060364266e+02   1.2202046465e+01    0.1436772    0.1173681 -35.20 0.0002896688    1.454    0.312
        18 -11.1781     31.7539    206.9166   1.4507308285e+02   2.8057496692e+01    0.3478414    0.1234581  47.52 0.0009901075    2.146    0.534
        19 -11.4134     26.0664    203.6750   1.4607588808e+02   2.9172837124e+01    0.4956636    0.1934214  36.04  0.001793243    2.015    0.504
        20 -10.5831    193.3693    195.7262   1.1006512806e+02   8.7108962731e+00    0.5880508    0.3029567 -55.64  0.002058789    6.462    0.845
        21 -11.5620     67.6897    196.0179   1.3663609777e+02   2.6356280128e+01    0.3224133    0.2280925 -40.69  0.001169741    1.884    0.469
        22 -11.6262     72.8815    188.6009   1.3476959071e+02   2.7166317757e+01    0.2620223    0.2170508 -41.17  0.000745844    1.493    0.330
        23  -9.2547    120.2999    188.2858   1.2397416582e+02   2.0858741774e+01    0.2319312     0.138875  22.96  0.001196243    1.752    0.429
        24  -9.1926    125.1862    186.3197   1.2260858369e+02   2.0488534765e+01    0.2719806    0.1079879  28.54  0.001088197    2.713    0.631
        25 -10.9759     81.7964    176.3772   1.3135250540e+02   2.8476470992e+01    0.2158813    0.2054833  57.62  0.000342366    1.076    0.071
        26 -13.2073     69.3009    173.9634   1.3409340717e+02   3.0533473061e+01    0.4676698    0.2666135 -41.46  0.001814847    2.360    0.576
        27 -12.3421     57.6960    131.2182   1.3187946408e+02   4.1430156446e+01     1.404408    0.5253064 -81.20  0.004039862    5.460    0.817
        28 -12.2771     87.1081    166.1825   1.2876685581e+02   2.9861083605e+01     1.759468    0.6374204  51.37   0.00624238    3.638    0.725
        29 -12.6631     67.2965    144.3639   1.3098770259e+02   3.7218680068e+01    0.7879885    0.5234425  71.84  0.004062526    1.743    0.426
        30 -12.5450     32.7666    155.9642   1.4151537077e+02   3.8299869020e+01    0.7213018    0.2109946 -72.36  0.002949397    3.111    0.679
        31  -9.8824    100.6717    151.2613   1.2307912675e+02   3.1049006190e+01    0.2846833    0.2516282 -36.19 0.0007928956    1.226    0.185
        32  -9.2571    103.3059    147.1530   1.2169483659e+02   3.1518263671e+01     0.209746    0.1816366 -11.98 0.0006310806    1.313    0.239
        33 -11.9584     89.5340    150.5436   1.2588105687e+02   3.2851017421e+01       0.2673    0.2385456 -21.73  0.001599634    1.279    0.218
        34  -9.0093    134.3784    148.2318   1.1405054363e+02   2.6144151952e+01    0.1872393    0.1351051 -57.81 0.0007069513    1.649    0.393
        35 -13.6871     44.5509    229.4835   1.4373442421e+02   2.2890164097e+01    0.9365962    0.3015856  36.88  0.001838414    2.192    0.544
        36  -9.8493    111.2637    136.5484   1.1762757400e+02   3.2501293130e+01    0.3313287    0.2262071 -21.55  0.001214672    1.971    0.493
        37 -10.4657     98.8120    133.8007   1.2047882897e+02   3.5135577401e+01    0.2609785    0.2165594 -17.27 0.0006856564    1.405    0.288
        38  -8.7371    192.1840    144.1902   1.0052641104e+02   1.6457872063e+01    0.1656653     0.156658 -23.71 0.0003689145    1.279    0.218
        39 -11.0825     50.2508    130.1446   1.3393660487e+02   4.2521184839e+01    0.2596743    0.2271654  30.84  0.000607481    1.224    0.183
        40  -9.5625    107.9860    123.5651   1.1584823023e+02   3.5880637729e+01    0.1953698    0.1913077 -14.25 0.0003080319    1.021    0.020
        41 -14.7913     49.6150    219.8916   1.4220416163e+02   2.4001283008e+01     1.890594     1.517517  36.49  0.009811176    1.201    0.167
        42 -11.1092    168.1701    113.2948   9.8308773997e+01   2.6279982731e+01    0.3259344    0.3000596 -59.50  0.000713516    1.321    0.243
        43 -10.9095     53.0649    110.5113   1.3009446091e+02   4.6950743321e+01    0.2906775    0.1981277 -66.70  0.001052612    1.370    0.270
        44 -11.0601     44.2697    109.7694   1.3288217485e+02   4.8081694450e+01    0.2980389    0.2227741  64.87  0.001651386    1.426    0.299
        45  -8.9049    156.2966     76.6337   9.0787083306e+01   3.5363782258e+01    0.1561963     0.118937 -64.27  0.000703107    1.723    0.420
        46 -11.2447     75.5468    242.5180   1.3867412945e+02   1.7558468421e+01    0.2520262     0.144987  57.53 0.0009453752    1.659    0.397
        47 -11.8258    120.2766    239.0079   1.2992033807e+02   1.2771892125e+01    0.2758469    0.2198563 -84.63   0.00204194    1.792    0.442
