#   1 NUMBER                 Running object number                                     
#   2 MAG_AUTO               Kron-like elliptical aperture magnitude                    [mag]
#   3 X_IMAGE                Object position along x                                    [pixel]
#   4 Y_IMAGE                Object position along y                                    [pixel]
#   5 X_WORLD                Barycenter position along world x axis                     [deg]
#   6 Y_WORLD                Barycenter position along world y axis                     [deg]
#   7 A_WORLD                Profile RMS along major axis (world units)                 [deg]
#   8 B_WORLD                Profile RMS along minor axis (world units)                 [deg]
#   9 THETA_WORLD            Position angle (CCW/world-x)                               [deg]
#  10 FWHM_WORLD             FWHM assuming a gaussian core                              [deg]
#  11 ELONGATION             A_IMAGE/B_IMAGE                                           
#  12 ELLIPTICITY            1 - B_IMAGE/A_IMAGE                                       
         1 -13.7655    237.3130     15.8433   3.2519427459e+01   2.5339698431e+01    0.7527198    0.6625958 -61.86  0.002683637    1.189    0.159
         2 -14.2245    219.1645     32.2793   3.7631431331e+01   2.7236795994e+01     1.435777     1.066829  31.92  0.008150375    2.040    0.510
         3 -11.4352      2.2388      5.6566   8.7099169538e+01   7.3859214354e+01    0.6880195   0.09601305 -44.28  0.002422763    5.330    0.812
         4  -9.9604     12.6800      8.3420   8.2219665263e+01   7.2536680539e+01   0.09362656   0.09026546  -6.60  0.000704986    1.720    0.419
         5 -10.1589     17.6616      4.3286   7.7298929079e+01   7.2539206849e+01   0.09426603   0.09025031   4.39 0.0007051835    1.733    0.423
         6  -9.7883     58.4867      2.5128   5.7901107123e+01   6.6605863737e+01    0.1220377   0.09755872  23.51 0.0002769133    1.011    0.011
         7 -11.8756     61.1740    172.9540   1.0676012832e+02   3.1218992056e+01    0.3322944     0.270925 -39.66 0.0004658159    1.435    0.303
         8 -15.0948     95.9092    226.3727   1.0539257972e+02   1.4165678495e+01       6.2779    0.8004913  40.03   0.01241546    5.125    0.805
         9 -15.3760     55.3555    246.8935   1.1577126768e+02   1.5585210884e+01     6.181692     1.292515  31.27   0.01153531    6.376    0.843
        10 -16.0980     31.7960    187.7717   1.1571172395e+02   3.1067950628e+01     8.881834     3.422795  84.15   0.02965168    4.369    0.771
        11 -10.6375    100.4354    171.2732   9.6267735192e+01   2.5805305615e+01    0.3613835    0.1649093  48.60  0.001357694    2.393    0.582
        12  -9.1404    146.3400    171.7207   8.4849125796e+01   1.7476958299e+01    0.1497484    0.1188398  72.14 0.0005270933    1.622    0.384
        13 -12.9291     57.1204    129.4945   1.0087033704e+02   4.2675165432e+01      2.71227    0.8563033 -71.59  0.005550657    8.788    0.886
        14 -13.6146     68.3180    144.2740   1.0025615114e+02   3.7450980127e+01     2.175568      1.14922  74.49  0.002817333    4.091    0.756
        15 -11.5051     71.9150    163.3263   1.0248932983e+02   3.2151278102e+01    0.3028199    0.2682091 -64.61 0.0003622162    1.087    0.080
        16 -13.1435     25.2139    205.5215   1.1869181990e+02   2.7675067797e+01    0.5168735    0.3821191 -54.07 0.0009948108    1.612    0.380
        17 -12.4003     33.9789    158.0131   1.1196849084e+02   3.8075528254e+01    0.7057207    0.3630429  70.77  0.002153547    2.496    0.599
        18  -8.7720    174.7095    149.3208   7.3456880943e+01   1.6741406287e+01    0.1481955    0.1222599 -80.50 0.0003753951    1.605    0.377
        19  -8.7972    151.2921    150.7017   7.9167363449e+01   2.1176122175e+01    0.1503645    0.1243963  88.08 0.0002556056    1.563    0.360
        20  -9.8243    133.4440    142.6129   8.1771184819e+01   2.6597542823e+01    0.4865287    0.1504851 -56.31  0.001148643    5.380    0.814
        21 -10.5217     95.9058    141.8969   9.1828976006e+01   3.3773033398e+01    0.5773752    0.3615943 -15.05  0.002106482    2.946    0.661
        22 -12.2078     82.8609    141.2415   9.5446673328e+01   3.6068612490e+01    0.3195961    0.2649626 -49.51 0.0004669771    1.165    0.142
        23 -14.3401      7.6584    245.9759   1.2454168626e+02   2.1037699586e+01     1.447943     1.117749  58.42   0.01118096    1.167    0.143
        24  -9.4668    197.9433    139.7611   6.6428781756e+01   1.3993462884e+01    0.2858281    0.1859038 -63.06  0.001209983    2.172    0.540
        25 -13.3294     58.4058    159.4476   1.0555585111e+02   3.4935310636e+01    0.5401815    0.3134861 -43.13  0.001654109    1.973    0.493
        26  -8.9366    131.4478    137.4459   8.1084101560e+01   2.8195749562e+01     0.156007    0.1504838 -82.10 5.834124e-05    1.089    0.081
        27 -10.6399    106.8658    131.3419   8.6353462995e+01   3.4408852271e+01    0.3637322    0.3188941  24.60  0.001141726    1.216    0.178
        28 -11.8516     67.7615    128.8700   9.7460246406e+01   4.1418232121e+01    0.6839064    0.4174726  74.86    0.0026873    2.698    0.629
        29 -13.5682     11.3317    232.6041   1.2320727920e+02   2.3306861230e+01     0.934446    0.5498493  78.25  0.003108169    1.410    0.291
        30  -9.1745    114.5015    125.4788   8.2784321048e+01   3.4359914714e+01    0.1573787    0.1493444 -23.93 0.0008094998    1.064    0.060
        31 -10.8111     94.4152    127.6581   8.9111544115e+01   3.7536631688e+01    0.2797256    0.2434165 -25.94 0.0004310106    1.225    0.184
        32  -9.8813    109.8252    201.7858   9.8923024756e+01   1.7223410674e+01    0.1954443     0.157586  71.69 0.0004726678    1.349    0.259
        33  -9.5603    105.1581    119.8595   8.4063806409e+01   3.7476281014e+01    0.2146298    0.2031287 -69.89 0.0002597146    1.098    0.089
        34  -9.0795    167.8326    112.9722   6.6153388011e+01   2.5755994367e+01    0.2629524    0.1752712 -65.70  0.001076913    2.019    0.505
        35  -9.9421    205.1211    110.5954   5.8223758286e+01   1.8063133071e+01    0.3305681    0.2409117  35.96  0.001300567    1.602    0.376
        36  -9.7680    209.5170    199.4909   7.6677157746e+01   8.5303364974e-01    0.2257445    0.1225661 -49.17  0.001025808    2.270    0.559
        37 -12.4559     79.3325    156.9985   9.9404567573e+01   3.2654767044e+01    0.9222367    0.7487739  84.25  0.001245583    1.317    0.241
        38 -10.5955     52.3851     90.4306   9.3755799767e+01   5.2786769999e+01    0.3487535    0.3010177  69.59  0.001974368    1.475    0.322
        39  -9.8509     41.5193     92.4160   9.8228328482e+01   5.3579877176e+01    0.2135101    0.1846993 -41.36 0.0004387194    1.022    0.022
        40 -10.2909     44.4685     90.4885   9.6674054570e+01   5.3708059983e+01    0.2532236    0.2230269 -73.17   0.00069234    1.262    0.207
        41  -9.7550    161.9853     83.0052   5.9349000243e+01   3.2888336305e+01    0.1841413    0.1794752 -60.26 0.0004580893    1.007    0.007
        42  -9.6536     57.4939     76.4897   8.7941042497e+01   5.5224934598e+01    0.2344263    0.1235542  42.59 0.0008518869    2.247    0.555
        43 -10.6284     13.4666     60.2186   1.0134465873e+02   6.3211759366e+01    0.2256598    0.1825054 -37.83  0.000416276    1.026    0.025
        44 -12.2967    200.4385     49.0776   4.3776630568e+01   2.9231273190e+01    0.6730488    0.4836544 -77.45  0.003633117    1.448    0.309
        45  -8.9946     27.5124     52.0689   9.2600595067e+01   6.3730261546e+01    0.1751459    0.1093712 -48.31 0.0003454871    1.433    0.302
        46 -10.5801    192.1427    193.2986   7.8962165388e+01   4.8080562360e+00    0.5698869    0.3199441 -65.40  0.001806411    5.182    0.807
        47 -15.0480      9.1932    207.7706   1.2219087445e+02   2.8725646242e+01     2.371391     1.289916  89.12  0.006694706    1.575    0.365
        48 -12.4220    208.0230     40.4783   4.0740803818e+01   2.8665606843e+01    0.4908993    0.3749761  56.49  0.001587079    1.428    0.300
        49  -9.2898     57.0512    194.0288   1.1042059213e+02   2.6680283410e+01    0.2163339    0.1369627  68.30 0.0005485802    1.639    0.390
        50 -10.6995    128.9869     36.5757   5.2211690415e+01   4.8000739409e+01    0.3816797    0.2501484 -66.18  0.001208668    2.170    0.539
        51  -9.9351      6.6511     25.6871   9.3459070093e+01   7.0335887223e+01    0.1264002   0.06632028 -23.80  0.000704633    1.720    0.418
        52 -10.7260    189.7346     15.0213   3.6567470598e+01   3.5894039546e+01    0.2267372    0.1696511  80.16 0.0008949221    1.189    0.159
        53 -12.5157    162.1143    225.8824   9.1013835016e+01   3.8852225542e+00    0.5642788    0.2846976  26.72  0.002536918    2.076    0.518
        54 -11.8847     55.1328    178.6138   1.0904569229e+02   3.0601812107e+01    0.4261481    0.2874934 -36.49  0.001191735    1.966    0.491
        55 -11.1353    183.3763    215.8086   8.4900161282e+01   2.2406657646e+00    0.2752893    0.2087554  57.70  0.001482873    1.830    0.454
