#   1 NUMBER                 Running object number                                     
#   2 MAG_AUTO               Kron-like elliptical aperture magnitude                    [mag]
#   3 X_IMAGE                Object position along x                                    [pixel]
#   4 Y_IMAGE                Object position along y                                    [pixel]
#   5 X_WORLD                Barycenter position along world x axis                     [deg]
#   6 Y_WORLD                Barycenter position along world y axis                     [deg]
#   7 A_WORLD                Profile RMS along major axis (world units)                 [deg]
#   8 B_WORLD                Profile RMS along minor axis (world units)                 [deg]
#   9 THETA_WORLD            Position angle (CCW/world-x)                               [deg]
#  10 FWHM_WORLD             FWHM assuming a gaussian core                              [deg]
#  11 ELONGATION             A_IMAGE/B_IMAGE                                           
#  12 ELLIPTICITY            1 - B_IMAGE/A_IMAGE                                       
         1 -10.9953     34.0188     62.1588   9.8460115679e+01   6.0724036760e+01     2.594527    0.8427812 -32.23  0.007427734    5.858    0.829
         2 -10.5043     16.3545     67.2024   1.0700512216e+02   6.1034956166e+01     1.520566    0.2273718 -60.71  0.003851207    4.408    0.773
         3 -11.1154     23.8692     32.0845   9.2953700929e+01   6.7524679525e+01     1.421181    0.4021758 -39.06  0.003928233    3.037    0.671
         4 -10.5681      6.9232     30.2629   1.0081096152e+02   6.9133486551e+01    0.6834393    0.2485878 -45.42  0.002113783    1.969    0.492
         5 -10.5199     91.4871     37.6235   6.7685266085e+01   5.6584201221e+01    0.9263402    0.3709796  33.38  0.003283781    3.205    0.688
         6 -10.9354    134.0268     30.9981   5.4045418658e+01   4.7930952538e+01    0.3718832    0.2777134   1.54  0.001926156    1.579    0.366
         7 -10.0447     73.4043     15.9868   6.4569070819e+01   6.2899097578e+01     1.232406    0.2236494 -31.39  0.003857329    5.126    0.805
         8  -9.3759     78.2466      4.0283   5.7544500420e+01   6.3184033436e+01    0.4595998      0.27876   5.77   0.00149314    1.787    0.440
         9 -10.1479     69.4387     40.6927   7.6567845298e+01   6.0169417182e+01    0.9786313    0.3822452 -37.88    0.0037297    2.466    0.595
        10 -10.0968     35.9053     37.9885   8.9530569060e+01   6.5268193460e+01    0.4770405    0.1991806 -36.27 0.0003689579    2.152    0.535
        11  -9.6808     60.8770     31.5643   7.6133762668e+01   6.2990097013e+01    0.9268566    0.3595922 -28.46   0.00350198    2.928    0.659
        12 -10.3397     62.7768      3.1768   6.2278384119e+01   6.6200251675e+01    0.6357449    0.4384951 -19.21  0.003936313    1.455    0.313
        13  -9.6616     63.2029     21.3542   7.0733487536e+01   6.4055736999e+01     0.429717    0.2937467 -49.65  0.002243386    2.203    0.546
        14  -9.7679     64.6015     13.3465   6.6506981825e+01   6.4800891966e+01    0.3394782    0.2636291  -8.83  0.000400456    1.191    0.160
        15 -10.0199     46.2842     29.6704   8.1462067875e+01   6.5414642479e+01      0.44366    0.2577678 -48.17  0.001175355    2.109    0.526
        16  -8.9770     47.1624     19.7033   7.6612113974e+01   6.6782117899e+01     0.511654    0.2491775 -12.91  0.002161984    3.040    0.671
        17  -9.8666     53.0173     13.5448   7.1167010674e+01   6.6712806998e+01    0.4854204    0.3042895  26.01  0.002021282    1.452    0.311
        18  -9.3162    102.5778     21.7815   5.8149017087e+01   5.6290644640e+01    0.4587867    0.2914245 -18.85  0.002216939    1.681    0.405
        19 -10.6499     37.3799      9.4173   7.6095768347e+01   6.9518573729e+01     0.843989    0.3496033 -36.67  0.001641106    2.384    0.580
        20  -9.7424     30.1373     10.7619   8.0340561682e+01   7.0259176180e+01    0.5666314    0.4064471 -54.89  0.003278394    2.597    0.615
        21  -9.5165     24.1826     11.3603   8.3721120803e+01   7.0851369689e+01    0.3589736    0.2427579   0.78  0.001471054    1.297    0.229
        22 -10.1838     18.3981      5.3937   8.3845111135e+01   7.2303721860e+01    0.6450474    0.3697668 -43.56  0.003256484    1.987    0.497
        23  -9.5158      2.4606     14.6637   9.7333318463e+01   7.2172461381e+01     0.449733    0.2227822 -61.96  0.002245513    3.017    0.669
        24 -10.4499      5.7142      4.8037   9.0930356822e+01   7.3524915171e+01    0.4912559    0.3229809 -13.62  0.001582271    1.211    0.174
        25  -9.8175     10.3461     18.8302   9.4639256913e+01   7.0934299209e+01    0.6919755    0.2696473 -16.40  0.002620636    4.579    0.782
        26  -8.6655    129.7448     18.7927   5.0692813065e+01   5.0338105831e+01    0.5359812     0.214972 -32.36  0.002220491    2.590    0.614
        27  -8.7294     96.3302     13.0054   5.6272460500e+01   5.8581474114e+01    0.3956827     0.218171  10.07    0.0015977    2.409    0.585
        28  -7.6602     80.4014     12.6388   6.0757825537e+01   6.1918526431e+01    0.2218879    0.1060459 -37.21  0.001026185    2.447    0.591
        29  -9.5741     85.2458     13.0709   5.9453756384e+01   6.0900640628e+01    0.4383429    0.2760077 -49.66   0.00164037    2.401    0.584
        30  -8.4211     84.8112      6.8038   5.6838777582e+01   6.1602569508e+01    0.4888406    0.2526431   6.84  0.002197244    2.596    0.615
        31  -9.2346    133.4445     11.2526   4.7358782008e+01   5.0183993886e+01    0.4040539    0.1878641 -42.01  0.001765243    2.500    0.600
        32  -8.1857    126.8577      8.9241   4.7771890690e+01   5.1979131920e+01    0.3147919    0.1603472  43.04 0.0008808959    1.850    0.459
        33  -8.5164    122.9559      8.7290   4.8458171621e+01   5.2924915714e+01    0.2464577    0.2045099 -11.67 0.0004658634    1.332    0.249
        34  -8.8628    125.8025      4.7592   4.6488790429e+01   5.2588031168e+01    0.2818645    0.2171825  19.60 0.0008727818    1.400    0.286
        35  -8.0180    121.3151      5.6752   4.7669946805e+01   5.3576234066e+01    0.2489911    0.1206856  68.52  0.001115616    2.044    0.511
        36  -8.7904    235.4848     11.9225   3.5219504252e+01   2.5739313229e+01    0.2061087    0.1574992  75.96  0.000400985    1.289    0.224
        37  -8.8902    141.1644     11.5196   4.6089781714e+01   4.8280259619e+01    0.2789276     0.156304 -44.55  0.001333388    2.045    0.511
        38  -9.0325    115.3689      4.3168   4.8353702082e+01   5.5082312795e+01    0.2726741    0.2190293 -42.25  0.000895216    1.473    0.321
        39  -8.8159    154.9635      7.4708   4.2640219140e+01   4.5257163361e+01     0.491874    0.1916654 -47.64  0.001917295    3.155    0.683
        40  -8.8635    101.9662      7.7803   5.2695783189e+01   5.7838736880e+01    0.3464275    0.2280698 -44.66  0.001479152    1.935    0.483
        41  -7.8633    103.8501      2.7298   5.0222198973e+01   5.7845482468e+01     0.224914    0.1597377  16.99  0.000972597    1.458    0.314
        42  -8.5329     97.6169      6.1453   5.3101771534e+01   5.8941747027e+01    0.2840777    0.1670504  30.26 0.0006273294    1.673    0.402
        43  -8.2339     95.9931      2.9936   5.2198034536e+01   5.9563142411e+01    0.2076238    0.1775071  -2.66 0.0004768479    1.229    0.186
        44  -8.8368    247.2990      6.4383   3.3192369642e+01   2.3825487734e+01    0.2073342    0.1411344 -41.88  0.000838916    1.362    0.266
        45  -7.3824    110.2877      7.6615   5.0713864077e+01   5.5971569694e+01    0.1248395   0.09964806 -63.94 0.0003325083    1.637    0.389
        46  -8.5393    110.2769      3.5516   4.9127181487e+01   5.6320564707e+01     0.327686    0.2276331 -57.54  0.001474874    1.965    0.491
        47  -8.3173    143.1945      5.0141   4.3623625514e+01   4.8362380142e+01    0.2165013    0.1305603 -54.60 0.0005469322    2.015    0.504
        48  -9.3992    132.6510      4.5797   4.5205791907e+01   5.0960383385e+01    0.4229229    0.2038019  42.28  0.001939191    2.036    0.509
        49  -8.4526     89.1018      2.7024   5.3850524123e+01   6.1067295531e+01    0.1976238    0.1650298 -21.29 0.0006535738    1.346    0.257
        50  -9.0513    114.3703      9.6725   5.0586171449e+01   5.4852651684e+01    0.3006098    0.1929887  36.51 0.0004183469    1.477    0.323
        51  -9.0849    140.8106    129.2422   8.1985344028e+01   2.8332422335e+01    0.3991945    0.3136827 -80.18 0.0009843051    1.671    0.402
        52  -8.5308    220.0380    250.4848   8.8489693773e+01  -7.6949028026e+00    0.1765177   0.09386936  30.73 0.0004981952    1.544    0.352
        53  -9.5549    199.3134    249.7878   9.2195625891e+01  -4.6734804156e+00    0.2272192    0.1744316  56.89  0.001407357    1.985    0.496
        54 -10.3878    189.9156    248.5575   9.3782452487e+01  -3.1273345171e+00     0.406752    0.2098114  28.03  0.002168247    1.711    0.415
        55  -8.2136    126.2282    129.2572   8.5796378985e+01   3.1312570950e+01    0.2145441    0.1856214 -84.62  0.001053776    1.344    0.256
        56  -9.5421    196.7701    127.8410   6.8908052164e+01   1.6550319060e+01    0.2653576    0.2463945  26.49 0.0003099487    1.106    0.096
        57  -9.9571    117.2369    125.4734   8.7328691786e+01   3.3955018561e+01    0.5514627    0.3942867  79.75  0.001771701    2.098    0.523
        58  -9.7242     42.0427    123.0154   1.0904665520e+02   4.5794429104e+01    0.6953484    0.3388757 -89.75   0.00253596    3.457    0.711
        59  -9.8835     27.2262    122.8451   1.1345138006e+02   4.7206254139e+01    0.5562437    0.2950525  72.81    0.0020213    2.633    0.620
        60  -8.0261    201.8421    124.7696   6.7167907294e+01   1.6050542168e+01    0.2264802     0.196246  -3.68 0.0006267269    1.218    0.179
        61 -10.9434    122.9464     92.5967   7.6937892226e+01   4.0125846519e+01     1.362936    0.6920445 -32.61  0.001800611    2.280    0.561
        62  -9.9303    139.3512    104.4850   7.5914937124e+01   3.4052794327e+01    0.5620522    0.3392211 -49.50  0.001633671    1.721    0.419
        63  -9.6021    127.8728    102.5583   7.8425302623e+01   3.6956936396e+01    0.4011503    0.3865348 -87.41  0.001178294    1.126    0.112
        64 -10.1585    108.7865    114.5911   8.7021486517e+01   3.8102974135e+01     0.823086    0.4967003 -76.84  0.001574705    3.230    0.690
        65 -10.9031    109.2341    101.1864   8.3332685082e+01   4.1069367116e+01     1.107854    0.8416174 -80.10  0.005005834    1.842    0.457
        66 -10.5196    131.2301    119.3590   8.2006872993e+01   3.2544151626e+01    0.8984085     0.631101  82.20  0.002252519    2.326    0.570
        67 -11.0616    133.4160    109.5275   7.8844492276e+01   3.4259553351e+01     1.080956    0.5369665 -39.91  0.004068465    2.039    0.510
        68  -8.4665    158.0198    121.9404   7.5911306258e+01   2.6218888908e+01    0.3528856    0.2430706  85.39   0.00123284    2.573    0.611
        69  -8.8996     99.1142    119.7595   9.1116844277e+01   3.8654559166e+01     0.578247    0.3568574  -5.14   0.00197541    3.458    0.711
        70 -10.0212    140.7042    118.4530   7.9298145235e+01   3.0742287769e+01    0.4556654    0.3476588 -80.81  0.001257855    1.819    0.450
        71  -8.5958      1.5031    116.8423   1.2021423168e+02   5.0406670002e+01    0.3617613    0.1226438 -79.79  0.001217728    2.723    0.633
        72 -10.3056     92.1701    113.2528   9.1613394579e+01   4.1399595002e+01    0.6044172    0.4556452 -89.24  0.001754707    1.800    0.445
        73  -8.8926     93.1625    103.6756   8.8874611423e+01   4.3471534541e+01    0.6629962    0.4134527   9.96  0.002592289    2.583    0.613
        74 -10.5052     15.3238    111.4796   1.1542564024e+02   5.0847560304e+01    0.9111258    0.5072515  75.25  0.003634242    2.308    0.567
        75 -11.2370     20.7887     99.0826   1.1175101121e+02   5.3426618570e+01     1.933272     1.007895  88.38  0.006897254    2.734    0.634
        76 -10.5529     25.7337     78.0081   1.0583130121e+02   5.7959119826e+01     0.688498    0.4481496  86.98  0.001878837    2.278    0.561
        77 -10.0831    153.9525    248.9875   1.0076981494e+02   2.2517820005e+00     0.327327    0.2352615 -19.49  0.001973949    1.840    0.456
        78 -10.7873     55.2087     69.6343   9.2274066948e+01   5.6795885519e+01    0.9489401    0.6127262 -65.87  0.002578044    2.024    0.506
        79 -10.0197     49.9089     54.4341   8.9450149443e+01   6.0555262667e+01    0.4257404    0.3437149 -76.61  0.001526249    1.907    0.476
        80  -9.9385     54.8280     44.3264   8.3756563210e+01   6.1787351777e+01     1.231897    0.6404687  -3.34  0.004362963    4.117    0.757
        81 -10.0334    162.4801    248.0691   9.8987594640e+01   1.0876815079e+00    0.3019397    0.2103509 -42.54  0.001872037    1.732    0.423
        82  -7.8951    160.9887    128.9565   7.6967607607e+01   2.4084404912e+01    0.2528732    0.2001813 -85.69  0.001138684    1.736    0.424
        83 -10.8837     21.8091     53.3697   1.0108447456e+02   6.3595387514e+01    0.7936414    0.4956386  89.90  0.002907244    3.570    0.720
        84 -10.3225     11.9403     45.7651   1.0329509528e+02   6.5826025778e+01    0.9263222    0.4069482  -0.23  0.003663715    3.003    0.667
        85 -10.1800     34.4743     90.6067   1.0540467800e+02   5.4325339253e+01    0.5802831    0.3125916 -80.60  0.001714418    2.603    0.616
        86 -10.0758     36.6563     81.1929   1.0246922577e+02   5.6297806627e+01    0.6726388    0.3350745 -19.70  0.002733271    3.141    0.682
        87  -9.4379    171.1750    246.8151   9.7126072477e+01  -5.4193440236e-02     0.175066    0.1310925  11.08  0.001090941    1.370    0.270
        88 -10.2444     78.2405    112.9393   9.5827264253e+01   4.3707337848e+01    0.5629923     0.352214 -77.92  0.001642881    2.269    0.559
        89  -8.0239     82.7123     93.8598   8.9563411620e+01   4.7477749305e+01    0.3657612    0.2022513 -16.32  0.001066773    4.018    0.751
        90  -7.8753     78.3328    105.2431   9.3953859880e+01   4.5529343680e+01    0.3690995    0.2165176   4.54  0.001352755    3.175    0.685
        91  -9.6816     81.5039    100.2299   9.1661475346e+01   4.6210051570e+01     0.458484    0.2928044 -68.97 0.0008507524    2.006    0.501
        92  -7.0642    225.2699    113.6352   6.0285329975e+01   1.3147249489e+01    0.1466022    0.1048326 -59.48 0.0005462533    1.658    0.397
        93 -10.8527     63.3822     93.8786   9.6056561045e+01   5.0336131949e+01       1.5199    0.4832132 -52.92  0.002153119    2.721    0.632
        94  -8.8800     59.1738    109.2245   1.0105381243e+02   4.7233599469e+01    0.4310149    0.2576104 -85.68  0.001254026    2.589    0.614
        95  -8.2333    158.9126    111.7310   7.3047314299e+01   2.8156578489e+01    0.2909243    0.2188112 -51.21 0.0006298022    1.384    0.278
        96 -11.3003    121.2205    110.5932   8.2447813029e+01   3.6573403909e+01     1.581627    0.7697356 -50.74  0.004398216    2.114    0.527
        97 -10.4587     48.2919     82.4101   9.8466021932e+01   5.4821219550e+01     1.122303    0.4109297 -50.85  0.001995242    2.246    0.555
        98  -8.7105    149.5512    110.0512   7.4856407112e+01   3.0610179536e+01    0.2379126     0.152884 -43.18 0.0003846099    1.535    0.348
        99  -8.1661    144.3448    110.2878   7.6219078524e+01   3.1716443088e+01    0.1612885    0.1247563   6.55 0.0007022524    1.651    0.394
       100 -10.9748     44.7620    102.4053   1.0434932144e+02   5.0528651293e+01    0.8908904    0.4979677  71.68   0.00328996    3.513    0.715
       101  -9.2625     39.9442    106.9573   1.0684691316e+02   4.9919587990e+01    0.3696679     0.181628 -69.97  0.001254063    2.014    0.503
       102  -9.6425      5.9574    103.8871   1.1729379380e+02   5.3222257158e+01    0.4199277    0.3547226  70.38  0.001721976    1.328    0.247
       103  -9.5708    149.4698    103.2593   7.3028746957e+01   3.2043780612e+01    0.4550958    0.2900647 -53.11  0.001009827    1.736    0.424
       104  -8.4040    166.0516    103.9057   6.9306708611e+01   2.8112024866e+01    0.2689945    0.2157794 -42.55 0.0005125828    1.227    0.185
       105  -8.2404     73.9206    102.6771   9.4743438647e+01   4.6797208649e+01    0.2901645    0.1863239 -51.72 0.0007420784    1.422    0.297
       106  -8.4760    159.1153    101.3034   7.0184460955e+01   3.0232692171e+01    0.2937921    0.2163306 -48.14  0.000523257    1.383    0.277
       107  -8.6580    245.5056     99.4813   5.3906026342e+01   1.1443015548e+01     0.226157    0.1359711  71.86  0.001028206    2.382    0.580
       108  -9.1608    130.6084     96.7838   7.6052689651e+01   3.7596125981e+01    0.4898147    0.2831338  25.70  0.001800356    2.472    0.596
       109  -9.5013     94.3915     97.1991   8.6742126888e+01   4.4733545953e+01    0.3682635    0.2963943 -68.87 0.0006342495    1.457    0.314
       110  -8.8734     96.3410     90.7565   8.4303093206e+01   4.5813009030e+01    0.5209363    0.3303197  -9.57  0.002006857    2.623    0.619
       111  -8.6120    150.3523     96.6651   7.0972659246e+01   3.3183494289e+01     0.322076     0.225881  10.88  0.001147872    2.078    0.519
       112  -9.2700    241.3767     95.9246   5.3675076391e+01   1.2837232738e+01    0.3612312    0.2008895  31.23  0.001493583    2.925    0.658
       113  -8.5748    164.5199     93.7965   6.6873821568e+01   3.0443755169e+01    0.4281248    0.2345523 -36.54  0.001483492    1.826    0.452
       114  -9.1077    140.3097     82.0064   6.9169507649e+01   3.8375928842e+01    0.5762482    0.3232572 -32.70  0.001206735    1.887    0.470
       115  -8.5695    139.9987     75.5339   6.7272142606e+01   3.9658334393e+01    0.4150127    0.2390315 -54.74 0.0008984971    2.217    0.549
       116  -9.4840    138.6638     92.4815   7.2691455535e+01   3.6693718739e+01     0.485088    0.3793054 -72.91  0.001289024    1.661    0.398
       117  -7.8821    139.6125     87.6878   7.1043211524e+01   3.7434970711e+01    0.2828278    0.1902319  27.45 0.0007684231    1.804    0.446
       118  -8.0968    249.4355     95.6902   5.2510443725e+01   1.1280113622e+01    0.2125923     0.124811  55.70 0.0008602018    1.959    0.489
       119 -10.1767      4.4615     89.5451   1.1571531716e+02   5.6650384099e+01    0.6620292    0.3084344 -89.80  0.002043686    2.847    0.649
       120  -9.5944      6.1793     78.9480   1.1334113874e+02   5.8992345022e+01    0.6184392    0.1777748 -39.82  0.002451422    3.402    0.706
       121  -8.8847    157.5846     90.9198   6.7632395662e+01   3.2628821904e+01    0.3877701    0.2178919 -30.91  0.001527699    1.948    0.487
       122  -9.5318    149.9883     89.6763   6.9061584849e+01   3.4648900704e+01    0.5344986    0.3250706 -23.50  0.001972872    2.068    0.517
       123  -9.7625    111.1822     89.8610   7.9509655756e+01   4.3145638822e+01    0.7766109    0.3963799  27.85  0.002748851    2.756    0.637
       124  -7.7184    174.5846     88.7614   6.3314771871e+01   2.9005515242e+01    0.2217917    0.1389575 -47.85 0.0009431504    1.642    0.391
       125 -10.3196     85.3511     86.5831   8.6630811597e+01   4.8661790705e+01     0.493539    0.3894776 -84.40 0.0009864666    1.808    0.447
       126  -9.6367     87.0863     79.0514   8.3787426434e+01   4.9978184086e+01    0.6668631    0.3743668  17.70  0.001997792    2.722    0.633
       127  -8.4677    163.3089     87.0361   6.5236278970e+01   3.2009751376e+01    0.2188838    0.2015383 -39.45 0.0004564205    1.076    0.070
       128  -9.9831      4.8719     41.8380   1.0546301144e+02   6.7015920350e+01    0.4943794    0.2713116 -64.36  0.001982643    1.803    0.445
       129 -10.3248    103.9406     82.6218   7.9502119699e+01   4.6103227401e+01    0.5186571    0.3259551 -54.29  0.000915019    1.812    0.448
       130  -9.8113    105.2788     71.6188   7.5594122731e+01   4.8033487609e+01    0.8416612    0.5898181 -12.70  0.003582514    1.759    0.431
       131  -8.9736    157.6459     83.0204   6.5342974091e+01   3.4104917357e+01     0.417955    0.2561125 -39.96  0.001222359    1.618    0.382
       132  -7.9340    170.4105     83.2894   6.2650657896e+01   3.0998708663e+01    0.2185715    0.1392556 -47.27 0.0009406667    1.612    0.380
       133  -8.9128    199.2859     80.7619   5.6496313247e+01   2.4560627893e+01    0.3305313    0.2578353 -20.46 0.0008264472    1.421    0.296
       134  -9.2611     74.3321     79.3545   8.8231372516e+01   5.2017394653e+01    0.6509052    0.2822509 -50.00  0.001205941    2.198    0.545
       135  -8.6091    149.8083     80.1566   6.6305671428e+01   3.6497868746e+01    0.4263598    0.2374285 -36.13  0.001359915    1.811    0.448
       136  -8.9189    118.9266     80.4685   7.4407020704e+01   4.3456169745e+01    0.3027483    0.2672037 -77.38 0.0006531636    1.380    0.275
       137  -7.9427    119.8735     75.8979   7.2702911274e+01   4.4141791638e+01    0.2782745     0.208454 -14.59 0.0005926747    1.546    0.353
       138  -8.1454     68.7309     79.5059   9.0250040065e+01   5.2827840454e+01    0.2639845     0.114779 -49.81  0.001058242    2.117    0.528
       139  -8.8423    166.3022     78.1354   6.2038823671e+01   3.2908746967e+01    0.3558745    0.2021712 -34.18  0.001178298    1.787    0.440
       140  -7.9864    184.2097     78.0939   5.8476034066e+01   2.8592724958e+01    0.2209375    0.2023841   3.40 0.0005012423    1.212    0.175
       141  -8.8035    157.0376     76.4985   6.3563177666e+01   3.5434828225e+01     0.283666    0.2057622 -54.09 0.0006382714    1.523    0.344
       142  -9.4045    127.1929     75.1231   7.0447413966e+01   4.2671259025e+01    0.3703758    0.2968562 -82.49 0.0009159023    1.706    0.414
       143 -10.0208     81.6889     72.6432   8.3591331773e+01   5.2232856896e+01    0.4695555    0.3462245 -71.02 0.0009336001    2.009    0.502
       144  -9.1033     83.4694     64.5370   8.0294476893e+01   5.3533822302e+01    0.5725083    0.3471148  -7.54  0.002290995    2.637    0.621
       145 -10.4097     65.6235    110.3884   9.9235145591e+01   4.6118917649e+01    0.9887951    0.5254147 -53.88  0.003349522    1.668    0.401
       146  -8.9760    114.7354     72.8665   7.3194455614e+01   4.5826624913e+01    0.3276718    0.2936282 -42.92 0.0006514566    1.158    0.137
       147  -7.4505    116.3464     68.3451   7.1256483089e+01   4.6323412786e+01    0.3054261    0.2240963  15.47   0.00110915    1.633    0.388
       148  -8.3916    174.9131     71.7126   5.8458325651e+01   3.1923310249e+01    0.4362907    0.1819769 -41.56  0.001594896    2.352    0.575
       149  -8.2088    162.8245     73.1207   6.1311248165e+01   3.4627568882e+01     0.235154    0.1977306 -68.49 0.0007322461    1.336    0.251
       150  -8.2370    169.6000     70.4903   5.9151328861e+01   3.3424320352e+01    0.3719468    0.1519988 -29.84  0.001263499    2.814    0.645
       151  -9.2399    146.9870     69.1425   6.3619707171e+01   3.9141990428e+01     0.391612    0.2604054 -55.69 0.0009732344    1.804    0.446
       152  -8.1598    147.3221     63.6962   6.1848960602e+01   3.9984212530e+01    0.3174056    0.1882548  38.40 0.0008804763    1.846    0.458
       153  -8.3005    156.6692     70.2202   6.1769914602e+01   3.6620839478e+01     0.204021    0.1419064 -26.16 0.0003667338    1.558    0.358
       154  -8.6458    129.2781     68.8801   6.7903947159e+01   4.3342870907e+01     0.462135    0.2677026  24.40  0.001477971    2.585    0.613
       155  -8.5134    130.4687     64.5300   6.6186694809e+01   4.3832955341e+01    0.3964143    0.2171215 -36.38  0.001132657    1.845    0.458
       156  -9.6701     94.8880     68.4152   7.7795298947e+01   5.0694845324e+01    0.4174595    0.2706718 -52.32 0.0008148067    1.780    0.438
       157  -9.4110     96.9583     58.9397   7.3879312382e+01   5.2047847388e+01    0.7596183    0.4427374 -18.17  0.003137526    2.281    0.562
       158  -9.0422    138.8489     56.8680   6.1629393809e+01   4.3130573476e+01    0.3685349    0.2483315 -19.29  0.001256481    1.717    0.418
       159  -8.8154    138.0555     66.4199   6.4894462151e+01   4.1735660596e+01    0.3304597    0.2495759 -54.12 0.0006273419    1.504    0.335
       160  -8.1427    138.5135     62.0033   6.3370128703e+01   4.2375135901e+01    0.2500902    0.2040964  22.90 0.0008588037    1.331    0.248
       161  -9.0339    121.3027     66.2395   6.9178732532e+01   4.5614312528e+01    0.3805372    0.2700022 -54.65  0.001197227    1.691    0.409
       162  -7.9335    122.0646     61.4367   6.7374739992e+01   4.6282291443e+01       0.2877    0.2007436  25.28 0.0007279449    1.643    0.391
       163  -9.8181     62.8898     60.9149   8.6532655770e+01   5.7537205518e+01    0.6189489    0.2737281  31.35  0.002527613    2.436    0.589
       164  -8.2082    170.7899     64.8126   5.7269363409e+01   3.4066660895e+01    0.2053301    0.1702505 -68.47 0.0003434488    1.326    0.246
       165  -9.3230    109.6840     63.7232   7.1638638178e+01   4.8588098903e+01    0.3645331    0.2830189 -53.49 0.0007343435    1.505    0.335
       166  -8.9956    110.5242     58.4448   6.9582972936e+01   4.9333646463e+01    0.4521594    0.2889447  15.12  0.001344407    2.192    0.544
       167  -8.0928    157.7457     63.0871   5.9383365993e+01   3.7548148252e+01     0.225769    0.1954445 -60.99 0.0006784087    1.243    0.196
       168 -10.0442     73.1023     59.0757   8.2082351306e+01   5.6328425280e+01    0.6035061    0.2761969 -49.67 0.0008891376    2.427    0.588
       169  -9.4326     75.2833     50.7199   7.8267014109e+01   5.7492602326e+01    0.7321975    0.4165299   9.21  0.002909444    2.884    0.653
       170  -7.7984    164.6287     60.2341   5.7122768236e+01   3.6312394917e+01    0.2010678    0.1434705 -22.47 0.0009396197    1.567    0.362
       171  -7.7815    152.5169     60.5083   5.9705936498e+01   3.9242903999e+01    0.1475517    0.1445805  58.22 -3.418667e-05    1.015    0.015
       172  -9.0880    147.0025     57.1852   5.9870175608e+01   4.1114244009e+01    0.6535343    0.2398659 -27.72  0.002088098    3.419    0.708
       173  -8.4826    227.9983    246.0298   8.6357419990e+01  -8.2329617707e+00    0.1440023    0.1079598  12.98 0.0003947255    1.019    0.019
       174 -10.4169     85.1885     48.0211   7.3770233777e+01   5.6186604262e+01    0.6465937    0.4665924 -75.51 0.0009620483    2.853    0.650
       175  -7.8512      9.5128     59.5446   1.0801141888e+02   6.3104600839e+01    0.1230051   0.09465697 -46.20 0.0008088403    1.007    0.007
       176  -8.3814    129.9945     57.8619   6.4112347559e+01   4.5061719959e+01    0.2503324    0.2091149 -36.04 0.0005308096    1.230    0.187
       177  -7.2038    169.2694     56.2830   5.5060442467e+01   3.5776429185e+01    0.1414931    0.1125845  23.88 0.0002264623    1.495    0.331
       178  -9.1735    118.1328     55.5190   6.6429253271e+01   4.8155039710e+01    0.3655271    0.3007775 -65.79 0.0009359103    1.553    0.356
       179  -9.2753    120.9179     47.6953   6.2965021450e+01   4.8753879327e+01    0.5553026    0.2791082 -23.36  0.000888888    2.384    0.580
       180  -9.0070    163.1818     52.6974   5.5142189647e+01   3.7821910407e+01    0.5095599    0.2511009 -22.96  0.001628044    2.555    0.609
       181  -8.2729    113.5217     41.9788   6.2881032227e+01   5.1269526642e+01    0.3769934    0.1546266  35.73  0.001286789    3.140    0.682
       182  -9.4600    149.9559     48.2054   5.6384610143e+01   4.1747665230e+01    0.6253955    0.2128177 -44.64  0.002024305    3.454    0.711
       183  -8.8618    141.6602     49.0335   5.8430689560e+01   4.3653330314e+01    0.4777133    0.3141305   1.95  0.001615366    2.202    0.546
       184  -7.9698    142.0440     44.5019   5.6861294964e+01   4.4212424325e+01    0.2265271    0.1355118  54.91 0.0009853714    1.570    0.363
       185  -8.7580    105.4171     52.1830   6.8873065700e+01   5.1468520227e+01    0.5229997    0.2806122 -29.11   0.00193466    1.971    0.493
       186  -7.7308    157.2101     48.9393   5.5151927157e+01   3.9851328841e+01    0.2084217    0.1595395 -88.99 0.0007099393    1.557    0.358
       187  -9.7221    130.7062     46.0961   5.9972009440e+01   4.6709835036e+01    0.9227824    0.4078538 -18.17  0.002728464    3.722    0.731
       188  -8.7774    132.5486     35.9507   5.6069504053e+01   4.7664757798e+01    0.2676195    0.2532708 -29.85 0.0006010089    1.132    0.117
       189  -8.5481    244.2630    244.6020   8.3261114668e+01  -1.0215141540e+01    0.1877984      0.13509 -14.91 0.0005215275    1.276    0.216
       190  -8.6296     87.5411     58.3837   7.6765866434e+01   5.3949788968e+01    0.3900246    0.2235823 -45.12  0.001327816    1.824    0.452
       191  -9.2198    175.3052    244.5791   9.6006807122e+01  -3.5562139938e-01    0.2164506    0.1523133 -60.00  0.001257531    2.152    0.535
       192  -9.8734     98.5504    128.5501   9.3316515601e+01   3.6649872849e+01    0.6280866    0.3972037  74.68  0.002266147    2.722    0.633
       193  -8.4690    104.2383    240.4371   1.0955223348e+02   1.1195905453e+01    0.1736942    0.1413965 -88.87 0.0005441516    1.351    0.260
       194  -9.8457     76.1138     32.1839   7.0649424277e+01   6.0307895659e+01    0.4440571    0.3325737  52.77  0.001023114    1.627    0.385
       195  -9.7875     79.8527     23.6105   6.5731176932e+01   6.0761919581e+01    0.5240917    0.2603631  25.94  0.001714222    2.474    0.596
       196  -8.9787     84.5297     21.9254   6.3483941955e+01   6.0055226276e+01    0.2875058    0.2165831   8.87 0.0007625325    1.288    0.224
       197  -8.9257     39.7868     35.2199   8.6677793982e+01   6.5314070176e+01    0.3907328    0.2780302   8.95  0.002377285    1.373    0.271
       198  -9.8212     37.9346     42.2219   9.0209037925e+01   6.4276690566e+01    0.3327914    0.3023216  88.10  0.001400763    1.740    0.425
       199  -8.5989    215.2772    234.2229   8.6769743834e+01  -4.9057134327e+00     0.202961    0.1602425  30.65 0.0003145207    1.268    0.212
       200  -9.0519    110.2490     33.0504   6.0453385932e+01   5.3223412569e+01    0.3679528    0.2239404 -39.13  0.001100665    1.807    0.447
       201  -8.8052    105.0379     41.0796   6.4912162027e+01   5.3263280892e+01    0.3207876    0.2366901 -54.31 0.0008735589    1.771    0.435
       202  -8.1756    106.5232     36.1075   6.2620786370e+01   5.3640640261e+01    0.2804927    0.2029436  32.50 0.0007926245    1.328    0.247
       203  -8.8161    153.5230     40.4018   5.3200293267e+01   4.1951077479e+01    0.3964166    0.2637226 -13.72  0.001506128    1.846    0.458
       204  -8.9880    139.4922     39.8351   5.5866652691e+01   4.5474816533e+01     0.451258    0.2072399 -36.48  0.001497141    2.239    0.553
       205  -8.0859    160.1226     39.3350   5.1639092648e+01   4.0452693237e+01    0.2402821    0.1976507 -12.91 0.0007360274    1.381    0.276
       206  -8.7237    111.9147     46.8140   6.5072684488e+01   5.0911374113e+01    0.3275597    0.2582259 -27.49 0.0004159674    1.291    0.225
       207  -9.1263     71.2403     26.1762   6.9851497215e+01   6.2020735990e+01     0.387943    0.2679028  16.81  0.001445083    1.419    0.295
       208  -8.9955    144.1905     36.4240   5.3758718147e+01   4.4775308227e+01    0.3062473    0.2151499 -55.06 0.0005902889    1.680    0.405
       209  -7.1638    211.2559     36.6802   4.3378055865e+01   2.8286698479e+01    0.1381155   0.09033422 -61.04 0.0001545542    1.540    0.351
       210  -8.8935    118.9169     34.6329   5.8810293488e+01   5.1048130214e+01    0.3197399    0.1976816 -26.24 0.0006503426    1.712    0.416
       211  -9.0976    100.9964     32.6837   6.2873227729e+01   5.5296628588e+01    0.4523305    0.1947588 -29.39  0.001362365    2.412    0.585
       212  -9.2235    188.2705    233.4117   9.1796885455e+01  -6.9902603332e-01    0.2183781    0.1968582 -11.60 0.0007890471    1.214    0.177
       213  -7.7258    110.0005    223.9956   1.0647645207e+02   1.3376924431e+01    0.1588693     0.135213  50.41  0.000582008    1.012    0.011
       214  -8.8777    214.0586    216.9898   8.4065635502e+01  -2.2688995888e+00    0.2663959    0.2373532  71.08   0.00165338    1.843    0.457
       215  -8.8389    202.1632    211.2138   8.5342473448e+01   5.0790758964e-01    0.2296132    0.1823816  37.35 0.0002405495    1.294    0.227
       216  -7.7334    153.3283     34.6723   5.1427036721e+01   4.2741332663e+01    0.1474765    0.1061329 -69.62 0.0007050799    1.705    0.413
       217  -8.7000    152.6642    115.2200   7.5464762231e+01   2.8825588836e+01    0.2248241    0.1436779 -33.92 0.0007650817    1.640    0.390
       218  -8.1859    248.7808     32.6188   3.8586240117e+01   2.0477002732e+01    0.1684753    0.1070164 -89.15 0.0004732346    1.629    0.386
       219  -8.5808     45.4649     15.8955   7.5563844487e+01   6.7546777721e+01      0.22187    0.1486811 -22.03  0.001084121    1.333    0.250
       220 -10.3640    233.6709    210.1164   7.9185510275e+01  -4.2539469909e+00     0.233001    0.1939908  13.88   0.00059096    1.140    0.123
       221  -8.4619     42.1273     28.1154   8.2656314621e+01   6.6204573214e+01    0.2320775    0.1531601 -22.48  0.001362118    1.335    0.251
       222  -8.1649     15.6243    206.1600   1.2423406509e+02   2.8986106860e+01    0.1987251    0.1762576 -66.73  0.001499189    1.422    0.297
       223  -9.8792      8.4936    208.4918   1.2574682063e+02   2.9157759765e+01    0.3240385    0.2017072  59.44   0.00185497    1.329    0.248
       224  -9.8498    154.0947     27.6393   4.9069332873e+01   4.3400598057e+01    0.5297217    0.3066819  45.90  0.002484076    1.709    0.415
       225  -9.3540     91.5561     26.3498   6.3141633656e+01   5.8092486659e+01    0.4258168    0.2376399 -46.21  0.001733663    2.420    0.587
       226  -8.4378     92.0096     21.0514   6.0823797199e+01   5.8634927851e+01     0.340592    0.1817658  30.51  0.001026783    1.986    0.497
       227  -8.5204      1.5193     28.2063   1.0291282427e+02   6.9818643652e+01    0.2095632    0.1032168 -47.18 0.0005551173    1.493    0.330
       228  -8.2271    162.4579     27.0643   4.7489008256e+01   4.1385893076e+01    0.1942139    0.1387625 -26.10  0.001008588    1.533    0.348
       229  -9.1780    144.3457     25.8957   5.0268413881e+01   4.6012531846e+01     0.307268    0.2054598 -34.40  0.001219644    1.595    0.373
       230  -8.2141    110.5979     26.3666   5.7833213087e+01   5.3975239020e+01    0.3629954     0.171547  38.41  0.001066841    2.159    0.537
       231  -8.4292    128.3039     25.8136   5.3467675858e+01   4.9918264277e+01    0.2205391    0.2024731 -77.07 0.0006154947    1.246    0.198
       232  -9.5250     11.4093    206.7943   1.2509124363e+02   2.9244830219e+01    0.2657842    0.1809236  75.99  0.001021554    1.149    0.130
       233  -7.4970    140.4734     22.5614   4.9890471130e+01   4.7334137218e+01    0.1372433    0.1255191  62.61 0.0001240759    1.040    0.039
       234  -9.2680    119.0388     21.3508   5.3913594132e+01   5.2605027318e+01    0.2932174      0.24571 -10.31 0.0004693896    1.272    0.214
       235  -8.6213    119.3548     17.3347   5.2360369421e+01   5.2954152008e+01    0.4349687    0.1937799  27.84  0.001545866    3.530    0.717
       236  -8.0669    111.4209     22.1629   5.6025093839e+01   5.4271803465e+01    0.1841079    0.1217647 -39.07 0.0006235493    1.717    0.417
       237  -8.8352     40.9111     20.5618   7.9839056763e+01   6.7516108581e+01     0.262114    0.1572724 -39.02  0.001052798    1.692    0.409
       238  -8.8121    203.2313    206.6573   8.4312299855e+01   1.0592244631e+00    0.2235817    0.1856474   3.63 0.0002888828    1.075    0.069
       239  -6.8365    213.5172    202.4935   8.1541414962e+01   3.5850235172e-02    0.1333382    0.1133787   5.66 0.0008103508    1.017    0.016
       240  -8.2263    203.9445    201.9565   8.3308318548e+01   1.7019726646e+00    0.1953245    0.1694705   4.56 0.0003198215    1.027    0.026
       241  -7.4210     12.3153    201.2974   1.2458357069e+02   3.0314456683e+01    0.1029037   0.08039013 -56.03 0.0001873102    1.607    0.378
       242  -9.0936    191.8296    194.0293   8.4261433214e+01   5.1196180974e+00    0.7633897    0.4039424 -62.65  0.002334662    5.684    0.824
       243  -7.6568    230.2200    198.1646   7.7584479636e+01  -1.9664786378e+00    0.1568781    0.1460047   4.80 0.0005253351    1.279    0.218
       244 -10.2679    171.3217    196.9851   8.9116422061e+01   8.2199629827e+00    0.2482513    0.2392669 -18.51 0.0003887022    1.135    0.119
       245  -8.3277    123.5664    195.4788   9.9493918985e+01   1.6910842234e+01    0.2207429    0.2100241  51.08 0.0002687499    1.033    0.032
       246  -8.2751    132.8049     17.3292   4.9576790729e+01   4.9750350367e+01    0.2011673    0.1836689 -77.41 0.0006152127    1.224    0.183
       247  -7.6081    151.2991     20.6162   4.7326186323e+01   4.4875421907e+01    0.1444546   0.09822561 -63.47 0.0007019542    1.775    0.437
       248  -7.8079    231.0000     17.9367   3.6918649688e+01   2.6049231995e+01    0.1966557    0.0662216 -30.80  0.000801466    2.936    0.659
       249  -8.5708    139.5393     17.9634   4.8524337075e+01   4.8048028722e+01    0.1887093    0.1365361 -20.96 0.0003651273    1.537    0.350
       250  -8.5442     95.8361     16.8053   5.7974655665e+01   5.8296879943e+01    0.2217386     0.181116 -14.09 0.0004243451    1.267    0.211
       251  -9.3208     55.9502    188.1985   1.1415186305e+02   2.8564586552e+01    0.2002036    0.1742673 -77.11 0.0002332932    1.150    0.130
       252  -8.5231    112.3955     15.5689   5.3273866255e+01   5.4746228567e+01    0.2462394     0.208222 -59.06 0.0005543769    1.478    0.324
       253  -8.3627    104.3314     15.5005   5.5201055204e+01   5.6576567968e+01     0.316048    0.1607984  22.62  0.001310771    2.659    0.624
       254  -8.6951    192.9053    181.8000   8.1658422042e+01   7.1059289098e+00    0.2164271    0.1861254 -18.23 0.0003543415    1.124    0.110
       255  -7.7161    178.5451    179.7444   8.4281834139e+01   1.0143490386e+01    0.2018287    0.1388281 -54.57 0.0006670849    1.759    0.431
       256  -7.3930    101.6322    174.4752   1.0132822372e+02   2.5196810593e+01    0.1373827    0.1322815 -65.50 -0.0001403014    1.092    0.084
       257  -8.6239     57.0608    172.6415   1.1208331843e+02   3.2026146883e+01    0.2152818    0.1672673 -69.69 0.0002607658    1.200    0.166
       258  -8.3654    125.3286     13.0609   4.9547366358e+01   5.1963737596e+01    0.2311804    0.1796145  81.76 0.0004349508    1.435    0.303
       259  -7.4658    120.5522    172.4556   9.6314938282e+01   2.2438785152e+01    0.1429332    0.1392696  50.63 5.574178e-05    1.027    0.026
       260  -7.3756    221.2748    171.3576   7.3910107439e+01   3.8324791415e+00    0.1440346   0.09864452  -5.38 0.0002645633    1.652    0.395
       261  -8.1544    230.4576    167.9829   7.1513315008e+01   2.7954012347e+00    0.3069164    0.1188077 -42.43  0.001199358    2.610    0.617
       262  -7.0031    125.5510    168.4920   9.4354185072e+01   2.2434149472e+01    0.1451401    0.1416191  56.31 0.0008084055    1.005    0.005
       263  -7.1389    212.6415    158.2697   7.2769032878e+01   7.6896182436e+00    0.1330758    0.1162656  89.45 0.0003925266    1.643    0.391
       264  -7.0729    151.0276    152.7701   8.4908920947e+01   2.1036130372e+01     0.186425    0.1252887  41.70  0.000828526    1.473    0.321
       265  -8.6647    133.7322    146.0324   8.7702932264e+01   2.5981314023e+01    0.6121825    0.1706822 -52.62  0.001664769    4.159    0.760
       266  -9.2408    235.2598    146.3893   6.6043878013e+01   5.5656236641e+00    0.3748624    0.1971871  23.49  0.001473303    2.968    0.663
       267  -9.4380     66.7735    143.7815   1.0536107532e+02   3.7768014304e+01    0.5915315     0.390267  73.81  0.002470176    1.878    0.467
       268  -8.7317    112.3975    133.9443   9.0643223365e+01   3.2881248361e+01    0.4148988    0.2828917  77.97   0.00130537    2.280    0.561
       269  -9.2340    135.6853    131.8827   8.3940728402e+01   2.8801114679e+01     0.510532    0.2324282 -52.67  0.001806485    2.381    0.580
       270  -9.1140    131.8311    131.0578   8.4745758542e+01   2.9773718347e+01    0.4019139    0.2941629  85.18  0.001694161    2.045    0.511
       271  -7.8790     86.0038    134.0000   9.8088319769e+01   3.7392956022e+01    0.2872702    0.1422096  40.45  0.001108756    2.087    0.521
       272  -8.7457     82.2582    130.7103   9.8497975246e+01   3.8776776127e+01    0.4512517    0.2716634 -84.56  0.001492715    2.586    0.613
       273  -9.2850    242.2057    130.9432   6.1483372422e+01   6.8898186016e+00    0.3618242    0.1876422 -58.16  0.001312159    3.576    0.720
       274 -10.3776     58.2222    124.5626   1.0443175292e+02   4.3601266218e+01    0.8131123    0.4579028  78.44  0.003100674    3.145    0.682
       275 -10.0196     66.8043    128.8215   1.0266874620e+02   4.1453001275e+01    0.4295433     0.383621 -13.41  0.001896529    1.297    0.229
       276 -10.2052     71.1502    125.7564   1.0077280346e+02   4.1614740998e+01    0.6497063    0.4073245 -78.47   0.00133296    1.952    0.488
