#   1 NUMBER                 Running object number                                     
#   2 MAG_AUTO               Kron-like elliptical aperture magnitude                    [mag]
#   3 X_IMAGE                Object position along x                                    [pixel]
#   4 Y_IMAGE                Object position along y                                    [pixel]
#   5 X_WORLD                Barycenter position along world x axis                     [deg]
#   6 Y_WORLD                Barycenter position along world y axis                     [deg]
#   7 A_WORLD                Profile RMS along major axis (world units)                 [deg]
#   8 B_WORLD                Profile RMS along minor axis (world units)                 [deg]
#   9 THETA_WORLD            Position angle (CCW/world-x)                               [deg]
#  10 FWHM_WORLD             FWHM assuming a gaussian core                              [deg]
#  11 ELONGATION             A_IMAGE/B_IMAGE                                           
#  12 ELLIPTICITY            1 - B_IMAGE/A_IMAGE                                       
         1 -13.9432    188.1517     22.4692   7.1111433251e+01   3.5011635709e+01     2.004306     1.255927  -6.10  0.007362968    2.004    0.501
         2 -14.2260    195.2975     16.2252   6.8348515801e+01   3.3871101231e+01     1.741346     1.532339  48.32  0.007699765    1.153    0.132
         3 -13.7617    200.8439      9.0157   6.5658784053e+01   3.3205262724e+01     1.525895    0.6994268  49.41  0.001446849    2.228    0.551
         4 -10.6789    192.2231    193.3559   1.1343026868e+02   6.7202854543e+00    0.5992478    0.3202175 -61.52  0.002064377    5.197    0.808
         5 -11.3808    247.8247    249.7161   1.1300004986e+02  -9.0347042884e+00    0.3319976    0.1677616  47.23  0.001875176    2.439    0.590
         6 -11.9435    140.3071    249.8932   1.3106329805e+02   7.0711525203e+00    0.4384869     0.160521  42.78  0.002217029    2.098    0.523
         7 -11.7760    120.2350    238.8148   1.3332935676e+02   1.1685266505e+01    0.3790802     0.208315 -78.35  0.001853803    2.946    0.661
         8 -12.0243    127.2855    244.7097   1.3273373971e+02   9.7569041745e+00    0.2931165    0.2230007  18.12  0.001972497    1.789    0.441
         9 -11.2930    124.3347    242.6790   1.3302720264e+02   1.0494817440e+01    0.2303935    0.1536602  66.05  0.001472874    1.577    0.366
        10 -12.1577    107.3280    247.8912   1.3645396901e+02   1.2184583960e+01    0.3923952     0.221345  45.63  0.001425463    1.385    0.278
        11 -11.9298     98.2476    249.0992   1.3808244765e+02   1.3268439243e+01     0.323431    0.2572463  59.75  0.001844682    1.060    0.056
        12 -11.2509    101.5505    246.3040   1.3727909145e+02   1.3234966979e+01    0.3111746    0.1756518 -79.19  0.001255065    2.309    0.567
        13 -12.9283     66.7242    248.8486   1.4320496736e+02   1.7423277207e+01    0.7543507    0.4415743  32.92  0.004456415    2.096    0.523
        14 -12.2497     79.9825    247.2775   1.4094341217e+02   1.5990369867e+01    0.7175573    0.2444849  58.39   0.00330477    3.286    0.696
        15 -11.8607     81.8528    242.5602   1.4025438554e+02   1.6488218686e+01    0.3392978    0.2103663  73.63  0.001705935    1.578    0.366
        16 -11.8069     77.2388    188.2613   1.3581370578e+02   2.6802722709e+01    0.2849522    0.2197113 -49.32 0.0005606263    1.595    0.373
        17 -11.8052     72.7860    195.2609   1.3747586865e+02   2.6028440400e+01    0.3739801    0.2561367 -59.44  0.002364462    1.581    0.368
        18 -10.0028     67.9973    197.0429   1.3859438767e+02   2.6307191174e+01    0.2624918    0.1353497  49.87 0.0007210955    1.714    0.417
        19  -9.2390    113.0117    193.4883   1.2920635198e+02   2.0504972450e+01    0.1713431    0.1103892  18.18 0.0008104749    2.566    0.610
        20  -9.3725    125.5063    185.4779   1.2547409775e+02   1.9966417646e+01    0.2464429     0.119678  30.99  0.001029881    2.600    0.615
        21 -11.1573     85.4492    176.2208   1.3261327434e+02   2.8081751030e+01     0.229607    0.2042146 -75.19 0.0004390668    1.144    0.125
        22 -13.3619     73.3181    173.7271   1.3488718705e+02   3.0274542102e+01    0.4342184    0.2671776 -43.72  0.001594753    2.153    0.536
        23 -16.4848      9.7739    240.1655   1.5149566065e+02   2.5036654162e+01     16.83903     1.386541 -76.43   0.03779599   10.376    0.904
        24 -13.9903     50.2217    130.2771   1.3431446973e+02   4.2557281711e+01     1.390281    0.4875779  46.42  0.005078112    3.205    0.688
        25 -12.8870     47.1096    149.0908   1.3764151101e+02   3.8731212912e+01    0.6428856    0.2785642 -62.79  0.003196052    1.981    0.495
        26 -10.6385    103.1444    150.8417   1.2472444060e+02   3.0709011509e+01    0.2827112    0.2656108 -80.52 0.0008348284    1.035    0.034
        27  -9.6418    105.3001    147.3349   1.2358399910e+02   3.1107055307e+01    0.3427764    0.2067738 -36.98  0.001568458    2.115    0.527
        28 -12.1654     92.1036    150.3157   1.2724066390e+02   3.2566010838e+01    0.2605279    0.2471954 -27.62 0.0005388965    1.250    0.200
        29 -10.2281    134.3658    148.3835   1.1697457989e+02   2.5718697294e+01    0.4105166    0.1336056 -52.66  0.001334176    3.515    0.716
        30 -11.7690     54.7755    143.9787   1.3516921128e+02   3.8989485340e+01    0.3028152    0.2360528 -42.72  0.001439523    1.519    0.342
        31  -8.7520    192.2563    144.3157   1.0354625165e+02   1.4793500349e+01    0.1440947    0.1090054   2.77 0.0002390765    1.533    0.348
        32 -10.2776    112.7996    136.3263   1.1964273982e+02   3.2198018719e+01    0.3345443     0.266561  -4.31  0.001033778    1.715    0.417
        33 -11.3220     70.3038    134.9040   1.2997684054e+02   3.9081393815e+01    0.3502818    0.1623986  43.87  0.001609338    2.249    0.555
        34 -13.3593     67.4247    144.4921   1.3220877560e+02   3.7324929331e+01    0.9781694    0.5935251  83.83  0.004821246    2.094    0.523
        35 -13.5442     57.8536    130.8067   1.3245841771e+02   4.1563029314e+01     2.035692    0.6446671 -72.53  0.005595174    6.151    0.837
        36 -10.7760    100.4876    133.5917   1.2214167910e+02   3.4890333526e+01    0.2661236    0.2245928 -24.46 0.0007892267    1.421    0.296
        37  -9.5934    109.0002    123.5136   1.1787413708e+02   3.5646727845e+01    0.1988057    0.1849885 -53.98 0.0003357788    1.041    0.040
        38 -13.9657     10.7935    207.0223   1.4973239897e+02   3.0657624810e+01     0.941398    0.6725197  35.04  0.005000855    1.748    0.428
        39 -11.1498    168.2824    113.4537   1.0116789758e+02   2.5651891443e+01     0.406502    0.3328913 -78.36  0.001186837    1.603    0.376
        40 -11.1802     66.3038    243.1891   1.4286597146e+02   1.8372271142e+01    0.1771288     0.153196  74.03 0.0006955014    1.248    0.199
        41 -13.1048     49.8257    229.1077   1.4457486408e+02   2.2685719713e+01    0.4150421    0.3420349 -89.88 0.0009031487    1.257    0.205
        42 -13.5161     89.3359    166.2776   1.3037851961e+02   2.9576162700e+01     3.127024    0.7334505  48.84  0.002764005    5.299    0.811
        43 -15.5999     58.5339    216.0353   1.4208464699e+02   2.3949071458e+01     6.608075    0.9848001  43.67   0.02174161    4.231    0.764
        44  -9.3515    184.6892     77.6331   8.7964883796e+01   2.8197902924e+01    0.1624967    0.1170086  14.10 0.0007037645    1.761    0.432
        45  -9.2395    154.3465     76.2959   9.3933462342e+01   3.5738703108e+01    0.1605663    0.1172996  17.35  0.000527514    1.673    0.402
        46 -14.1680     31.9518    246.2681   1.4846540226e+02   2.1825373208e+01     1.656253    0.6802226  41.55   0.01064536    2.094    0.522
        47 -11.0851    162.5894    248.9110   1.2713584550e+02   3.8061885353e+00    0.2341059    0.1648125  40.75  0.001609453    1.094    0.086
        48 -12.6192     32.7891    205.2124   1.4582847351e+02   2.8844465665e+01    0.3972564    0.2339057  78.38  0.001477528    1.459    0.315
