#   1 NUMBER                 Running object number                                     
#   2 MAG_AUTO               Kron-like elliptical aperture magnitude                    [mag]
#   3 X_IMAGE                Object position along x                                    [pixel]
#   4 Y_IMAGE                Object position along y                                    [pixel]
#   5 X_WORLD                Barycenter position along world x axis                     [deg]
#   6 Y_WORLD                Barycenter position along world y axis                     [deg]
#   7 A_WORLD                Profile RMS along major axis (world units)                 [deg]
#   8 B_WORLD                Profile RMS along minor axis (world units)                 [deg]
#   9 THETA_WORLD            Position angle (CCW/world-x)                               [deg]
#  10 FWHM_WORLD             FWHM assuming a gaussian core                              [deg]
#  11 ELONGATION             A_IMAGE/B_IMAGE                                           
#  12 ELLIPTICITY            1 - B_IMAGE/A_IMAGE                                       
         1 -12.6235    216.1275     35.2954   2.8959486775e+02   6.0215958129e+00    0.1217128   0.07633334  81.92   0.01084359    2.475    0.596
         2 -11.1161    226.0738     26.6954   2.8942435503e+02   6.0569144581e+00   0.03542058   0.02277131  -7.03  0.001614631    2.157    0.536
         3 -11.2100    237.5610     11.0554   2.8919140163e+02   6.1623151878e+00   0.04121565     0.022118  70.09  0.002950489    3.842    0.740
         4 -10.2115    203.2607     17.6921   2.8963424031e+02   6.3016398254e+00   0.02172913   0.01728317  45.92  0.002455635    1.286    0.222
         5  -9.8123    221.7425     14.3492   2.8939705478e+02   6.2239670583e+00   0.02918372   0.01954084  64.62  0.002860682    1.932    0.482
         6  -8.3237    186.5277      9.9884   2.8978136296e+02   6.4935506288e+00   0.01343496  0.008631764  47.17  0.001015821    1.651    0.394
         7 -11.4131    119.6112      9.6548   2.9056286725e+02   6.9147664292e+00   0.03632994   0.02978963  35.68  0.002595705    1.196    0.164
         8 -10.0746    212.2763      4.4021   2.8944492799e+02   6.3959203091e+00   0.02755358   0.01632089  79.44  0.001671023    2.934    0.659
         9  -9.8308    143.5805      6.3900   2.9026145010e+02   6.8024210104e+00   0.02262885  0.009518482 -51.14  0.001842597    2.320    0.569
        10  -9.0805      2.3937      8.2433   2.9192909101e+02   7.6583683420e+00  0.009327468  0.006524398 -76.68 0.0009493502    1.668    0.400
        11  -9.7747    243.2187      4.5349   2.8908412924e+02   6.2007792077e+00   0.02097565   0.01939896  -4.83  0.001678893    1.105    0.095
        12  -9.5029    249.3516      2.9408   2.8900242388e+02   6.1804347461e+00   0.02088227   0.01610097  49.57  0.002314146    1.363    0.267
        13  -9.0865    181.2648      5.7795   2.8981638814e+02   6.5741462203e+00   0.01672838   0.01084804  22.09  0.001690329    1.582    0.368
        14  -9.6613    182.1143      1.9223   2.8978210276e+02   6.6125675977e+00   0.03091892   0.01326092  44.80  0.002438126    2.546    0.607
        15  -9.1371    172.0150      2.4988   2.8990394523e+02   6.6691085583e+00   0.01722269   0.01420031  53.93  0.001491371    1.292    0.226
        16  -9.1823    236.4526      1.9201   2.8914666569e+02   6.2727659272e+00   0.01824897  0.009716344  31.47 0.0009373511    1.801    0.445
        17  -9.0826     66.4761    144.5290   2.9203307161e+02   5.7129273024e+00   0.01972993    0.0156214 -83.40  0.002190303    1.451    0.311
        18  -7.5772    204.7348    136.6693   2.9036650886e+02   4.9420832390e+00   0.00685973  0.004934873 -29.69 0.0003449148    1.577    0.366
        19  -9.0060    135.8641    135.7532   2.9116592664e+02   5.3815852334e+00   0.01033843   0.01000243 -19.88 0.0003897165    1.036    0.034
        20 -12.2455    244.7059    116.2226   2.8977104924e+02   4.9247423067e+00   0.06651387   0.02271301 -56.31  0.001044694    2.760    0.638
        21  -8.9487    199.8169    124.1658   2.9034533284e+02   5.1147748768e+00   0.01377194   0.01019229 -14.31            0    1.614    0.381
        22  -8.3532    132.6237    120.8780   2.9111041043e+02   5.5708019107e+00   0.01057773  0.008860111  13.29 0.0003202486    1.224    0.183
        23  -9.3842    167.7346    113.6128   2.9065400994e+02   5.4346853387e+00   0.01408517   0.01204613  86.28 0.0006522454    1.321    0.243
        24  -7.2886     56.2848    110.2561   2.9193757327e+02   6.1658008236e+00  0.006514453  0.005021599 -20.41 0.0002173654    1.477    0.323
        25  -9.1383    191.6710    101.8537   2.9030015559e+02   5.4189849337e+00   0.01034474  0.008864962  25.23 0.0005294238    1.148    0.129
        26  -9.6005    187.1714    100.7277   2.9034567272e+02   5.4598418741e+00   0.01546666  0.009724583  53.51  0.001492907    1.852    0.460
        27 -10.4605    248.9026     95.7652   2.8959321481e+02   5.1306999786e+00   0.02760388   0.01745222 -87.57  0.002541493    2.250    0.556
        28 -10.8894    243.9329     95.3795   2.8964880562e+02   5.1661367164e+00   0.01948789    0.0156987 -83.33  0.002186938    1.415    0.293
        29  -8.6263    195.6809     96.9607   2.9022248203e+02   5.4495251504e+00  0.009137138  0.008726493 -58.73 0.0004813272    1.070    0.065
        30  -8.6044    148.5819     94.8126   2.9075982475e+02   5.7675853754e+00   0.01207801   0.00943459  24.17 0.0007039674    1.269    0.212
        31  -7.5917    135.0910     93.1849   2.9090747421e+02   5.8700931277e+00  0.009742436   0.00752562  52.31  0.001062587    1.389    0.280
        32  -9.5689    160.0779     85.1119   2.9056427863e+02   5.8061269182e+00   0.02407889   0.01410941 -16.62    0.0020182    2.681    0.627
        33  -8.7324    249.8311     85.1115   2.8951524564e+02   5.2457825307e+00   0.01021077  0.008889472  59.59 0.0005432889    1.232    0.189
        34 -10.5594    240.7714     83.2910   2.8960955421e+02   5.3230735394e+00   0.02167967   0.01400835  43.88  0.002199225    1.582    0.368
        35 -10.8972    181.8211     78.4210   2.9026781055e+02   5.7465045605e+00   0.03756775   0.02464088 -78.48  0.003700845    1.878    0.468
        36 -10.7963    175.6554     71.5581   2.9029670901e+02   5.8628842019e+00   0.02942624   0.02274862 -42.56  0.001770624    1.327    0.246
        37  -8.9782    142.4541     83.6549   2.9076134983e+02   5.9324897713e+00   0.01333344   0.01195956 -77.70 0.0007650504    1.190    0.160
        38 -10.7107    238.1004     74.6175   2.8958608363e+02   5.4381815887e+00    0.0269336   0.02010541 -51.97  0.002964734    1.342    0.255
        39 -10.2152    157.1744     74.0019   2.9052832387e+02   5.9503862120e+00   0.01655235   0.01167344 -46.29   0.00104972    1.440    0.306
        40  -7.6621    215.4416     74.5920   2.8985063830e+02   5.5800699479e+00  0.006563503  0.006364593  17.31  5.27884e-05    1.010    0.010
        41  -8.0547    215.2738     68.0414   2.8981131897e+02   5.6554550489e+00   0.01842042  0.008779292  47.68  0.001532219    2.414    0.586
        42  -8.8313    209.8134     63.5283   2.8984669592e+02   5.7407800854e+00   0.02678109   0.01248339  59.31  0.001754162    4.196    0.762
        43  -8.5788    203.4281     56.8563   2.8987928643e+02   5.8563739157e+00   0.03078278   0.01347239  61.08  0.001535485    7.561    0.868
        44  -9.6701    192.3997     55.9953   2.9000281560e+02   5.9350201456e+00   0.01500774   0.01231494  -1.05  0.001336243    1.330    0.248
        45 -10.5246    197.6857     51.9182   2.8991530179e+02   5.9482719981e+00   0.02346928   0.01871355 -31.60  0.001208414    1.343    0.255
        46  -8.0007    207.3600     66.6597   2.8989510860e+02   5.7205710117e+00  0.007295684   0.00494138  61.30 0.0007035757    1.827    0.453
        47  -9.2077    182.4073     64.8804   2.9017566923e+02   5.8965565423e+00   0.01218984   0.01175073 -26.60 0.0003853182    1.042    0.041
        48 -11.2829    227.8056     48.7592   2.8954331126e+02   5.7958832113e+00   0.04847099   0.02899846  86.60   0.00409713    2.752    0.637
        49  -9.3150     72.0225    243.2261   2.9258550536e+02   4.5560132195e+00   0.01123375  0.009299693 -48.02 0.0003035004    1.217    0.178
        50 -11.2289    165.4474     54.6884   2.9030988313e+02   6.1180569406e+00    0.0684239   0.03037327  59.80  0.003989502    5.551    0.820
        51  -8.6188    159.9882     58.6820   2.9039892754e+02   6.1067731173e+00   0.01096164  0.008737318 -44.48 0.0002128098    1.275    0.215
        52  -7.8503      6.8152    233.2573   2.9328563869e+02   5.0730252016e+00  0.008946283  0.007436954 -19.15 0.0003171036    1.310    0.237
        53 -10.4627    149.7011     44.4687   2.9042980708e+02   6.3322435345e+00   0.02364205    0.0125874  46.39  0.002135427    2.038    0.509
        54  -7.9485    188.2254     42.9859   2.8996963340e+02   6.1086981017e+00    0.0114113  0.006943914 -34.57  0.001038153    1.934    0.483
        55  -7.6782    184.7683     40.3892   2.8999370265e+02   6.1597454665e+00  0.009300578  0.006389423  14.25 0.0009414208    1.593    0.372
        56  -9.7935    137.4667     44.3444   2.9057227692e+02   6.4099051356e+00   0.01527765   0.01113585  56.54  0.001135364    1.554    0.357
        57  -9.8660    134.3383     37.3946   2.9056513551e+02   6.5082772103e+00   0.02156233   0.01068893 -47.83  0.001922747    2.046    0.511
        58  -7.1055    179.3176     29.6395   2.8998969353e+02   6.3157264238e+00  0.007138925  0.005027851  64.55 0.0007042952    1.762    0.433
        59  -7.7127    163.4444     29.5098   2.9017464410e+02   6.4162702419e+00  0.006569999  0.006467175  15.47 8.022601e-05    1.010    0.010
        60  -7.9487    110.7808     29.1989   2.9078949758e+02   6.7479891635e+00   0.01554779  0.003766992  34.92 0.0009628779    3.515    0.716
        61  -7.6387    100.6698     28.3345   2.9090255337e+02   6.8207132786e+00   0.00711097   0.00500858  62.22 0.0007052111    1.727    0.421
        62  -7.8228    164.1573     20.6753   2.9011059289e+02   6.5120382079e+00  0.009280805  0.008162868 -68.99  0.001001983    1.190    0.160
        63 -10.3118    146.0442     20.5369   2.9032180049e+02   6.6265961705e+00   0.01188508   0.01026855 -56.95 9.127038e-05    1.173    0.148
        64  -9.4888    249.6850     17.9964   2.8909360243e+02   6.0077600466e+00   0.01726438   0.01302711 -60.69  0.001457753    1.352    0.261
        65  -7.8568    138.4282    228.4345   2.9171702306e+02   4.3120371768e+00   0.00659891  0.006363354 -10.30 0.0001467082    1.037    0.036
        66 -11.9790      7.1841    221.2417   2.9320643516e+02   5.2074475877e+00   0.04568918    0.0441396 -67.01  0.004240822    1.066    0.062
        67  -8.7042     49.7543    222.4047   2.9271584008e+02   4.9308231543e+00   0.01145789  0.009030578 -58.49 0.0003271759    1.284    0.221
        68  -7.5814     46.5104    209.5510   2.9267350785e+02   5.0971310342e+00  0.006631589  0.006413189  -2.02 0.0001642456    1.028    0.027
        69 -12.4920     37.7660    195.1263   2.9268569381e+02   5.3153683095e+00   0.05537872   0.04096203  -9.17   0.00585668    1.616    0.381
        70 -12.0388     50.4963    183.6797   2.9246518586e+02   5.3667279275e+00   0.04986442   0.04504242  -2.18  0.004109526    1.142    0.124
        71  -7.4498     68.2325    198.9816   2.9235336891e+02   5.0827492019e+00  0.008203775  0.005590048 -61.46 0.0003027466    1.500    0.333
        72  -9.8403    191.5413    188.1235   2.9084388316e+02   4.4397500061e+00   0.01158935   0.01041058  27.52 0.0002927175    1.091    0.084
        73 -11.3827    174.8092     53.7419   2.9019437611e+02   6.0703933588e+00    0.0325014   0.01509702 -42.68  0.002715159    2.411    0.585
        74  -7.6772    191.7539    173.0750   2.9074692587e+02   4.6094186660e+00  0.008238845  0.005744466 -63.86 0.0003252728    1.491    0.329
        75  -7.8381     20.6649    168.6810   2.9272057618e+02   5.7220364446e+00  0.007105049  0.005001348 -23.66  0.000376208    1.700    0.412
        76  -8.2585     19.1999    151.1096   2.9262786066e+02   5.9309656502e+00  0.009153485  0.007625049  55.02 0.0006650063    1.283    0.220
        77  -9.5115    239.4633    149.4908   2.9004159660e+02   4.5797800742e+00   0.01434258  0.006769544  47.43  0.001181372    2.430    0.588
        78  -8.6812     69.8105    145.6066   2.9200078643e+02   5.6799909116e+00   0.01470484   0.01131798  41.41  0.001019032    1.299    0.230
