#   1 NUMBER                 Running object number                                     
#   2 MAG_AUTO               Kron-like elliptical aperture magnitude                    [mag]
#   3 X_IMAGE                Object position along x                                    [pixel]
#   4 Y_IMAGE                Object position along y                                    [pixel]
#   5 X_WORLD                Barycenter position along world x axis                     [deg]
#   6 Y_WORLD                Barycenter position along world y axis                     [deg]
#   7 A_WORLD                Profile RMS along major axis (world units)                 [deg]
#   8 B_WORLD                Profile RMS along minor axis (world units)                 [deg]
#   9 THETA_WORLD            Position angle (CCW/world-x)                               [deg]
#  10 FWHM_WORLD             FWHM assuming a gaussian core                              [deg]
#  11 ELONGATION             A_IMAGE/B_IMAGE                                           
#  12 ELLIPTICITY            1 - B_IMAGE/A_IMAGE                                       
         1 -13.4095    212.9634     38.7367   4.6083092847e+01   2.7254393473e+01     1.298096     1.259891 -62.14  0.006693343    1.141    0.123
         2 -13.1266      3.8749     22.6592   1.0211367084e+02   7.0656494620e+01    0.8223587    0.3640913 -48.02  0.004733558    1.673    0.402
         3 -12.8718      4.8202      7.1467   9.5225954233e+01   7.3230676469e+01    0.9672354    0.4934027 -35.33  0.006086562    1.487    0.328
         4 -13.4320    230.8658     22.6714   4.0224122223e+01   2.5080348166e+01    0.9169463    0.8143433  67.84  0.002292423    1.259    0.206
         5 -12.3049     97.2816    229.0241   1.1167013683e+02   1.4424305189e+01    0.9013216   0.09902091  44.46  0.002523184    5.774    0.827
         6 -12.7759    138.5409    248.9956   1.0592446038e+02   4.6255454126e+00     0.897429    0.2252737  38.35   0.00334347    3.364    0.703
         7 -12.0335     62.5081    249.5131   1.2003602190e+02   1.5533223335e+01    0.4897163    0.2345814  60.29  0.002806925    1.799    0.444
         8 -11.5072     66.8068    246.4520   1.1903996053e+02   1.5516638719e+01    0.3022197    0.2102797 -79.07    0.0015804    1.498    0.332
         9 -15.5045      7.1585    144.1620   1.2305399235e+02   4.3695381610e+01     13.21757     2.878665 -82.49   0.03490553    7.098    0.859
        10 -11.5367     55.7578    210.9739   1.1822181698e+02   2.3780397223e+01    0.4973119    0.1497505  55.95  0.001843101    3.747    0.733
        11 -11.4601     80.6830    248.6965   1.1670615506e+02   1.3254729312e+01    0.2853975    0.2440474 -41.35  0.002030539    1.786    0.440
        12 -11.7323     44.7944    187.3427   1.1835017727e+02   3.0196325424e+01    0.2606362    0.2265698 -76.17 0.0004571653    1.237    0.192
        13 -11.8712     52.7474    179.9423   1.1582367488e+02   3.0912249904e+01       0.2521     0.224912 -86.14 0.0004113841    1.150    0.130
        14 -10.0457    249.1933    237.3936   8.3891815170e+01  -1.0511997357e+01    0.1578082   0.09422394  38.59 0.0009621298    1.743    0.426
        15 -10.6831     65.6822    168.6050   1.1141795427e+02   3.1877312656e+01    0.2379826    0.2118185 -84.09 0.0003399768    1.082    0.076
        16 -13.0198     50.8092    165.8659   1.1467596584e+02   3.4408104311e+01    0.5097559    0.2934848 -44.16  0.001554894    2.276    0.561
        17 -11.8025     74.4079    160.8164   1.0816269428e+02   3.2511654840e+01    0.6199537    0.4760598 -46.43  0.003395192    1.479    0.324
        18 -10.2075     90.0523    147.4277   1.0189048327e+02   3.3351550348e+01    0.3138119    0.2779548  72.65 0.0008389067    1.107    0.097
        19 -11.7939     77.8305    145.2852   1.0477243105e+02   3.5757356252e+01    0.3182408    0.2363391 -58.73 0.0008302388    1.274    0.215
        20 -11.8268     67.7480    143.8235   1.0724066260e+02   3.7545149881e+01    0.6735056    0.4240188  66.01  0.002498901    1.860    0.462
        21  -9.0710     93.9274    143.4863   1.0012016535e+02   3.3668792466e+01    0.2128449    0.1865962 -67.24 0.0003335885    1.086    0.079
        22  -9.9586    105.4842    133.1741   9.4883310849e+01   3.4142858551e+01    0.4304556    0.2900411 -21.13  0.001773116    2.322    0.569
        23 -10.2190     91.0029    130.6971   9.8369715159e+01   3.7247159898e+01    0.2455328    0.2012292 -52.38 0.0003753785    1.180    0.152
        24  -8.9342    103.4525    121.4905   9.2817389592e+01   3.7296480170e+01    0.1509145    0.1439615 -61.00  0.000120169    1.010    0.010
        25 -13.3037     30.1701    201.0534   1.2256152851e+02   2.8850707798e+01    0.7754696    0.6867628  52.81  0.004097388    1.334    0.250
        26  -9.8849    247.3168    120.6599   6.1100783279e+01   6.8110063665e+00    0.1398364    0.1017827 -61.02 0.0007048628    1.707    0.414
        27 -10.0427    249.5040    113.0168   5.9048163414e+01   7.6415632279e+00    0.2025058   0.09957028 -52.58 0.0008100643    2.510    0.602
        28 -11.6733    242.7063     94.1059   5.5686194599e+01   1.2091723337e+01    0.3267334    0.2049799 -48.57  0.001609397    1.512    0.339
        29 -13.8683      5.5197    245.8434   1.2944291605e+02   2.2650029095e+01       1.5122     1.101752  52.85   0.01091394    1.321    0.243
        30  -9.0012    163.7131     81.6684   6.6371156510e+01   3.2672264289e+01    0.1567382    0.1238272   9.91 0.0003218873    1.620    0.383
        31 -15.1639     15.2906    211.8370   1.2613106552e+02   2.8145731659e+01     1.583194     1.196304  87.84   0.01174357    1.150    0.130
        32 -10.3615    249.0021    249.2374   8.5837432276e+01  -1.1814610170e+01    0.2388054    0.1283285  16.29  0.001422553    1.721    0.419
        33 -13.2196    112.3669    248.9746   1.1086280390e+02   8.6383260979e+00       1.0674    0.3304684  38.98  0.004568301    2.675    0.626
        34 -10.9835    127.3538    232.7433   1.0612318140e+02   9.0780686782e+00    0.2545776    0.1279415  47.89  0.001278645    1.708    0.415
