#   1 NUMBER                 Running object number                                     
#   2 MAG_AUTO               Kron-like elliptical aperture magnitude                    [mag]
#   3 X_IMAGE                Object position along x                                    [pixel]
#   4 Y_IMAGE                Object position along y                                    [pixel]
#   5 X_WORLD                Barycenter position along world x axis                     [deg]
#   6 Y_WORLD                Barycenter position along world y axis                     [deg]
#   7 A_WORLD                Profile RMS along major axis (world units)                 [deg]
#   8 B_WORLD                Profile RMS along minor axis (world units)                 [deg]
#   9 THETA_WORLD            Position angle (CCW/world-x)                               [deg]
#  10 FWHM_WORLD             FWHM assuming a gaussian core                              [deg]
#  11 ELONGATION             A_IMAGE/B_IMAGE                                           
#  12 ELLIPTICITY            1 - B_IMAGE/A_IMAGE                                       
         1 -14.4831    237.6585     40.8796   3.7380277119e+01   2.2283842105e+01     2.867825    0.2704134 -44.38  0.008618494    5.348    0.813
         2 -13.5215    249.3577     12.3433   3.0838629062e+01   2.3451994490e+01     1.560907    0.5858643 -47.03  0.008226492    2.079    0.519
         3 -14.0049    248.5412     48.3343   3.7879864069e+01   1.9106443910e+01     2.855416    0.4797763 -48.40  0.008917816    5.022    0.801
         4 -13.9914    243.1164     24.4433   3.3609745429e+01   2.3265469542e+01     2.017293    0.3622715 -44.36    0.0077382    3.638    0.725
         5 -12.8194    223.4414     22.7218   3.4887068777e+01   2.7547170220e+01    0.3488476    0.3124341 -51.39  0.002443975    1.277    0.217
         6 -10.5057    147.5326     20.0211   4.3207604394e+01   4.5431228628e+01    0.1831153    0.1312837 -30.96 0.0008098182    1.577    0.366
         7  -9.7782    160.5180      9.0075   3.8243271858e+01   4.3432576053e+01    0.1734502    0.1278829 -28.65 0.0009147018    1.589    0.371
         8 -10.5413    153.5683      4.1948   3.7806249331e+01   4.5527681719e+01    0.2131225    0.1385022 -44.14 0.0009350735    1.656    0.396
         9  -9.8493    148.4489      7.9516   3.9559511355e+01   4.6406356007e+01    0.1764014    0.1263883 -30.13  0.001033082    1.610    0.379
        10  -9.9335    138.3141      7.9816   4.1061034058e+01   4.8813985108e+01    0.2043284   0.06419326 -47.12 0.0007045669    4.250    0.765
        11 -10.3886    189.8355      7.0849   3.4497819696e+01   3.6747718120e+01    0.1924292    0.1386455 -70.50 0.0005451583    1.251    0.201
        12  -9.6948    143.5722      3.7649   3.9027482548e+01   4.7937552996e+01    0.1676401    0.1110895 -44.29 0.0009532764    1.662    0.398
        13  -9.9699    221.2578      1.5588   3.0660738627e+01   3.0353332102e+01    0.1609422   0.09199188  67.64 0.0009486222    1.686    0.407
        14  -9.8394    148.6573    240.3388   9.4150483089e+01   3.4656016764e+00    0.1311244   0.09406236  61.35 -0.0001620456    1.772    0.436
        15 -10.9987    193.5487    248.9643   8.6385389605e+01  -4.6063921389e+00    0.2796892    0.2287336 -38.81  0.001813057    1.469    0.319
        16  -9.5066    176.2849    239.6258   8.8371855904e+01  -6.5102328496e-01    0.1178931   0.09878202  67.22 0.0007016524    1.713    0.416
        17 -10.7406    207.1707    237.3903   8.1972962594e+01  -4.8155602690e+00    0.3042147    0.2318614  62.31  0.001686989    2.363    0.577
        18 -10.7012    203.3564    232.8167   8.1959374293e+01  -3.5829297231e+00    0.2501382    0.1921737  49.51 0.0008020901    1.719    0.418
        19 -10.4476    193.0113    238.0485   8.4805551363e+01  -2.8858103595e+00    0.2719512    0.1956084  57.62    0.0014612    2.153    0.535
        20 -10.3355    189.5103    234.5393   8.4938147171e+01  -1.8197868224e+00    0.2144734    0.1646629 -47.65  0.001301267    1.598    0.374
        21  -9.6845    237.3063    235.6565   7.6190128944e+01  -8.5948548583e+00   0.09698232   0.09644316 -38.24 0.0004792129    1.690    0.408
        22 -11.0052    216.4688    234.0412   7.9682904919e+01  -5.6155807796e+00    0.2942393    0.2550608 -50.79  0.001963156    1.666    0.400
        23 -10.3931    247.9940    234.0352   7.4080480083e+01  -9.6988279046e+00    0.1480232    0.1437081 -17.42 0.0006893524    1.663    0.399
        24  -9.8667    240.2439    240.4584   7.6464656697e+01  -9.6050663054e+00     0.143675    0.0990966  34.45 0.0005775441    1.607    0.378
        25  -9.9950    225.7252    231.5898   7.7578860140e+01  -6.5182713595e+00     0.180366    0.1477727 -50.23 0.0008501287    1.776    0.437
        26 -10.6605    235.5079    229.3566   7.5456816664e+01  -7.4922673228e+00    0.2465429    0.1968492 -36.26  0.001365416    1.475    0.322
        27 -10.2281    229.8741    228.5674   7.6324914093e+01  -6.6388114392e+00    0.2108318    0.1541706 -49.54 0.0009064363    1.935    0.483
        28  -9.9822    211.8384    227.5706   7.9475456984e+01  -3.9992048876e+00    0.1992744    0.1400784 -37.16  0.001195524    1.495    0.331
        29 -10.4009    199.2013    227.1075   8.1823529494e+01  -2.0825301036e+00    0.2070798    0.1828685 -62.84   0.00130919    1.641    0.391
        30 -10.2019    184.8814    228.0330   8.4815976986e+01  -6.3858007941e-02    0.1856807    0.1719705  48.41 0.0009173027    1.337    0.252
        31 -11.3887    241.3101    222.1374   7.3217204919e+01  -7.2239453402e+00    0.4066817    0.3346006  69.88   0.00243849    2.574    0.612
        32  -9.4657    158.4760    231.4953   9.0803203311e+01   3.4765023556e+00    0.1316106    0.1150223  31.30 9.734836e-05    1.053    0.050
        33  -9.7576    162.7044    227.3678   8.9280156435e+01   3.5341188660e+00    0.1279861    0.1025189  69.50 0.0007029605    1.724    0.420
        34 -10.6323    206.0349    225.2717   8.0193787713e+01  -2.8028496211e+00    0.2610362     0.174155 -43.49  0.001489046    1.687    0.407
        35 -10.2921    190.6342    225.6472   8.3271389919e+01  -5.5297079339e-01    0.2343147    0.1558748 -41.20  0.001130991    1.618    0.382
        36  -9.2582    104.6622    225.3201   1.0163367708e+02   1.3187174978e+01    0.1419468   0.09206914  62.99 0.0007049884    1.710    0.415
        37 -10.4350    217.0842    223.1240   7.7738853985e+01  -4.0687400118e+00    0.2499039    0.1766292 -62.02  0.001307873    2.612    0.617
        38 -10.8632    247.2416    226.4323   7.2933848847e+01  -8.5789596152e+00    0.2382422    0.1729753  22.56  0.001604871    1.329    0.247
        39 -10.5881    193.3790    219.0320   8.1612684295e+01   1.2129745036e-01    0.2916715    0.2255705 -71.93  0.001508971    2.189    0.543
        40 -11.2848    248.2731    217.6029   7.1245902358e+01  -7.4764953195e+00    0.3642681    0.2768838 -43.46   0.00238015    1.656    0.396
        41  -9.7982    211.0164    218.9868   7.8169816159e+01  -2.5450927433e+00    0.1749139    0.1629869  77.22 0.0009807899    1.641    0.390
        42  -9.6257    159.0000    218.0042   8.8581345402e+01   5.8379597022e+00    0.2068945   0.07784317 -48.66 0.0007988455    2.918    0.657
        43 -10.2267    219.9308    217.1484   7.6178585710e+01  -3.5561575553e+00    0.1766558    0.1678204   2.34   0.00116607    1.306    0.234
        44 -11.1842    226.4218    213.1441   7.4286228564e+01  -3.8658344742e+00    0.4682381    0.2332231 -52.26  0.002025669    3.277    0.695
        45  -9.4701    138.2451    214.9554   9.2654129073e+01   9.8747903774e+00    0.1658162    0.1191281 -53.84 0.0005759195    1.546    0.353
        46 -10.6651    233.1733    213.1315   7.3073651122e+01  -4.8120444829e+00    0.2720266    0.1858878 -31.31  0.001650837    1.352    0.261
        47 -10.9579    217.2987    211.8233   7.5731264968e+01  -2.3344044479e+00    0.2643878     0.248478  67.78  0.001731626    1.572    0.364
        48  -9.6073    205.2515    212.6413   7.8168575189e+01  -6.5036539618e-01    0.1147486    0.1043793 -72.69 0.0003746647    1.609    0.379
        49 -10.8695    240.7614    208.5188   7.0928835122e+01  -5.1606221520e+00    0.4168594    0.2274834 -54.82  0.001820198    3.574    0.720
        50 -10.1136    193.3908    210.2690   8.0090160386e+01   1.6114789409e+00    0.1770063    0.1249869 -50.01 0.0007420437    1.671    0.402
        51 -10.6280    247.3620    206.7741   6.9494642079e+01  -5.7899083023e+00    0.3235059    0.1559622 -46.75  0.001563561    2.550    0.608
        52 -10.4532    243.5023    201.4734   6.9193592258e+01  -4.4721853316e+00    0.2590883    0.2145562 -44.50  0.001590173    1.493    0.330
        53 -10.2902    206.5745    207.8150   7.7054192386e+01  -5.1872008248e-02    0.1774898    0.1216638 -49.07 0.0009520962    1.733    0.423
        54  -9.5513    183.0012    206.9923   8.1630027750e+01   3.8837767227e+00    0.1637223    0.1476174 -13.01 0.0007939638    1.085    0.078
        55 -10.1634    217.3233    204.9741   7.4498006879e+01  -1.2320771247e+00    0.1866353    0.1490255 -24.91 0.0009302684    1.162    0.139
        56  -9.4696    171.6758    208.2920   8.4236598064e+01   5.5358593865e+00    0.1313447    0.1073406  65.70 0.0007015934    1.615    0.381
        57 -10.0497    197.5361    203.7397   7.8092656267e+01   2.0798738334e+00    0.2505026    0.1235638 -37.79  0.001138581    2.038    0.509
        58 -10.2502    187.3001    203.2911   8.0081669095e+01   3.8395264021e+00    0.2508912    0.1686642 -65.99  0.001159927    2.453    0.592
        59 -10.1993    250.2672    201.5846   6.8079987259e+01  -5.4075635700e+00    0.2211922    0.1436936 -32.35 0.0007756896    1.347    0.257
        60 -10.2764    224.5401    192.3104   7.0829161974e+01  -2.4730594363e-01    0.2415238    0.1172866 -42.73 0.0009057836    2.019    0.505
        61 -10.9650    228.7419    201.4540   7.1766144036e+01  -2.3673849247e+00    0.2704761    0.1594431 -40.92  0.001156684    1.677    0.404
        62 -10.6534    226.8073    196.7919   7.1255766212e+01  -1.3290758728e+00    0.2108262     0.152855 -52.18 0.0009582191    1.771    0.435
        63  -9.7849    210.2677    200.6303   7.5038266348e+01   5.8092038966e-01    0.1204353    0.1057739 -71.12 0.0006992707    1.664    0.399
        64 -10.5163    237.3693    198.0406   6.9619443342e+01  -3.0796172860e+00    0.1959957    0.1877666  74.35  0.001323516    1.567    0.362
        65 -10.1346    202.2836    197.3992   7.5988892268e+01   2.4191650788e+00    0.2223072    0.1656367 -58.31  0.001180948    1.800    0.445
        66 -11.0758    231.0871    194.3572   7.0039013519e+01  -1.5748410114e+00    0.4492873    0.1570092 -38.12  0.001853266    2.641    0.621
        67  -9.8411    172.8429    203.3891   8.3127316791e+01   6.2577662198e+00    0.1785092    0.1739781 -35.88 0.0006357493    1.162    0.139
        68 -10.7317    246.4002    193.0517   6.7166677662e+01  -3.5830045533e+00    0.3037452    0.2068739 -57.60   0.00162475    2.345    0.574
        69  -9.6884    219.2079    194.4108   7.2200213337e+01   2.2861571231e-01    0.1706354    0.1213724  45.65 0.0007798939    1.662    0.398
        70  -9.7764    146.0000    192.9839   8.7236004959e+01   1.3036437628e+01    0.2289644   0.08275864 -50.37 0.0007991355    2.920    0.657
        71 -10.5313    241.6762    191.5856   6.7688765261e+01  -2.6834048831e+00    0.1962618    0.1422912 -49.34   0.00076855    1.678    0.404
        72 -10.2294    198.8144    190.5613   7.5389514951e+01   4.2151795996e+00    0.2606649    0.1778606 -55.56  0.001244937    1.851    0.460
        73  -9.4989    172.6612    191.3327   8.0968864566e+01   8.6098972595e+00    0.1407024    0.1139571  77.11 0.0007051787    1.745    0.427
        74  -9.3441    185.3285    190.3094   7.8087570579e+01   6.5771215721e+00    0.1445992     0.104707  -1.66 0.0007040227    1.662    0.398
        75 -10.4109    237.0254    187.1929   6.7660051784e+01  -1.3009173730e+00    0.2295948     0.166138 -31.45  0.000752853    1.222    0.182
        76 -10.1055    210.4855    188.0539   7.2635725294e+01   2.7180091592e+00    0.2059091    0.1244084 -39.40  0.001030635    1.586    0.369
        77  -9.7781    176.3940    197.2727   8.1267309536e+01   6.8077698236e+00    0.1853587    0.1333601 -54.47 0.0006940528    1.624    0.384
        78  -9.6213    250.0285    185.9963   6.5261247193e+01  -2.9980709381e+00    0.1527614    0.1250701 -17.96 0.0008217554    1.001    0.001
        79 -10.4867    223.9306    183.9394   6.9348020592e+01   1.2552764308e+00    0.2909346    0.1755045 -50.27  0.001130329    1.944    0.486
        80  -9.9169     77.7642    185.6323   1.0270978595e+02   2.6123177934e+01    0.2002317    0.1196338  44.90 0.0009414867    1.590    0.371
        81 -10.5213    210.4791    183.0321   7.1668005761e+01   3.6072061042e+00    0.3090357    0.1210661 -36.32  0.001099917    2.567    0.610
        82 -10.6225    241.5556    181.4120   6.5796362554e+01  -1.0406604458e+00    0.2754602    0.2128757 -48.52  0.001269533    1.492    0.330
        83 -10.0311    215.2702    186.8567   7.1501851409e+01   2.1454656777e+00    0.2036217    0.1558394 -49.16 0.0006673543    1.485    0.327
        84  -9.9211    183.4651    182.5118   7.6977094920e+01   8.4009087617e+00    0.1412103    0.1320403  -1.39 3.717021e-05    1.006    0.006
        85  -9.9743    235.9271    180.9887   6.6669357802e+01  -1.2166570000e-01    0.1852845    0.1574356 -63.72 0.0008000534    1.647    0.393
        86  -9.5232    176.7142    181.3580   7.8186573322e+01   9.8491806941e+00    0.1396833    0.1159992 -88.20 0.0005089954    1.677    0.404
        87 -10.3154    247.8148    178.3306   6.4178749860e+01  -1.4700650614e+00    0.3087904    0.1496173 -49.01  0.001414635    2.459    0.593
        88 -10.4864    219.2654    178.1581   6.9074456467e+01   3.0079419109e+00    0.2816238    0.1503232 -48.91  0.001286724    2.080    0.519
        89  -9.4080    165.6581    179.7153   8.0286629011e+01   1.2215647328e+01    0.1485593    0.1123561   1.15 0.0007016694    1.638    0.389
        90 -10.4162    227.2211    176.7432   6.7364743791e+01   1.9569633983e+00    0.3388565    0.1962907 -11.38  0.001463167    2.615    0.618
        91 -10.6979    205.3570    176.9903   7.1464769840e+01   5.5709239108e+00     0.297599    0.2240175 -41.69 0.0009314663    1.307    0.235
        92 -10.1617    197.8008    176.5584   7.2864063096e+01   6.9766468937e+00    0.2678987    0.1782412 -55.96 0.0008293348    1.844    0.458
        93  -9.8555    169.4809    177.5268   7.9008776771e+01   1.1954108320e+01    0.1442156    0.1382279   7.02 0.0001375899    1.010    0.010
        94 -10.0627    210.5024    175.4962   7.0182133965e+01   4.9555969724e+00    0.2451077    0.1232265 -50.58  0.001033178    2.319    0.569
        95 -10.5013    101.0214    175.9955   9.5266582705e+01   2.4765033399e+01    0.2072909    0.1968438  71.09   0.00116404    1.002    0.002
        96  -9.2614    237.6791    174.7133   6.5162150345e+01   6.4726907089e-01    0.1299837   0.09181254  -4.82 0.0006579883    1.597    0.374
        97 -10.2473    223.7396    173.0115   6.7250937551e+01   3.1683945586e+00    0.2987574    0.1424225 -50.66  0.001244213    2.552    0.608
        98  -9.6943    192.6131    173.1687   7.3228585395e+01   8.5524430472e+00     0.207848    0.1265042 -32.10 0.0009505085    1.704    0.413
        99 -10.4210    188.1232    172.6792   7.4050251474e+01   9.4679002948e+00    0.2707485    0.1669943 -57.51  0.001191024    2.063    0.515
       100 -10.1961    228.0196    171.5254   6.6199441700e+01   2.7236678402e+00    0.2750934    0.1539696 -54.15  0.001235195    2.376    0.579
       101 -11.0766    245.5984    168.6881   6.2687215224e+01   4.2246379364e-01    0.3202322     0.246762 -48.33  0.001285373    1.411    0.291
       102 -10.5343    218.9250    168.3048   6.7180247646e+01   4.8063512333e+00    0.3048155    0.1768527 -46.94  0.001377525    1.751    0.429
       103  -9.9840    212.0252    169.0290   6.8598980805e+01   5.8662049945e+00    0.2052234    0.1675386 -68.38 0.0007813859    1.648    0.393
       104 -10.1130    205.2108    168.9745   6.9882915896e+01   7.0774846704e+00    0.2245775    0.1618477 -66.97  0.001074237    2.040    0.510
       105 -10.1375    233.7466    154.0424   6.1719183917e+01   4.7990817024e+00    0.3690271    0.1953881 -57.67  0.001504523    2.935    0.659
       106 -10.9518    240.6663    164.0337   6.2578145275e+01   1.9621737861e+00    0.3849798    0.2006343 -53.16  0.001405461    2.516    0.603
       107 -10.7163    237.6268    158.7166   6.2020748676e+01   3.3508561627e+00    0.2874586    0.2198325 -58.47  0.001293372    1.601    0.375
       108 -10.1185    199.5461    164.3220   7.0032166981e+01   8.9792814269e+00    0.2641416    0.1321246 -45.84 0.0009753039    1.977    0.494
       109 -10.6380    213.0762    163.1822   6.7213279350e+01   6.7491566795e+00    0.3186812    0.1837537 -43.94  0.001511691    1.655    0.396
       110  -9.9717    246.7041    162.1162   6.1230157402e+01   1.3331449072e+00    0.2549239    0.1416744 -48.20 0.0007946882    1.868    0.465
       111 -10.2702    245.6348    157.5558   6.0502331490e+01   2.2570448271e+00    0.2623706    0.1391136 -40.38  0.001288927    1.633    0.388
       112 -10.3944    205.2826    161.2952   6.8291473538e+01   8.5012349346e+00    0.3266311    0.1872882 -37.20  0.001508517    1.660    0.398
       113  -9.9364    158.7795    159.9813   7.7838515888e+01   1.7702229949e+01    0.2089109      0.12237 -46.14 0.0008821747    1.709    0.415
       114 -10.7840    191.4966    165.5209   7.1891839032e+01   1.0239857915e+01    0.3062534    0.1365527 -43.51  0.001213243    2.175    0.540
       115 -10.3379    197.0664    157.3253   6.9057608653e+01   1.0786288979e+01     0.291294    0.2034492 -46.23  0.001225129    1.410    0.291
       116  -9.7461    226.5861    156.7871   6.3487917921e+01   5.5391668879e+00    0.1963349    0.1164987 -47.88  0.000949822    1.694    0.410
       117  -9.5911    222.3937    157.1740   6.4297188615e+01   6.1974323454e+00    0.1956028    0.1179827 -47.74 0.0008561151    1.662    0.398
       118 -10.1457    216.5779    156.3235   6.5158258884e+01   7.3794126202e+00    0.2673013     0.122889 -44.74  0.001122191    2.069    0.517
       119 -10.0244    187.6083    155.6067   7.0599704375e+01   1.2937879430e+01    0.2851124    0.1345355 -39.04  0.001123112    2.107    0.525
       120  -9.5981    202.5038    151.5092   6.6762298581e+01   1.0874684789e+01    0.1984919    0.1399179  55.24 0.0009723037    1.665    0.400
       121  -9.9163    205.5132    153.5019   6.6613038696e+01   9.9287194446e+00    0.2049977    0.1752073 -75.00 0.0008212523    1.471    0.320
       122 -10.0709    241.8594    153.1792   6.0229183677e+01   3.5994653390e+00    0.1963269    0.1637884 -46.80 0.0006644827    1.217    0.179
       123  -9.5846    179.4969    153.5717   7.1859280687e+01   1.4941134220e+01    0.1456146    0.1416175 -15.61 0.0001731754    1.014    0.014
       124 -10.0890    221.2762    152.0018   6.3424766485e+01   7.3243054996e+00    0.1999787    0.1644008 -37.16 0.0009963219    1.104    0.095
       125 -10.1230    229.5011    148.0563   6.1199783624e+01   6.5753757612e+00    0.2476893    0.1534987 -33.33 0.0007571043    1.492    0.330
       126  -9.7387    211.6587    151.1890   6.4978423095e+01   9.2197170389e+00    0.2036489    0.1206796 -33.11 0.0009387168    1.659    0.397
       127 -10.5723    244.5091    149.5375   5.9083566416e+01   3.7812632633e+00     0.294562     0.190774 -48.13  0.001595464    1.512    0.339
       128  -9.8779    215.5768    148.8030   6.3764388783e+01   8.9388439960e+00    0.2057779    0.1218901 -49.67 0.0009525018    1.732    0.423
       129 -11.2792    235.1591    147.0954   6.0072040382e+01   5.7637391254e+00    0.3754363    0.2635387 -49.83  0.001417313    1.432    0.302
       130 -10.3704    223.7763    146.5789   6.1860570082e+01   7.8530405384e+00    0.2790201    0.1938265 -59.38  0.001408291    1.750    0.429
       131 -10.4106    207.6424    145.0391   6.4405868412e+01   1.1125497872e+01    0.3209795    0.1259739 -41.12  0.001090198    2.366    0.577
       132  -9.7539    219.2412    144.4260   6.2191131521e+01   9.0665278414e+00     0.176813    0.1349938  62.42 0.0009330375    1.640    0.390
       133 -10.0675    156.0000    143.9859   7.4990173387e+01   2.1741357734e+01    0.2573281   0.08657563 -46.17 0.0008032479    2.948    0.661
       134 -10.5417    147.6597    142.5201   7.6648628291e+01   2.3786549021e+01    0.2737284    0.1434949 -47.21  0.001071368    1.900    0.474
       135 -10.6658    242.1628    133.9541   5.6282654027e+01   6.8176706610e+00     0.371912    0.1507986 -46.93  0.001505789    2.344    0.573
       136 -10.4935    230.2433    141.3249   5.9680147494e+01   7.6317806048e+00    0.3287602    0.1381154 -45.84  0.001354579    2.243    0.554
       137  -9.9984    182.0031    142.0361   6.8786392513e+01   1.6790027908e+01    0.2411531    0.1840629 -75.87   0.00112733    1.751    0.429
       138 -10.3285    238.8208    140.5987   5.8158355571e+01   6.2569710015e+00    0.1613799     0.129357  64.18 0.0005766649    1.588    0.370
       139  -9.8625    224.1563    139.8598   6.0382624036e+01   8.9909556176e+00    0.1913876     0.150978 -20.85 0.0006958506    1.316    0.240
       140  -9.9304    197.9962    140.1463   6.5158100961e+01   1.3939769984e+01    0.2435191    0.1760378  86.60  0.001087298    2.194    0.544
       141  -9.6445    166.7792    145.9272   7.2954436188e+01   1.9102551381e+01    0.2049409    0.1220027 -43.29  0.000638882    1.656    0.396
       142 -10.1152    172.8086    137.7336   6.9767063814e+01   1.9575229544e+01    0.2971403    0.1780719 -53.96  0.001248406    1.813    0.449
       143 -10.5126    234.9917    135.9092   5.7790132924e+01   7.7368895472e+00     0.289664     0.170085 -50.24  0.001422309    1.698    0.411
       144 -10.5729    198.3139    131.9546   6.3269495234e+01   1.5460602311e+01      0.26441    0.1694068 -44.51 0.0009364315    1.472    0.320
       145 -10.8274    243.6207    140.6462   5.7427471140e+01   5.4314498548e+00    0.3584223    0.1485749 -45.39  0.001538706    2.209    0.547
       146  -9.8589    166.3835    140.1860   7.1745293928e+01   2.0402172460e+01    0.2225184    0.1401892 -55.25 0.0009439989    1.736    0.424
       147  -9.9131    187.6604    135.8058   6.6220693432e+01   1.6884168900e+01    0.2168647    0.1300691 -50.24 0.0008599139    1.695    0.410
       148 -10.1469    218.9319    137.9819   6.0871993173e+01   1.0298483769e+01    0.2917964    0.1788518 -39.90   0.00142397    1.476    0.323
       149  -9.7691    248.8455    135.5993   5.5626726014e+01   5.4043226428e+00    0.1539619    0.1260956  68.97 0.0006771304    1.580    0.367
       150  -9.6785    155.7069    135.6688   7.3149909758e+01   2.3613396887e+01    0.1554731    0.1229398  -6.55 0.0004224606    1.632    0.387
       151 -10.4853    224.5671    133.3938   5.8940254176e+01   1.0074951638e+01    0.3305779    0.2535739  62.97  0.001811077    1.583    0.368
       152 -10.5000    179.6377    132.5074   6.7109482973e+01   1.9217336843e+01    0.3050719    0.1809017 -46.05  0.001321332    1.640    0.390
       153 -10.2820    205.6628    130.5055   6.1582983692e+01   1.4256534983e+01    0.2543954    0.1255298 -41.22 0.0009758323    1.877    0.467
       154 -10.8010    143.0000    131.0025   7.5114925495e+01   2.7324299393e+01    0.2625574   0.08799513 -46.55 0.0008056549    2.965    0.663
       155  -9.6898    137.2608    131.6478   7.6709257837e+01   2.8384013101e+01    0.1564566    0.1228224 -83.16 0.0003127074    1.612    0.380
       156 -10.6993    249.0408    130.0403   5.4474725589e+01   6.2997628216e+00    0.3255613    0.2251307  66.47  0.001796156    1.970    0.492
       157 -10.1625    192.5056    129.2661   6.3772517457e+01   1.7174266738e+01     0.279026    0.1355671 -46.41  0.001025213    1.993    0.498
       158  -9.6231    221.0000    128.9716   5.8580839843e+01   1.1542206547e+01    0.2372955   0.07226571 -40.42 0.0008039268    2.953    0.661
       159  -9.7720    212.3661    129.2120   6.0103833013e+01   1.3170074136e+01     0.211432    0.1201715 -48.60 0.0009495874    1.709    0.415
       160  -9.4143    186.2786    128.6525   6.4859352757e+01   1.8595129365e+01    0.1506516    0.1150513 -72.69 0.0004359848    1.637    0.389
       161 -10.8908    240.7768    126.0994   5.4869010348e+01   8.3992747852e+00    0.4114293    0.1941823 -43.00    0.0018966    1.826    0.452
       162 -10.0611    238.9917    121.4822   5.4170349906e+01   9.5072082013e+00    0.2198519    0.1631798 -57.00 0.0005782447    1.369    0.270
       163 -10.3200    164.8450    125.4158   6.8627288344e+01   2.3842390781e+01    0.5099359     0.188825 -53.96  0.001474707    3.796    0.737
       164 -10.1222    227.7198    124.5540   5.6539167798e+01   1.1056926714e+01    0.2965806    0.1419936 -49.89   0.00126436    2.105    0.525
       165 -10.5205    179.5508    124.2533   6.5197058912e+01   2.0903775855e+01    0.3634091    0.1439692 -41.01  0.001279966    2.470    0.595
       166  -9.9605    249.5063    124.4868   5.3281958540e+01   7.1453543973e+00    0.1307275    0.1100165 -42.13 3.923496e-05    1.015    0.014
       167  -9.6420    170.1168    124.1225   6.7158680837e+01   2.2967400313e+01    0.2127244    0.1785124 -70.28 0.0007398924    1.323    0.244
       168 -10.1333    235.4839    122.9427   5.4998605109e+01   9.8958768567e+00    0.2125109    0.1170604 -41.01   0.00102654    1.576    0.366
       169  -9.7347    212.6061    122.7641   5.8634424336e+01   1.4310635820e+01    0.2087273    0.1211951 -49.01 0.0009492003    1.664    0.399
       170  -9.8877    188.4515    122.9900   6.3111951150e+01   1.9252925061e+01    0.2329884    0.1391791 -43.80 0.0007028812    1.593    0.372
       171  -9.8000    203.3659    121.2238   5.9907019856e+01   1.6469998005e+01    0.2122402    0.1239112 -49.19 0.0009439734    1.673    0.402
       172  -9.9311    194.4663    121.0551   6.1505514230e+01   1.8356023156e+01     0.231946    0.1373517 -42.29  0.001030614    1.592    0.372
       173  -9.7485    152.2590    120.9569   7.0430638419e+01   2.7525630757e+01    0.2236866    0.1957891 -48.67 0.0006244082    1.130    0.115
       174 -10.4238    231.5060    120.0078   5.4978818781e+01   1.1141758404e+01    0.2622593    0.1152628 -44.05  0.000719905    2.007    0.502
       175  -9.7943    173.6803    119.5167   6.5288353732e+01   2.3130381748e+01    0.2766806    0.1358849 -42.99  0.001075326    1.976    0.494
       176  -9.4690     95.2822    120.6173   8.5705333353e+01   3.9207763815e+01    0.1569994    0.1194385  87.14 0.0007008499    1.728    0.421
       177  -9.8227    248.0835    118.8446   5.2329231352e+01   8.3301283777e+00    0.2073454     0.158641 -58.39  0.001225432    1.324    0.245
       178  -9.5501    243.2768    119.6042   5.3159755334e+01   9.0541992271e+00    0.1380575   0.09048294 -60.68 0.0006991753    1.747    0.428
       179 -10.5009    140.4760    118.4689   7.2678556029e+01   3.0625734763e+01    0.2902605    0.1452441 -55.93  0.001036499    2.381    0.580
       180  -9.8287     18.5046    118.9791   1.0993440705e+02   4.9520396097e+01    0.1967061    0.1118056 -69.18  0.000390908    1.505    0.336
       181  -9.8242    209.2163    118.2015   5.8193591339e+01   1.5832800014e+01    0.1973966    0.1528233 -58.69 0.0005439762    1.327    0.247
       182  -9.6377    199.5580    116.2382   5.9448730743e+01   1.8199164622e+01    0.2004985    0.1350411 -31.56 0.0005606357    1.558    0.358
       183  -9.1679    203.2926    115.6464   5.8644660034e+01   1.7527266376e+01    0.1492298     0.107843 -69.08 0.0004463165    1.682    0.406
       184 -10.3467    185.6911    114.5021   6.1644634837e+01   2.1500794244e+01    0.2682637    0.1303732 -41.93 0.0009230266    1.967    0.492
       185 -11.2645    218.8570    110.8196   5.4944510596e+01   1.5213364892e+01    0.5534075    0.1930387 -45.00  0.002041877    2.619    0.618
       186  -9.9011    194.9911    113.2578   5.9587037316e+01   1.9730330674e+01    0.2821297    0.1651377 -50.79   0.00123938    1.714    0.416
       187  -9.5147    181.4656    114.5332   6.2486100554e+01   2.2417385882e+01    0.1478871    0.1428006 -45.52 0.0001638366    1.033    0.032
       188  -9.6918    173.5240    114.0074   6.3980311108e+01   2.4270652244e+01    0.2317243    0.1452216 -43.51  0.000752616    1.549    0.355
       189  -9.7226    247.5297    112.5297   5.1109506140e+01   9.4746791078e+00    0.1309974    0.1104293 -46.04 0.0001361248    1.007    0.007
       190  -9.5830    168.4880    111.9738   6.4542693115e+01   2.5796804205e+01    0.2168083    0.1269346 -63.74 0.0008086361    2.417    0.586
       191 -10.7971    230.4082    109.5702   5.2903085298e+01   1.3155211523e+01    0.3341414     0.122902 -35.26  0.001243867    2.764    0.638
       192 -10.5086    123.4888    109.6721   7.4850186872e+01   3.6187246963e+01    0.3337642     0.149073 -41.64   0.00119046    2.325    0.570
       193 -10.0343    183.0000    108.4349   6.0705115038e+01   2.3262232878e+01    0.3331145     0.082022 -40.82 0.0009322055    3.914    0.745
       194 -10.0410    160.6986    108.4904   6.5365194612e+01   2.8244719078e+01    0.2800995    0.1367064 -42.44  0.001028799    2.024    0.506
       195  -9.7586    189.5315    108.5014   5.9472242947e+01   2.1811641874e+01    0.1474184    0.1379491 -60.34 0.0004918267    1.020    0.020
       196 -10.0499    222.5283    105.2789   5.3145269476e+01   1.5447536952e+01    0.2712854    0.1176515 -44.03  0.001128493    2.052    0.513
       197  -9.8493    218.5071    104.4921   5.3587801449e+01   1.6397879730e+01    0.2486555    0.1123603 -49.03  0.000803386    2.150    0.535
       198 -10.0765    205.6984    105.0660   5.5788507645e+01   1.8960051165e+01    0.2363193    0.1589979 -53.50 0.0009978785    1.464    0.317
       199  -9.7601      7.4998    105.4512   1.1157701031e+02   5.3539033126e+01     0.126508    0.1046154 -62.23 7.004196e-05    1.008    0.008
       200 -10.5327    141.2290    102.4221   6.8336496405e+01   3.3865963720e+01    0.4051052    0.2289027 -46.71  0.001664114    1.782    0.439
       201 -10.9573    229.6182    102.3034   5.1444811212e+01   1.4549352082e+01    0.3237106    0.1969486 -44.88  0.001025833    1.443    0.307
       202  -9.9874    200.7232    103.1277   5.6182748742e+01   2.0374502123e+01    0.2311621    0.1619577 -54.53 0.0006093361    1.414    0.293
       203 -10.3308    160.1212     99.8620   6.3272119773e+01   3.0093752346e+01     0.292346    0.1696701 -48.54  0.001224654    1.745    0.427
       204  -9.6503    209.4794     99.0363   5.3773633129e+01   1.9232620199e+01    0.2220415    0.1299873 -40.17  0.001031555    1.590    0.371
       205 -10.3468    221.6638     97.7519   5.1603990548e+01   1.6918211795e+01    0.2747936    0.1601534 -46.05 0.0007471466    1.537    0.350
       206 -10.3728    195.0198     97.2050   5.5763100515e+01   2.2691681542e+01    0.3238632    0.1955495 -45.92  0.001065202    1.564    0.361
       207  -9.7035    135.6170     97.1985   6.8323790306e+01   3.6191333050e+01    0.2162628    0.1456104 -32.98 0.0007966772    1.636    0.389
       208 -10.0650    235.5387     95.3694   4.9126817066e+01   1.4549201140e+01    0.2491316    0.1635084 -55.84 0.0008604461    1.450    0.310
       209  -9.8950    170.8982     95.5411   5.9885176032e+01   2.8450789373e+01     0.250793    0.1670298 -47.06 0.0006543537    1.476    0.322
       210  -9.7136    241.3270     97.1713   4.8741602707e+01   1.3142115797e+01    0.1916431   0.09982117 -46.98 0.0004936794    1.664    0.399
       211  -9.8553    164.4887     93.9694   6.0798077325e+01   3.0224741058e+01    0.2375964    0.1461479 -41.86   0.00100794    1.610    0.379
       212  -9.9161    247.8304     92.7671   4.7000216270e+01   1.2631929577e+01     0.182351    0.1313302 -61.73 0.0008245241    1.344    0.256
       213 -10.5091    242.0944     92.7113   4.7706368646e+01   1.3719875794e+01    0.2493145    0.1507841 -49.26  0.001319446    1.438    0.305
       214  -9.8114    177.0028     92.9741   5.8023762137e+01   2.7526663945e+01    0.1902406    0.1633219 -47.10  0.001001331    1.136    0.119
       215 -10.4260    134.6860     92.0490   6.7136752723e+01   3.7436176219e+01    0.2165099    0.2005858 -45.94 0.0008395719    1.090    0.082
       216  -9.7284    231.4365     91.2217   4.8786318504e+01   1.6039043292e+01    0.1982251    0.1072947 -49.47 0.0009457499    1.672    0.402
       217  -9.2593    210.6091     91.3078   5.1811989141e+01   2.0333364362e+01    0.1498218     0.101426 -74.27  0.000542536    1.820    0.450
       218 -10.4424    176.2343     96.9638   5.9183878229e+01   2.6961669814e+01    0.2083062     0.188636 -46.52   0.00048351    1.087    0.080
       219 -10.5025    236.8172     89.8233   4.7773854866e+01   1.5204696406e+01    0.2416329    0.1697046 -45.45 0.0007944842    1.230    0.187
       220 -10.6837    235.3916     86.2252   4.7189238801e+01   1.6064840711e+01    0.3659064    0.1475887 -41.91  0.001580054    2.119    0.528
       221  -9.5681    203.2610     89.9679   5.2655523260e+01   2.2155553296e+01    0.1876974    0.1150475 -41.78 0.0008830462    1.527    0.345
       222  -9.9431    157.8269     89.8265   6.1120131587e+01   3.2551353432e+01    0.2127478    0.1748462 -69.01 0.0008600997    1.319    0.242
       223 -10.2308     24.9254     90.0459   1.0260503738e+02   5.5905446000e+01    0.1995405    0.1654032 -44.54 0.0004368729    1.056    0.053
       224 -10.9388    226.4399     87.9673   4.8755224476e+01   1.7581128302e+01    0.3731801    0.2052383 -41.87  0.001095131    1.615    0.381
       225 -11.5642    229.9315     80.6193   4.6681567711e+01   1.8057214931e+01    0.5988246    0.2327808 -43.39  0.002524801    2.212    0.548
       226  -9.9432    249.2079     88.1364   4.5882004709e+01   1.3108195055e+01    0.1859567    0.1248905 -56.93 0.0008722013    1.360    0.265
       227 -10.0270    150.6927     87.5822   6.2086194744e+01   3.4632633996e+01    0.2697629    0.1364074 -41.17  0.001066718    1.989    0.497
       228 -10.9641    240.1656     86.1740   4.6574774538e+01   1.5137650340e+01    0.3687013    0.1926659 -67.98  0.001545237    2.862    0.651
       229  -9.8417    197.6330     86.8086   5.2816278584e+01   2.3945816662e+01    0.2160382    0.1185888 -49.27 0.0009475448    1.766    0.434
       230 -10.1748    187.6217     86.8134   5.4519199417e+01   2.6204135463e+01    0.2131697    0.1244213 -49.80 0.0009427047    1.691    0.409
       231  -9.6974    206.0000     84.9001   5.1029499550e+01   2.2420726741e+01    0.2321566   0.07498442 -38.44 0.0007993254    2.921    0.658
       232  -9.5674    178.7833     84.0325   5.5408698663e+01   2.8725912508e+01    0.1976391    0.1155137 -40.67 0.0006378813    1.678    0.404
       233 -10.3785    170.4512     83.6783   5.6895521075e+01   3.0729709220e+01    0.2746341    0.1362464 -44.32 0.0009690957    1.983    0.496
       234 -10.5279    243.2121     82.8332   4.5501785680e+01   1.5075741784e+01    0.2390037    0.1326822 -43.72  0.000895892    1.526    0.345
       235 -10.0125    193.0000     82.9653   5.2648977156e+01   2.5648263542e+01    0.2359156   0.07811178 -38.34 0.0007994605    2.922    0.658
       236  -9.9737    225.5976     81.7731   4.7503098263e+01   1.8761413551e+01    0.1945885    0.1079222 -49.26 0.0008438099    1.626    0.385
       237  -9.8708    163.6893     86.5675   5.9012772033e+01   3.1789194020e+01    0.2621041    0.1340291 -40.80 0.0009645871    1.945    0.486
       238 -10.2422    159.3280     81.4303   5.8536299759e+01   3.3742925941e+01    0.3018599    0.1802921 -42.82   0.00132924    1.673    0.402
       239 -11.2855    237.4458     79.8910   4.5581055539e+01   1.6663032872e+01    0.3579621    0.1970144 -75.51  0.001545945    2.777    0.640
       240  -9.7559    214.7949     79.9711   4.8584543064e+01   2.1329525468e+01    0.1864715    0.1012768 -39.39 0.0006395777    1.721    0.419
       241 -10.3750    150.4982     79.4654   5.9885428809e+01   3.6172905285e+01    0.3000189    0.1469149 -39.34  0.001111199    2.080    0.519
       242 -12.2062    244.5500     76.7394   4.4077754515e+01   1.5761566831e+01    0.4691691    0.2500193 -63.54  0.002237527    2.171    0.539
       243 -12.2816    248.1291     73.8745   4.3085334655e+01   1.5509523131e+01    0.5946894    0.2623288 -48.42  0.002840263    1.930    0.482
       244  -9.9532    201.2805     77.8976   5.0095160859e+01   2.4633803116e+01    0.2345589    0.1543063 -55.60  0.000915909    1.493    0.330
       245 -10.3907    166.9068     77.5321   5.5959179168e+01   3.2643009665e+01     0.299623    0.2206252 -40.25 0.0009183197    1.373    0.272
       246 -10.1510    174.4701     77.0771   5.4406123213e+01   3.0939599856e+01    0.2229394    0.1407493 -39.67 0.0007970983    1.583    0.368
       247 -10.3972    211.4666     76.0022   4.8143727739e+01   2.2692426637e+01    0.2979407    0.1268135 -37.91  0.001104303    2.233    0.552
       248 -10.3696    157.4912     75.5624   5.7312394800e+01   3.5212329188e+01    0.3015134    0.1439611 -39.30  0.001195909    2.118    0.528
       249  -9.2067    223.6284     75.7283   4.6424341414e+01   2.0135270288e+01    0.1250094    0.1043214  26.58 0.0006999317    1.677    0.404
       250  -9.6284    206.4603     73.9633   4.8386966513e+01   2.4120739527e+01    0.2099635    0.1262008 -41.62   0.00101798    1.560    0.359
       251 -11.4019    195.8235     72.2067   4.9561536328e+01   2.6795682435e+01    0.3719715    0.2184578 -45.22  0.001387554    1.607    0.378
       252  -9.7599    185.2737     72.9183   5.1437755410e+01   2.9109908251e+01    0.2001174     0.174357 -48.86 0.0005971931    1.131    0.116
       253 -10.1094    176.0000     71.9236   5.2783145555e+01   3.1446261460e+01    0.2325439    0.0806064 -37.25  0.000705754    2.900    0.655
       254 -10.3661    163.4598     71.4856   5.4999604954e+01   3.4491113173e+01    0.2995005    0.1408574 -38.90  0.001197796    2.142    0.533
       255  -9.4937    230.2692     71.6237   4.4684038359e+01   1.9396157005e+01    0.1408903   0.08516821 -61.94 0.0004312774    1.682    0.406
       256  -9.8135    221.8802     71.1092   4.5622639469e+01   2.1227161462e+01    0.2114703    0.1539342 -62.63  0.000658735    1.288    0.224
       257  -9.4446    135.4892     71.4544   6.1018367401e+01   4.1105566617e+01    0.1467726    0.1408018  63.80 0.0001220431    1.009    0.009
       258 -10.1658    214.2798     69.8476   4.6337504576e+01   2.3055383242e+01     0.234148    0.1208187 -66.85 0.0009366224    2.696    0.629
       259  -9.7270    170.6683     70.3158   5.3322982718e+01   3.2972992101e+01    0.2394481    0.1434456 -42.61  0.001090172    1.655    0.396
       260  -9.4233    168.2596     67.6487   5.3052643878e+01   3.3982480109e+01    0.1486874    0.1052456 -67.58 0.0003226731    1.608    0.378
       261  -9.8259    157.0000     69.9447   5.5856970934e+01   3.6287270189e+01    0.2363049   0.08315331 -37.22 0.0007994011    2.921    0.658
       262 -10.0798    218.4935     68.4744   4.5468834685e+01   2.2357541621e+01    0.2454974    0.1008093 -47.81 0.0009234212    2.237    0.553
       263  -9.7137    242.4744    248.4832   7.7368445814e+01  -1.0912711294e+01    0.1147857   0.08631872   0.60 0.0001928563    1.006    0.006
       264 -11.8262    244.0849     52.8381   3.9211490122e+01   1.9360671592e+01    0.7098642    0.1796526 -35.23  0.002512116    3.972    0.748
       265 -10.4403    250.4447     25.7956   3.3311746521e+01   2.1652937618e+01    0.2706681    0.0999038 -36.80 0.0009517059    2.487    0.598
       266  -9.9811    218.6888    248.1539   8.1537625888e+01  -7.9063912676e+00    0.1623594     0.146852 -31.59  0.001171549    1.496    0.331
       267 -10.2241    210.2719    247.5184   8.2992536206e+01  -6.7030899137e+00    0.2453149    0.1624752  44.23   0.00145599    1.850    0.459
       268 -12.3573    246.4289     33.4225   3.5109139323e+01   2.1489819903e+01    0.5943413    0.1985839 -42.52  0.002483434    2.383    0.580
       269  -9.5988    233.4728    247.5111   7.8781624869e+01  -9.6983789495e+00    0.1144609   0.09116738   3.72  0.000808753    1.078    0.072
       270 -10.4979    138.9681     66.7510   5.8816794760e+01   4.1097742513e+01    0.2728957     0.183113 -52.81  0.001272125    1.645    0.392
       271 -11.2823    248.9791     63.6718   4.0919378695e+01   1.6858222468e+01    0.4444487    0.1969938 -29.18  0.001884326    3.008    0.668
       272  -9.6133    212.4785     66.0074   4.5696487802e+01   2.4043020487e+01    0.2004572    0.1245063 -39.44 0.0006280399    1.543    0.352
       273  -9.6704    197.4033     64.1631   4.7363989951e+01   2.7705988918e+01    0.2014243    0.1140867 -49.97 0.0009378354    1.698    0.411
       274  -9.9113    171.0025     63.9839   5.1574502994e+01   3.3917012561e+01    0.2363029    0.1643881 -71.06  0.001128149    1.671    0.401
       275  -9.7327    208.4497     63.4999   4.5654571084e+01   2.5316070114e+01    0.1974699    0.1128012 -48.18 0.0001512477    1.615    0.381
       276 -10.4045    206.5670     59.1192   4.4881039275e+01   2.6395790619e+01    0.2979493     0.156862 -34.17  0.001222083    1.983    0.496
       277 -10.4063    122.4665     62.9715   6.1647035654e+01   4.5549566533e+01    0.2199949    0.1437053 -37.81  0.001033876    1.601    0.375
       278  -9.9772    110.5066     63.0057   6.4844652620e+01   4.8204247430e+01    0.2070975    0.1213239 -60.33  0.000810656    2.630    0.620
       279  -9.5891    182.5232     62.0182   4.9112684654e+01   3.1493291935e+01    0.2082472    0.1334175 -40.94 0.0009564528    1.546    0.353
       280 -10.0509    157.8245     61.5636   5.3352645300e+01   3.7452768939e+01    0.2409351    0.1670627 -44.07   0.00118716    1.469    0.319
       281  -9.3827    221.2647     59.6338   4.3141439809e+01   2.3095680601e+01    0.1403437   0.08513839 -62.50 0.0003591815    1.650    0.394
       282  -9.3863    197.5068     59.4643   4.6207970497e+01   2.8398075383e+01    0.1365921    0.1234905 -78.27 0.0008094161    1.027    0.026
       283 -10.0038    164.7506     59.0389   5.1357037520e+01   3.6183843121e+01    0.1858672    0.1201674 -38.80 0.0008031714    1.588    0.370
       284 -10.0354    141.0000     60.0349   5.6370980452e+01   4.1714069344e+01    0.2269485   0.08300664 -35.89 0.0007203831    2.879    0.653
       285 -10.0252    146.6231     57.7803   5.4509937608e+01   4.0727931135e+01    0.2012268    0.1297247 -47.03 0.0007706637    1.632    0.387
       286 -12.5420    226.9550     56.5502   4.1799440291e+01   2.2336137245e+01    0.4881005    0.2360351 -62.73   0.00215177    2.415    0.586
       287 -11.4428    231.3170     50.6708   4.0058206651e+01   2.2258051555e+01    0.2650878    0.1657505 -62.05  0.001128224    1.477    0.323
       288 -12.4311    232.7737     47.0341   3.9137218476e+01   2.2459008975e+01     0.391292    0.2352808 -52.51  0.002192217    1.434    0.303
       289  -9.5490    169.4959     55.4939   4.9558771723e+01   3.5582537280e+01    0.1423504    0.1286038 -87.31 3.741164e-05    1.034    0.033
       290  -9.8582    157.6455     54.7521   5.1471986042e+01   3.8541937024e+01    0.1973132    0.1263925 -45.70 0.0008624026    1.604    0.377
       291 -10.3239    139.5049     55.0207   5.5195674185e+01   4.2848619062e+01    0.2145559    0.1414286 -37.61  0.001033138    1.597    0.374
       292 -10.1143    131.3821     54.2033   5.6754815655e+01   4.4890813194e+01    0.2012182    0.1295298 -46.97 0.0009425984    1.688    0.408
       293  -9.8898    153.3393     52.1727   5.1550394213e+01   3.9961018305e+01    0.2016123    0.1229028 -45.91 0.0009407188    1.709    0.415
       294  -9.7251    178.4990     50.0134   4.6644002565e+01   3.4230712272e+01    0.2039777    0.1323145 -39.33 0.0007009953    1.567    0.362
       295 -11.2475    227.5128     51.9558   4.0741500855e+01   2.2874399547e+01    0.2577359    0.1870942 -73.82 0.0007913325    1.283    0.221
       296  -9.7146    158.2704     48.6303   4.9631385699e+01   3.9283822958e+01    0.1460519    0.1009178 -67.27 0.0006961831    1.670    0.401
       297  -9.4815    181.6814     47.3070   4.5463992794e+01   3.3856834365e+01    0.1438206   0.09635509 -71.98 0.0007030758    1.634    0.388
       298  -9.9268    162.5935     45.2801   4.7941102652e+01   3.8709623460e+01    0.2572041    0.1255393 -39.33  0.001124175    2.079    0.519
       299 -10.0293    112.3336     46.6845   5.8981200576e+01   5.0383384508e+01    0.1392467     0.109749 -81.80 0.0006285246    1.688    0.408
       300  -9.6702    192.4719     55.0109   4.5835789621e+01   3.0220834125e+01    0.2081969    0.1281724 -40.31  0.001031392    1.596    0.373
       301  -9.9010    168.8623     44.5091   4.6697474215e+01   3.7305649099e+01     0.226736    0.1545357 -43.15 0.0009669004    1.494    0.331
       302  -9.0719    188.2974     44.3125   4.3763322095e+01   3.2710178217e+01    0.1275275     0.103757  34.33 0.0003301631    1.601    0.375
       303  -9.4304    167.6208     49.2976   4.8198571374e+01   3.6935894215e+01    0.1495945    0.1006497 -76.85 0.0007023253    1.759    0.431
       304 -10.0824    132.3023     42.3532   5.2851878143e+01   4.6383280711e+01    0.1435027    0.1034343  26.22 0.0007039219    1.704    0.413
       305  -9.4622    175.4743     55.4898   4.8558667783e+01   3.4153905458e+01     0.141136    0.1273684 -85.40 0.0001495776    1.021    0.021
       306  -9.8514    208.5326     39.4467   4.0068761569e+01   2.8718070649e+01    0.1327469    0.1084799 -74.47 0.0001643725    1.058    0.055
       307  -9.4912    185.3149     39.3321   4.2920211320e+01   3.4078223647e+01    0.1305376    0.1016279  35.29 0.0007046066    1.683    0.406
       308 -10.2305    122.3318     45.6727   5.6162718277e+01   4.8254704005e+01    0.1424112    0.1082674 -78.34 0.0004063643    1.713    0.416
       309 -12.0433    228.4709     37.0100   3.7444934799e+01   2.4698784745e+01    0.2327023    0.1771896 -22.97 0.0009598233    1.746    0.427
       310 -13.7005    239.8381     60.0867   4.1138663034e+01   1.9175313625e+01     1.095752    0.4054793 -39.96  0.004848084    2.317    0.568
       311  -9.6851    179.4895     37.4849   4.3250395836e+01   3.5697555311e+01    0.1364317    0.1178898 -85.07 6.277639e-05    1.037    0.036
       312 -10.2637    203.4079     66.2386   4.6997476689e+01   2.6022830240e+01    0.2591097    0.1529818 -47.85  0.001262337    1.579    0.367
       313  -9.2615    173.3064     39.6845   4.4718559308e+01   3.6886104355e+01    0.1419217   0.09547659 -71.10 0.0005568934    1.626    0.385
       314 -10.0284    149.3453     34.0714   4.7027386637e+01   4.3377424695e+01    0.3091679     0.130295 -30.45  0.001272665    2.639    0.621
       315 -10.0440    133.5648     34.7177   5.0192101736e+01   4.7080034667e+01    0.2448546    0.1401128 -23.97  0.001140675    2.100    0.524
       316 -11.8620    226.1928     31.2487   3.6441177719e+01   2.5917688368e+01    0.3652549    0.2042541 -18.22  0.001672107    3.178    0.685
       317 -10.0557    194.6422     33.1996   4.0219562707e+01   3.2687957756e+01    0.1689522    0.1248391 -24.95 0.0009331644    1.671    0.402
       318  -9.2120    186.3022     32.3622   4.1043057015e+01   3.4736902963e+01    0.1282811    0.0993773  34.68 0.0007036682    1.726    0.421
       319 -10.4442    125.7779     29.8912   5.0252508557e+01   4.9507587639e+01    0.2825095    0.1713837 -38.38  0.001112246    1.800    0.445
       320 -10.6879     30.4511     28.2856   8.1534555417e+01   6.7611160573e+01    0.2250672    0.1585051 -12.39 0.0007781917    1.284    0.221
       321  -9.1772    136.6629     26.6976   4.7089868368e+01   4.7300745493e+01    0.1397545   0.09322061  37.60 0.0007037434    1.666    0.400
       322 -10.5551    175.8732    247.0914   8.9569080391e+01  -1.7746909546e+00    0.1885807    0.1613801  42.11  0.001241062    1.294    0.227
       323 -10.4070    225.6730    243.1984   7.9484685189e+01  -8.1373250928e+00    0.2122162    0.1767006  46.12   0.00108626    1.770    0.435
       324  -9.9783    155.5541     16.0290   4.0853597059e+01   4.3923146176e+01    0.1805278    0.1291845 -30.46  0.001028723    1.596    0.373
       325  -9.6852    140.5120     16.5148   4.3296536659e+01   4.7475779562e+01    0.1318468    0.1138227  67.13 0.0008103017    1.020    0.020
       326  -9.3727    165.8074     17.7969   3.9931937198e+01   4.1284546379e+01    0.2253973    0.1167369  37.28 0.0009619189    2.898    0.655
       327  -9.7661    160.7851     20.9324   4.1474653854e+01   4.2149728309e+01    0.1623227    0.1082636 -29.43 0.0008734154    1.714    0.417
       328 -10.3846    202.1118    242.2606   8.3710280119e+01  -4.8251443704e+00    0.1968618    0.1678429 -75.63  0.001226797    2.073    0.518
       329  -9.8760    169.3302    242.6708   9.0232652902e+01  -9.4947379656e-02    0.1227133   0.09504036  59.32 0.0005404181    1.713    0.416
       330 -10.6314    183.9556    240.3907   8.6955033391e+01  -1.9189718347e+00    0.3121598     0.226259  60.76    0.0017161    2.167    0.539
       331 -11.2958    244.5631    237.6171   7.5256000547e+01  -9.7571469173e+00    0.3890142    0.1727889 -44.97  0.001917513    2.976    0.664
       332 -11.1154    230.9978    237.3625   7.7584812129e+01  -8.0238433354e+00    0.3323427    0.2705103 -71.97  0.001877796    2.734    0.634
       333  -9.9327    220.0070    240.0570   8.0009707892e+01  -6.9584122772e+00    0.1562637    0.1479461  47.36   0.00071022    1.617    0.382
