#   1 NUMBER                 Running object number                                     
#   2 MAG_AUTO               Kron-like elliptical aperture magnitude                    [mag]
#   3 X_IMAGE                Object position along x                                    [pixel]
#   4 Y_IMAGE                Object position along y                                    [pixel]
#   5 X_WORLD                Barycenter position along world x axis                     [deg]
#   6 Y_WORLD                Barycenter position along world y axis                     [deg]
#   7 A_WORLD                Profile RMS along major axis (world units)                 [deg]
#   8 B_WORLD                Profile RMS along minor axis (world units)                 [deg]
#   9 THETA_WORLD            Position angle (CCW/world-x)                               [deg]
#  10 FWHM_WORLD             FWHM assuming a gaussian core                              [deg]
#  11 ELONGATION             A_IMAGE/B_IMAGE                                           
#  12 ELLIPTICITY            1 - B_IMAGE/A_IMAGE                                       
         1 -13.9700    217.6388      8.1415   3.7997102906e+01   2.9815370475e+01      2.63101     1.605912  41.82   0.01225115    2.248    0.555
         2 -13.4190    191.9072     39.5254   4.9096553979e+01   3.2342284950e+01     1.079982    0.9920692 -36.79  0.004139254    1.159    0.137
         3 -12.7729    197.0563     33.6097   4.6763568906e+01   3.1834380569e+01    0.6842801    0.6275114  86.02   0.00123688    1.045    0.043
         4 -13.2040    177.2661     52.7226   5.5200958445e+01   3.4157741245e+01     1.860156     1.347282  27.48  0.005190379    1.769    0.435
         5 -19.5445     18.2732    145.2807   1.2040720834e+02   4.2572327758e+01     19.25061     4.639657 -75.93   0.06606317    3.909    0.744
         6 -12.3256    248.4107    247.7340   8.5698804686e+01  -1.1573493950e+01    0.8232953    0.5745264  20.26  0.005857497    1.132    0.116
         7 -11.4533     33.3981    207.1600   1.2237042929e+02   2.7219408224e+01    0.3321605    0.1523104  65.68  0.001074166    2.066    0.516
         8  -8.2648    224.2526    206.6734   8.2974057661e+01  -2.8436149304e+00    0.1080284    0.1030469 -61.42 0.0003040638    1.547    0.354
         9 -11.3031    196.1617    204.4217   8.7928416685e+01   2.2084466425e+00    0.4831367    0.2521643  26.05  0.002153994    2.156    0.536
        10 -10.7809    193.3194    195.3706   8.6847054199e+01   4.2130811633e+00     1.001371    0.5172707 -62.66  0.002961613    6.261    0.840
        11  -8.4473     93.6760    205.6611   1.0974001424e+02   1.9575067366e+01    0.1799483    0.1328652  26.57 0.0008583571    1.646    0.392
        12 -10.1934     96.7261    202.2768   1.0865797862e+02   1.9807999278e+01    0.2909811    0.2333259 -73.89  0.001031516    1.282    0.220
        13 -10.6621     66.2052    204.5391   1.1545922085e+02   2.3764113490e+01    0.2755587    0.1714324 -55.62 -1.980393e-05    1.847    0.459
        14 -10.3629     54.7108    202.2977   1.1764723341e+02   2.5733783382e+01    0.1850037     0.115548  67.54 0.0002988882    1.449    0.310
        15 -11.8868     56.8710    197.5419   1.1673538944e+02   2.6482535463e+01    0.7573997     0.249865 -55.26  0.001155307    3.385    0.705
        16 -10.6488     59.2834    193.6394   1.1582175345e+02   2.7024232657e+01    0.2531124    0.1694181  82.99 0.0009279791    1.405    0.288
        17  -8.7149     70.5926    200.1245   1.1406445494e+02   2.4107608005e+01    0.1542064    0.1118143 -62.03  0.000708701    1.475    0.322
        18 -10.8373    204.1407    198.9508   8.5367862389e+01   1.7080938257e+00    0.3110048    0.1791627  33.94  0.001544164    1.611    0.379
        19 -10.2318     35.3565    197.5667   1.2124212126e+02   2.9030720417e+01    0.1754234    0.1018217  50.83 0.0005754316    1.523    0.343
        20  -9.6139     81.9770    194.7878   1.1096364297e+02   2.3640752780e+01    0.2313547      0.18598  73.17 0.0005945484    1.115    0.103
        21 -11.5573     62.6945    250.4344   1.2006982926e+02   1.5347364941e+01    0.3161054    0.1220814  40.98  0.001665786    2.106    0.525
        22 -10.5899     95.2951    188.2830   1.0711267143e+02   2.3034145223e+01    0.4635037    0.3009691  82.02  0.001976002    1.846    0.458
        23 -11.1705     99.0619    181.5247   1.0526633133e+02   2.3929447170e+01    0.5181538     0.322825 -51.76  0.001604157    1.724    0.420
        24  -9.6616    141.4773    187.4733   9.6472528026e+01   1.5244451738e+01    0.1415586    0.1311637  43.11 0.0008095237    1.024    0.024
        25 -11.4035    149.1516    187.7769   9.4815266350e+01   1.3765669736e+01    0.3819641    0.3158681  67.30  0.001475889    1.344    0.256
        26 -10.5832    150.1595    178.3192   9.2874937605e+01   1.5492023008e+01    0.4014224    0.2458175 -64.70  0.001240022    2.177    0.541
        27 -11.4429    144.0919    178.3090   9.4250807898e+01   1.6646825029e+01    0.4524931    0.3399706 -61.77  0.001420684    1.489    0.328
        28 -10.3073    189.2097    177.2704   8.4196641205e+01   8.1732057404e+00    0.4513177    0.3612178 -64.26  0.002356963    1.645    0.392
        29 -10.1629     58.8904    229.6209   1.1918085406e+02   1.9661022967e+01    0.1762325    0.1323536  82.68 0.0004492368    1.177    0.150
        30  -9.3030     84.1794    173.7594   1.0765922115e+02   2.8032133957e+01    0.1755324    0.1566599 -48.32 0.0004046822    1.308    0.235
        31  -9.2529    168.0382    231.8001   9.7946081278e+01   2.5918129524e+00    0.1851919    0.1772509  25.02 0.0004712406    1.167    0.143
        32 -11.0755     50.4086    224.7244   1.2040308971e+02   2.1677580023e+01    0.2136485    0.1332657  74.37 0.0006630478    1.400    0.286
        33  -9.3169     64.8824    223.8299   1.1754526480e+02   2.0005917498e+01    0.1500105    0.1002528 -89.93 0.0005603214    1.433    0.302
        34 -10.4312     55.2028    222.7998   1.1933443606e+02   2.1459492291e+01    0.1719106    0.1185038  63.08 0.0005944593    1.168    0.144
        35  -8.5775     80.8173    220.3510   1.1405696290e+02   1.8502062802e+01    0.1619468    0.1071984  35.31 0.0003568951    1.580    0.367
        36 -10.6767    139.3924    171.6608   9.4100095470e+01   1.8945690959e+01    0.4147757    0.2566757  49.79   0.00115792    1.602    0.376
        37 -10.0030     58.9211    176.5757   1.1402031236e+02   3.0909586037e+01    0.2191375    0.1773329 -89.97 0.0004088516    1.077    0.071
        38  -9.6480    240.5002    169.4723   7.2805497370e+01   1.1496140154e-01    0.1339565    0.1160574  -8.82 -8.482519e-06    1.024    0.023
        39  -9.5506     48.7576    218.2255   1.2021390850e+02   2.3170692568e+01    0.2657925    0.1677625  65.45  0.001652805    1.321    0.243
        40  -8.7985    187.5348    163.0271   8.1605238281e+01   1.1169532283e+01    0.2025338    0.1290068 -64.77 0.0008092839    2.526    0.604
        41 -10.7754    133.9117    145.9278   9.0226120813e+01   2.5716283136e+01     1.260088    0.3271859 -55.18  0.002958318    5.814    0.828
        42  -9.2478    112.9462    150.9205   9.6575289926e+01   2.8581128510e+01    0.2413983     0.176028  74.83 0.0006020292    1.668    0.400
        43  -9.6970    174.5826    149.3813   8.1411702292e+01   1.6528680029e+01    0.2960988      0.26135 -69.11  0.000816846    1.304    0.233
        44  -9.8621    187.5153    152.0011   7.9208729035e+01   1.3303207382e+01    0.2328925    0.2021345  36.82 0.0006955173    1.142    0.125
        45  -9.5846    144.3982    146.6152   8.7794467836e+01   2.3433524925e+01     0.303719    0.1398174 -60.91 0.0003057345    3.327    0.699
        46  -9.4288    108.9143    147.1451   9.6870281704e+01   3.0200274638e+01    0.2266641    0.1906135  76.01 0.0002819972    1.258    0.205
        47  -9.7495     87.0486    143.6876   1.0200707899e+02   3.4734931022e+01    0.4728658    0.2413782  65.44  0.001629145    3.376    0.704
        48 -10.8456    107.4206    137.9979   9.5390811915e+01   3.2641823188e+01    0.5007465    0.3833248 -36.52  0.002441324    1.467    0.318
        49 -11.6447     95.2373    137.4771   9.8584647243e+01   3.4899933000e+01    0.2962826    0.2637344 -46.80 0.0005429015    1.164    0.141
        50 -10.5945    105.9307    130.7143   9.4222873633e+01   3.4648705088e+01    0.3927645     0.326618 -64.41  0.001169154    1.187    0.158
        51  -9.8753    136.2986    129.5087   8.5882031834e+01   2.8951193681e+01    0.5501596    0.1409087 -50.11  0.001444756    4.218    0.763
        52 -10.4114    114.7365    128.9330   9.1419310106e+01   3.3423738412e+01    0.3361198     0.317746   7.04 0.0007216994    1.169    0.145
        53  -9.2045    160.6269    127.7491   7.9500870790e+01   2.4070988394e+01    0.2903555    0.2051688 -53.04  0.001204099    1.492    0.330
        54 -10.6209    120.0406    123.6635   8.8744504530e+01   3.3618861772e+01    0.6422274    0.3182377 -34.48  0.002213898    2.766    0.638
        55 -10.4887    102.1576    124.7663   9.3938171821e+01   3.6750805165e+01    0.3126532    0.2547641 -21.93 0.0006479466    1.488    0.328
        56  -9.9857    135.0000    120.5047   8.4007240338e+01   3.1255334151e+01    0.4988367   0.08862446 -46.39  0.001118772    5.566    0.820
        57  -9.4303    109.9490    118.1512   9.0187876626e+01   3.6872755726e+01     0.220252    0.2142503 -65.62 0.0003262711    1.009    0.009
        58 -10.0040    231.3420    113.7834   6.2038084357e+01   1.1158853914e+01    0.2862104     0.248335 -40.60 0.0007583005    1.073    0.068
        59  -9.8812    134.6263    106.8171   8.0535533718e+01   3.4372598978e+01    0.5326976    0.1494155 -42.64  0.001490108    3.602    0.722
        60  -9.2621    167.5033    112.3104   7.3993813580e+01   2.5743018217e+01    0.3442396    0.2452811 -73.58  0.001143151    1.976    0.494
        61 -10.9734    118.5149    110.4576   8.5852214112e+01   3.6964643953e+01    0.6854125    0.4418738  67.58  0.002719432    2.255    0.557
        62  -9.5353    205.6097    110.2528   6.5649707745e+01   1.7367161310e+01     0.267755       0.2414  40.78 0.0005813673    1.167    0.143
        63 -10.2983     56.3702    217.9803   1.1870721529e+02   2.2273225724e+01    0.2763493    0.1392896  76.29  0.001095158    2.172    0.540
        64  -9.6872     61.4187    219.8878   1.1787842788e+02   2.1241403526e+01    0.1467247    0.1006411 -58.43 0.0005332215    1.734    0.423
        65  -9.4685    184.4911    212.5135   9.1651144607e+01   2.9096316425e+00    0.2113334      0.12856 -54.99   0.00103231    2.271    0.560
        66  -8.3025    184.6641     76.7163   6.0712768185e+01   2.8396487704e+01    0.1534555    0.1189667  23.35 0.0005111526    1.623    0.384
        67 -10.5575     72.0668    245.7584   1.1803319013e+02   1.4942598560e+01    0.3643431    0.2163605 -82.04  0.002261381    1.795    0.443
        68  -9.3277     42.5934    205.8125   1.2043713943e+02   2.6458083329e+01    0.2702114    0.2141534 -27.43  0.001615341    2.178    0.541
        69 -10.0157     56.7753    210.1373   1.1794127529e+02   2.3824477194e+01    0.2836114    0.1497443 -62.24   0.00110346    1.966    0.491
        70  -9.5131     44.0479    210.1430   1.2049547481e+02   2.5384908849e+01    0.1785101    0.1186927  66.13 0.0003545054    1.244    0.196
