#   1 NUMBER                 Running object number                                     
#   2 MAG_AUTO               Kron-like elliptical aperture magnitude                    [mag]
#   3 X_IMAGE                Object position along x                                    [pixel]
#   4 Y_IMAGE                Object position along y                                    [pixel]
#   5 X_WORLD                Barycenter position along world x axis                     [deg]
#   6 Y_WORLD                Barycenter position along world y axis                     [deg]
#   7 A_WORLD                Profile RMS along major axis (world units)                 [deg]
#   8 B_WORLD                Profile RMS along minor axis (world units)                 [deg]
#   9 THETA_WORLD            Position angle (CCW/world-x)                               [deg]
#  10 FWHM_WORLD             FWHM assuming a gaussian core                              [deg]
#  11 ELONGATION             A_IMAGE/B_IMAGE                                           
#  12 ELLIPTICITY            1 - B_IMAGE/A_IMAGE                                       
         1 -13.6595     50.6059    148.7234   1.3849260581e+02   3.8814853858e+01     1.852066     1.000542 -69.80   0.01011452    1.780    0.438
         2 -12.1349    201.3316      2.1126   6.5413229164e+01   3.3419793787e+01     1.255115    0.5918944  77.22  0.002989602    2.153    0.536
         3 -13.1353    180.7153     24.6453   7.4724857400e+01   3.6494109190e+01     1.554933     1.017801  19.30  0.005389091    1.948    0.487
         4 -13.3811    188.7432     17.3424   7.1366424324e+01   3.5194483749e+01     2.334378     1.283177 -11.76  0.008983266    2.087    0.521
         5 -11.8960    194.3390      9.3136   6.8251039962e+01   3.4546649301e+01    0.6144681    0.4850718  53.53  0.001179087    1.302    0.232
         6 -11.2011     41.5633     16.8037   1.1098376837e+02   6.9365430881e+01    0.3198257    0.2584186  -4.13  0.001965576    1.249    0.199
         7 -10.1205     58.4156      9.8571   9.9035174324e+01   6.7881729360e+01     0.226767    0.1556547  34.68  0.001231536    1.482    0.325
         8 -10.4217     50.8676      3.0685   9.8587759222e+01   7.0207007061e+01    0.3784273    0.1316764 -34.81  0.001522785    2.661    0.624
         9 -10.0703    230.0536    207.5955   1.0978649425e+02   2.0950908860e+00    0.1878961    0.1555442  14.26 0.0003625777    1.222    0.182
        10 -10.5245    248.6545    248.5624   1.1283556371e+02  -3.9501479181e+00    0.3441955    0.1864928   8.12  0.002464235    1.684    0.406
        11 -10.4938    162.8481    249.3085   1.2646550850e+02   7.0084563897e+00    0.2989195    0.1878484  47.74  0.002133619    1.520    0.342
        12 -10.8499    139.6615    248.9903   1.3035091111e+02   1.0130075558e+01     0.265596    0.2023555  51.64  0.002120271    1.309    0.236
        13 -19.3459      7.9732    129.9389   1.4788995941e+02   4.6820597175e+01     16.42401     2.347442 -80.50   0.04738627    6.718    0.851
        14 -11.1787     78.8339    192.8347   1.3642110078e+02   2.6655754814e+01    0.3410061     0.227373 -47.68  0.001853483    2.015    0.504
        15 -11.1177     82.6300    186.3223   1.3497656517e+02   2.7336055379e+01    0.2561495    0.2281559 -40.29 0.0006815814    1.491    0.329
        16  -8.6755     65.7482    185.1390   1.3848496770e+02   2.9708974923e+01    0.1763095    0.1284333  61.63 0.0008593343    1.166    0.142
        17  -8.5485     53.0000    175.9293   1.4046942092e+02   3.2974371298e+01    0.1753885   0.06152225 -71.88  0.000751714    2.926    0.658
        18 -10.5817     89.9634    174.5385   1.3206677394e+02   2.8526644437e+01    0.2144133    0.1891584  56.30 0.0003705167    1.052    0.049
        19  -9.9491    126.5705    173.9713   1.2392540158e+02   2.3063797746e+01    0.3423847      0.16369  39.74  0.001648422    1.805    0.446
        20 -11.5246    125.5320    243.6301   1.3228112989e+02   1.2660977364e+01    0.5240589    0.2716357  59.32  0.003053453    2.473    0.596
        21 -13.5441     45.4477    132.0399   1.3801387765e+02   4.3035787536e+01     1.190383     0.737986 -74.29  0.006762675    1.496    0.331
        22 -12.1852     94.9543    166.6663   1.2995042074e+02   2.9316575252e+01     2.134873    0.5503795  47.53   0.00141888    3.920    0.745
        23 -13.0700     67.8482    144.3095   1.3360495623e+02   3.7670255813e+01     1.926875     1.009005  79.57   0.00841107    2.756    0.637
        24 -10.2778    133.4392    172.8919   1.2228804461e+02   2.2129237254e+01    0.3380587    0.1300924  36.93  0.001415346    2.386    0.581
        25 -10.0971    107.0063    147.5783   1.2428702273e+02   3.1222682008e+01    0.5625369    0.2981035 -36.03  0.002367277    2.908    0.656
        26 -11.5675     95.2612    148.9892   1.2737836721e+02   3.2794046511e+01    0.2636791    0.2352906  35.70 0.0004306534    1.170    0.145
        27  -9.4906    134.0115    145.2225   1.1747538825e+02   2.7024755886e+01    0.7170134    0.1730492 -54.09  0.001793679    7.210    0.861
        28  -9.4277    114.5375    135.3889   1.2029156456e+02   3.2418529718e+01    0.2885602    0.2359011 -25.81 0.0009150026    1.500    0.334
        29 -10.1762    102.6005    132.2907   1.2274133390e+02   3.5095183407e+01    0.3063667    0.2388362 -24.00  0.001628075    1.706    0.414
        30  -9.6561    160.5624    127.8521   1.0794541960e+02   2.5115100005e+01    0.2631656    0.1932499  84.13  0.001205417    2.238    0.553
        31  -9.0095    119.4905    127.9962   1.1761116072e+02   3.3039518404e+01    0.1962173    0.1192967 -27.22 0.0008102203    2.539    0.606
        32 -11.2355     67.2562    126.4802   1.3126235108e+02   4.1667753977e+01    0.4346999    0.3029149 -43.26   0.00236025    1.711    0.415
        33  -9.0167    110.1982    122.8937   1.1895087664e+02   3.5767070025e+01    0.1988708    0.1790936  75.38 0.0003459394    1.139    0.122
        34 -13.0830     58.5633    131.6438   1.3439388848e+02   4.1616671413e+01     2.566684    0.8718603 -79.54   0.00735212    6.023    0.834
        35 -12.4605     78.4947    171.3507   1.3428517681e+02   3.0715078080e+01    0.4111948    0.2760831 -37.40  0.002290083    2.224    0.550
        36  -9.6602    168.3948    113.1006   1.0284080898e+02   2.6075210097e+01    0.3426991    0.2681037 -72.93  0.001681105    1.810    0.447
        37  -8.9473    205.6387    110.2968   9.4970859828e+01   1.8640138649e+01    0.3461335    0.1738635  37.75  0.001484821    2.088    0.521
        38  -8.7302     78.2511    208.1857   1.3790627306e+02   2.4072236766e+01    0.1612016    0.1017945  55.22 0.0008233949    1.315    0.240
        39 -10.1467    206.9245    198.4474   1.1217961093e+02   6.4923578712e+00    0.3225854    0.1634667  17.87  0.001584298    2.481    0.597
        40 -10.2987    192.6203    193.7376   1.1394340317e+02   9.2903124652e+00    0.6451899    0.3748282 -62.31  0.002394031    6.327    0.842
        41 -10.1351    144.2242    242.5495   1.2892888530e+02   1.0298001614e+01    0.1908891    0.1420375  37.69 0.0003728293    1.030    0.029
        42  -8.6986    185.6828    238.3642   1.2139097211e+02   5.1024768299e+00   0.09934331   0.07461254  53.77 0.0004374664    1.771    0.435
        43  -9.3134    224.9979    245.4915   1.1598114063e+02  -7.9123774784e-01    0.1542904   0.06112913  23.83 0.0008103952    2.558    0.609
        44 -11.0767    174.5676    220.4396   1.2103086341e+02   8.7177798056e+00    0.3015601    0.2467651  16.63  0.002263211    1.166    0.142
        45  -8.6367    120.1471    218.5763   1.3079480130e+02   1.6836616740e+01    0.1517685    0.1395074 -46.25  0.001067544    1.416    0.294
        46 -10.8514    183.4360    215.2431   1.1876758765e+02   8.0402109009e+00    0.3395055    0.2111035 -13.41  0.002047551    2.150    0.535
