#   1 NUMBER                 Running object number                                     
#   2 MAG_AUTO               Kron-like elliptical aperture magnitude                    [mag]
#   3 X_IMAGE                Object position along x                                    [pixel]
#   4 Y_IMAGE                Object position along y                                    [pixel]
#   5 X_WORLD                Barycenter position along world x axis                     [deg]
#   6 Y_WORLD                Barycenter position along world y axis                     [deg]
#   7 A_WORLD                Profile RMS along major axis (world units)                 [deg]
#   8 B_WORLD                Profile RMS along minor axis (world units)                 [deg]
#   9 THETA_WORLD            Position angle (CCW/world-x)                               [deg]
#  10 FWHM_WORLD             FWHM assuming a gaussian core                              [deg]
#  11 ELONGATION             A_IMAGE/B_IMAGE                                           
#  12 ELLIPTICITY            1 - B_IMAGE/A_IMAGE                                       
         1 -14.8857    159.1942     42.1028   8.4110232784e+01   4.0212288057e+01      1.40755     1.016691 -13.72   0.00399045    1.407    0.290
         2 -14.4972    171.5550      8.9282   7.0488799983e+01   4.0825253394e+01     1.122958    0.9894736  17.12  0.004032797    1.163    0.140
         3 -11.5985    189.8689     14.6853   7.0250287975e+01   3.5621904833e+01    0.2444467    0.1908117  -4.53 0.0007778324    1.322    0.243
         4 -11.8924    168.1144    243.2408   1.2636211395e+02   7.0639578345e+00    0.1725673    0.1336031 -22.81  0.000674901    1.558    0.358
         5 -13.2694    187.9245    250.1274   1.2383128862e+02   3.8519559915e+00    0.4665265    0.2374679  13.68  0.002758219    2.309    0.567
         6 -11.4224    176.1052    250.2333   1.2580785854e+02   5.2990330062e+00     0.158225    0.1064036  20.45 0.0005866189    1.181    0.153
         7 -20.0034     80.1397    193.8940   1.3782383287e+02   2.5596609345e+01      12.0236     5.818252 -68.26   0.06566371    2.353    0.575
         8 -12.6098     30.9076    182.3495   1.4736339680e+02   3.2973067406e+01    0.3347681     0.205688  53.00 0.0003989348    1.355    0.262
         9 -11.8890     28.0021    179.6783   1.4782459804e+02   3.3749426513e+01    0.2698514     0.193202 -13.88  0.001351051    2.308    0.567
        10 -12.8498    198.8877    222.8838   1.1844931619e+02   5.3387701304e+00    0.3104362    0.1660617  29.75  0.001164825    1.448    0.309
        11 -13.3920    156.9580    178.5129   1.1954811975e+02   1.7386668278e+01    0.3773892    0.3395025 -49.79  0.001560878    1.385    0.278
        12 -12.5315     22.5344    220.7212   1.5083839600e+02   2.6869056485e+01    0.1973682    0.1424156 -72.16  0.001602903    1.616    0.381
        13 -13.9562    177.4952    169.9806   1.1391593832e+02   1.5403898820e+01    0.5298875    0.4501896  13.62  0.003394546    1.019    0.019
        14 -12.3141    168.6961    175.9408   1.1672994337e+02   1.5923058293e+01    0.2732654    0.1628045  38.47 0.0007257597    1.515    0.340
        15 -12.8823    186.4563    169.6278   1.1209616884e+02   1.3990845673e+01    0.3816393    0.2699047 -48.06  0.002148251    1.907    0.476
        16 -12.1080     26.0058    172.6130   1.4784022787e+02   3.5317590944e+01    0.3026411    0.1824611  44.81  0.001220914    1.442    0.307
        17 -12.0825    201.8172    165.7392   1.0845737468e+02   1.2033334482e+01    0.2919556    0.2712838 -65.74  0.001503848    1.742    0.426
        18 -11.4949    223.6708    163.7086   1.0417517328e+02   8.7941280001e+00    0.2199879    0.1874198  -8.31 0.0004916267    1.234    0.189
        19 -10.1290     14.4556    162.4993   1.4984657074e+02   3.8306551592e+01    0.1652754   0.08730597  84.21 0.0001388127    1.690    0.408
        20 -10.6003     14.4838    159.4772   1.4967806429e+02   3.8929371535e+01    0.1103361   0.09129647  77.54 0.0008095466    1.049    0.046
        21 -10.3870     23.5350    215.4977   1.5045174354e+02   2.7649004867e+01   0.09863155   0.07680487  58.90 0.0008090279    1.055    0.052
        22 -11.0658     12.6453    156.4623   1.4993940068e+02   3.9695736531e+01    0.2703232    0.1674486 -30.18  0.001566827    2.611    0.617
        23 -12.1419     22.0020    242.3781   1.5169486893e+02   2.3527105038e+01    0.1774213    0.1102782  84.73  0.001460927    1.574    0.365
        24 -13.9773    134.0000    144.4911   1.1852513329e+02   2.7126170790e+01     1.194067    0.3195006 -52.99  0.003375515    5.446    0.816
        25 -11.5028     17.8405    153.3964   1.4854083451e+02   3.9951793791e+01    0.2136099    0.1403341 -75.25 0.0006957395    1.399    0.285
        26 -11.4888     20.3227    166.7708   1.4876039181e+02   3.6971128632e+01    0.1851898    0.1665968  53.80 0.0006955712    1.199    0.166
        27 -10.1323    183.5173    150.4645   1.0893841561e+02   1.7378263143e+01    0.1353624    0.1176916   9.76 7.950919e-05    1.035    0.033
        28 -12.6307    174.3533    148.3806   1.1037098819e+02   1.9331702207e+01    0.3714996    0.2677691 -50.53  0.001803892    1.776    0.437
        29 -14.8079    145.8271    146.2365   1.1612828700e+02   2.4752737390e+01    0.9423164    0.6936026 -83.84  0.004482706    2.411    0.585
        30 -13.6681    154.7166    146.6077   1.1420930500e+02   2.3122528748e+01    0.4717854    0.3564799  55.85  0.002515336    1.616    0.381
        31 -10.6666      7.5911    149.6802   1.5077028724e+02   4.1487414315e+01    0.2155915    0.1533484 -50.40 0.0008934991    1.707    0.414
        32 -12.3453     27.2724    145.5664   1.4568298983e+02   4.0885912599e+01    0.2884911    0.2809184 -42.01  0.001211181    1.289    0.224
        33 -12.8309    139.9304    148.8273   1.1798016032e+02   2.5294419245e+01    0.2472056    0.2125696  36.02 0.0003149397    1.111    0.100
        34 -10.0828     15.7727    209.6476   1.5165099402e+02   2.9300402199e+01    0.1145268   0.08920082  17.86 0.0004498831    1.676    0.403
        35 -13.8583    136.0000    128.5161   1.1474968196e+02   2.9874334694e+01     1.386133    0.2706308 -50.15  0.003026825    8.030    0.875
        36 -11.7737      3.5177    138.3561   1.5117876203e+02   4.4199737637e+01    0.2521458     0.156284 -65.82  0.001413291    1.554    0.357
        37 -12.9972     11.4189    206.1721   1.5233333860e+02   3.0254840888e+01     0.405871    0.2321387  25.82  0.002269715    1.899    0.474
        38 -11.0154    154.7690    239.8939   1.2829981493e+02   9.1509552001e+00    0.1631744    0.1422101  61.36  0.001191977    1.584    0.369
        39 -10.8396      7.9532    239.3066   1.5390777590e+02   2.5158509346e+01      0.11176   0.08035108  63.71 0.0006223267    1.102    0.093
        40 -12.8264    160.7800    127.9894   1.0885503939e+02   2.5327354044e+01    0.3897515    0.3429179 -37.87  0.001852691    1.217    0.179
        41 -12.3223    210.4882    202.4311   1.1335790118e+02   6.0674920293e+00    0.2128418    0.1589649 -11.19  0.001479686    1.282    0.220
        42 -12.9612    196.3853    236.2071   1.2068713765e+02   4.2278228284e+00    0.2462968     0.159522  -9.35  0.001438675    1.656    0.396
        43 -12.9595    138.1149    198.2445   1.2633413947e+02   1.7122582979e+01    0.5947502    0.2797224  51.34  0.002771263    2.675    0.626
        44 -13.9203    167.0768    191.1564   1.1955124855e+02   1.3909099295e+01    0.5564523    0.4475726  59.02  0.003516602    1.724    0.420
        45 -13.7428    174.7898    193.4612   1.1842346235e+02   1.2419606405e+01    0.4612114    0.3513755 -46.80  0.002089427    1.731    0.422
        46 -12.9781    136.4687    123.8795   1.1360108420e+02   3.0700798216e+01    0.3485059    0.3092338  49.27  0.001277495    1.208    0.172
        47 -13.0327    180.1215    192.5496   1.1726476233e+02   1.1744408474e+01    0.3316679    0.3088223  88.31  0.001306388    1.716    0.417
        48 -13.8464    176.7159    188.2677   1.1722167056e+02   1.2856037095e+01    0.6481714    0.3843369 -57.88  0.003099279    3.293    0.696
        49 -10.7800    205.6180    110.1020   9.5510417235e+01   1.9425791687e+01    0.2643301    0.1945551  30.21 0.0006779628    1.345    0.257
        50 -10.5913     13.6865    238.7103   1.5295321835e+02   2.4781289694e+01    0.1035859   0.06647259  72.89 0.0003597228    1.326    0.246
        51 -12.0549     26.9419     97.9201   1.4088935170e+02   5.2007030316e+01    0.3815565    0.3157736 -33.91  0.002418195    1.390    0.281
        52 -10.7626    151.0247    243.7495   1.2937418284e+02   9.1629960923e+00     0.162389    0.1344291   3.95 0.0004302175    1.308    0.235
        53 -14.3725    207.0442    179.4597   1.1005613219e+02   9.3789477817e+00    0.7449094    0.6031842   0.58  0.004288194    1.095    0.086
        54 -12.1750     47.3656     92.7575   1.3314532985e+02   5.1410923489e+01    0.3275508    0.2571328   9.34  0.001779488    1.547    0.354
        55 -13.6544    196.7926    172.5365   1.1067051112e+02   1.1908184348e+01    0.6441559     0.359937 -39.97  0.002680103    2.063    0.515
        56 -10.9325    124.1702     90.7419   1.0837132782e+02   3.9794841909e+01    0.2150646    0.2084123 -89.52 0.0007962224    1.176    0.149
        57 -12.3551    148.0463    189.1042   1.2302987535e+02   1.7089626777e+01    0.3759069    0.1637224  27.58  0.001653124    2.523    0.604
        58 -12.1468    124.4872    185.8905   1.2746466039e+02   2.1098138873e+01    0.4388956    0.2276722  55.61 0.0002677657    2.591    0.614
        59 -12.5028     34.2762    187.1306   1.4694159593e+02   3.1751568040e+01    0.4237723    0.3123333 -79.29  0.003087871    1.361    0.265
        60 -14.2926    148.5799     56.7315   9.1400063687e+01   4.0642681107e+01    0.9929039    0.8317551   3.65 0.0009689387    1.226    0.184
        61 -10.5340    159.9995    246.8096   1.2815415295e+02   7.6800618658e+00    0.2096107    0.1256362 -19.85  0.001368037    2.378    0.579
        62 -13.0150    163.0146     33.4212   8.0362901102e+01   4.0385993093e+01    0.4473497    0.4007974   3.67 0.0007768466    1.097    0.089
        63 -10.9982     13.3858     59.8509   1.4013187384e+02   6.2231019006e+01    0.1854055    0.1696685  66.70 0.0004791854    1.261    0.207
        64 -13.3596    197.4979    245.7243   1.2171831285e+02   3.1139594103e+00    0.3377039    0.1876832  38.21   0.00181445    1.593    0.372
