#   1 NUMBER                 Running object number                                     
#   2 MAG_AUTO               Kron-like elliptical aperture magnitude                    [mag]
#   3 X_IMAGE                Object position along x                                    [pixel]
#   4 Y_IMAGE                Object position along y                                    [pixel]
#   5 X_WORLD                Barycenter position along world x axis                     [deg]
#   6 Y_WORLD                Barycenter position along world y axis                     [deg]
#   7 A_WORLD                Profile RMS along major axis (world units)                 [deg]
#   8 B_WORLD                Profile RMS along minor axis (world units)                 [deg]
#   9 THETA_WORLD            Position angle (CCW/world-x)                               [deg]
#  10 FWHM_WORLD             FWHM assuming a gaussian core                              [deg]
#  11 ELONGATION             A_IMAGE/B_IMAGE                                           
#  12 ELLIPTICITY            1 - B_IMAGE/A_IMAGE                                       
         1 -14.3679    159.6698     47.8387   8.4682245590e+01   3.9034511963e+01     1.673382     1.163666  22.40  0.005430032    1.872    0.466
         2 -14.3451    171.6194     31.8623   7.7311826148e+01   3.7943401300e+01     1.067663    0.9551323   1.51  0.003663077    1.248    0.199
         3 -13.3424    175.2451     25.0813   7.4553826526e+01   3.7759990581e+01     0.553462    0.4951599  19.77  0.001334187    1.260    0.207
         4 -12.6792    188.4374      2.0064   6.5707529208e+01   3.6508220199e+01    0.6315021    0.2407357  78.54  0.002197081    2.564    0.610
         5 -12.1690    207.9710    186.0108   1.0906155322e+02   7.3243737333e+00    0.3086541    0.2264821  13.50   0.00108493    1.197    0.164
         6 -18.5559     62.2954    242.9978   1.4398970764e+02   2.0470681033e+01     6.187096     3.826073  33.61   0.04368838    1.432    0.302
         7 -12.5564    212.3933    182.5948   1.0769665066e+02   7.0346141728e+00    0.3567767    0.2294872  17.54  0.001194926    1.459    0.315
         8 -12.3312    130.4941    206.0176   1.2714634370e+02   1.7004995480e+01    0.2270168    0.2046499  48.12 0.0005468187    1.176    0.150
         9 -12.1220     11.7642    205.1788   1.5222985726e+02   3.2088097837e+01    0.2813754    0.2193316  82.35   0.00210062    1.292    0.226
        10 -11.7708     35.4921    184.0162   1.4617064662e+02   3.3830701722e+01    0.1949203    0.1374667  44.68  0.001298454    1.198    0.165
        11 -14.0649    105.1857    171.7680   1.2831726011e+02   2.7014487340e+01     1.304093    0.4049436  49.77  0.004448589    3.531    0.717
        12 -11.9312    113.2039    170.0441   1.2615755847e+02   2.6037815472e+01     0.349735    0.3117543 -30.21  0.001142608    1.399    0.285
        13 -12.5854     97.7718    171.9634   1.3012902106e+02   2.8147480653e+01      0.37082    0.2302416 -66.62 0.0007241378    1.866    0.464
        14 -11.7518    199.1976    178.7559   1.0938692679e+02   9.6925189918e+00    0.3032281    0.2593058 -53.52  0.001106013    1.727    0.421
        15 -13.2943     99.4609    180.5160   1.3081603149e+02   2.6231920558e+01    0.4715043    0.3635322  61.93  0.001808648    1.234    0.189
        16 -11.6528     68.0397    177.7489   1.3798967688e+02   3.1259256850e+01    0.1789679     0.136271  47.86  0.000342473    1.096    0.087
        17 -13.5051    197.0219    197.0652   1.1284591767e+02   7.6950720739e+00    0.6142089    0.3613217  38.31  0.001891796    1.425    0.298
        18 -11.8998    138.0141    171.4683   1.2063457838e+02   2.1522091633e+01    0.3754731    0.2644686  80.52  0.001867315    2.233    0.552
        19 -12.5787     95.7880    176.3867   1.3117079293e+02   2.7586729227e+01    0.3419437    0.2311259 -41.42  0.001856752    2.017    0.504
        20 -12.4799    189.4793    187.1671   1.1262825776e+02   1.0192475468e+01    0.5435676    0.3576968 -46.29  0.003129312    2.047    0.511
        21 -10.8153    225.4828    166.9910   1.0264606186e+02   6.8143395822e+00    0.1478181    0.1038659 -51.11 0.0004277152    2.354    0.575
        22 -11.5637    102.5576    162.8164   1.2769177971e+02   2.9209880012e+01    0.2364007    0.1992875  45.89 0.0003822979    1.048    0.045
        23 -12.2995     24.5908    157.0754   1.4720987968e+02   4.0517314211e+01    0.4502147     0.251053  30.76  0.002143863    1.758    0.431
        24 -11.3278    174.6271    148.9174   1.0855999515e+02   1.8546004473e+01    0.2427671     0.218922  66.37 0.0009235835    1.349    0.259
        25 -11.8211    133.8230    145.2052   1.1698905317e+02   2.7161088341e+01    0.8268989    0.2097665 -53.67  0.002208367    5.948    0.832
        26 -12.0953      6.1220    143.9793   1.5137985307e+02   4.4898803967e+01    0.4784781    0.2464074   3.46  0.002396804    3.153    0.683
        27 -10.7754     12.9864    142.2665   1.4944067231e+02   4.4769487465e+01    0.2003107    0.1504464  48.85 0.0004085157    1.209    0.173
        28 -11.9813    114.3885    140.5878   1.2100550307e+02   3.1739004067e+01    0.4428028    0.2333268 -44.59   0.00191271    2.216    0.549
        29 -12.6022    104.0647    140.5143   1.2372207590e+02   3.3602434631e+01    0.2920411     0.240272  43.96 0.0004873988    1.113    0.102
        30 -12.1408    183.9155    215.6739   1.1801941691e+02   7.4221955897e+00    0.2200853     0.157334  52.67  0.001400275    1.781    0.438
        31 -19.1602     50.9125     98.9340   1.3274728776e+02   5.1415427799e+01     18.39812    0.9504092 -65.82   0.02675831   18.185    0.945
        32 -12.0130     27.8442    134.8878   1.4474528587e+02   4.5196074405e+01    0.2548109    0.2007854   8.34 0.0005881445    1.660    0.398
        33 -12.3389    135.1954    195.8034   1.2484509209e+02   1.7886499162e+01    0.3086708    0.2212314  64.70 0.0008210912    1.706    0.414
        34 -11.4511    107.8404    126.8666   1.2010864687e+02   3.5877159552e+01    0.3009153    0.2462584 -31.22 0.0007023633    1.490    0.329
        35 -11.4855    119.4332    130.5007   1.1771141672e+02   3.2902574693e+01    0.2897631    0.2551746   1.32 0.0007752329    1.367    0.269
        36 -11.3063    105.8412    130.8461   1.2144930073e+02   3.5376697635e+01    0.3558456    0.2880684  79.69  0.001227384    1.361    0.265
        37 -11.5272    126.4909    127.9487   1.1533076101e+02   3.2047910171e+01     0.511445    0.2810439  67.35   0.00174597    3.382    0.704
        38 -10.4618     17.4212    212.2839   1.5130900728e+02   3.0299671349e+01    0.0898718   0.07997022 -14.05 0.0004464755    1.836    0.455
        39 -12.6552     90.1753    122.3737   1.2429142480e+02   4.0027842436e+01    0.4013948     0.342375  -7.56  0.001357073    1.544    0.352
        40 -11.7464    181.2241    195.2013   1.1548493430e+02   1.0465867751e+01    0.3017801    0.2472129  85.76  0.001265924    2.197    0.545
        41 -10.7053    113.2142    119.3446   1.1702700157e+02   3.6490458563e+01    0.2332773    0.2008907 -40.99 0.0004154225    1.284    0.221
        42 -11.9988    170.3937    116.1092   1.0219347141e+02   2.4976221529e+01     0.650013    0.4113933 -76.46  0.002042924    3.779    0.735
        43 -12.2720      3.9640    136.8644   1.5166168191e+02   4.6629072675e+01    0.2528067    0.1466151  87.85  0.001509344    1.458    0.314
        44 -12.3919     71.9727    111.7354   1.2790732600e+02   4.5438866077e+01    0.4053471    0.3085758  -8.57  0.002001995    1.939    0.484
        45 -11.3572      4.6242    112.1117   1.5022804471e+02   5.2276162380e+01    0.2645144    0.1805713  14.22  0.001102369    1.786    0.440
        46 -11.0483    205.3304    110.2482   9.4049061092e+01   1.8320161836e+01    0.2970532    0.1883548  43.51   0.00104271    1.552    0.356
        47  -9.9342     13.5705     59.7591   1.4144502240e+02   6.4432652153e+01    0.1674218    0.1077066 -87.81 0.0003161588    1.487    0.328
        48 -11.1320    176.7023    242.9554   1.2283186132e+02   5.3005085859e+00    0.1474869     0.112965  27.77 0.0004933613    1.106    0.096
        49 -11.0809     17.3600    238.2717   1.5208173442e+02   2.5945842732e+01   0.08240276   0.07321464  21.77 0.0006999881    1.651    0.394
        50 -11.2600    166.1404    208.6847   1.2037023835e+02   1.1047305647e+01    0.2808122    0.1646833  43.11   0.00145655    1.454    0.312
        51 -10.6779    133.2660     29.6259   8.3365033672e+01   4.8789677500e+01    0.4570886    0.2089783  83.78  0.001234407    4.631    0.784
        52 -11.7861    189.6872     14.9725   6.9613789108e+01   3.4947157865e+01      0.20472    0.1844015 -45.17 0.0006292303    1.088    0.081
