#   1 NUMBER                 Running object number                                     
#   2 MAG_AUTO               Kron-like elliptical aperture magnitude                    [mag]
#   3 X_IMAGE                Object position along x                                    [pixel]
#   4 Y_IMAGE                Object position along y                                    [pixel]
#   5 X_WORLD                Barycenter position along world x axis                     [deg]
#   6 Y_WORLD                Barycenter position along world y axis                     [deg]
#   7 A_WORLD                Profile RMS along major axis (world units)                 [deg]
#   8 B_WORLD                Profile RMS along minor axis (world units)                 [deg]
#   9 THETA_WORLD            Position angle (CCW/world-x)                               [deg]
#  10 FWHM_WORLD             FWHM assuming a gaussian core                              [deg]
#  11 ELONGATION             A_IMAGE/B_IMAGE                                           
#  12 ELLIPTICITY            1 - B_IMAGE/A_IMAGE                                       
         1 -14.4372     68.5075    144.7670   9.6708862367e+01   3.7331595577e+01      4.88486     2.712481  80.49  0.002797914    3.506    0.715
         2 -14.3607    209.3642     40.8374   3.7666280330e+01   2.8672472450e+01      1.75436     1.427836   4.65  0.007807593    1.948    0.487
         3 -13.9007    224.6911     26.6964   3.3095401313e+01   2.7214126773e+01    0.9016652    0.8238046  86.55  0.003794477    1.278    0.217
         4 -12.6231    247.5592      7.4100   2.7664266406e+01   2.4904513302e+01    0.5242459    0.3626906 -81.69  0.003751875    1.193    0.162
         5 -12.2649    245.1601      2.8178   2.6964913513e+01   2.5857608391e+01    0.4989196    0.1877199  70.22  0.002688567    2.518    0.603
         6 -11.0617    184.4820    214.5608   8.0372153234e+01   1.8068448048e+00    0.2614405    0.2127473 -66.52  0.001448067    1.771    0.435
         7 -11.0926    139.9170    248.9616   9.5229829770e+01   2.4026082039e+00    0.3335823    0.2278408 -74.37  0.001770595    2.257    0.557
         8 -12.1023    116.3197    248.6208   1.0019865464e+02   5.9327214440e+00    0.5094718    0.3394843  19.77  0.002772493    1.656    0.396
         9 -12.2045    115.6502    241.9084   9.9510726614e+01   7.3024780979e+00    0.4271143    0.3468392  76.47  0.001695247    1.442    0.307
        10 -15.4423      6.2513    186.1959   1.1884322952e+02   3.3534071325e+01     7.402644     1.053068 -75.73  0.005007726    5.785    0.827
        11  -9.9265    122.4482    199.0773   9.1715654013e+01   1.5217382183e+01     0.281211       0.2429  85.11  0.001008976    1.323    0.244
        12 -15.5277      9.6417    208.0032   1.1958363924e+02   2.8115478581e+01     5.724122     1.119399 -70.61  0.007069349    3.839    0.740
        13 -10.9840     55.8648    192.5669   1.0737993033e+02   2.6785703818e+01    0.2906654    0.2543924  70.59 0.0006809909    1.048    0.046
        14 -10.3228    147.1902    187.3900   8.3679190481e+01   1.3540244412e+01    0.4783614    0.2699011 -70.72  0.001672558    3.323    0.699
        15  -8.9405     81.0497    183.4632   9.9685104812e+01   2.5573283910e+01    0.2036879    0.1413138  34.72 5.979368e-05    1.463    0.317
        16  -8.7211     74.5401    182.5203   1.0125252135e+02   2.6760061720e+01    0.1454958     0.132445  80.31 0.0001341072    1.036    0.034
        17  -9.6563     99.3603    180.8497   9.4466699870e+01   2.3359507535e+01    0.2396089    0.1972703  48.52 0.0006946374    1.202    0.168
        18 -12.0248    241.0711    177.3193   6.2581515853e+01  -2.2666625579e-01    0.4509697     0.200468  39.46  0.002101626    2.592    0.614
        19 -12.1169     60.7451    173.6146   1.0364570413e+02   3.0913218045e+01    0.4606571    0.3090124 -32.39  0.001940368    1.984    0.496
        20 -11.9881     65.8351    168.6385   1.0152028040e+02   3.1507721376e+01    0.3722327    0.2756457 -39.58 0.0008646241    1.539    0.350
        21 -10.5758    186.9871    175.1630   7.2312819313e+01   8.9833341346e+00    0.3461232    0.3011679 -48.47  0.001254122    1.220    0.180
        22 -10.0187     88.2983    172.6585   9.6019130096e+01   2.7174024943e+01    0.2586811    0.2170716  63.36 0.0004972384    1.226    0.184
        23 -12.4002     83.3079    153.3076   9.3942572056e+01   3.2903085079e+01    0.9909962    0.5382395 -48.12  0.001631756    1.822    0.451
        24 -13.5410     62.9775    155.3404   1.0021096684e+02   3.5340454473e+01    0.5287243    0.3602753 -40.01  0.001351933    1.636    0.389
        25 -12.6261     75.8775    159.1371   9.7141038417e+01   3.2531229031e+01    0.7400216    0.6159322  49.15 0.0009534241    1.233    0.189
        26 -10.2607    111.1179    203.7302   9.5213079161e+01   1.6029543315e+01    0.2177637    0.1834659  61.49  0.001180905    1.223    0.182
        27  -9.7093     85.3144    174.3171   9.7103325324e+01   2.7220085778e+01    0.2420656    0.2168243   9.85 0.0006091736    1.285    0.222
        28  -9.0905    110.4862    167.2561   8.9058482195e+01   2.4824970086e+01    0.2082809     0.148733 -71.46 0.0009294867    1.596    0.374
        29 -12.0518    230.4782    168.5674   6.2648986613e+01   2.8991226447e+00    0.6098576    0.2381603 -39.33  0.002539562    2.212    0.548
        30  -9.8110     42.5574    164.7733   1.0741196998e+02   3.5402070603e+01    0.2588181    0.1995932  14.16  0.001394493    1.603    0.376
        31  -9.4040     51.2991    161.3247   1.0449224403e+02   3.5275354617e+01    0.1455001    0.1024193 -39.38 0.0003017496    1.631    0.387
        32 -11.5384     32.3650    156.5539   1.0919888646e+02   3.8603122166e+01    0.5375074    0.3668926  85.60  0.001644965    1.478    0.323
        33 -10.8228    133.7068    144.4925   7.8076723834e+01   2.5998487659e+01     1.143525    0.2766498 -54.69  0.002348468    6.922    0.856
        34  -9.8525    174.5432    149.1601   6.9384386541e+01   1.6744320919e+01    0.2739965    0.2208091  40.97 0.0007291622    1.307    0.235
        35  -8.6467     38.2946    146.6352   1.0612261510e+02   4.0570160003e+01    0.1481951   0.09895445  73.25 0.0007030001    1.714    0.417
        36 -10.7364     29.4988    143.2116   1.0826238017e+02   4.2332964407e+01    0.3943733    0.3351497   1.46  0.001841246    1.437    0.304
        37 -10.8523     98.8497    139.0899   8.6482440101e+01   3.3935319099e+01    0.6037852    0.3939604 -15.37   0.00230411    2.497    0.600
        38 -12.4753     85.7046    138.6636   9.0292392859e+01   3.6282785908e+01    0.3212234    0.2834656 -50.17 0.0003932681    1.088    0.080
        39 -10.8999    107.2934    130.3821   8.2015634178e+01   3.4554401349e+01    0.5505179    0.3503013  27.10   0.00229086    1.833    0.454
        40 -10.4072    135.6841    129.7179   7.4050274285e+01   2.9058410294e+01     0.450796    0.1404983 -45.39  0.001333652    3.126    0.680
        41 -10.1753     48.6583    169.6175   1.0637784698e+02   3.3450760001e+01     0.309364    0.2183309 -84.76  0.001008408    1.378    0.274
        42  -9.5556    160.7633    127.7613   6.7446684269e+01   2.4202773096e+01     0.257644    0.1202557 -53.60 0.0008892214    2.451    0.592
        43  -9.5857     96.8204    125.3332   8.3905266360e+01   3.7726401595e+01    0.2820155    0.2171265 -14.41 0.0006421813    1.625    0.385
        44  -9.3348    115.9736    124.0365   7.7975699963e+01   3.4405427661e+01    0.2554944    0.1950295  -9.23  0.001101722    1.724    0.420
        45 -12.5935     82.7038    215.1330   1.0360889680e+02   1.7785908553e+01    0.6256095    0.5044464  77.92 0.0002144279    1.251    0.200
        46  -8.8622    163.2950    120.6966   6.5130639097e+01   2.5174222606e+01     0.153731    0.1217806 -79.86 0.0002259948    1.578    0.366
        47  -9.7728    135.0000    119.9570   7.1775481510e+01   3.1433654957e+01    0.2625434   0.08844762 -45.99 0.0006654482    2.892    0.654
        48  -9.0402     78.1851    113.1463   8.6800352526e+01   4.3910423800e+01    0.2028993    0.1765417  89.96 0.0003363536    1.343    0.255
        49  -9.7912    106.1740    118.7674   7.9476615733e+01   3.7576713770e+01     0.211255    0.2074882 -86.45 0.0003263633    1.061    0.057
        50 -11.6941    245.6992    110.9156   4.8431939788e+01   1.0497449811e+01    0.2715637    0.2060313   9.19  0.001494057    2.043    0.510
        51 -10.2098    205.4368    110.3120   5.4357876357e+01   1.8278671586e+01    0.3070097     0.238467  36.78  0.001032272    1.538    0.350
        52 -12.5457    246.8982     94.1596   4.4822109725e+01   1.3065261681e+01    0.6327611    0.3373192 -22.49  0.002595312    3.270    0.694
        53 -10.9543     53.1227     91.3944   9.0001451153e+01   5.2761671040e+01     0.416205    0.1958372 -53.97  0.001167938    1.954    0.488
        54  -9.8838    161.0074     83.4954   5.5911538511e+01   3.3077891206e+01    0.2235301    0.1456837  55.70 0.0004832188    1.550    0.355
        55 -11.6591    244.1089     81.6624   4.2575548114e+01   1.5579797724e+01    0.2436137    0.1459539 -49.62  0.001174134    1.382    0.276
        56  -9.2939     26.2616     68.4100   9.4542455571e+01   6.0861925567e+01    0.1623375    0.1182795  30.28 0.0004280735    1.571    0.364
        57 -11.4884     13.3516     59.9834   9.7971136957e+01   6.3691718022e+01    0.2877787    0.2291487 -56.71 0.0004883655    1.269    0.212
        58 -13.7063    199.9130     46.9512   4.0184935252e+01   2.9927978411e+01     1.068915    0.7257359  63.46  0.002871544    1.477    0.323
        59 -13.2711     32.4970    199.3189   1.1376249545e+02   2.7879663676e+01    0.5239993    0.4026001 -43.07  0.001307097    1.643    0.391
        60 -12.6055    218.1989     32.8357   3.4988905910e+01   2.7812071457e+01    0.4331174     0.404956  53.14  0.001113143    1.423    0.297
        61 -15.0187     42.1121    189.7205   1.1048869042e+02   2.9145624954e+01      2.25347     1.475682  74.49   0.01173852    1.538    0.350
        62 -10.5911     42.3685     59.4639   8.4761639264e+01   6.0973110852e+01      0.26677    0.2140191  43.89 0.0009244636    1.577    0.366
        63  -9.6201     24.4403     57.7862   9.2206473072e+01   6.3243645165e+01    0.2270281    0.1474423  37.49 0.0008262365    1.903    0.475
        64 -10.2686      6.1985     50.4104   9.8657259378e+01   6.6129383726e+01    0.1540835    0.1056131  25.20 0.0009484093    1.706    0.414
        65 -10.4000    132.4473     39.3265   4.8861448785e+01   4.6777577154e+01    0.2589014    0.2126389 -81.94 0.0003270653    1.359    0.264
        66 -10.0358    187.8168     31.1971   3.7863500916e+01   3.4726050713e+01    0.1688581    0.1483893  53.20 0.0005239129    1.330    0.248
        67 -17.0287     20.3083    242.8945   1.1955471694e+02   1.9475486264e+01     7.984458      5.72648  33.24   0.05318018    1.531    0.347
        68 -10.7451    197.8919     23.8953   3.5007025367e+01   3.3320419302e+01    0.2692248    0.2068524 -25.38  0.001091557    1.623    0.384
        69  -9.7329    189.6707     14.9983   3.3762135228e+01   3.6158763765e+01     0.171049    0.1443358 -64.46 0.0005795484    1.127    0.113
        70 -11.4464    192.9394    194.6617   7.4948605408e+01   4.1524540758e+00    0.9707425    0.5218167 -65.25  0.002824371    6.052    0.835
