#   1 NUMBER                 Running object number                                     
#   2 MAG_AUTO               Kron-like elliptical aperture magnitude                    [mag]
#   3 X_IMAGE                Object position along x                                    [pixel]
#   4 Y_IMAGE                Object position along y                                    [pixel]
#   5 X_WORLD                Barycenter position along world x axis                     [deg]
#   6 Y_WORLD                Barycenter position along world y axis                     [deg]
#   7 A_WORLD                Profile RMS along major axis (world units)                 [deg]
#   8 B_WORLD                Profile RMS along minor axis (world units)                 [deg]
#   9 THETA_WORLD            Position angle (CCW/world-x)                               [deg]
#  10 FWHM_WORLD             FWHM assuming a gaussian core                              [deg]
#  11 ELONGATION             A_IMAGE/B_IMAGE                                           
#  12 ELLIPTICITY            1 - B_IMAGE/A_IMAGE                                       
         1 -14.7718      8.2659     21.2305   1.1752705181e+02   6.8826516914e+01      1.41057    0.5828009 -32.54  0.008069461    1.983    0.496
         2 -12.4157     84.0640     22.1986   8.9225487600e+01   5.9038834849e+01    0.4468236    0.3117369  -2.76  0.002636712    1.449    0.310
         3 -12.2240    103.9667      2.9106   7.6681420766e+01   5.7046685023e+01    0.3683339    0.3076618 -39.98  0.002431103    1.488    0.328
         4 -12.4853     75.5319     13.2944   8.8302239659e+01   6.1525223125e+01    0.3948868    0.2348151  42.36  0.001487126    1.531    0.347
         5 -13.6017     83.4085      3.3386   8.2001666785e+01   6.1052439560e+01     1.030645    0.4353526  49.82  0.005184473    2.033    0.508
         6 -12.8476     96.0572      3.3270   7.8710362654e+01   5.8617216751e+01    0.4857053    0.3055079  45.20  0.002208803    1.328    0.247
         7 -11.8765     82.1946     13.8108   8.6508357938e+01   6.0290768178e+01    0.2486108    0.1859373  47.69 0.0007564051    1.370    0.270
         8 -12.9662     87.0246     11.4968   8.4221523368e+01   5.9630845134e+01    0.6367388    0.3858359  59.81  0.002530158    1.954    0.488
         9 -11.4691    123.8769     10.2888   7.4979653385e+01   5.2137421007e+01    0.2393547    0.1868144  23.46 0.0006723353    1.301    0.231
        10 -11.4288    137.5869      5.7798   7.0922878988e+01   4.9425205492e+01    0.2549531    0.1602926  61.42  0.001397194    1.367    0.268
        11 -11.8953    111.2429      4.6197   7.5676451936e+01   5.5380699090e+01    0.2448241     0.132705  49.32  0.001303483    1.524    0.344
        12 -11.7581     32.9971      4.1020   9.9588637730e+01   6.8751645289e+01    0.2547036    0.1633253  29.17  0.001405469    1.521    0.342
        13 -12.1622     73.1888      1.5445   8.4190591989e+01   6.3049557705e+01    0.2368635     0.127843  46.62 0.0005500878    1.651    0.394
        14 -12.7071    200.3437    216.1277   1.1164918571e+02  -1.3780942480e+00    0.4680719    0.3144627  38.01  0.002521064    1.347    0.258
        15 -12.8317     71.1898    198.4085   1.3561186662e+02   2.4821705416e+01    0.2715651     0.215404  32.58  0.001630183    1.595    0.373
        16 -12.5900    185.2903    194.2218   1.1061287532e+02   5.3158634705e+00    0.3353204    0.2839137 -49.56  0.001858324    1.282    0.220
        17 -11.8830    200.4446    194.2291   1.0754379886e+02   2.3767224530e+00    0.3796443    0.2951061  61.82   0.00176511    1.562    0.360
        18 -13.1767    237.6892    192.1056   1.0001029631e+02  -4.1212773776e+00    0.8033423     0.568407 -35.90  0.004457624    1.394    0.282
        19 -11.7593     34.1586    177.4809   1.4097670403e+02   3.4156416993e+01    0.2539047    0.2011864 -26.83  0.001579997    2.008    0.502
        20 -11.6072    216.3527    174.8235   1.0047723022e+02   2.7973447197e+00     0.422382    0.2675013  53.92  0.001968235    1.822    0.451
        21 -11.7797     89.8560    168.5974   1.2723088127e+02   2.8780214383e+01    0.2857496    0.1940695 -70.92  0.001124414    1.426    0.299
        22 -12.1524     47.3495    166.5389   1.3680089158e+02   3.5164662936e+01    0.3467422    0.2472265  38.95  0.002062945    1.600    0.375
        23 -12.9354     74.3486    157.9459   1.2918936463e+02   3.3646796360e+01    0.5314387    0.2558595 -61.89  0.002359757    1.882    0.469
        24 -13.3733    190.8864    155.8999   1.0149262062e+02   1.1683355506e+01    0.7891682    0.5449196 -27.33  0.003574503    1.655    0.396
        25 -10.9177    212.9847    164.6950   9.8971990934e+01   5.3381992908e+00    0.2096826    0.1942527  32.41  0.001107772    1.089    0.082
        26 -11.3317    139.1059    151.6526   1.1216204010e+02   2.3665631193e+01    0.2768953    0.2137581 -63.70  0.001326348    1.354    0.261
        27 -14.1430     58.7607    145.4814   1.3100588184e+02   3.8705636176e+01      1.31278    0.5484336  53.12  0.005171956    3.131    0.681
        28 -12.5749     76.5921    140.8343   1.2562812896e+02   3.7377600273e+01    0.6202137    0.3696297 -62.52  0.002982457    1.539    0.350
        29 -15.2849    147.1445    124.8252   1.0397945459e+02   2.7962570331e+01     2.255296     1.598357  68.90  0.009809693    1.753    0.429
        30 -11.5982    107.6836    146.9218   1.1887062223e+02   3.0846340704e+01     0.216682    0.1872953 -66.42   0.00102371    1.099    0.090
        31 -12.8457    122.0726    127.9010   1.1098568558e+02   3.2539262107e+01    0.5099879    0.3479318  61.16  0.002266816    1.722    0.419
        32 -11.8164     79.9922    109.7648   1.1812349668e+02   4.4111668038e+01    0.2895661    0.1840363 -43.88 0.0006095628    1.483    0.326
        33 -13.4225    120.7165    103.5491   1.0516746081e+02   3.8216763010e+01    0.4244167    0.3475981 -44.38  0.002153249    1.185    0.156
        34 -13.4422     17.2615    101.3656   1.3480334146e+02   5.2948706484e+01    0.4257959    0.3307966 -61.69  0.002307936    1.024    0.023
        35 -12.9931    106.5089    101.3029   1.0843168806e+02   4.1479910273e+01    0.4500392    0.1999893  39.14  0.001713444    2.419    0.587
        36 -12.6535    132.3514    103.3632   1.0208266016e+02   3.5818630340e+01    0.3634087    0.2657312  20.90 0.0006127281    1.756    0.430
        37 -12.1340     28.9142     98.4036   1.3079621772e+02   5.2680842192e+01    0.4785879    0.1436762 -60.33  0.001965552    2.607    0.616
        38 -13.6228     39.0129     93.4086   1.2665935513e+02   5.2847792631e+01    0.5808254    0.3402533 -58.18  0.003177736    1.444    0.308
        39 -11.6676     54.6987     95.0147   1.2215899416e+02   5.0806001887e+01    0.3384598    0.2362554 -37.79  0.001220627    1.355    0.262
        40 -10.8634    188.9774     94.7344   8.6966206154e+01   2.4325187518e+01    0.2178776    0.1999864  77.05 0.0005356881    1.095    0.087
        41 -12.3259     23.3546     88.3721   1.3048849743e+02   5.5301751137e+01    0.3256367    0.2159902  72.98  0.001373778    2.343    0.573
        42 -10.8543     89.4931     86.4975   1.0925180694e+02   4.7624980323e+01    0.1410083    0.1304271 -30.97 5.699633e-05    1.011    0.011
        43 -11.5698     79.2905     86.0211   1.1221002491e+02   4.9369323633e+01    0.1933396    0.1679532 -39.19 0.0003964257    1.050    0.048
        44 -10.7651    128.9468     83.0137   9.7208139210e+01   4.0653767494e+01    0.2229389     0.217478 -31.84 0.0004400576    1.028    0.027
        45 -12.0751     56.8943     77.8422   1.1705494630e+02   5.4151167406e+01    0.2069736    0.1585026 -27.16 0.0007519478    1.244    0.196
        46 -10.2467     42.6584     77.7238   1.2173503781e+02   5.5788835252e+01    0.1282392   0.08351003 -26.01 0.0005906419    1.620    0.383
        47 -11.6429     73.1427     74.8509   1.1092513205e+02   5.2542180659e+01     0.193226    0.1490435 -16.24 0.0009039229    1.349    0.259
        48 -13.0043     96.8978     71.8879   1.0269275479e+02   4.9181388964e+01    0.7693155    0.3722893  32.89  0.002340989    2.414    0.586
        49 -11.3987     92.7007     72.2854   1.0406754139e+02   4.9859899031e+01    0.2120424    0.1785778 -43.54 0.0004584167    1.198    0.166
        50 -11.3738     76.8663     71.1138   1.0861125136e+02   5.2699989858e+01    0.1926989    0.1472476 -18.42 0.0006779696    1.330    0.248
        51 -11.5270     59.5323     71.0040   1.1423649146e+02   5.5174235352e+01    0.2043819    0.1143843 -47.29 0.0006741884    1.598    0.374
        52 -10.6796     83.4575     68.4950   1.0571964450e+02   5.2140477535e+01    0.1361027    0.1229783 -18.83 8.283932e-05    1.015    0.015
        53 -12.6686    125.5370     57.4834   9.0239291383e+01   4.5880921247e+01    0.3409268    0.2475014  43.21 0.0006369647    1.327    0.247
        54  -9.9772    175.3462     56.7040   7.9256208430e+01   3.4196008480e+01    0.1523324    0.1102588 -77.04 0.0007033126    1.672    0.402
        55 -12.5868     67.5366     54.0271   1.0618962770e+02   5.7179307396e+01    0.3883977    0.3207246 -64.26  0.002299116    1.722    0.419
        56 -11.0422    132.9437     53.7683   8.7247679152e+01   4.4805658463e+01    0.2450071    0.2157673  48.25 0.0008551988    1.093    0.085
        57 -10.4563    210.7716     54.4405   7.2892595198e+01   2.5808403191e+01    0.1763973    0.1280299  54.92 0.0003303717    1.418    0.295
        58 -10.9115     95.2832     49.0939   9.5696614456e+01   5.3355624897e+01    0.1828239    0.1633955 -12.19 0.0004545106    1.069    0.064
        59 -13.2907     42.2461     46.0631   1.1248968108e+02   6.1772532212e+01    0.6317597    0.3215334 -42.39  0.002052949    1.696    0.411
        60 -11.9178      2.3667     46.4927   1.2798296049e+02   6.4954563354e+01    0.2396976    0.1716855 -52.01  0.001192202    1.208    0.172
        61 -10.9834    156.9160     43.9429   7.9051122456e+01   4.0574432040e+01    0.2080505    0.1938013  44.44 0.0005220334    1.067    0.063
        62 -10.2829    102.4463     43.5101   9.1705856293e+01   5.2810239844e+01    0.1344605     0.121429  11.81 7.338521e-05    1.007    0.007
        63 -10.7044    197.5686     40.9932   7.1398270430e+01   3.0956672352e+01    0.2127712    0.1669668  69.99 9.972632e-05    1.184    0.155
        64 -12.1400    193.5953    248.9012   1.1835181472e+02  -5.2632985796e+00    0.2250725    0.1910937  57.11  0.001482929    1.370    0.270
        65 -11.0854     79.4887     30.4080   9.3763065969e+01   5.8838507591e+01    0.2462367    0.1497684 -30.20  0.001353367    1.618    0.382
        66 -10.0676    176.4605     33.4936   7.2600834736e+01   3.7148961879e+01    0.1389685     0.126102  76.01 -3.486752e-05    1.003    0.003
        67 -11.1114     41.2613     33.0227   1.0823052273e+02   6.3974304993e+01    0.1667742    0.1288902 -17.16 0.0005491015    1.032    0.031
        68 -10.1589    141.2096     31.5966   7.8390591731e+01   4.5919439328e+01    0.1332312   0.09785766 -55.18 0.0006820689    1.634    0.388
        69 -10.1671     37.2500     27.3425   1.0764247475e+02   6.5271173575e+01     0.118118   0.07142738 -15.84  0.000233219    1.574    0.365
        70 -11.9675    184.5013    247.0060   1.1975931627e+02  -3.4604331646e+00    0.1694171    0.1257137 -41.98  0.001037946    1.605    0.377
        71 -11.8552     63.9292     17.6543   9.3836869163e+01   6.2957194171e+01    0.3818804    0.2118861  46.55  0.001862912    1.976    0.494
        72 -12.5359    232.1111    237.6398   1.0945655456e+02  -9.9430204588e+00    0.2323063    0.1705821 -14.56  0.001410976    1.369    0.269
        73 -12.9288    188.2447    232.8605   1.1684096113e+02  -1.9308947024e+00    0.4262613    0.1720395  38.74  0.001835852    2.209    0.547
        74 -11.9358    194.5915    229.7200   1.1510588277e+02  -2.5466961712e+00    0.2340984    0.1250862 -37.02   0.00114688    2.141    0.533
        75 -14.5324    244.7857    220.7809   1.0420252813e+02  -9.6161539016e+00     1.369032    0.7200172 -32.86  0.007214805    1.898    0.473
        76 -14.3636    203.5965    208.2924   1.0959122897e+02  -6.6332821145e-01    0.9261633    0.8596232  47.06  0.004609194    1.183    0.154
        77 -12.3656    192.0769    217.2961   1.1347306685e+02  -7.4622403020e-02    0.3041565    0.2458851  26.69  0.001756224    1.161    0.139
        78 -12.3441    177.8591    212.5107   1.1546990829e+02   3.3809801972e+00    0.2258304    0.1903073  -0.14  0.001274638    1.371    0.270
        79 -11.1541     81.8456     34.7144   9.4637150024e+01   5.7858549646e+01    0.2279875    0.1687746 -22.74 0.0007723191    1.294    0.227
        80 -13.7498    188.1366    206.9539   1.1241060033e+02   2.4430391178e+00    0.6914808    0.3445681  44.36  0.003072237    1.865    0.464
        81 -11.4408    217.6105    201.0480   1.0551179189e+02  -2.0065337440e+00    0.3847646    0.3367886 -82.06  0.002222499    1.630    0.386
        82 -13.2344    191.3470    197.5412   1.1001094040e+02   3.5263813223e+00      0.67949    0.4013895 -39.23   0.00285047    1.803    0.445
