#   1 NUMBER                 Running object number                                     
#   2 MAG_AUTO               Kron-like elliptical aperture magnitude                    [mag]
#   3 X_IMAGE                Object position along x                                    [pixel]
#   4 Y_IMAGE                Object position along y                                    [pixel]
#   5 X_WORLD                Barycenter position along world x axis                     [deg]
#   6 Y_WORLD                Barycenter position along world y axis                     [deg]
#   7 A_WORLD                Profile RMS along major axis (world units)                 [deg]
#   8 B_WORLD                Profile RMS along minor axis (world units)                 [deg]
#   9 THETA_WORLD            Position angle (CCW/world-x)                               [deg]
#  10 FWHM_WORLD             FWHM assuming a gaussian core                              [deg]
#  11 ELONGATION             A_IMAGE/B_IMAGE                                           
#  12 ELLIPTICITY            1 - B_IMAGE/A_IMAGE                                       
         1 -14.4623    222.2234      5.1619   3.8126428597e+01   2.9161928445e+01     2.566251     1.407101  51.12  0.008174693    2.126    0.530
         2 -13.9655    180.5655     49.0887   5.5270866317e+01   3.4005054262e+01     1.587982     1.204601  28.06 0.0007879084    1.605    0.377
         3 -14.0305    192.3636     38.9798   5.0460632572e+01   3.2449271859e+01     1.187385     0.996571 -54.14  0.003289995    1.162    0.140
         4 -14.2832    199.8581     30.6896   4.7107463119e+01   3.1655109626e+01     1.187472     1.081266  19.60  0.001400308    1.313    0.239
         5 -10.8146    189.7576     14.8441   4.3960138007e+01   3.6049993452e+01    0.2349017    0.2183113  79.76 0.0007971641    1.063    0.059
         6 -10.8641     76.2762     13.6169   6.7004489664e+01   6.2873060534e+01    0.4594099    0.2284055  64.46   0.00171577    4.193    0.761
         7 -11.0452    156.1785     58.5462   6.2857590823e+01   3.8681787868e+01    0.3424858    0.2727276 -85.37 0.0005800271    1.526    0.344
         8  -9.7719    249.5179    249.9903   8.7933580985e+01  -1.1596926906e+01     0.152867   0.07769116  -5.03 0.0008094892    2.473    0.596
         9 -16.8842     69.5657    145.9165   1.0858074581e+02   3.6558342693e+01     14.96912     7.146328  81.73   0.02220168    5.756    0.826
        10 -13.2956     31.5080    206.2629   1.2371152631e+02   2.7532680351e+01    0.4453101    0.1608328  56.98  0.001770933    2.505    0.601
        11  -9.7698    164.3041    210.3099   9.7244439691e+01   7.0226103815e+00    0.1299539     0.098707   7.39 0.0002429309    1.610    0.379
        12 -10.9940    143.0262    209.4604   1.0145211931e+02   1.0849677709e+01    0.1864034     0.177972 -72.40  0.000438848    1.173    0.147
        13  -9.3595     28.5313    209.5846   1.2449855205e+02   2.7176228619e+01    0.1229022   0.07698279  68.80 0.0007914826    1.273    0.215
        14 -12.2351    195.7896    197.6302   8.8781407980e+01   3.6164060070e+00     1.194854    0.9566461 -89.40   0.00636996    2.108    0.526
        15 -17.9292     21.2574    242.4955   1.2763943183e+02   2.1699457801e+01      6.18081      4.02146  46.54   0.04630746    1.441    0.306
        16 -10.1446     36.7608    224.1621   1.2395723907e+02   2.3403886119e+01     0.140482    0.1192889  73.75 0.0004155317    1.230    0.187
        17  -9.2713    161.2375    199.9637   9.6181590699e+01   9.3903780802e+00    0.1752373    0.1707851  34.78 0.0004129456    1.089    0.082
        18 -10.1162     63.2169    210.1086   1.1786349014e+02   2.2979058625e+01    0.2758907    0.1981198  18.71  0.001422054    2.169    0.539
        19 -12.2541     27.6597    196.3838   1.2374936304e+02   2.9987859831e+01    0.1987688    0.1479665  75.33 0.0004549843    1.042    0.040
        20 -10.4218    183.5665    205.2437   9.2545453591e+01   4.5140607651e+00    0.1776989    0.1238446 -26.12 0.0009520836    1.638    0.390
        21 -11.0176    151.6297    195.8395   9.7506528757e+01   1.1877679311e+01    0.3042905    0.1729109  41.84 0.0009676864    1.596    0.374
        22 -10.1773     82.0809    195.1369   1.1239476228e+02   2.3511971990e+01    0.2110537    0.1975299  63.56 0.0007708005    1.197    0.164
        23 -13.4782     63.8069    187.8140   1.1549848831e+02   2.7616037067e+01    0.7778745    0.6632058 -43.64  0.004955584    1.568    0.362
        24 -10.5568     37.0678    211.0214   1.2299792958e+02   2.5956133879e+01    0.1749391    0.1120517  67.74 0.0003575362    1.262    0.208
        25 -11.2580     67.2028    204.3109   1.1650657339e+02   2.3645052439e+01    0.3904103     0.212139 -49.56    0.0010404    2.453    0.592
        26 -10.3163     71.8983    202.0500   1.1531207713e+02   2.3483157125e+01    0.4202161    0.2140802  81.51  0.001910098    2.563    0.610
        27  -9.2751     44.4994    189.5568   1.1978217304e+02   2.9609439428e+01    0.1251029   0.09610916  76.52 0.0003247666    1.058    0.054
        28 -19.1012      3.9061    107.7484   1.2120782958e+02   5.2088932678e+01     16.22335     0.831799 -72.74   0.02947046   14.166    0.929
        29  -9.9398    153.4177    184.2021   9.5112530972e+01   1.3798536617e+01    0.1932745    0.1361962 -63.52 0.0009494494    1.719    0.418
        30 -12.1402    146.1859    181.9714   9.6297991705e+01   1.5585895053e+01    0.4173855     0.339247 -68.51  0.001253068    1.396    0.284
        31 -11.9192    141.4483    174.6395   9.6033864278e+01   1.7974994810e+01    0.6685745    0.4424539  85.08  0.002334803    2.521    0.603
        32 -11.2214     99.4566    180.7557   1.0663947870e+02   2.3989841281e+01    0.2461645    0.2207283  61.53 0.0005780443    1.064    0.060
        33 -10.6081    204.5315    175.9499   8.2887123491e+01   5.6757991016e+00    0.3163815    0.2841081 -42.13  0.001061794    1.257    0.205
        34 -10.3493    196.7431    175.8990   8.4421964614e+01   7.1489001427e+00    0.3159766    0.2911016  63.18  0.001838276    1.314    0.239
        35 -10.2750    188.5308    174.9666   8.5900835641e+01   8.8810529817e+00    0.3403589    0.2480918 -55.25  0.001537339    1.672    0.402
        36 -10.5875     56.2939    175.0179   1.1573649868e+02   3.1435164322e+01     0.487403    0.1725976  50.78  0.001990865    2.864    0.651
        37 -10.0199     36.6303    176.1949   1.2022907695e+02   3.3436656692e+01     0.283449    0.1421304  49.19  0.001515006    1.872    0.466
        38 -10.9446     46.0201    172.8567   1.1781832076e+02   3.3152158646e+01    0.3766371    0.2690793  42.39  0.001937828    1.473    0.321
        39 -10.1045     56.8933    209.6516   1.1906963026e+02   2.3879798117e+01    0.4382809    0.2010397 -73.36  0.002275553    2.108    0.526
        40 -10.4591    230.3587    166.2032   7.6000817576e+01   2.5539711499e+00    0.1910229    0.1185748 -41.93 0.0004519116    1.678    0.404
        41  -9.8288    186.7036    164.9467   8.4220599796e+01   1.1096175196e+01     0.206561    0.1820618 -33.68 0.0005630857    1.150    0.131
        42 -10.2275    159.8859    163.3691   8.9690664197e+01   1.6751024802e+01    0.2554573    0.2053732 -58.69  0.000730607    1.368    0.269
        43 -12.4245     93.9159    153.2201   1.0356241076e+02   3.1186559465e+01    0.6787817    0.5041236 -24.93  0.003312405    1.943    0.485
        44 -11.5330    133.9476    145.7245   9.2072456196e+01   2.5721447061e+01     1.299619    0.3334391 -55.10   0.00309739    5.731    0.826
        45  -9.5472    112.9364    150.9126   9.8349846479e+01   2.8491302090e+01    0.2410728    0.1742998  79.17 0.0007420035    1.715    0.417
        46 -10.6671    174.4158    148.9668   8.3378071852e+01   1.6726187254e+01    0.2899134    0.2576728  61.29 0.0008164818    1.231    0.188
        47 -10.8115    144.0667    146.3682   8.9760128650e+01   2.3555286197e+01    0.4171725    0.2457245 -71.77  0.001490624    2.904    0.656
        48  -9.5446    108.9299    147.1300   9.8625439632e+01   3.0086950258e+01    0.2178462    0.1843755  81.17  0.001144893    1.237    0.192
        49 -13.4903     54.4372    200.6337   1.1874980366e+02   2.6051937100e+01    0.4262728    0.3621438 -89.56  0.001361653    1.158    0.136
        50 -11.2730    106.4752    138.7617   9.7580652437e+01   3.2494931494e+01    0.5238898    0.3707563 -29.08  0.002398243    1.862    0.463
        51 -12.4234     93.8406    138.7954   1.0092357301e+02   3.4639226012e+01    0.2815718    0.2549534 -50.27 0.0004770857    1.145    0.126
        52 -11.0994    105.8821    130.7172   9.6035867613e+01   3.4510253744e+01    0.3828194    0.3138576 -67.57  0.001189139    1.210    0.173
        53 -10.9008    135.7803    127.8445   8.7559729454e+01   2.9391015760e+01    0.6795799    0.1979811 -50.23  0.001943628    3.602    0.722
        54 -11.0705    114.2250    129.7222   9.3586556218e+01   3.3217444555e+01    0.4820758    0.2978061  40.67  0.001537679    1.678    0.404
        55 -11.6372    119.4980    124.1916   9.0906388253e+01   3.3501770029e+01    0.7127606     0.377973 -33.73   0.00260241    2.538    0.606
        56 -10.1210    160.7839    127.7175   8.1464520773e+01   2.4071059895e+01    0.3312177    0.2172474 -52.96    0.0014229    1.623    0.384
        57 -11.2019    101.3838    125.6634   9.6147719236e+01   3.6510007771e+01    0.2909581    0.2354649 -30.48 0.0004838415    1.418    0.295
        58  -9.7010    134.9976    120.2431   8.5896446415e+01   3.1266229447e+01    0.2815305    0.1549879 -46.70 0.0009463943    1.776    0.437
        59  99.0000     43.1418    209.9577   1.2176396057e+02   2.5478853832e+01    0.4529721    0.2145787  79.80  0.001876847    2.230    0.552
        60 -10.2253    109.4552    118.8378   9.2347649670e+01   3.6667590338e+01     0.240511    0.2108371  44.08 0.0002717341    1.193    0.162
        61  -9.9706    167.5426    112.3768   7.6007927489e+01   2.5764865816e+01     0.341657    0.2432247 -71.55  0.001197363    1.952    0.488
        62  -9.8028    135.0000    112.0985   8.3808879898e+01   3.3085252819e+01    0.4314138   0.08773571 -45.40  0.001035374    4.791    0.791
        63 -11.7905    118.6127    110.5034   8.7750702574e+01   3.6833292734e+01    0.5948359    0.4334575  67.76  0.002671773    1.740    0.425
        64  -9.6474    134.5339    105.9647   8.2293995814e+01   3.4538263114e+01    0.2477714    0.1517041 -44.24 0.0009053504    1.589    0.371
        65 -10.3443    205.3694    110.2382   6.7663892481e+01   1.7504789128e+01    0.3476537    0.2287923  36.35  0.001116609    1.725    0.420
        66 -10.2901     64.4751     99.7186   1.0115997923e+02   4.8435585905e+01    0.2938555    0.1648956  37.01  0.001377088    1.981    0.495
        67 -11.8379     52.5683     90.0694   1.0278860404e+02   5.2184091010e+01    0.3440939     0.244385 -67.48  0.001238007    1.372    0.271
        68 -11.1625     35.9497    229.5869   1.2444828441e+02   2.2464405989e+01    0.2031299     0.117464  66.62 0.0008265311    1.371    0.271
        69  -9.3285    155.9598     81.3165   6.9933840693e+01   3.4689598339e+01    0.2212599    0.2022635  44.41  0.000566661    1.111    0.100
        70  -9.2051    184.3657     77.2896   6.2794989280e+01   2.8472675251e+01    0.1590659    0.1192849  22.40 0.0007024891    1.704    0.413
        71 -10.1322     65.4709     70.4516   9.3028879158e+01   5.4954374467e+01    0.2484163    0.1979209  47.67  0.001152074    1.516    0.340
        72 -11.0663    158.3827    237.2376   1.0235224071e+02   3.6271136027e+00    0.2694789     0.194197 -55.51  0.001674946    1.750    0.428
        73 -10.1860    169.0146    235.8533   1.0015036636e+02   2.1284605353e+00    0.1751518    0.1661771  18.84 0.0003775416    1.170    0.145
        74  -8.8976     50.3770    220.2425   1.2118895934e+02   2.2570839403e+01    0.1598017    0.1004134 -81.47 0.0005013451    1.475    0.322
        75 -11.2690     60.5137    232.9782   1.2030921812e+02   1.8885985149e+01    0.1960811    0.1324047  60.58 0.0005154768    1.158    0.137
        76 -10.7784    158.6841     52.6100   6.0446601627e+01   3.9005946831e+01    0.2629592     0.254452 -68.17 0.0003473405    1.052    0.050
        77 -10.2070     56.6534    224.6502   1.2036549423e+02   2.0943514684e+01    0.1131871   0.08490922  68.82 0.0003069276    1.032    0.031
        78 -10.0416     48.4750    217.5342   1.2133648724e+02   2.3332354888e+01    0.2832251    0.1266837  32.34    0.0014277    2.622    0.619
        79 -10.5546     53.8954    231.5543   1.2139560340e+02   1.9979066314e+01     0.201415    0.1257826  79.89  0.001300767    1.424    0.298
