#   1 NUMBER                 Running object number                                     
#   2 MAG_AUTO               Kron-like elliptical aperture magnitude                    [mag]
#   3 X_IMAGE                Object position along x                                    [pixel]
#   4 Y_IMAGE                Object position along y                                    [pixel]
#   5 X_WORLD                Barycenter position along world x axis                     [deg]
#   6 Y_WORLD                Barycenter position along world y axis                     [deg]
#   7 A_WORLD                Profile RMS along major axis (world units)                 [deg]
#   8 B_WORLD                Profile RMS along minor axis (world units)                 [deg]
#   9 THETA_WORLD            Position angle (CCW/world-x)                               [deg]
#  10 FWHM_WORLD             FWHM assuming a gaussian core                              [deg]
#  11 ELONGATION             A_IMAGE/B_IMAGE                                           
#  12 ELLIPTICITY            1 - B_IMAGE/A_IMAGE                                       
         1 -13.7027    223.3666      2.8319   3.9680756558e+01   2.8378123912e+01     2.184185    0.7241849  61.14  0.006343449    2.764    0.638
         2 -13.7812    181.5580     46.0182   5.6953185124e+01   3.3812189498e+01     1.184452    0.9529747  -9.17 0.0008322761    1.411    0.291
         3 -14.0265    192.2421     36.7686   5.2486763129e+01   3.2309097137e+01     1.337824     1.102648 -30.63  0.003200001    1.240    0.194
         4 -14.8019    200.8105     27.0821   4.8511435906e+01   3.1325229945e+01     2.063402     1.477327  32.01  0.001384155    1.727    0.421
         5 -11.0386     75.2631     13.2796   6.9830943955e+01   6.2886959750e+01     0.363634    0.2301656  66.83  0.001630921    2.763    0.638
         6 -12.2360     59.4457      3.4047   7.0583553218e+01   6.6786489389e+01    0.3358822    0.2650479   8.09  0.002210302    1.025    0.024
         7  -8.5206     72.4441    230.5197   1.2019232265e+02   1.8570043650e+01    0.1160235   0.08685238  66.50 4.606644e-05    1.029    0.029
         8 -14.7554     57.0815    205.2740   1.2082441322e+02   2.5334317025e+01     5.355304     1.201376  54.71   0.01628403    6.109    0.836
         9 -10.6411     44.4328    210.4612   1.2361749178e+02   2.5852597961e+01    0.2864202    0.1500676  59.81 0.0008160193    1.606    0.377
        10 -11.1255     42.0768    206.2647   1.2372837567e+02   2.6948085279e+01    0.2616896    0.2277554 -54.48  0.001931237    1.648    0.393
        11 -11.6742    106.7884    210.3086   1.1166974279e+02   1.7275864569e+01    0.4510951    0.2675798  51.17  0.001719952    1.456    0.313
        12 -13.2774     32.0642    206.4677   1.2557840510e+02   2.8028747917e+01    0.3698015    0.1552639  57.06  0.001434908    2.032    0.508
        13 -12.0261    192.9514    194.6196   9.2029387238e+01   4.9150009981e+00    0.9354404    0.4940368 -62.71  0.002924263    5.950    0.832
        14 -12.0722    107.7008    202.9988   1.1057075665e+02   1.8522776945e+01    0.5893819    0.1939705  48.55    0.0019324    2.783    0.641
        15 -10.7926     96.7739    200.5241   1.1247668336e+02   2.0722166970e+01    0.3245131    0.2536224 -32.84  0.001140767    1.934    0.483
        16 -16.4302     65.5939    247.1495   1.2266417821e+02   1.6605641659e+01     8.712731     2.531566  33.09   0.01550856    9.003    0.889
        17 -19.1543      6.2518    145.9497   1.2615396119e+02   4.3211421227e+01      17.7852     1.977795 -76.20   0.04115288    9.846    0.898
        18  -9.7654     49.9266    216.8766   1.2311316513e+02   2.3965270878e+01     0.352012    0.2557864  11.23  0.002088259    2.819    0.645
        19 -11.2834    208.5435    196.8567   8.9462755755e+01   1.7445872942e+00    0.2301347     0.205298  59.46 0.0005278502    1.448    0.309
        20 -10.3098     30.7542    217.8880   1.2656920624e+02   2.5976987432e+01    0.2439098    0.1961882 -22.34  0.001647986    2.631    0.620
        21 -13.5314     63.5279    190.3318   1.1810379814e+02   2.7552494958e+01    0.7209727    0.6647862 -64.53  0.003936326    1.378    0.274
        22 -10.1163     82.2810    195.0408   1.1478030655e+02   2.3991967042e+01    0.2892833    0.1572141  52.26  0.001522216    1.656    0.396
        23 -10.4985     96.9617    192.5829   1.1143291686e+02   2.2288096388e+01     0.309226    0.2430935 -21.74  0.001300225    2.090    0.522
        24 -11.0406    111.6680    217.6996   1.1160989485e+02   1.5147436307e+01    0.2227343    0.1759787  64.46 0.0003007971    1.117    0.105
        25 -16.3026     71.0817    147.9129   1.1096233739e+02   3.5962252092e+01     9.563371     4.747293  82.02   0.03237196    4.163    0.760
        26 -11.9144    149.8167    188.5443   9.9677851007e+01   1.3994606019e+01    0.4483564    0.3074058 -68.10  0.001924483    1.892    0.471
        27  -9.4725     39.4197    186.7269   1.2263780988e+02   3.1229141727e+01    0.2065607    0.1089787  51.30  0.001187101    1.705    0.413
        28 -10.7278     99.4930    180.7033   1.0926441470e+02   2.4358175482e+01    0.2439971    0.2127375  65.67 0.0005497585    1.041    0.039
        29 -11.0030    130.5151    212.7957   1.0730888586e+02   1.2957993169e+01    0.2487686    0.1977347  79.53 0.0005540128    1.378    0.274
        30  -9.4993    218.7315    177.6218   8.3821805523e+01   2.8230126979e+00    0.1421159   0.09724879   1.45  0.000699207    1.685    0.406
        31 -10.7058     58.7680    176.5923   1.1761237395e+02   3.1101161469e+01    0.2235548    0.1900249  84.43 0.0003874131    1.063    0.059
        32 -11.8020    142.1541    172.6367   9.8516678783e+01   1.8530730133e+01    0.4164014    0.3471683 -50.09  0.002307593    1.275    0.216
        33 -11.5471     38.9172    212.2348   1.2474891465e+02   2.6146062817e+01    0.4965208    0.1132639  49.03  0.000887171    3.298    0.697
        34 -10.4792    203.5919    167.8732   8.4698667666e+01   7.3007843311e+00    0.5131055    0.2617665  27.99  0.002033277    2.473    0.596
        35  -9.9239    163.2102    168.7918   9.3194350724e+01   1.5191430873e+01    0.2358623    0.1952222 -65.20   0.00124925    1.412    0.292
        36 -10.8134    230.1079    166.2247   7.9370763908e+01   2.4719438455e+00    0.2533962    0.1774885 -55.81  0.001238738    2.132    0.531
        37 -10.6019    192.8179    165.2382   8.6284378676e+01   9.9027565166e+00    0.3080139    0.2899225 -67.81  0.001029998    1.280    0.218
        38 -10.9251     46.4320    173.2176   1.1990111972e+02   3.3332453992e+01    0.2966391    0.2278675  36.03  0.001528133    1.552    0.356
        39  -9.9383    157.7580    161.5605   9.2928529553e+01   1.7703953890e+01    0.2092203    0.1345255  54.06 0.0009448871    1.638    0.389
        40 -12.4571     93.4491    154.8464   1.0662518716e+02   3.1025816424e+01    0.6320396    0.4523958 -28.15  0.003083168    2.091    0.522
        41 -10.5719    188.3267    154.9339   8.4982879734e+01   1.2687675826e+01    0.5617781    0.2374526  44.20  0.002124691    2.298    0.565
        42 -11.3943    133.7912    145.1244   9.5005766564e+01   2.5959051926e+01     1.179897    0.3064262 -54.82    0.0028702    5.731    0.826
        43 -10.4835    174.8318    148.9103   8.6489065359e+01   1.6671224978e+01    0.2788928    0.2157402 -64.45  0.001009505    1.607    0.378
        44 -10.7820    144.4791    146.7155   9.2822424025e+01   2.3467709455e+01    0.5074443    0.2788877 -66.78  0.001805166    2.967    0.663
        45 -11.2209    105.7951    140.2017   1.0087635994e+02   3.2315186165e+01    0.5461572    0.3354851 -36.08  0.002376036    2.090    0.522
        46  -9.5732    110.8066    140.2386   9.9622251082e+01   3.1414557821e+01    0.3014306    0.1885466  72.02  0.001232162    2.339    0.572
        47 -12.4313     93.5696    140.0962   1.0395856852e+02   3.4408693729e+01      0.28726    0.2535685 -53.70 0.0004208212    1.157    0.136
        48  -9.1490    102.0467    133.0036   1.0036795364e+02   3.4634229354e+01    0.1693863    0.1606465 -89.10 0.0003443783    1.030    0.029
        49 -10.9660    105.9615    130.4112   9.8801173269e+01   3.4546409969e+01    0.4346842    0.2956575 -56.72   0.00208505    1.415    0.293
        50 -10.7301    113.8492    130.2796   9.6729117463e+01   3.3136146023e+01    0.3593783    0.2927494 -19.27 0.0008911439    1.553    0.356
        51 -10.8062    135.8631    127.7222   9.0576768785e+01   2.9363093028e+01    0.5262375    0.1860013 -51.68  0.001652769    3.103    0.678
        52 -10.1681    160.8430    127.8601   8.4656805249e+01   2.3955959376e+01    0.3302542    0.2657539 -83.77   0.00154197    1.608    0.378
        53 -11.0551    101.2441    126.5432   9.9204314211e+01   3.6276692792e+01    0.2776221    0.2367376 -23.58 0.0005975097    1.404    0.288
        54 -11.0859    119.6520    123.7446   9.3734165338e+01   3.3518628335e+01    0.4594753    0.2864745 -23.65  0.001767114    2.571    0.611
        55  -9.8556    135.0000    119.9614   8.8896695742e+01   3.1250328278e+01    0.2581703   0.08674026 -45.96 0.0007995928    2.923    0.658
        56 -10.2323    109.3357    119.1514   9.5365574473e+01   3.6531636930e+01     0.240668     0.211938  54.00 0.0003390999    1.183    0.154
        57 -10.1736    167.6934    112.5131   7.9176870082e+01   2.5537635334e+01    0.4067819    0.2760808 -73.93  0.001546061    2.349    0.574
        58 -10.3593    135.0000    112.0546   8.6873818571e+01   3.2980100552e+01    0.4289457   0.08714742 -44.84  0.001037554    4.810    0.792
        59 -10.0822    205.6124    110.0921   7.0732760968e+01   1.7141396120e+01    0.2765371    0.2214992  40.02 0.0006331786    1.294    0.227
        60 -11.5653    118.5270    110.0240   9.0641067705e+01   3.6836950142e+01    0.5709981     0.415781  56.70  0.002677473    1.528    0.346
        61 -10.7604     66.8676    104.2220   1.0397760099e+02   4.6860586170e+01    0.3072211    0.2027354  12.97  0.001475053    2.181    0.542
        62  -9.8832     64.7398     99.5924   1.0357740654e+02   4.8228009232e+01    0.1809944    0.1279926  47.91 0.0009488395    1.627    0.385
        63 -11.6000     42.2362     91.3996   1.0881012432e+02   5.2754998843e+01    0.3184812     0.272036 -55.64  0.001015073    1.045    0.043
        64 -11.3336     52.7394     90.8079   1.0531358348e+02   5.1753128498e+01    0.3246011    0.2076875 -54.42  0.001026447    1.311    0.237
        65  -9.6908     59.0896    227.9608   1.2234024195e+02   2.0771686321e+01    0.1595185    0.1073259  69.39 0.0003390089    1.182    0.154
        66  -9.1149    155.5793     80.5107   7.2837334258e+01   3.4700282551e+01    0.1567615    0.1513944 -14.86  0.000248966    1.025    0.024
        67 -10.0245     65.4710     70.2704   9.5595201054e+01   5.4715608874e+01    0.2237227     0.186136  28.69 0.0008789305    1.349    0.259
        68 -11.2053    158.0980     60.0946   6.5875963456e+01   3.7679229485e+01     0.368573    0.2814676 -75.74  0.000478421    1.688    0.408
        69  -9.8322     44.2175    219.7723   1.2434557361e+02   2.4099712630e+01    0.1641549    0.1061283 -58.48  0.001068912    1.954    0.488
        70 -11.4209     62.7716    237.0181   1.2239349068e+02   1.8692504635e+01    0.2182535      0.14332  71.14  0.001048797    1.244    0.196
        71 -10.9582     51.1022    225.8127   1.2357563068e+02   2.2155473257e+01     0.216767    0.1233365  72.30 0.0006047135    1.526    0.345
        72 -11.9882     49.6387    233.7289   1.2438709467e+02   2.0905570429e+01    0.3229898    0.1592591  80.44 0.0002331003    2.031    0.508
        73 -10.4817    160.3381     54.0255   6.3447070425e+01   3.8085618293e+01    0.2674392    0.2216165  71.70 0.0003294919    1.291    0.226
        74  -9.4753     37.4100    225.1646   1.2589212244e+02   2.3884857978e+01    0.1872025    0.1164561  63.19  0.001302337    1.227    0.185
        75  -9.6476     30.2089    223.4418   1.2700650095e+02   2.5002202125e+01    0.1850647    0.1433747  37.45 0.0006746587    1.670    0.401
        76  -9.3627     61.8547    220.1035   1.2121538402e+02   2.1866542717e+01    0.1389892     0.106425 -75.94 0.0005973735    1.362    0.266
        77 -10.4182    189.9015     15.0079   4.6415947812e+01   3.5502753597e+01    0.2132727    0.2011045  85.92 0.0006817128    1.027    0.027
        78 -11.0591     53.6437    231.2665   1.2353213660e+02   2.0855944942e+01    0.1960249    0.1443952  78.70 0.0007607111    1.115    0.103
