#   1 NUMBER                 Running object number                                     
#   2 MAG_AUTO               Kron-like elliptical aperture magnitude                    [mag]
#   3 X_IMAGE                Object position along x                                    [pixel]
#   4 Y_IMAGE                Object position along y                                    [pixel]
#   5 X_WORLD                Barycenter position along world x axis                     [deg]
#   6 Y_WORLD                Barycenter position along world y axis                     [deg]
#   7 A_WORLD                Profile RMS along major axis (world units)                 [deg]
#   8 B_WORLD                Profile RMS along minor axis (world units)                 [deg]
#   9 THETA_WORLD            Position angle (CCW/world-x)                               [deg]
#  10 FWHM_WORLD             FWHM assuming a gaussian core                              [deg]
#  11 ELONGATION             A_IMAGE/B_IMAGE                                           
#  12 ELLIPTICITY            1 - B_IMAGE/A_IMAGE                                       
         1 -14.8859     68.3477    144.3609   1.0317138279e+02   3.7463761798e+01     4.882187     2.565963  76.79  0.006415317    3.834    0.739
         2 -13.8359    224.6873     19.7311   3.6385934842e+01   2.6979818194e+01    0.9633127    0.8722562  37.64  0.002674413    1.478    0.323
         3 -12.5929    216.4660     28.1685   3.9128885183e+01   2.7843198099e+01    0.5219741    0.4388064  52.86  0.001133736    1.399    0.285
         4 -13.6611    199.7133     41.4907   4.4373690475e+01   3.0087573775e+01     1.312792    0.9742137  35.94  0.003479041    1.737    0.424
         5 -13.9607    208.0628     35.9597   4.1942412843e+01   2.8824388146e+01     1.628193     1.219379 -11.52  0.006545006    1.797    0.444
         6  -9.4750    130.5057      8.9915   4.5154091379e+01   5.0847432579e+01    0.2422419    0.1714334  86.51 0.0006480052    1.558    0.358
         7 -11.8126    246.8897      2.1654   3.0978840630e+01   2.4142612668e+01    0.5538982    0.2139151  79.29  0.002714403    2.481    0.597
         8  -9.9594      2.3899      2.7840   8.8867261406e+01   7.4347310852e+01    0.1628815   0.07526206 -33.70 0.0009628899    1.704    0.413
         9  -9.7956     49.3061      2.6756   6.4466424438e+01   6.8533704341e+01    0.1019741   0.09540103 -44.34            0    1.645    0.392
        10  -9.3885     43.6456      1.2848   6.6093794616e+01   6.9587561565e+01   0.09764118   0.09649968  66.59 0.0006280753    1.666    0.400
        11 -11.1957    193.4883    195.4853   8.2364804330e+01   3.9324938689e+00    0.8721862    0.4617108 -63.62   0.00245141    6.743    0.852
        12 -10.9459    139.5410    248.5943   1.0189190844e+02   3.8232050991e+00    0.4560005    0.1907502 -60.68  0.001953067    3.708    0.730
        13 -10.8389    134.5623    249.2751   1.0296025760e+02   4.4808652171e+00    0.3357691    0.2000613 -72.80  0.001716886    2.690    0.628
        14 -14.0058      3.5623    179.3941   1.2359864335e+02   3.5921999641e+01     2.394673    0.5152217 -78.95  0.001616872    4.120    0.757
        15 -13.7139     86.2989    226.9656   1.1016485207e+02   1.5878247504e+01    0.9951112    0.6858807 -57.40  0.005853163    1.652    0.395
        16 -15.8360     55.8331    247.1366   1.1799190284e+02   1.6114560400e+01      9.73282     2.815619  28.67   0.01305016   10.466    0.904
        17  -9.4282    108.9431    192.0234   1.0057811541e+02   1.9716672011e+01    0.2310132    0.1606039  72.37 0.0009971621    1.722    0.419
        18 -13.2411     33.9632    205.1897   1.1904563571e+02   2.7242073085e+01    0.5712896    0.4339663 -40.84  0.001188046    1.925    0.480
        19 -10.3328    209.2011    198.5297   7.9817134088e+01   7.1685683399e-01    0.2514259    0.1746359 -52.59 0.0009775709    1.930    0.482
        20  -9.5682     79.7572    183.5665   1.0631046812e+02   2.6269171156e+01    0.1989876    0.1161486  49.35 0.0009423765    1.652    0.395
        21  -9.5560     99.4811    180.9643   1.0111167153e+02   2.3792799086e+01    0.2126177    0.1867941  49.93  0.000530506    1.099    0.090
        22 -10.3595    144.4596    179.5868   9.0044809880e+01   1.6083500817e+01    0.2647624    0.2590102  28.68  0.001042171    1.023    0.022
        23 -12.1318     61.6473    178.0294   1.0997885024e+02   3.0113834793e+01    0.4371554    0.3481272 -27.27  0.002278764    1.757    0.431
        24 -11.9901     66.9257    172.5124   1.0793787706e+02   3.0725522357e+01    0.3372436    0.2781553 -37.81  0.001008192    1.495    0.331
        25  -9.7596    150.1481    178.4371   8.8501069054e+01   1.5250533451e+01    0.2336413    0.2010251 -80.69 0.0006479985    1.394    0.283
        26 -11.2651    124.3529    173.9404   9.3793583626e+01   2.1074169662e+01    0.5548556    0.2285275  30.67  0.001834333    3.162    0.684
        27 -13.5788     63.9146    158.9927   1.0676099733e+02   3.4432417313e+01    0.5399756    0.4409518 -43.70   0.00165528    1.381    0.276
        28 -13.6789     19.4924    219.9831   1.2298156046e+02   2.5647629853e+01    0.7910039    0.5200337  54.63  0.002299413    1.282    0.220
        29 -12.8203     83.4299    156.8137   1.0120155983e+02   3.2148325721e+01    0.9887045     0.652995 -44.75  0.001170312    1.645    0.392
        30  -9.1455     72.9870    172.7974   1.0645457169e+02   2.9808818253e+01    0.1830338    0.1641714  77.93            0    1.026    0.025
        31 -10.4382    137.5814    169.7787   8.9777102349e+01   1.9529693123e+01    0.3728458    0.2635593 -61.23   0.00174228    1.576    0.365
        32  -9.7275    125.1054    154.1146   8.9689732879e+01   2.5504013362e+01    0.2291571    0.2093837  81.35  0.000435082    1.156    0.135
        33  -9.5953    174.8854    148.8023   7.6556666678e+01   1.6535019161e+01     0.292459    0.2054321 -69.49   0.00106017    2.065    0.516
        34 -10.8041    133.7008    143.9777   8.5273054625e+01   2.6161532893e+01     1.079446    0.2868567 -54.85  0.002451284    5.905    0.831
        35 -11.2023     32.1749    144.3075   1.1325054605e+02   4.1747576690e+01    0.4001839    0.3243729  43.41  0.002454473    1.362    0.266
        36 -10.9527     98.4654    142.4905   9.4362514665e+01   3.3198696690e+01     0.387114    0.3080784  20.55  0.001493603    1.477    0.323
        37  -9.9671    101.2171    139.1783   9.2898010690e+01   3.3524252608e+01    0.4124059    0.2827009 -16.89  0.001668419    2.278    0.561
        38 -12.4342     86.1935    140.9660   9.7490120786e+01   3.5630067529e+01    0.3158041    0.2621419 -46.98 0.0004777536    1.212    0.175
        39 -10.6105     26.0916    134.7846   1.1369686206e+02   4.4661237966e+01    0.2792903    0.1709112  49.07 0.0009685737    1.792    0.442
        40  -9.4851    158.5073    134.4494   7.6910922517e+01   2.3073441327e+01    0.1558695     0.152063 -78.08 0.0001659033    1.076    0.070
        41 -12.0109     76.5972    163.1014   1.0405785936e+02   3.1638124211e+01    0.4647329    0.3656837  49.01 0.0003825901    1.270    0.212
        42 -11.3113    135.6712    128.1842   8.1016820125e+01   2.9378818739e+01    0.5170718    0.2185851 -51.16  0.001749256    2.491    0.599
        43 -10.9892    107.6750    131.1366   8.9295744537e+01   3.4295475100e+01    0.5810614    0.3485145  35.83  0.002441097    1.767    0.434
        44 -10.1627    116.0197    124.9692   8.5492389857e+01   3.4157900867e+01    0.2517651    0.1934552 -13.66 0.0009644763    1.694    0.410
        45 -11.3140     96.6200    127.3026   9.1567365553e+01   3.7235178498e+01    0.3288274    0.2751376 -18.99  0.001130896    1.401    0.286
        46  -9.8508    106.6292    119.7908   8.6868352845e+01   3.7205968954e+01    0.2312413    0.2072401  18.94 0.0004245251    1.212    0.175
        47  -9.8195     81.1594    116.6124   9.3716981818e+01   4.2442423274e+01    0.3002441    0.2508006  44.19  0.001573954    1.280    0.219
        48  -9.3220    168.2247    113.0654   6.9265452435e+01   2.5416657855e+01    0.2679333    0.1808847 -67.52  0.001077707    2.049    0.512
        49 -10.0353    205.3602    110.3060   6.1105250329e+01   1.7540211222e+01    0.3411278    0.2233632  38.20  0.001120173    1.759    0.432
        50  -9.8624     29.9588    107.9767   1.0838183698e+02   5.0911128421e+01    0.2047382    0.1480847  72.15 0.0007520454    1.663    0.399
        51 -10.3820    134.4027    105.7104   7.5454135184e+01   3.4661235227e+01    0.3184594    0.1494824 -47.69  0.001141526    2.159    0.537
        52 -11.0172     53.1883     91.5138   9.6859029952e+01   5.2413336760e+01    0.3888634    0.1894237 -57.23  0.001479986    1.877    0.467
        53 -10.0487     41.6287     92.0748   1.0111496874e+02   5.3601624603e+01    0.1939737    0.1877158  43.06 0.0004029915    1.206    0.171
        54 -10.2358    250.0237     87.9758   4.9057546520e+01   1.1992187601e+01    0.1667073    0.1374882 -45.06 0.0004237945    1.029    0.028
        55  -9.3125     71.9490     83.0113   8.7886636374e+01   5.1725705512e+01    0.2159508    0.1766564  78.53 0.0006315211    1.708    0.415
        56  -9.0231     89.3700     64.7009   7.6016620086e+01   5.2454314306e+01    0.1412171    0.1179635  86.36 0.0007030795    1.738    0.425
        57  -9.5132     46.5099     61.7816   9.0867879041e+01   5.9745282090e+01    0.1784294    0.1782564 -75.52 0.0004512372    1.283    0.221
        58 -10.6104     13.4990     60.1201   1.0426096273e+02   6.3160490881e+01    0.2183001    0.1825799 -41.84  0.000413977    1.067    0.063
        59  -9.0058     59.0045     61.0000   8.5647272130e+01   5.8248802851e+01    0.2101994    0.0763547  34.24 0.0007984983    2.915    0.657
        60 -15.5639      7.3873    239.7970   1.2623256946e+02   2.2944704273e+01     2.044728     1.655652 -80.52   0.01625356    1.411    0.291
        61 -14.8618      9.3160    207.5017   1.2419247763e+02   2.9251585404e+01     1.199711     1.077162 -18.32  0.007667297    1.773    0.436
        62 -16.2387     36.8707    188.6518   1.1697567163e+02   3.0623916720e+01     9.605856     3.777204  79.69   0.03267506    4.377    0.772
        63  -9.5738    198.6904    222.8807   8.6267636070e+01  -1.4680964447e+00     0.172064    0.1523758   2.77 0.0004685832    1.103    0.094
        64  -8.6833    158.2904     48.2965   5.2797360823e+01   3.9396159221e+01    0.1442565    0.1100852  28.48 0.0002129604    1.556    0.357
        65  -8.9573    155.6291     45.8497   5.2548690151e+01   4.0408130787e+01    0.1985245    0.1275174 -44.88 0.0002758711    1.628    0.386
        66 -10.0962    136.6830     42.9583   5.5462405271e+01   4.5497299696e+01    0.2593265    0.2045259  70.02 0.0003726511    1.313    0.238
        67  -9.7110    138.9029     36.9610   5.3001759857e+01   4.5756387053e+01    0.2141765    0.1970536  85.77 0.0006115118    1.133    0.118
        68  -9.7615    189.5176     15.0690   3.8736000704e+01   3.5736802017e+01    0.1861925    0.1271999 -32.93 0.0006328902    1.562    0.360
        69  -9.9937     60.0140    197.9759   1.1270777184e+02   2.5704632813e+01    0.1972254    0.1611254  73.87 0.0003317624    1.057    0.053
        70  -9.5831    111.4917    197.4905   1.0082111287e+02   1.8093837038e+01    0.1392822    0.1282642  56.90 0.0008105132    1.015    0.015
        71 -11.7189    183.8888    215.6780   8.7983877770e+01   2.1052635477e+00    0.3607059    0.2218509  50.79  0.001495325    1.934    0.483
        72 -10.2692    109.9562    201.4443   1.0176289815e+02   1.7497712577e+01    0.2000971    0.1791526 -74.97 0.0001252804    1.167    0.143
