#   1 NUMBER                 Running object number                                     
#   2 MAG_AUTO               Kron-like elliptical aperture magnitude                    [mag]
#   3 X_IMAGE                Object position along x                                    [pixel]
#   4 Y_IMAGE                Object position along y                                    [pixel]
#   5 X_WORLD                Barycenter position along world x axis                     [deg]
#   6 Y_WORLD                Barycenter position along world y axis                     [deg]
#   7 A_WORLD                Profile RMS along major axis (world units)                 [deg]
#   8 B_WORLD                Profile RMS along minor axis (world units)                 [deg]
#   9 THETA_WORLD            Position angle (CCW/world-x)                               [deg]
#  10 FWHM_WORLD             FWHM assuming a gaussian core                              [deg]
#  11 ELONGATION             A_IMAGE/B_IMAGE                                           
#  12 ELLIPTICITY            1 - B_IMAGE/A_IMAGE                                       
         1 -14.5864    164.6867     53.4629   7.3611529691e+01   3.7050433534e+01     2.280164      1.50705  15.93  0.006815673    1.899    0.473
         2 -13.9947    177.9804     37.4015   6.5883923771e+01   3.5767255300e+01     1.033266    0.8853758  60.30  0.002656121    1.177    0.150
         3 -13.6711    182.2920     30.4327   6.2889632434e+01   3.5454929070e+01    0.7248846    0.6637093  25.83  0.001495712    1.060    0.056
         4 -13.6818    187.9622     13.9462   5.6674157957e+01   3.5666252612e+01     1.148036    0.6359651 -76.31  0.004408501    2.679    0.627
         5 -14.4724    197.4614      5.5943   5.2846961845e+01   3.3886572179e+01     1.227824     1.112991 -16.51  0.004658009    1.132    0.117
         6  -9.9927     70.5376      8.5322   8.0329068378e+01   6.4170966732e+01    0.1301586    0.1110028  -8.59 -9.880471e-06    1.049    0.047
         7 -10.3293    114.2229     22.2472   7.3530092315e+01   5.3562546606e+01    0.2945876     0.205282  72.43 0.0007918834    1.921    0.479
         8 -12.5401    248.5814    247.6417   1.0028145105e+02  -4.0454976001e+00    0.3087568    0.2519534  25.11  0.002663577    1.345    0.256
         9  -9.9590    163.8176    203.1273   1.0758856385e+02   1.3667119106e+01    0.1720601     0.137568  56.79 0.0004658899    1.260    0.206
        10 -10.1345    206.7321    178.2849   9.6118551958e+01   9.3435025028e+00    0.2683237      0.15376  20.14  0.001339053    2.090    0.521
        11 -12.1464    192.9064    194.5207   1.0124460011e+02   9.8118585417e+00    0.7899919    0.4401601 -61.52  0.003112239    5.369    0.814
        12 -10.8247      1.3638    177.2887   1.3455347755e+02   3.8834656957e+01    0.1006955   0.06842531  84.53  0.000470483    1.122    0.109
        13 -11.5684    153.0687    186.3381   1.0710144786e+02   1.7823170868e+01    0.2068393    0.1845465 -69.77 0.0006613581    1.364    0.267
        14 -12.5197    194.4753    167.7857   9.6379332102e+01   1.2960895549e+01    0.5014897    0.3853587 -58.24  0.002895583    1.898    0.473
        15 -10.9014    203.2518    170.1612   9.5252637265e+01   1.1002689693e+01    0.4032247    0.2384992  30.94  0.001563237    1.583    0.368
        16 -10.4088    163.8342    169.5842   1.0239465620e+02   1.8417503015e+01    0.2877503    0.1884795  63.95  0.001432564    1.921    0.479
        17 -11.6874    230.2164    166.7191   8.9992092049e+01   6.4236497385e+00    0.2793666    0.1589162 -42.21  0.001419887    2.401    0.583
        18 -11.9590     28.7667    184.7419   1.3012161279e+02   3.5134302330e+01    0.1496077    0.1220679  81.23 0.0007143903    1.166    0.142
        19  -9.6499    140.4570    163.0336   1.0585807493e+02   2.3674467825e+01    0.1684232    0.1268841 -50.13 0.0003442864    1.501    0.334
        20 -11.5793    113.8023    161.1810   1.1099392933e+02   2.8507196539e+01    0.3410324    0.2340167  82.45  0.001308271    1.850    0.459
        21  -9.9297    131.2642    158.5598   1.0697894112e+02   2.6044899526e+01    0.2049891    0.1550603 -71.20 0.0005436427    1.572    0.364
        22 -11.0734    120.3480    157.4351   1.0905330335e+02   2.8101601101e+01    0.3501246    0.1427948 -47.73  0.001550306    2.748    0.636
        23 -12.7806    156.9746    200.5242   1.0843116551e+02   1.5151657118e+01     0.575013    0.3557985  81.78  0.002615843    3.824    0.739
        24 -11.0223    189.9117    155.7360   9.4920963617e+01   1.5505387065e+01    0.3086734    0.2666843  85.41  0.001826011    1.611    0.379
        25 -11.2099    166.2771    154.4181   9.9185955794e+01   2.0296853568e+01    0.4046364    0.2633693  76.97  0.001771383    2.871    0.652
        26 -12.2631    133.9568    145.8729   1.0420002476e+02   2.7794826589e+01     1.103996    0.2911366 -53.97  0.003168265    5.961    0.832
        27 -10.8069    174.3076    148.7088   9.6502809566e+01   1.9621368936e+01     0.295086    0.2510575 -79.87  0.001378905    1.583    0.368
        28 -12.2513    144.9967    146.4724   1.0198731811e+02   2.5655054705e+01    0.4946358    0.3346895  64.57  0.002537825    1.761    0.432
        29 -12.9620    101.2330    138.3989   1.1006659740e+02   3.4760826350e+01    0.2934688    0.2564552 -52.79  0.000583171    1.233    0.189
        30 -12.1986     95.0122    137.2881   1.1129486330e+02   3.5943644503e+01    0.3081889    0.2091408 -68.71  0.001747807    1.531    0.347
        31 -12.2753    135.6779    127.0811   1.0012332486e+02   3.0879313689e+01      1.05667    0.2081297 -49.13  0.002711428    6.394    0.844
        32 -12.2854    106.0056    130.7638   1.0762154580e+02   3.5476262796e+01    0.3643739    0.2962794 -83.80   0.00119061    1.316    0.240
        33 -11.4120    105.9926    125.3512   1.0660336250e+02   3.6540132249e+01    0.2919038    0.2361629 -43.68 0.0007420086    1.334    0.250
        34 -11.6512    117.7115    129.4604   1.0467459018e+02   3.3734381569e+01    0.3098474    0.2604385 -40.87 0.0007208326    1.299    0.230
        35 -11.2341    160.7223    127.6848   9.4833512567e+01   2.5782656102e+01    0.4116416    0.2983953 -72.75  0.001972811    2.075    0.518
        36 -10.9612    121.3385    123.9733   1.0273466815e+02   3.4137235789e+01    0.1903025    0.1726597 -51.50 0.0007984563    1.138    0.121
        37 -10.7122    207.5207    194.9773   9.8831429545e+01   7.2283390931e+00    0.1612335    0.1161824 -22.87 0.0007203587    1.605    0.377
        38 -10.7011    112.5910    118.7307   1.0370412056e+02   3.6714288168e+01    0.2621801    0.2233644  88.17  0.001069066    1.280    0.218
        39 -11.1884    168.1862    113.0545   8.9870742770e+01   2.6668395815e+01    0.3783939    0.3068536 -74.65   0.00131906    1.662    0.398
        40 -10.9387    134.5589    105.3080   9.5419479554e+01   3.5147540417e+01    0.4226795     0.137502 -44.45  0.001440914    3.136    0.681
        41 -10.6466    205.3252    110.2742   8.1968587950e+01   1.8844054412e+01    0.3532701    0.1959975  38.61  0.001119386    1.766    0.434
        42 -11.7821     83.4460    107.2237   1.0861287129e+02   4.3766988205e+01    0.3803965    0.2509485  70.20  0.001427142    1.968    0.492
        43 -11.9737    153.0628    194.3672   1.0826946216e+02   1.6662143238e+01    0.3229162     0.155937  52.03  0.001159433    1.933    0.483
        44 -10.4955    149.8483     80.6291   8.5224660372e+01   3.6309223984e+01    0.2559019    0.2012593 -21.25 0.0007202926    1.330    0.248
        45  -9.2662    184.3747     77.2962   7.7059993481e+01   2.8636077721e+01    0.1642977    0.1093902  24.66  0.000702596    1.743    0.426
        46 -10.8358     84.4708     76.9678   1.0123519715e+02   4.9853433362e+01    0.2248757     0.182936  61.07 8.557311e-05    1.429    0.300
        47 -18.0579     60.1336    239.0278   1.2835189157e+02   2.3255556098e+01      6.55768     5.129529  79.02   0.05819862    1.244    0.196
        48 -10.3882    167.9517    233.5861   1.1080085489e+02   9.2784681415e+00    0.2607778    0.1420916  57.48  0.001403265    2.064    0.515
        49  -7.4102     21.3213    214.1485   1.3299239354e+02   3.1004973353e+01     0.130915    0.1105562  -4.70   0.00108358    2.472    0.595
        50 -10.3680     13.5403     59.9357   1.2007987325e+02   6.1305432398e+01     0.171876    0.1442199  75.06 0.0004463573    1.363    0.266
        51 -19.1242     39.3288    102.9334   1.1959509078e+02   5.0076909255e+01     14.45741    0.8924328 -65.30   0.02784706   13.823    0.928
        52  99.0000     12.5640    205.9991   1.3400074815e+02   3.3094999680e+01    0.3713052    0.1376379  39.87  0.002447214    2.312    0.567
        53  -9.2958     25.2042    206.3017   1.3198183095e+02   3.1876850072e+01   0.07784508   0.06169324 -78.61 0.0006689029    1.449    0.310
