#   1 NUMBER                 Running object number                                     
#   2 MAG_AUTO               Kron-like elliptical aperture magnitude                    [mag]
#   3 X_IMAGE                Object position along x                                    [pixel]
#   4 Y_IMAGE                Object position along y                                    [pixel]
#   5 X_WORLD                Barycenter position along world x axis                     [deg]
#   6 Y_WORLD                Barycenter position along world y axis                     [deg]
#   7 A_WORLD                Profile RMS along major axis (world units)                 [deg]
#   8 B_WORLD                Profile RMS along minor axis (world units)                 [deg]
#   9 THETA_WORLD            Position angle (CCW/world-x)                               [deg]
#  10 FWHM_WORLD             FWHM assuming a gaussian core                              [deg]
#  11 ELONGATION             A_IMAGE/B_IMAGE                                           
#  12 ELLIPTICITY            1 - B_IMAGE/A_IMAGE                                       
         1 -11.9978    178.4866     47.5677   4.6411443661e+01   3.4691811911e+01     1.095445    0.9259153  18.48  0.005125943    1.613    0.380
         2 -12.0480    198.5818     19.0980   3.6786983898e+01   3.3637334796e+01    0.8806633    0.7408184 -65.15  0.005770218    1.110    0.099
         3  -9.0693    120.3387      8.9441   4.4705300797e+01   5.3147032677e+01    0.3043547    0.2400706  59.82  0.001421478    1.087    0.080
         4  -8.4437    166.9280      2.5212   3.6044730252e+01   4.2730672193e+01    0.1896081    0.1686908  37.42 0.0004111628    1.395    0.283
         5  -8.2880    152.9612    245.3852   9.4299452398e+01   1.6260008008e+00    0.1835777    0.1753943  82.69 0.0005244296    1.279    0.218
         6 -18.3282     44.3350    223.7937   1.1482454225e+02   2.1603959953e+01     4.776016     3.874177 -80.06   0.01650604    1.245    0.197
         7  -9.0951     17.6511    179.2097   1.1707875304e+02   3.4716702366e+01    0.2001231    0.1612466 -65.44 0.0001360377    1.282    0.220
         8  -9.2121    180.5386    176.1943   7.6812661289e+01   9.9309454180e+00    0.3814836    0.2399772 -58.95  0.001179686    1.996    0.499
         9 -10.3273    147.0071    173.6227   8.3789853516e+01   1.6764556090e+01    0.8593246    0.5344644 -81.36  0.003118225    3.143    0.682
        10 -10.3639    129.4970    164.7334   8.6283089225e+01   2.2097336101e+01    0.5877254    0.3961986  56.05  0.001953787    1.632    0.387
        11  -8.7684    133.0556    168.8044   8.6201557519e+01   2.0484457224e+01    0.3218737    0.2314644 -52.82  0.000891026    1.409    0.290
        12  -7.7538      1.1388    178.7171   1.2091658765e+02   3.6256616342e+01    0.1124952   0.06543975  85.28            0    1.450    0.310
        13  -9.9629    126.5760    175.4655   8.9059205231e+01   2.0151843311e+01    0.4362519    0.2161137 -61.91  0.001250101    2.410    0.585
        14  -8.4817    122.2654    172.5757   8.9591805222e+01   2.1608063545e+01    0.3029765    0.1771406  53.22  0.001119128    1.872    0.466
        15  -9.9256      7.1251    173.8543   1.1915836140e+02   3.6921350260e+01    0.2840423    0.2073709 -64.32  0.001653946    1.348    0.258
        16  -8.0316    236.6818    244.2904   7.8194380078e+01  -9.9418083348e+00   0.09625331   0.08903696  30.53 0.0003083043    1.599    0.375
        17  -9.8758    183.3075    209.1651   8.2388123533e+01   3.1596839402e+00      1.04104    0.2672309 -51.04  0.002882989    6.048    0.835
        18  -7.5580      1.2218    174.3831   1.2059467609e+02   3.7268938712e+01    0.1218277    0.0738533 -60.91 0.0006868228    1.611    0.379
        19  -8.4855    191.8556    168.9243   7.3005206712e+01   9.2852192616e+00    0.2409354    0.2203385  55.05 0.0007408892    1.233    0.189
        20  -8.5982    155.8480    168.1531   8.0643575953e+01   1.6277133320e+01    0.2221453     0.204344 -86.11 0.0005015549    1.204    0.170
        21  -9.3386    185.0792    225.8875   8.4849279237e+01  -3.0258429497e-02    0.2999081    0.2128582 -48.30 0.0007213998    1.638    0.389
        22  -9.4506    185.9045    221.1804   8.3908862139e+01   6.3701556701e-01    0.3136516    0.2544338 -53.37 0.0007287139    1.520    0.342
        23  -9.4845    107.4899    158.4932   9.0727614435e+01   2.7643419604e+01    0.4141835    0.3057916  -2.04  0.001243682    2.043    0.510
        24  -8.7247    186.5777    216.5347   8.2992398492e+01   1.3295936467e+00    0.2319396    0.2066332   9.65 0.0001555186    1.011    0.010
        25 -11.2784    136.8971    174.2068   8.6309192171e+01   1.8533200418e+01    0.8009474    0.6526756  70.90  0.002786322    1.407    0.289
        26  -9.9482    146.2061    153.7939   7.9920224077e+01   2.1361094985e+01    0.6212797    0.3981954 -82.42  0.002178279    2.838    0.648
        27  -9.5121    134.0000    146.9639   8.1449562755e+01   2.5368712792e+01    0.6650031    0.2181731 -55.23  0.001914213    3.674    0.728
        28  -7.7547      1.5050    151.4896   1.1872931658e+02   4.2730668315e+01    0.1263984    0.1006492 -87.54 -3.217335e-05    1.021    0.020
        29 -10.2518    216.8383    225.7075   7.8701595770e+01  -4.7023394977e+00     0.223096    0.1975694  -7.43 0.0004005765    1.148    0.129
        30  -8.6715    149.6492    146.8345   7.7574911584e+01   2.2234583627e+01    0.4007624    0.2566641 -76.39   0.00110872    2.559    0.609
        31  -9.2823      8.3626    153.9817   1.1715879180e+02   4.1621959005e+01    0.3826594    0.2622534 -28.05  0.002170406    2.013    0.503
        32  -9.6412    182.6986    143.1736   6.9381069814e+01   1.6246014860e+01     0.248146    0.2464123 -89.16 0.0003103485    1.056    0.053
        33 -10.6112    112.0062    135.4228   8.4688812764e+01   3.2419678493e+01    0.4943764    0.4527952 -10.83  0.001692727    1.241    0.194
        34 -11.0020    105.3547    131.8345   8.5735081361e+01   3.4542628555e+01    0.7574484     0.416142  62.36  0.002669141    2.822    0.646
        35  -9.5535    126.5056    140.3937   8.1917654169e+01   2.8402621544e+01    0.3720027     0.322177   0.61   0.00184306    1.391    0.281
        36  -9.1283    120.3270    139.9463   8.3447099347e+01   2.9727007712e+01     0.483362    0.3069634  70.61  0.001686012    2.390    0.582
        37  -7.7107    188.1339    139.8481   6.7528042448e+01   1.5818967637e+01    0.1953246         0.17  -9.40 0.0002571408    1.281    0.220
        38 -10.0920    101.2653    134.2763   8.7440997478e+01   3.4700414703e+01    0.3180844     0.285323 -67.43 0.0003478116    1.094    0.086
        39  -9.7137     88.8391    132.8299   9.0722570587e+01   3.7236474215e+01    0.3610217     0.217199 -41.94 0.0009364227    1.794    0.443
        40  -9.6619     24.4627    132.2976   1.1015262911e+02   4.5671005714e+01    0.3250224     0.231922 -70.25  0.001199829    1.193    0.162
        41  -7.8245    178.1682    225.7391   8.6218267356e+01   1.0694743485e+00    0.1737782     0.139089  -2.63  0.001030105    1.286    0.223
        42  -9.5969    117.8296    127.6040   8.1282296490e+01   3.3150042240e+01    0.2822704    0.2720211 -11.26 0.0006312265    1.115    0.103
        43  -9.3340     90.2376    123.7131   8.8289126872e+01   3.9241766675e+01    0.2600992    0.1930457  41.27 0.0007771956    1.391    0.281
        44  -8.9669    114.1589    128.3783   8.2474081267e+01   3.3690546689e+01    0.2940216    0.2070894  69.90 0.0005650679    1.850    0.460
        45  -7.9040    111.5519    122.7270   8.1852909562e+01   3.5539878126e+01    0.2096668    0.1483611 -63.13 0.0006812962    1.523    0.343
        46  -8.6413    105.7834    122.9212   8.3537889577e+01   3.6606513244e+01    0.2485431    0.2141851  14.47  0.000550253    1.341    0.254
        47  -8.7422    166.8720    220.9063   8.7767324785e+01   3.7193283104e+00    0.3335637      0.19482 -64.99  0.001463343    2.838    0.648
        48 -10.5220     14.5250    114.5341   1.1075061357e+02   5.0861177144e+01    0.5791894     0.165879 -59.66    0.0023148    2.523    0.604
        49  -8.1923    131.7236    115.3716   7.4557825316e+01   3.3092810423e+01    0.2073484    0.1481982  37.03 0.0006560801    1.493    0.330
        50  -8.2900    245.3257    240.6537   7.6126867426e+01  -1.0512386815e+01     0.093893   0.09323592  -4.83 0.0007050104    1.746    0.427
        51  -7.4208    213.9618    213.9895   7.7224235364e+01  -2.4565033315e+00    0.1496765    0.1272999  -6.45 0.0003178864    1.030    0.029
        52 -10.1655    153.7197    210.6727   8.8910356522e+01   7.8202109716e+00    0.2597529    0.2391262 -53.21 0.0004061138    1.200    0.166
        53  -9.4804    153.2190    238.1189   9.3227473990e+01   2.8296591201e+00    0.4836836    0.1694399  37.39  0.001569221    2.460    0.593
        54  -9.0302    176.2908    196.3465   8.1558565695e+01   6.7300666691e+00    0.2408769    0.2245837   5.59  0.000258508    1.007    0.007
        55  -9.0790    192.9186    194.4131   7.7770206348e+01   4.2474368813e+00    0.3864302    0.1908686 -51.97   0.00145423    2.453    0.592
        56  -7.3711    112.2861    117.3100   8.0314703497e+01   3.6665474310e+01    0.1530464    0.1229243 -13.81  0.000247098    1.574    0.365
        57  -8.7520    196.7527    231.7389   8.3501371581e+01  -2.7406991292e+00    0.2374155    0.2113153 -68.32  0.001217418    1.656    0.396
        58  -9.4757     36.0626    103.7081   1.0159958483e+02   5.1640336154e+01    0.2930275    0.1700035  11.90  0.001262825    2.199    0.545
        59  -7.9881     24.0852    103.5193   1.0574442706e+02   5.2790322824e+01     0.177296    0.1314147  20.53 0.0008305909    1.561    0.359
        60  -8.2684    161.9566    193.7714   8.4180963629e+01   9.7543708524e+00    0.2848186    0.1802691 -48.59   0.00136074    1.653    0.395
        61  -8.7702    155.5194    229.4669   9.1480288967e+01   3.9987762440e+00    0.2180896    0.1182099 -36.84  0.001027459    2.222    0.550
        62  -8.0735     14.3364    188.2348   1.1858063134e+02   3.2890208955e+01     0.108286   0.09073806 -45.94 0.0002653331    1.540    0.351
        63  -8.8624    188.1111     96.4164   5.7277580762e+01   2.4337589422e+01    0.3674447    0.2045788 -36.69 0.0007650038    1.818    0.450
        64 -10.2688     92.0911     92.1117   7.9647767234e+01   4.6267454759e+01    0.2652979    0.2416942  21.05 0.0003142564    1.137    0.120
        65  -7.4954     12.9518     90.7616   1.0742274019e+02   5.6652037765e+01    0.1455436    0.1073159   9.69 0.0008661197    1.589    0.371
        66  -7.5048    205.3049    187.3132   7.3983414387e+01   3.4594653271e+00    0.1388083   0.09961543  -5.28 0.0002023264    1.618    0.382
        67  -7.3739    140.3218     70.2856   5.9968129878e+01   4.0230388980e+01    0.1468419    0.1154525  22.41 0.0002779734    1.597    0.374
        68 -10.7884    164.5098     62.2816   5.2712585572e+01   3.5811541040e+01    0.4764901    0.4153342  67.44  0.001403336    1.106    0.096
        69  -7.7495    143.9958     59.9612   5.6112809392e+01   4.1095693866e+01    0.2310773    0.1701233 -77.75 0.0007124607    1.664    0.399
        70  -9.1505    248.1399    249.2424   7.7024007887e+01  -1.1934526754e+01    0.1978983    0.1460611  35.27  0.001389928    1.692    0.409
        71 -10.3354    183.6403     41.1388   4.3997538497e+01   3.4362112996e+01    0.3578369    0.3351964  14.33 0.0008974945    1.381    0.276
        72  -8.1918    154.8922     41.8360   4.8684933123e+01   4.1168609577e+01    0.1934123    0.1767586  53.56 0.0003334257    1.143    0.125
        73  -8.4537    123.1173     35.0457   5.2865542720e+01   4.9641408788e+01     0.195623    0.1795721  53.24 0.0002624153    1.019    0.018
        74  -8.3808    228.3430     30.3389   3.6426596040e+01   2.5703746298e+01     0.184179    0.1664621  89.37  0.001268524    1.239    0.193
        75  -8.1430    197.6973    249.0580   8.6024244791e+01  -5.4932437753e+00    0.1578995     0.130874   7.21 0.0003978052    1.046    0.044
        76  -7.4973    240.5442     25.4892   3.4386128626e+01   2.3783612101e+01    0.1200384   0.09622565 -69.09  9.01453e-05    1.050    0.047
        77  -8.7272    190.4622     15.4986   3.6770315790e+01   3.5909888608e+01    0.2311009    0.1413898  88.88 0.0006824466    1.527    0.345
        78  -7.4720    115.6584     12.6993   4.6891715212e+01   5.3876099435e+01    0.1368311    0.0847017  38.07 0.0007037096    1.672    0.402
        79  -8.8173     22.6733    182.5548   1.1616967591e+02   3.3434686155e+01     0.233829    0.1890106  86.57 0.0006546775    1.020    0.020
