#   1 NUMBER                 Running object number                                     
#   2 MAG_AUTO               Kron-like elliptical aperture magnitude                    [mag]
#   3 X_IMAGE                Object position along x                                    [pixel]
#   4 Y_IMAGE                Object position along y                                    [pixel]
#   5 X_WORLD                Barycenter position along world x axis                     [deg]
#   6 Y_WORLD                Barycenter position along world y axis                     [deg]
#   7 A_WORLD                Profile RMS along major axis (world units)                 [deg]
#   8 B_WORLD                Profile RMS along minor axis (world units)                 [deg]
#   9 THETA_WORLD            Position angle (CCW/world-x)                               [deg]
#  10 FWHM_WORLD             FWHM assuming a gaussian core                              [deg]
#  11 ELONGATION             A_IMAGE/B_IMAGE                                           
#  12 ELLIPTICITY            1 - B_IMAGE/A_IMAGE                                       
         1  -7.9805    164.0652     10.7441   3.5173069200e+01   4.2555469738e+01     0.195005    0.1726665 -48.06 0.0005493723    1.246    0.197
         2  -9.1642    187.6987    239.4399   8.3516626313e+01  -2.7337635032e+00    0.2995287    0.2646073  67.49  0.001214482    1.788    0.441
         3  -8.9544    246.4954    226.4652   7.0195871857e+01  -8.4040383815e+00    0.1954425    0.1460045 -53.25  0.001171329    2.254    0.556
         4 -11.3781    247.7084    247.3610   7.3503505700e+01  -1.1433007574e+01    0.8592918    0.5497231 -26.18  0.005743318    1.348    0.258
         5 -10.9080    222.2522    248.7111   7.8291932892e+01  -8.6776605332e+00    0.7895436      0.43419   7.66  0.004277288    1.930    0.482
         6  -9.0872    175.6439    233.5255   8.5053371114e+01  -3.9087732873e-03     0.314431    0.2105692  28.63 0.0004891778    1.342    0.255
         7  -8.8779    177.0638    229.0487   8.4023645156e+01   5.6665174529e-01    0.2070929     0.179353   4.08  0.001281273    1.022    0.021
         8 -10.2582    208.2685    233.8575   7.8501741679e+01  -4.6758415821e+00    0.2360644    0.1941525 -12.03 0.0003364793    1.103    0.093
         9 -10.1351    249.3124    230.7361   7.0445583362e+01  -9.3419504911e+00    0.4875914    0.2570601  -2.63  0.002509713    2.300    0.565
        10  -9.2943    237.9922    226.2773   7.1655756216e+01  -7.3523804752e+00    0.1761279    0.1357272  -2.94  0.001170681    1.059    0.056
        11  -7.3445     98.2148    225.9565   1.0117697914e+02   1.3225984629e+01    0.1685168    0.1100439 -63.69 0.0003956991    1.671    0.402
        12  -6.8921    188.2836    225.2871   8.1052250427e+01  -4.4236663180e-01    0.1321341   0.09148727  -4.45 0.0002294581    1.526    0.345
        13  -8.2717    177.9063    224.4444   8.3077204088e+01   1.2565654066e+00    0.2096166     0.175543 -27.99 9.700836e-05    1.204    0.170
        14  -7.1690    205.4982    222.3743   7.7072751647e+01  -2.4381404165e+00    0.1294498    0.1071133   2.10 9.957125e-05    1.035    0.033
        15  -9.3116      8.3393    220.3282   1.2055304165e+02   2.5375259977e+01    0.1955186    0.1030192 -77.36  0.001096256    1.681    0.405
        16 -10.1068    144.9002    217.8412   8.9238905900e+01   7.6797744692e+00    0.2659497    0.2385627 -40.72 0.0004840674    1.194    0.163
        17  -8.6959      2.9942    217.9867   1.2151460328e+02   2.6368411099e+01     0.213998    0.1038555  63.72  0.001150756    1.817    0.450
        18 -10.8839     15.1518    213.1751   1.1867753616e+02   2.6335965423e+01    0.3940576    0.2667907  89.15  0.002427587    1.266    0.210
        19  -8.5739     96.7724    212.4858   9.9741653526e+01   1.6391989362e+01    0.2417765    0.2134919 -46.61 0.0004403296    1.243    0.195
        20  -9.9453    240.1696    211.1084   6.8581048654e+01  -5.3178934025e+00     0.356365    0.1617071  20.19  0.001587401    2.869    0.651
        21  -7.9876    136.3252    208.3282   8.9664432449e+01   1.1039217454e+01     0.147579    0.1088747  -9.69 0.0002843592    1.699    0.411
        22  -8.6617    119.5984    207.1992   9.3465928038e+01   1.4012206859e+01    0.2015393    0.1291744 -42.65 0.0009454121    1.706    0.414
        23  -8.7011    167.9712    203.9866   8.1648403667e+01   6.6919174239e+00    0.2107964    0.1853238  -2.44  0.000331812    1.067    0.063
        24  -9.5868    153.4282    201.2340   8.4445326246e+01   9.6824394613e+00    0.3852624    0.2155297 -54.68  0.001418346    2.037    0.509
        25  -8.8757     45.8075    201.5994   1.1073291898e+02   2.5809831643e+01    0.1975083    0.1060536  44.13 0.0009586851    1.740    0.425
        26  -9.4100    139.1569    199.7470   8.7530843218e+01   1.2411627803e+01    0.2343379    0.1943039  -4.71  0.001230116    1.326    0.246
        27  -9.6077     22.0760    198.6966   1.1606900271e+02   2.9031279014e+01    0.3648871    0.1509456 -78.08  0.001638407    2.216    0.549
        28  -9.6136     28.8147    198.4046   1.1447099893e+02   2.8431085350e+01    0.2669867    0.2195023  67.09 0.0004081534    1.093    0.085
        29  -8.4825     40.2396    195.9905   1.1151114987e+02   2.7793761814e+01    0.1800455    0.1022893 -73.78 0.0008878947    1.631    0.387
        30 -10.1721    135.3725    190.0076   8.6703669230e+01   1.5214907800e+01    0.2882453    0.2646087  38.16  0.001580908    1.082    0.076
        31 -10.0240    119.0603    186.1266   9.0072542264e+01   1.8916956917e+01    0.3902351     0.186049  29.58  0.001474819    2.291    0.564
        32  -7.2682     76.4529    189.4354   1.0159742292e+02   2.4818182656e+01    0.1400112    0.1337033  82.28 0.0002390087    1.035    0.033
        33 -12.9173    154.2160    169.2861   7.8061831618e+01   1.6476809771e+01     1.306141    0.9433115  17.16  0.006023718    1.613    0.380
        34 -10.2755    131.2988    184.4789   8.6690937847e+01   1.7184704002e+01    0.3516509    0.2638796  10.75  0.001664365    1.579    0.367
        35 -12.5667    142.5125    179.5178   8.2969800832e+01   1.6323493412e+01     1.572136     1.168263  85.36  0.006980838    2.058    0.514
        36  -8.9857    108.4784    178.1467   9.1383374603e+01   2.2619771945e+01     0.302592    0.1651153  54.24  0.001167007    2.263    0.558
        37  -8.9037    127.8589    172.3734   8.5243761939e+01   2.0627755847e+01    0.2543023    0.1791171 -45.66 0.0005863371    1.419    0.295
        38  -8.7070     95.3030    189.0662   9.6664998649e+01   2.2098207596e+01    0.2022158    0.1855267 -71.89 0.0005373916    1.093    0.085
        39  -7.8376    100.6858    185.3197   9.4662745085e+01   2.2155096340e+01    0.1538352    0.1119303  69.42 0.0002203882    1.653    0.395
        40 -11.7757    176.8584    141.3971   6.6705089979e+01   1.8160479060e+01    0.7521423    0.5918435  53.28  0.003735848    1.419    0.295
        41 -11.1703    180.4608    148.2705   6.7494443074e+01   1.6000382796e+01    0.5800965    0.4976555  73.36  0.002431969    1.459    0.314
        42  -8.2364    118.9486    147.3278   8.2374561996e+01   2.8324418192e+01     0.270806     0.214853 -42.55 0.0002622444    1.247    0.198
        43 -10.0595    158.3805    151.8364   7.3284385359e+01   1.9579677044e+01    0.2564093     0.244114  -4.91   0.00094929    1.043    0.041
        44 -10.2969    159.7801    146.8849   7.1829797104e+01   2.0403331545e+01    0.3863896    0.2292648  43.22  0.001625666    1.750    0.429
        45  -8.9482     31.6099    183.1012   1.1234977670e+02   3.1877859588e+01    0.2119811    0.1986101 -50.46 0.0002355432    1.247    0.198
        46 -10.1791    163.2254    137.4680   6.8833943189e+01   2.1777105743e+01     0.466998    0.2467727 -29.96  0.001690972    2.436    0.589
        47  -7.4684     82.0397    137.2522   9.0939304252e+01   3.7290905858e+01    0.1894273    0.1334124  30.88 0.0005102905    1.505    0.336
        48  -8.1507    156.3024    139.3342   7.0898782877e+01   2.2787195476e+01    0.1604431    0.1224625  -9.35 0.0007036314    1.659    0.397
        49  -7.2407     83.4660    128.5280   8.8587690314e+01   3.9281206455e+01     0.155471    0.1432965 -35.32 0.0002171303    1.067    0.063
        50 -11.6614    175.3111    151.3214   6.9298074376e+01   1.6361929562e+01    0.7105463    0.5426505 -42.20 0.0002850263    1.242    0.195
        51  -7.0546    124.9777    121.9892   7.4669177025e+01   3.3198648695e+01     0.185997    0.1781607  32.00 0.0009567337    1.065    0.061
        52  -8.1977    179.4877    119.5224   6.0967321129e+01   2.2149843520e+01    0.1509301    0.1421697 -37.72 8.466647e-05    1.024    0.024
        53  -8.7537     68.0024    114.9700   9.0503239616e+01   4.5046741396e+01    0.2210311    0.2090429 -50.96            0    1.047    0.045
        54  -9.9294    181.9741    104.7085   5.6833576930e+01   2.4537541751e+01    0.3879456     0.296502 -26.89  0.001031827    1.432    0.302
        55  -9.1095    102.9026    105.1640   7.6631663987e+01   4.1471450664e+01    0.4044015     0.252933  18.79  0.001385917    2.198    0.545
        56  -9.8829     86.5137     97.3178   7.9683309510e+01   4.6283537084e+01    0.2736754    0.2576241   8.69 0.0002378403    1.061    0.058
        57  -7.6401    194.9895     70.6505   4.6153821790e+01   2.7661952489e+01     0.229038    0.1124803  84.95 0.0004681521    4.547    0.780
        58  -8.3757    198.3913     62.7783   4.3750399381e+01   2.8133892211e+01     0.182547     0.127539 -28.22 0.0005097631    1.649    0.394
        59 -10.1129    211.4667     54.0277   3.9997216088e+01   2.6569513425e+01    0.3778788    0.2583828  18.21  0.001743486    3.036    0.671
        60  -7.8673    119.7724     53.6557   5.6062688059e+01   4.7777067307e+01    0.1969928    0.1287284  61.28 0.0004244421    1.599    0.375
        61  -8.1018    151.0181     49.0553   4.7838036559e+01   4.1143696343e+01    0.1996574    0.1923266  66.47            0    1.062    0.059
        62  -8.6872    121.8628     48.6686   5.3924823701e+01   4.8037224043e+01     0.360553    0.1934029  20.34  0.001180374    4.164    0.760
        63  -9.0095    119.9510     41.4911   5.2022438162e+01   4.9469897714e+01    0.2422028    0.2090983 -25.28 0.0004380917    1.258    0.205
        64  -8.9511    224.5757     40.1327   3.5515460652e+01   2.5712611864e+01    0.2039935    0.1842251  84.03 0.0004542484    1.229    0.187
        65  -9.4586    237.5556     34.8476   3.3235528331e+01   2.3778267345e+01    0.2373955    0.2061015 -34.79  0.001200931    1.430    0.301
        66  -7.4533    186.7878     24.0564   3.5869732420e+01   3.5922644226e+01    0.1532334   0.09689754 -37.87 0.0003428297    1.628    0.386
        67  -9.4306    247.3748     18.1184   2.9251182613e+01   2.3910334873e+01     0.226872    0.1834691  16.88  0.001491323    2.374    0.579
