#   1 NUMBER                 Running object number                                     
#   2 MAG_AUTO               Kron-like elliptical aperture magnitude                    [mag]
#   3 X_IMAGE                Object position along x                                    [pixel]
#   4 Y_IMAGE                Object position along y                                    [pixel]
#   5 X_WORLD                Barycenter position along world x axis                     [deg]
#   6 Y_WORLD                Barycenter position along world y axis                     [deg]
#   7 A_WORLD                Profile RMS along major axis (world units)                 [deg]
#   8 B_WORLD                Profile RMS along minor axis (world units)                 [deg]
#   9 THETA_WORLD            Position angle (CCW/world-x)                               [deg]
#  10 FWHM_WORLD             FWHM assuming a gaussian core                              [deg]
#  11 ELONGATION             A_IMAGE/B_IMAGE                                           
#  12 ELLIPTICITY            1 - B_IMAGE/A_IMAGE                                       
         1 -14.7289     67.9900    144.1177   1.1180118264e+02   3.7819962366e+01     5.222775     2.178911  59.80  0.008342271    3.326    0.699
         2 -14.6175    197.0159     33.6003   5.3561851393e+01   3.0853964377e+01     2.388753     1.555351  22.77  0.008511126    1.965    0.491
         3 -14.5972    208.3370     20.4020   4.8397862067e+01   2.9462570276e+01     1.841143     1.203098  13.59  0.008733993    1.970    0.492
         4  -9.6298     62.5006      8.4855   7.2644047011e+01   6.7689458658e+01     0.136084    0.1229263  -5.11 0.0008103854    1.025    0.025
         5 -11.4313     30.8819      2.6024   8.4988740915e+01   7.4029410827e+01     0.310333    0.1541551  34.71  0.001539525    2.196    0.545
         6 -11.1689    182.6788    234.3022   9.9849884082e+01   6.1059268040e+00    0.2660652    0.1364954  45.23  0.001627619    1.848    0.459
         7 -16.2888     84.8625    245.7220   1.1793197378e+02   1.7588285932e+01     8.606154     1.895069  34.66   0.02907923    3.916    0.745
         8 -15.1729     56.5480    197.9285   1.1985259396e+02   2.8546575876e+01     2.359852     1.588087  71.87   0.01609732    1.364    0.267
         9 -12.2657    194.1228    195.6809   9.2452855170e+01   8.8739081284e+00     0.882616    0.4918517 -52.32  0.004421455    3.352    0.702
        10  -9.2734    107.9849    203.5438   1.0989171127e+02   2.0888270776e+01    0.1749651   0.09461416  38.91  0.000288939    1.498    0.332
        11  -9.3118     95.9415    200.9943   1.1204744819e+02   2.2990443794e+01    0.1790216     0.113576  60.15 0.0004087412    1.547    0.354
        12 -11.1152    203.7108    199.1399   9.1346721537e+01   7.0005584074e+00    0.3540361    0.1360587  38.86  0.001303182    2.150    0.535
        13  -9.1532    153.4619    195.4437   9.9897478978e+01   1.5286249062e+01    0.1216137   0.09868722  33.71 0.0001461369    1.004    0.004
        14  -9.1188    179.9744    192.4711   9.4475781579e+01   1.1498613860e+01    0.1567882    0.0950174  56.38 0.0006464029    2.342    0.573
        15 -17.2221      4.7333    237.4861   1.3132881024e+02   2.7156085439e+01     10.08949     1.467191 -80.42   0.02363133    6.509    0.846
        16 -10.8467    206.0893    180.8231   8.7911762089e+01   8.8070584791e+00    0.3413834    0.2392021  42.27  0.001944026    1.435    0.303
        17 -10.2081    209.9816    178.3913   8.6820938230e+01   8.4800613990e+00    0.2982797    0.1996248  34.81  0.001505516    1.304    0.233
        18 -12.1654     70.9966    180.2377   1.1523493165e+02   3.0050231402e+01     0.357675    0.2604117 -33.69  0.002137305    2.142    0.533
        19 -11.9946     75.3103    174.7189   1.1369523396e+02   3.0545192690e+01    0.2741295    0.2490542 -22.91 0.0006262318    1.508    0.337
        20  -9.8247     99.5691    180.5915   1.0897750730e+02   2.6035283972e+01    0.2077349    0.1771876  50.85 0.0005282695    1.018    0.018
        21  -9.7503    164.3277    205.9466   9.9336207151e+01   1.2149762023e+01    0.1502288     0.131331  17.05 0.0003344219    1.145    0.127
        22  -9.6918    166.8327    174.3455   9.4002080769e+01   1.6208285183e+01    0.2952176    0.2034734 -75.55   0.00140247    3.093    0.677
        23 -15.2023      9.7975    206.6788   1.2957688791e+02   3.1744979702e+01    0.8908259    0.6764526  28.87  0.003688545    1.576    0.366
        24 -10.5385    141.0343    175.5253   9.9397367457e+01   2.0379211526e+01    0.2013341    0.1096963  40.66 0.0004570018    1.576    0.365
        25 -12.5367     90.1261    157.7296   1.0813439136e+02   3.1817892413e+01      1.13317    0.6901889 -78.04  0.001507111    1.995    0.499
        26 -12.7371     83.8953    164.6384   1.1053343658e+02   3.1342569205e+01    0.8074129    0.3716087  50.39 0.0005652292    2.039    0.510
        27 -13.7302     71.9823    160.5431   1.1286718100e+02   3.3816819705e+01    0.5778478    0.5078842 -17.00  0.001647867    1.581    0.367
        28 -10.1181    174.0187    248.4627   1.0295510883e+02   5.7727832890e+00    0.1574975    0.1402829  48.80  0.001354489    1.503    0.335
        29 -10.9059    195.3311    169.0515   8.7710753310e+01   1.2093573591e+01    0.3077781    0.2654885  33.68 0.0008946908    1.192    0.161
        30 -10.1822    145.9339    168.3286   9.7211120245e+01   2.0740964652e+01    0.1880788    0.1503787  36.18 0.0004531135    1.095    0.087
        31 -10.8660     47.4664    173.0123   1.1987077237e+02   3.4306266615e+01    0.3175322    0.1761712 -56.04 0.0009490374    2.147    0.534
        32 -10.3680    190.6637    160.9435   8.7052103044e+01   1.4017915918e+01     0.249576    0.2035319 -63.94  0.001451141    1.899    0.473
        33 -10.8386    189.8380    154.4995   8.5960618391e+01   1.5084236389e+01    0.4446067    0.3311594  40.22  0.002599159    1.268    0.212
        34 -10.1602     53.5206    172.1084   1.1840992789e+02   3.3791199615e+01    0.3891062    0.1618153 -64.99  0.001958359    2.438    0.590
        35 -11.0752    133.8049    144.2399   9.5558917997e+01   2.7154504972e+01    0.9588876    0.2403158 -52.19  0.002732311    5.463    0.817
        36 -10.6895    174.3439    148.2984   8.7702037645e+01   1.8874043694e+01    0.3273865    0.2841923 -30.52  0.001344146    1.236    0.191
        37 -10.9301     41.7810    147.7390   1.1899195703e+02   4.0205104173e+01    0.2489112    0.1618372  63.11 0.0009123801    1.387    0.279
        38 -10.7941     87.5461    146.3204   1.0710692889e+02   3.4554161592e+01    0.3409899    0.2270948  70.64   0.00136083    1.717    0.418
        39 -12.3595     91.1351    142.2185   1.0555576117e+02   3.4866023578e+01    0.2471024    0.2430753  16.35 0.0004609567    1.184    0.155
        40  -9.9058    144.6443    146.3183   9.3524467501e+01   2.4773336655e+01    0.1384864    0.1061304  74.28 0.0007045692    1.751    0.429
        41 -10.4867    137.3221    170.8514   9.9436469670e+01   2.1781530469e+01     0.230779    0.1595909  47.26 0.0009979416    1.318    0.241
        42 -10.9313    103.6872    141.7218   1.0230769222e+02   3.2943838243e+01    0.5257867     0.343186 -25.72  0.002396424    2.512    0.602
        43 -10.5062    141.1603    140.3750   9.3130511569e+01   2.6503614560e+01    0.2044643    0.1208486  51.53 0.0009458127    1.732    0.423
        44 -10.3609    112.4718    131.5128   9.8215747333e+01   3.3530589846e+01    0.2926075    0.2394561  16.30  0.000735974    1.467    0.318
        45 -10.2058    105.9651    130.7199   9.9719005412e+01   3.4842879508e+01    0.2887193     0.266911  86.34  0.001149275    1.087    0.080
        46 -12.8124     44.2066    128.1175   1.1620802945e+02   4.4323577692e+01    0.6881927    0.3602934  59.23  0.002928487    1.974    0.494
        47 -10.9628    160.1777    128.7721   8.6486650946e+01   2.4870669655e+01    0.4107729    0.2652585 -23.63  0.001928566    1.860    0.462
        48 -11.5411    135.4170    121.7154   9.0492221898e+01   3.1149220490e+01    0.5544463    0.1841173 -49.61  0.001826941    3.442    0.709
        49 -11.4317    118.9806    125.6824   9.5389781840e+01   3.3536460638e+01    0.8452416    0.4017404 -36.09  0.003188147    2.921    0.658
        50 -11.1761     99.6249    128.2124   1.0088982570e+02   3.6464745426e+01    0.3113897    0.2442449 -36.79 0.0009451721    1.501    0.334
        51 -10.2971    125.8372    127.2925   9.4030885062e+01   3.1918762097e+01    0.2792992    0.2149978 -84.25 0.0007184807    1.702    0.412
        52 -12.9748     44.0625    114.6922   1.1449124630e+02   4.7457928031e+01     0.600778    0.3809766 -85.14  0.003217862    1.536    0.349
        53  -9.9316    108.4826    120.0459   9.6899583952e+01   3.6647582744e+01    0.2009899    0.1802466  49.02 0.0003168175    1.079    0.073
        54 -10.5670     23.8383    116.8444   1.2087645834e+02   4.8953057861e+01    0.1818552    0.1520194 -69.38 0.0004911123    1.202    0.168
        55 -10.3827    167.9627    112.7252   8.1086157891e+01   2.6028124517e+01    0.3783341    0.2909386 -74.60  0.001527147    1.901    0.474
        56  -8.7962    108.0372    114.0063   9.5698971567e+01   3.8014978875e+01    0.1631784    0.1581168  80.97   0.00094003    1.014    0.013
        57 -11.4816    118.7075    110.2249   9.1993441794e+01   3.6772228191e+01    0.6195771    0.4235341  56.24  0.002948717    1.564    0.361
        58  -9.8183     71.4977    230.1835   1.1924951267e+02   2.1438560074e+01    0.2246589    0.1148636  48.30 0.0006482255    1.440    0.306
        59 -10.1832    205.5004    110.1749   7.3410438638e+01   1.8496533164e+01    0.2962297    0.1890156  39.57  0.001020125    1.564    0.361
        60 -10.9727     25.3842    120.8190   1.2082175355e+02   4.7892955471e+01    0.2768541    0.1518213  42.91  0.001318532    1.745    0.427
        61 -10.6949    134.2581    104.0753   8.6523405955e+01   3.4836397573e+01    0.5403413    0.2357153 -41.97   0.00204191    2.343    0.573
        62  -9.6785     95.0021    105.1041   9.7312098443e+01   4.2321502657e+01    0.2056816    0.1925173  77.23 -0.001320134    1.050    0.047
        63 -11.5709    241.3931    100.4741   6.5652426634e+01   1.2657507187e+01    0.4165884    0.2469679 -54.33  0.001927838    2.626    0.619
        64 -11.0031     35.1298    100.9188   1.1534182919e+02   5.1675099062e+01    0.2052731    0.1576006  72.18 0.0006171426    1.264    0.209
        65  -9.4607     87.2621     99.9822   9.8410471637e+01   4.4817181920e+01    0.3318828    0.1738707  56.29  0.001328184    2.386    0.581
        66  -9.5991    121.5088     98.5328   8.8328376635e+01   3.8618692749e+01    0.1465083    0.1438514  74.64  7.56712e-05    1.021    0.020
        67  -9.6353     59.3277     97.0173   1.0662040391e+02   4.9780831407e+01    0.2805909    0.1577584  53.16   0.00111035    1.978    0.494
        68 -11.2919     54.3042     94.6266   1.0781934441e+02   5.1007681083e+01    0.4515617    0.2501306  49.75  0.002072478    1.944    0.486
        69 -10.0278    156.9832     79.9914   7.4569251807e+01   3.4168202697e+01    0.2323288    0.2236807 -19.38 0.0005051048    1.023    0.022
        70  -9.8968     60.9404     68.4263   9.9115923671e+01   5.6280913702e+01     0.262376    0.1918078 -76.51 0.0009017162    1.552    0.356
        71  -9.0963     66.0247     65.0000   9.6163765710e+01   5.6285345185e+01    0.2237673   0.08174812  37.25 0.0008041845    2.955    0.662
        72 -11.1630     13.4881     59.9054   1.1683008883e+02   6.3383093687e+01    0.2602131    0.1960429 -79.47 0.0004134395    1.169    0.145
        73 -11.5385    154.0786     56.9209   6.7934869203e+01   3.8690174256e+01    0.4663151    0.3178121 -77.77  0.001113868    2.143    0.533
        74 -10.4026    164.0355    215.5136   1.0067988499e+02   1.0952916473e+01    0.2162832    0.1704504 -38.03  0.001359295    1.604    0.376
        75 -12.8800    187.7753     40.2305   5.6803982668e+01   3.2399561989e+01    0.8353921    0.6023576  34.77  0.001915921    1.555    0.357
        76 -13.6590     35.6323    209.6679   1.2476239328e+02   2.8769265065e+01     1.090062    0.3943175  51.44  0.003325166    2.042    0.510
        77 -14.1454     21.0304    193.2943   1.2685011712e+02   3.3124406209e+01     1.058221     0.784993  24.53  0.000569434    1.665    0.399
        78 -10.9133     23.4443     34.6738   1.0539478200e+02   6.8508369017e+01    0.1902243     0.170057  37.52  0.001244324    1.321    0.243
        79  -8.9318    146.0171     20.0323   5.6196450186e+01   4.5855744490e+01    0.1753921    0.1670973  63.59 -0.003769674    1.039    0.038
        80 -11.2234    156.5582     51.0019   6.5462541957e+01   3.8963630428e+01    0.3858096    0.3004412 -76.69  0.001167312    1.565    0.361
        81 -10.3496    189.5186     15.0232   4.8645384164e+01   3.4769381537e+01    0.2112333     0.196367  84.47  0.000748156    1.085    0.079
        82 -14.2264     46.7928    208.5625   1.2252875631e+02   2.7776889274e+01     1.262789    0.6964486 -45.48  0.007128461    3.230    0.690
