#   1 NUMBER                 Running object number                                     
#   2 MAG_AUTO               Kron-like elliptical aperture magnitude                    [mag]
#   3 X_IMAGE                Object position along x                                    [pixel]
#   4 Y_IMAGE                Object position along y                                    [pixel]
#   5 X_WORLD                Barycenter position along world x axis                     [deg]
#   6 Y_WORLD                Barycenter position along world y axis                     [deg]
#   7 A_WORLD                Profile RMS along major axis (world units)                 [deg]
#   8 B_WORLD                Profile RMS along minor axis (world units)                 [deg]
#   9 THETA_WORLD            Position angle (CCW/world-x)                               [deg]
#  10 FWHM_WORLD             FWHM assuming a gaussian core                              [deg]
#  11 ELONGATION             A_IMAGE/B_IMAGE                                           
#  12 ELLIPTICITY            1 - B_IMAGE/A_IMAGE                                       
         1 -16.1704    230.5988    116.2902   4.1629976389e+01   1.4471763560e+01     4.508513     2.450047 -47.01   0.02320583    2.175    0.540
         2 -16.7416    225.9432     57.0821   2.8936112296e+01   2.2958758367e+01      4.69798     1.735613 -25.78   0.01973522    2.649    0.623
         3 -17.0132    237.4058     72.7143   3.1328046670e+01   1.8940414083e+01     3.715158    0.6797101 -35.81     0.013203    3.679    0.728
         4 -16.7135    246.4764     51.6911   2.5822077152e+01   1.9811486239e+01     3.569207    0.7238463 -30.34   0.01208965    3.615    0.723
         5 -12.4798    138.4235     38.3823   3.5752759010e+01   4.5408632159e+01     2.765318     1.724524  66.34   0.01271433    1.595    0.373
         6 -12.6000    135.3276     13.5316   2.7291127085e+01   4.9223012731e+01     3.054176     1.887374  52.53    0.0146816    1.600    0.375
         7 -11.5754    123.3460      5.0582   2.5823140274e+01   5.3221559508e+01     2.437095    0.7367426  69.35  0.008449425    2.900    0.655
         8  -8.6331    199.9659     38.7592   2.7062122901e+01   3.0516672949e+01    0.1644557    0.1505932 -71.98  0.001046715    1.087    0.080
         9  -6.7311    189.6788    250.3212   7.1225421729e+01   2.7524273584e+00   0.09453362   0.07192615  34.43 0.0007044841    1.672    0.402
        10  -8.5344    244.4893    206.4933   5.6036914605e+01   1.5852153678e+00    0.1075521   0.07557834  -1.25 -3.376257e-05    1.003    0.003
        11  -9.9202    249.6222    185.1638   5.1844773833e+01   3.3429482471e+00    0.2791066    0.1909037 -18.39  0.002049696    1.197    0.165
        12 -11.1106    244.7909    191.5540   5.3606673330e+01   3.1812687827e+00    0.6459309    0.2994148 -38.66  0.003690613    2.498    0.600
        13  -9.2248    237.8826    195.8951   5.5354236219e+01   3.4833893758e+00    0.2576323    0.1319681 -32.67  0.001411767    1.873    0.466
        14  -8.6289      2.2945    191.1864   1.0709388680e+02   3.3183371211e+01    0.1940693    0.1456892  41.90 0.0003345842    1.114    0.102
        15 -10.0272    237.2850    187.6853   5.4096101107e+01   4.4945802462e+00    0.3552014    0.1698119 -39.30   0.00199783    2.421    0.587
        16  -9.2578    236.1966    182.4127   5.3374406381e+01   5.2441794134e+00    0.2074501    0.1513172 -26.65  0.001194845    1.380    0.275
        17 -10.0916    230.4973    186.8973   5.5016484487e+01   5.4065065319e+00    0.2884112    0.2312616 -39.65  0.002045471    1.814    0.449
        18  -8.7753    214.9838    179.4851   5.6273297693e+01   8.3152714877e+00    0.2114148    0.1554907 -65.43  0.001054291    3.779    0.735
        19  -7.7043    147.9776    247.7031   7.8605286039e+01   7.7373390547e+00    0.1585232    0.1094631  21.30 0.0004166611    1.056    0.053
        20  -6.9913    132.5053    239.4658   8.0763722756e+01   1.0665401143e+01    0.1167342   0.08683701  23.84  2.75751e-05    1.012    0.012
        21  -9.2519    193.6863    167.6456   5.7914254231e+01   1.2965994065e+01     0.308447     0.191469  14.58  0.001284477    1.691    0.409
        22  -7.2533    110.4185    168.1741   7.6529155431e+01   2.5917906478e+01     0.171901    0.1358752 -77.48 0.0004138413    1.627    0.386
        23  -8.9857    207.3248    165.8737   5.5143704039e+01   1.1214071602e+01    0.2428166     0.159443  24.89  0.001454779    1.434    0.303
        24 -15.0099    223.4934     78.2041   3.4144383617e+01   2.0760387332e+01      1.69874    0.5960209 -28.83  0.006986012    2.617    0.618
        25  -8.3391    133.5162    149.7446   6.7431523424e+01   2.5863832568e+01    0.2979035    0.2068415 -72.38   0.00108581    2.266    0.559
        26 -10.2725     10.0838    143.8489   1.0319876775e+02   4.3325341775e+01    0.6976066    0.2971092 -81.15  0.003168626    2.224    0.550
        27 -10.3878      4.2057    143.4049   1.0500130292e+02   4.3806734194e+01    0.6087673      0.42561  73.01  0.003596889    1.276    0.216
        28  -7.7440    177.9364    147.1501   5.6986580947e+01   1.8666487623e+01    0.1825024    0.1755319  -6.20 0.0004295065    1.209    0.173
        29  -9.0147    195.0553    175.6469   5.9105995811e+01   1.1602988839e+01    0.3518471    0.2819838 -79.76  0.001904489    2.905    0.656
        30  -7.7597    131.6283    141.2068   6.6210681346e+01   2.7894470131e+01    0.2032304    0.1307765 -35.48 0.0009484398    1.692    0.409
        31  -8.6384    205.4277    138.9658   5.0233282577e+01   1.5366049819e+01    0.2061994    0.1707348  25.83 0.0001335869    1.222    0.182
        32 -10.0428     36.9188    137.0943   9.4017018909e+01   4.2791292079e+01    0.4841731     0.322944  86.62  0.002486285    1.546    0.353
        33 -11.6532     50.0588    134.6028   8.9355028629e+01   4.2011936644e+01     1.230309    0.6421331  21.26  0.005369113    2.027    0.507
        34  -9.7246     39.5732    131.8319   9.2544532767e+01   4.3847100441e+01    0.3710014    0.2633912   6.16   0.00137976    1.658    0.397
        35  -8.2084    202.6271    236.3000   6.7163645225e+01   2.8991504490e+00    0.1775592    0.1379107  26.30 0.0006519413    1.482    0.325
        36  -8.3116    160.7362    130.1062   5.6961750586e+01   2.4670460895e+01    0.3059826    0.2004587  29.82  0.001154273    1.572    0.364
        37 -10.1080     67.7376    125.7509   8.2071685081e+01   4.1959507773e+01    0.3874823    0.3312907  82.54 0.0004571699    1.236    0.191
        38  -8.5106     72.8291    123.1340   7.9890118431e+01   4.1871261731e+01    0.2389055    0.2069784  34.17 0.0002608731    1.119    0.107
        39  -7.2290     60.5433    229.5207   9.5283716580e+01   2.0518943759e+01    0.1178987   0.08951414  38.89 0.0002072286    1.014    0.014
        40 -10.1296    147.6742    108.5317   5.4826390210e+01   3.1242595517e+01    0.5047882     0.288474  28.39  0.002050672    2.219    0.549
        41 -10.2286    141.2346    108.6940   5.6405379410e+01   3.2539060339e+01    0.5072529    0.3134233  19.94   0.00106941    2.345    0.574
        42 -10.1636    134.8054    114.8309   5.9525196191e+01   3.2628376670e+01    0.6662198    0.2322136 -41.23  0.002229188    3.009    0.668
        43  -9.8853    139.2284    115.1976   5.8503995467e+01   3.1669056396e+01    0.3760442    0.2688645 -65.73  0.001593464    1.900    0.474
        44  -8.6386    152.8320    112.8456   5.4705592759e+01   2.9378177435e+01    0.3066891     0.169405 -20.59  0.001142494    2.777    0.640
        45 -10.1783    157.6568    105.1805   5.1730810893e+01   2.9797207166e+01    0.4355253    0.3179226  77.71  0.002004364    2.067    0.516
        46  -7.2249    179.3110    103.2836   4.6895936641e+01   2.5690993226e+01    0.1389214    0.1048053   9.26 0.0006985911    1.571    0.364
        47  -9.4095    174.6956    100.8448   4.7163595356e+01   2.7030952086e+01    0.3614601      0.27654  29.14  0.001665891    1.408    0.290
        48  -8.5867    150.3907    100.2220   5.2073194353e+01   3.2231741700e+01    0.2104434    0.1352701 -48.60 0.0009478119    1.659    0.397
        49  -8.2519    182.5966     98.7507   4.5180312179e+01   2.5764094038e+01    0.2379554    0.1976688  -6.85 0.0004088343    1.254    0.203
        50  -9.1743    158.1837     96.0728   4.9270868056e+01   3.1318656105e+01     0.368438    0.2365626 -36.24 0.0009679178    1.530    0.347
        51  -8.8468    173.5170     89.5996   4.4515774528e+01   2.9136053644e+01     0.251925    0.2374229  19.74 0.0006823573    1.085    0.078
        52  -7.9913    126.9569     89.5610   5.4925925742e+01   3.9364380537e+01    0.2625512    0.2037382 -66.02  0.001238458    1.562    0.360
        53  -8.0704    157.3596     86.2021   4.6788682495e+01   3.3231099759e+01    0.1997684     0.182433  24.87 0.0004463521    1.131    0.116
        54  -8.3006    183.7060     77.9453   3.9677332057e+01   2.8784918909e+01    0.3026144    0.1891265 -51.59  0.001440762    1.750    0.429
        55 -10.7134    138.7823     75.8983   4.7938539937e+01   3.9283346511e+01    0.5339504     0.392626 -23.49 0.0007830868    1.520    0.342
        56  -7.4433    113.5292     79.5237   5.5706468534e+01   4.4350827260e+01    0.1528071    0.1486871  22.50 0.0008093169    1.029    0.028
        57  -9.8822    193.5172     72.1191   3.6639158823e+01   2.7545787588e+01    0.2729442    0.2226945 -29.54 0.0005448115    1.142    0.124
        58 -10.5288    194.8067     66.8149   3.5079256844e+01   2.8019015609e+01    0.2608217    0.2348674 -63.22 0.0004111708    1.147    0.128
        59  -8.6075    104.0646     70.8557   5.5823742110e+01   4.8212980199e+01    0.2876383    0.2383052 -25.57  0.001419754    1.317    0.241
        60  -7.4885    187.7586     69.2642   3.6746682498e+01   2.9190629262e+01    0.1294603   0.09757084 -57.51            0    1.424    0.298
        61 -10.0734    137.7820     65.4227   4.4930734905e+01   4.1361282476e+01    0.5280896    0.2408504 -32.17  0.001969613    2.355    0.575
        62 -10.3616    135.5300     61.9997   4.4349507274e+01   4.2486787021e+01    0.4529021    0.3281713  -7.45  0.002051609    1.832    0.454
        63  -9.6768    126.5011     67.2551   4.8249651285e+01   4.3731717611e+01     0.309285    0.2542192 -80.30 0.0007801243    1.460    0.315
        64  -9.7540    187.8080     64.9461   3.5588645784e+01   2.9796226499e+01    0.2025126    0.1946699 -66.13  0.000339697    1.069    0.065
        65 -11.3496    142.0883     57.9412   4.1586244186e+01   4.1558935739e+01    0.6073883    0.4435456 -45.36  0.002970324    1.379    0.275
        66 -15.8896    248.4383     84.2257   3.2667761342e+01   1.5669420212e+01     1.510843    0.4199481 -29.11  0.006065159    3.091    0.676
        67  -8.1379    138.9341    226.3271   7.7943236098e+01   1.1773811296e+01    0.1769802    0.1472938  10.46 0.0005363818    1.121    0.108
        68  -7.4810    243.5352    225.5028   5.9038873018e+01  -2.7927695869e-01    0.1041374   0.07072682   1.30 0.0008096234    1.005    0.005
        69  -8.5001    194.8839     36.9171   2.7113434080e+01   3.1864325763e+01    0.1749587    0.1615176 -46.39            0    1.050    0.047
        70  -8.6916    202.4274     34.1312   2.5592272119e+01   3.0514368474e+01    0.1853921    0.1661288  53.45 0.0003688006    1.274    0.215
        71 -15.6577    248.0754     67.5376   2.9130583949e+01   1.7717587284e+01     1.267802    0.3770508 -36.67  0.005655484    2.484    0.597
        72  -6.6489    196.6490     45.5237   2.9226583396e+01   3.0427296311e+01    0.3751208    0.1815239 -15.74 0.0006317029    2.817    0.645
        73  -7.4661    199.5907     28.0438   2.4256613603e+01   3.1823983810e+01    0.2787668    0.1150609  70.68  0.001219894    2.533    0.605
        74  -7.4120    207.2179     27.9857   2.3550488333e+01   3.0156857763e+01    0.1430156    0.0927465 -31.87 0.0002201029    1.388    0.279
        75  -8.4415    204.8784     23.4346   2.2574270871e+01   3.1153728251e+01    0.1574239    0.1337199  82.54 0.0003543373    1.230    0.187
        76  -9.5016    247.5176    212.3761   5.6491646470e+01   6.4800482499e-01    0.2023405   0.08398046 -34.99  0.001187351    2.485    0.598
        77  -7.2987    204.7645     16.3490   2.0741971856e+01   3.1908278426e+01    0.1332025   0.07521375 -50.12 0.0003768213    1.565    0.361
