#   1 NUMBER                 Running object number                                     
#   2 MAG_AUTO               Kron-like elliptical aperture magnitude                    [mag]
#   3 X_IMAGE                Object position along x                                    [pixel]
#   4 Y_IMAGE                Object position along y                                    [pixel]
#   5 X_WORLD                Barycenter position along world x axis                     [deg]
#   6 Y_WORLD                Barycenter position along world y axis                     [deg]
#   7 A_WORLD                Profile RMS along major axis (world units)                 [deg]
#   8 B_WORLD                Profile RMS along minor axis (world units)                 [deg]
#   9 THETA_WORLD            Position angle (CCW/world-x)                               [deg]
#  10 FWHM_WORLD             FWHM assuming a gaussian core                              [deg]
#  11 ELONGATION             A_IMAGE/B_IMAGE                                           
#  12 ELLIPTICITY            1 - B_IMAGE/A_IMAGE                                       
         1  -9.1282     12.9180     29.9365   1.0750407554e+02   6.7411152065e+01    0.2976002    0.1465623 -50.36  0.001605277    2.494    0.599
         2  -8.0741     30.0420     16.0591   9.4538565801e+01   6.7436041608e+01    0.1416593    0.1368198 -15.25 0.0005514906    1.720    0.419
         3  -7.8910     83.4378     11.2326   7.4592634648e+01   5.9410857045e+01    0.1423081    0.1083709 -34.80 0.0006234166    1.611    0.379
         4  -8.5456     55.8306     10.1583   8.2383894649e+01   6.4370540611e+01    0.1565659    0.1410262  20.59 0.0006809667    1.275    0.216
         5  -8.0013     90.8284      9.0604   7.1979397836e+01   5.8168426030e+01    0.1715385    0.1278549 -59.86 0.0009599391    1.999    0.500
         6  -7.8412    101.2192      8.3822   6.9372991998e+01   5.6143313679e+01    0.1604039    0.1008462  65.76 0.0003827717    1.567    0.362
         7  -7.6746      5.6693      8.3259   1.0233373985e+02   7.0946306370e+01    0.0868737   0.07889177   8.36 0.0007050861    1.707    0.414
         8  -8.6335     33.2835      4.9827   8.8508165693e+01   6.8196892967e+01    0.2428165    0.1453494 -45.58  0.001381974    3.145    0.682
         9  -8.4594     79.1764      3.9798   7.3104462188e+01   6.0813746665e+01    0.1547115    0.1504885  63.74  0.001023956    1.334    0.250
        10  -7.4784     44.6832      3.3051   8.3449724109e+01   6.6727324277e+01   0.09059109    0.0872694  43.70 0.0004296268    1.627    0.385
        11  -7.9673     16.0000      3.0656   9.5097507069e+01   7.0506092392e+01    0.1521479   0.05124129 -32.77 0.0004453779    2.854    0.650
        12  -8.4126     62.2716      1.4941   7.6900894596e+01   6.4041712763e+01    0.1829202   0.09666231  52.90 0.0004516382    1.799    0.444
        13  -7.6698     39.2858      1.6267   8.4721961386e+01   6.7670320154e+01   0.09015244    0.0853806 -30.93 0.0007017895    1.713    0.416
        14  -9.0173    120.0101    245.4049   1.2171798572e+02   5.4795475340e+00    0.3467412    0.2196083  81.14   0.00129059    2.406    0.584
        15  -8.4062    249.0271    249.2579   9.6477156355e+01  -1.4502711451e+01     0.265422    0.1349755 -29.96  0.001477337    1.772    0.436
        16  -9.3802    211.0030    246.1324   1.0301693880e+02  -9.0078855866e+00     0.292372    0.1824852 -47.86  0.001011057    1.901    0.474
        17  -8.6179     93.9745    249.5741   1.2770602439e+02   8.7276362843e+00    0.2913466    0.1732926  73.67  0.001403469    2.118    0.528
        18  -9.1603     13.1642    247.3760   1.4320705088e+02   1.9815781149e+01    0.2310952   0.07170189  43.04  0.001106729    2.625    0.619
        19  -8.5301     67.7049    245.4483   1.3262836209e+02   1.3441382503e+01    0.2552617    0.1407242 -84.46 0.0009631669    2.035    0.509
        20  -8.0014    139.5900    244.8099   1.1747070642e+02   2.4105133627e+00    0.1770123    0.1291661 -73.34  0.000936734    1.750    0.429
        21  -9.6331    248.1599    242.4728   9.5468529486e+01  -1.3414075023e+01    0.2577826    0.2101088 -19.17 0.0008957466    1.150    0.131
        22  -8.7990    201.9832    242.7892   1.0422236200e+02  -7.1434704591e+00    0.3471637    0.1741878 -44.85  0.001213918    2.127    0.530
        23  -8.5680    169.1582    243.4867   1.1102963337e+02  -2.1577027353e+00    0.2295325    0.2027202  79.09 0.0006315463    1.474    0.322
        24  -9.3209     77.7368    242.9977   1.3031533393e+02   1.2523029948e+01    0.3402272     0.182592 -78.80  0.001623568    2.145    0.534
        25  -7.7106     34.4816    244.4783   1.3906818316e+02   1.7991178145e+01    0.1241468   0.09533361  74.52  0.000294054    1.024    0.023
        26 -10.0055    160.2941    240.5919   1.1243003916e+02  -1.8315257834e-01    0.4069754    0.2703499 -75.73  0.001353423    2.540    0.606
        27  -8.4809     88.1530    242.4126   1.2807744341e+02   1.1097641465e+01    0.2142414    0.1587081  80.82 0.0007841033    1.379    0.275
        28  -7.9096     49.5959    242.8015   1.3599419149e+02   1.6455287503e+01      0.17788    0.1033576 -88.91 0.0009468453    1.708    0.414
        29  -9.0606    194.4466    240.0719   1.0526980343e+02  -5.5415349923e+00    0.3752016    0.2165169 -52.37  0.001374974    2.157    0.536
        30  -9.3459    183.1079    240.3112   1.0762016830e+02  -3.8143525053e+00    0.4247717    0.2786729  61.50  0.001803592    2.487    0.598
        31  -8.2984    153.7847    242.2242   1.1406531609e+02   5.7701855657e-01    0.2213964    0.1422578  71.44 0.0009534747    2.766    0.638
        32  -7.6708    214.3100    241.6493   1.0161198594e+02  -8.7599105407e+00    0.1135613    0.1038066  80.95 0.0007044585    1.717    0.418
        33  -8.4964    146.2962    239.8649   1.1529791463e+02   2.2654214928e+00     0.269368    0.2038091 -87.97 0.0009273237    1.842    0.457
        34  -9.2431    241.7235    238.0281   9.5848817018e+01  -1.1933589471e+01    0.5607523    0.2343371 -20.18  0.001909474    4.829    0.793
        35  -8.9211    135.8981    239.1666   1.1742766812e+02   4.1271862601e+00    0.2573087    0.1753621  55.34  0.001145744    1.550    0.355
        36  -8.2214    129.0240    238.9576   1.1888077119e+02   5.3065576579e+00    0.2180562    0.1549811  67.38 0.0007737924    1.679    0.404
        37  -9.0623    230.6872    236.9903   9.7691611656e+01  -1.0306537263e+01    0.2788746    0.2304594 -65.63  0.001248525    2.002    0.501
        38  -8.3436    209.1722    238.2554   1.0202766257e+02  -7.4543756259e+00    0.1568699    0.1551824 -53.29 0.0005477164    1.368    0.269
        39  -8.0520     13.6583    238.3100   1.4251091368e+02   2.1668407257e+01    0.1285723   0.06689816  66.83 0.0007044898    1.694    0.410
        40  -9.2046    247.8304    234.8918   9.4205459388e+01  -1.2237585408e+01     0.305173    0.2351744 -55.88  0.001505138    1.999    0.500
        41  -9.4868    246.4297    229.1704   9.3441087328e+01  -1.1174568790e+01    0.5868746    0.2302832 -33.75  0.002593693    2.377    0.579
        42  -8.3107    214.4688    227.5236   9.9100223248e+01  -6.4242849892e+00    0.1978781    0.1416572  -8.87 6.835828e-05    1.453    0.312
        43  -9.3903    216.6945    235.3815   1.0006291989e+02  -8.0778555316e+00    0.2790037    0.2453923  82.90  0.001366203    1.873    0.466
        44  -9.4638    213.9188    231.9577   9.9997586939e+01  -7.0985295215e+00    0.3157748    0.2474288 -63.53   0.00139684    1.926    0.481
        45  -9.0123    203.2044    234.2999   1.0252002432e+02  -5.8878926334e+00    0.4058253    0.2005667 -48.57  0.001556482    2.300    0.565
        46  -9.7773    175.5853    233.1994   1.0798949235e+02  -1.3079146459e+00    0.5261253    0.2863307 -61.32  0.002205521    2.853    0.649
        47  -8.5449    170.3110    235.8428   1.0954243694e+02  -9.3661449828e-01    0.2427591    0.1251674 -55.62 0.0008873888    2.431    0.589
        48  -9.3545    108.9524    234.6198   1.2262832236e+02   9.4946770501e+00    0.4919253    0.2368805  55.01  0.001127228    2.356    0.576
        49  -7.9224     58.0624    237.0000   1.3373478052e+02   1.6588402272e+01    0.2017509   0.06744786  35.98   0.00079944    2.922    0.658
        50  -8.0599     25.0000    235.9789   1.4020720430e+02   2.0923987812e+01    0.1937503   0.05927136 -73.00 0.0008007367    2.931    0.659
        51  -9.8418      8.2467    234.8163   1.4327115237e+02   2.2979723530e+01    0.2900732    0.1506406  84.33  0.001635964    1.678    0.404
        52  -8.4309    123.0296    234.5053   1.1953658560e+02   7.2131551534e+00    0.2538267    0.1881808 -87.92 0.0008821582    1.667    0.400
        53  -8.6266     99.7276    234.7031   1.2464695626e+02   1.0951851641e+01    0.2801483    0.1695642  69.32  0.001295521    2.046    0.511
        54  -9.1550     78.7673    234.6757   1.2915405125e+02   1.4167194705e+01    0.2968543    0.1877704  71.96 0.0009989347    1.707    0.414
        55  -9.7850     68.2728    232.1801   1.3109840583e+02   1.6237259001e+01    0.5049116    0.2456672  73.34   0.00199317    3.043    0.671
        56  -8.4159    145.1422    233.4106   1.1454363800e+02   3.7342528578e+00     0.231518    0.1486224  60.80   0.00106856    1.989    0.497
        57  -8.6402    140.1178    230.1606   1.1512924457e+02   5.2441358983e+00    0.3248709    0.1873398  56.87  0.001060392    2.129    0.530
        58  -8.4177    132.9320    232.9510   1.1713777114e+02   5.8831615352e+00    0.2195867    0.1588233  68.37 0.0007420199    1.679    0.405
        59  -9.4363    186.5896    230.9372   1.0530766963e+02  -2.6805998661e+00    0.3290058     0.256136 -82.13   0.00134662    2.110    0.526
        60  -8.2999     92.5220    231.7946   1.2583701260e+02   1.2713708057e+01    0.3410366    0.1765686  58.82  0.001469604    2.180    0.541
        61  -9.1448    236.1249    230.4744   9.5534416200e+01  -1.0010254519e+01    0.3451958    0.1737843 -38.87  0.000861929    1.839    0.456
        62  -8.6805      1.8446    230.9850   1.4419662766e+02   2.4440356690e+01    0.2200734    0.1205397  78.30 0.0008577146    1.536    0.349
        63  -9.9418    149.6835    226.2198   1.1239102669e+02   4.4190247484e+00    0.6705843    0.4002181 -82.51  0.002375074    3.952    0.747
        64  -8.0600    229.8263    228.8656   9.6412344820e+01  -8.8795397389e+00     0.157562    0.1471807 -29.09 0.0005137635    1.311    0.237
        65  -8.7664    162.2720    228.0603   1.0995632153e+02   1.9003899456e+00    0.3260094    0.2320899  87.33  0.000981088    2.423    0.587
        66  -8.8662    128.0284    227.2707   1.1735211555e+02   7.8998621650e+00    0.3184886    0.2310189  89.34  0.001074261    1.808    0.447
        67  -8.3747    120.0298    227.7430   1.1920372439e+02   9.1452928396e+00      0.24883     0.178942 -81.43 0.0009056588    1.687    0.407
        68  -7.7868    223.3809    227.1900   9.7325711725e+01  -7.6817363703e+00    0.1747753    0.1148229 -47.93 0.0005642915    1.731    0.422
        69  -8.9567    206.1958    225.4625   1.0035780478e+02  -4.8019017865e+00    0.3978859    0.1805843 -40.88  0.001322748    2.152    0.535
        70  -8.5162    200.1634    225.8558   1.0163701008e+02  -3.9270663014e+00    0.3524568    0.1626562 -37.51  0.001087695    2.198    0.545
        71  -7.4780    177.6460    227.2941   1.0654273568e+02  -5.3503709615e-01    0.1344412    0.1077182  66.88 0.0003075309    1.686    0.407
        72  -8.2178     49.2514    227.0883   1.3456138698e+02   1.9957168016e+01    0.2605596    0.1300986  60.38  0.001229553    2.034    0.508
        73  -8.9807     94.4162    224.5362   1.2446375299e+02   1.4028902248e+01    0.4502275    0.2393457  71.55  0.001720441    2.997    0.666
        74  -8.6984    180.4220    224.3303   1.0543831771e+02  -4.3223117820e-01    0.2511273    0.2168642  73.73 0.0004875846    1.536    0.349
        75  -7.9213     78.3471    225.6780   1.2816739204e+02   1.6233870226e+01    0.1476724   0.09171979  67.94 0.0007049514    1.738    0.425
        76  -7.9915     38.4742    224.9848   1.3659165507e+02   2.1781433708e+01    0.1824321   0.08941405  79.89 0.0008074934    2.378    0.579
        77  -9.2873    216.4723    222.9678   9.7887868536e+01  -5.9374132446e+00    0.3608361    0.2188235 -39.58   0.00147915    1.579    0.367
        78  -8.7768    173.1073    222.9994   1.0675651193e+02   1.0563192623e+00    0.2859276    0.2296926 -70.41 0.0007559516    1.622    0.384
        79  -7.9944    113.6545    223.8474   1.2005182082e+02   1.1058061839e+01    0.1926505    0.1297092 -72.90 0.0005466559    1.700    0.412
        80  -8.8679    104.6276    223.3822   1.2201506301e+02   1.2649023906e+01    0.3798011    0.2415654 -86.53  0.001598045    2.060    0.515
        81  -8.5981    194.3095    232.3933   1.0397808120e+02  -4.1746660313e+00     0.282788    0.1731506 -37.69  0.001451836    1.644    0.392
        82  -9.2274    225.6164    222.0206   9.5965483244e+01  -7.1327207856e+00    0.2606012    0.2303901 -47.10   0.00100693    1.385    0.278
        83  -8.9993    159.3320    220.7997   1.0935646638e+02   3.8617585452e+00    0.3565176    0.2261108  60.05  0.001020374    2.140    0.533
        84  -8.9745    239.0205    221.6131   9.3410183873e+01  -8.9693616389e+00    0.2256941    0.1900213 -58.08  0.000947452    1.682    0.405
        85  -9.3196    192.3032    221.3207   1.0242386087e+02  -1.8286305111e+00    0.3336704    0.2514423 -61.78 0.0008840383    1.745    0.427
        86  -8.2723    192.4715    216.4645   1.0150396142e+02  -9.3903433805e-01    0.2092291    0.1670732  36.83 0.0006340152    1.271    0.213
        87  -9.2788      7.5165    222.1300   1.4252933448e+02   2.5821388256e+01    0.2755514   0.08682447  48.06  0.001253912    2.774    0.640
        88  -9.2248    120.5605    219.5271   1.1783322117e+02   1.0850025225e+01    0.4906411    0.2804375  68.52  0.001518385    2.796    0.642
        89  -8.7932     82.9776    220.7987   1.2652505287e+02   1.6650578159e+01    0.3019311    0.1707651  68.92  0.001312903    2.213    0.548
        90  -8.2078     72.8644    220.5285   1.2874386450e+02   1.8216319293e+01    0.2553422    0.1445758  86.79  0.001060099    2.236    0.553
        91  -8.4237     27.4753    220.8244   1.3846823732e+02   2.4010640852e+01    0.2398974    0.1073287 -78.51  0.001141002    2.043    0.510
        92  -8.1666    202.6862    220.2048   1.0010658692e+02  -3.3024385369e+00    0.1966839    0.1665687 -50.46 0.0006884207    1.363    0.266
        93  -9.1978    248.9642    218.1159   9.1000944420e+01  -9.7478561432e+00    0.3658772    0.2492412  62.87  0.001763414    3.353    0.702
        94  -8.3402    210.0869    219.1828   9.8444674920e+01  -4.2867119833e+00    0.2026175    0.1658938 -10.26 0.0005271129    1.150    0.130
        95  -9.3184    132.9413    216.2174   1.1448383555e+02   9.4440690781e+00    0.5116388     0.319969  81.95   0.00194741    2.918    0.657
        96  -8.6381     62.2538    217.5944   1.3074010722e+02   2.0400682261e+01    0.3094767    0.1825013  69.50  0.001083719    1.847    0.458
        97  -9.1308     51.4613    217.2849   1.3306867863e+02   2.1919080335e+01    0.3138432     0.182921  87.04 0.0009208057    1.814    0.449
        98  -8.7001    143.0320    216.6071   1.1226282508e+02   7.5908254388e+00    0.2903267    0.2182103  85.95  0.001068249    1.809    0.447
        99  -7.7780    112.0082    217.4915   1.1947058179e+02   1.2751340687e+01    0.2026727    0.1077127  58.26 0.0007069287    2.312    0.567
       100  -8.7644    232.4632    214.9785   9.3391691875e+01  -6.9269009459e+00    0.2796589    0.2191981 -64.84  0.001161552    1.953    0.488
       101  -7.9243     18.5023    215.9969   1.3988147178e+02   2.6085410040e+01    0.1960652    0.1020433 -75.74  0.001043957    1.624    0.384
       102  -8.4068    185.7126    214.3895   1.0253127521e+02   5.9836391596e-01    0.2373042    0.1736119 -57.02 0.0006607968    1.612    0.380
       103  -8.2565    154.6537    215.1814   1.0941178503e+02   5.8456035129e+00     0.218632    0.1824767 -80.18  0.001036389    1.465    0.317
       104  -8.7764     92.8912    214.0281   1.2335147407e+02   1.6675566865e+01    0.3337499    0.2064918  71.07  0.001208346    2.006    0.501
       105  -8.7729     76.9810    214.6565   1.2707788668e+02   1.8976960328e+01    0.3430633     0.135324  54.63  0.001227099    3.086    0.676
       106  -9.3421     72.1898    211.2439   1.2772650692e+02   2.0485860330e+01    0.5412083    0.2741317  73.41  0.001648271    3.095    0.677
       107  -9.4587    214.1166    212.3279   9.6381406158e+01  -3.6790468043e+00    0.3825114     0.284969  61.49  0.001611653    2.048    0.512
       108  -8.2423    224.9257    212.8992   9.4412358038e+01  -5.4491552424e+00    0.1886174     0.165215 -75.06  0.001115257    1.688    0.408
       109  -8.8512    161.6153    212.5105   1.0739177671e+02   5.1744928902e+00    0.2622969    0.2421436  81.45  0.001061642    1.244    0.196
       110  -8.3964    106.4860    212.9704   1.2005307524e+02   1.4706558906e+01    0.2088356    0.1395435 -63.84 0.0005691588    1.537    0.350
       111  -8.9743    204.3452    210.9654   9.8060526915e+01  -1.8576074134e+00    0.2881448    0.2329778 -66.92 0.0008543363    1.687    0.407
       112  -9.3920    175.5596    210.0846   1.0389968177e+02   3.2129683397e+00    0.4319983    0.3158953 -83.54  0.001501409    2.238    0.553
       113  -9.1645      5.6793    208.4705   1.4187363136e+02   2.9075461657e+01     0.341085    0.1384916  85.97  0.001486168    2.671    0.626
       114  -8.2771    192.2776    210.6340   1.0046202771e+02   2.1592918593e-01    0.2438248    0.1641958 -53.94 0.0006624307    1.695    0.410
       115  -8.8223    147.9484    210.5622   1.1010502819e+02   8.0244607569e+00    0.3062422    0.2325314  78.65  0.001180673    1.767    0.434
       116  -9.0733    116.1797    210.3260   1.1738472413e+02   1.3675172182e+01    0.3450797    0.2397115  88.18 0.0009754989    1.880    0.468
       117  -7.8909     32.6744    210.9481   1.3646916858e+02   2.5698964163e+01      0.23895   0.09232724  61.40 0.0008982152    3.323    0.699
       118  -9.0785    236.5665    208.5163   9.1436319410e+01  -6.4106445040e+00    0.3009779    0.2422712 -66.22  0.001202038    1.860    0.462
       119  -8.6869     85.7348    209.8626   1.2441671230e+02   1.8777802011e+01    0.2769599    0.1841005  89.89  0.001285012    1.727    0.421
       120  -8.5637    126.7804    208.5623   1.1462479400e+02   1.2234030526e+01    0.2775448    0.1939084 -80.04 0.0008566101    1.828    0.453
       121  -8.9577    169.2550    216.2647   1.0639167074e+02   3.0598765150e+00    0.3241009    0.2429308 -71.74 0.0009192054    1.811    0.448
       122  -9.3609    246.3691    207.3573   8.9472648760e+01  -7.6123062935e+00    0.2740068    0.1942935 -38.55 0.0006438177    1.283    0.221
       123  -8.2778    156.4858    208.0426   1.0772741663e+02   7.0366886419e+00    0.2139816    0.1436591 -51.62 0.0006987972    1.544    0.352
       124  -8.2639    139.1661    207.9233   1.1164714247e+02   1.0176611250e+01    0.2831735    0.2118635  81.33 0.0009203826    1.773    0.436
       125  -9.1767     99.3559    206.2175   1.2068681280e+02   1.7465335142e+01    0.3927113    0.2560567  82.74  0.001419668    2.007    0.502
       126  -8.6541     56.4241    205.3110   1.3058859100e+02   2.4100197762e+01    0.3350689    0.1857205  80.10  0.001166347    2.224    0.550
       127  -9.4574    194.9709    203.7597   9.8601125414e+01   1.1026351016e+00    0.4302011    0.3486277  67.29   0.00182669    1.686    0.407
       128  -9.3845    192.4903    197.6584   9.7934679813e+01   2.7518763407e+00    0.4668806    0.3551546 -49.72  0.001733868    1.357    0.263
       129  -8.9509    183.9745    204.2023   1.0099046312e+02   2.9282447021e+00     0.323673    0.2508895  71.40 0.0009681816    1.847    0.459
       130  -8.7846    131.3532    204.0430   1.1278225240e+02   1.2451260521e+01    0.3542486    0.2398993  88.00 0.0009730796    2.221    0.550
       131  -8.2035    109.1608    205.2515   1.1821600249e+02   1.6053743315e+01    0.2056985    0.1620514  82.63 0.0005418857    1.399    0.285
       132  -9.6278    163.9212    203.1516   1.0516051936e+02   6.7405516915e+00    0.4696297    0.2903187  57.21    0.0011397    2.082    0.520
       133  -9.4854    250.0829    201.9255   8.7813427783e+01  -7.2106715995e+00    0.3777767    0.1638875 -40.03  0.001414638    1.978    0.494
       134  -8.8744     80.3804    201.7854   1.2452598267e+02   2.1535504355e+01    0.3842505    0.2099908  70.13  0.001510645    2.602    0.616
       135  -7.9592     41.2878    202.9300   1.3374628042e+02   2.6589121676e+01    0.2207113   0.09149038  88.47 0.0007024335    4.188    0.761
       136  -9.2702    243.1132    200.6598   8.8786151604e+01  -5.9992742152e+00    0.3384854    0.1809207 -43.02 0.0009697954    1.699    0.412
       137  -8.4205    211.0110    202.0349   9.5033931692e+01  -1.2654193541e+00    0.2028456    0.1717226 -80.03 0.0005691571    1.700    0.412
       138  -8.8642    140.7146    201.3177   1.1011211526e+02   1.1378716422e+01    0.3801912    0.2619742  75.98  0.001105239    2.132    0.531
       139  -8.4007     48.3144    201.8530   1.3203070293e+02   2.5983756795e+01    0.2701553    0.1141658 -77.24  0.001066044    2.570    0.611
       140  -8.0040     10.0158    202.5114   1.4050234132e+02   3.0042282885e+01    0.1634596    0.1181374  38.70 0.0008776773    1.574    0.365
       141  -7.8698    221.9990    201.5064   9.2808462170e+01  -2.9425451000e+00    0.1694994    0.1201285  64.61 0.0006306801    2.381    0.580
       142  -9.1947    236.9709    198.3973   8.9447269157e+01  -4.6929508056e+00    0.3066029     0.192452 -47.04  0.001052419    1.595    0.373
       143  -9.4637    149.5414    198.7182   1.0758965712e+02   1.0344735984e+01    0.4301172    0.2999246 -87.31  0.001217926    2.232    0.552
       144  -8.9869    124.0298    199.4273   1.1370383846e+02   1.4827386867e+01    0.3422905    0.2325683 -85.21  0.001331766    2.024    0.506
       145  -9.4071    112.8497    198.4471   1.1621103171e+02   1.7029027593e+01     0.505091    0.3215978  76.50  0.001984267    2.300    0.565
       146  -9.1902     88.6834    198.7223   1.2208409057e+02   2.0989053427e+01    0.4254324     0.262865  83.29   0.00139407    2.191    0.543
       147  -8.5495    176.9628    199.1267   1.0152352654e+02   5.2264715045e+00    0.2164796    0.1973745  89.46 0.0005585614    1.317    0.241
       148  -8.3560    202.4458    198.0616   9.5971203999e+01   9.4055951723e-01    0.2124537    0.1994725  79.06 0.0007876918    1.332    0.249
       149  -9.3993     61.6533    196.9614   1.2831045381e+02   2.5421804845e+01    0.4994033    0.2666525  69.26  0.001656759    2.463    0.594
       150  -8.8428     12.5735    197.3615   1.3951396085e+02   3.1005446566e+01    0.3165211    0.1276115  89.50  0.001288855    2.855    0.650
       151  -8.4962    215.8022    195.5450   9.2839516720e+01  -8.2280340409e-01    0.2619613    0.1707335 -56.90 0.0008241767    1.899    0.474
       152  -8.2530    132.9847    196.2417   1.1100556701e+02   1.3952282330e+01    0.2052197    0.1956053  60.17  0.000491173    1.034    0.033
       153  -9.4129    245.8120    193.7258   8.6997651563e+01  -5.1800107321e+00    0.3226014    0.2520885 -78.64  0.001239564    2.210    0.548
       154  -8.6819    224.4086    193.9999   9.0900932398e+01  -1.9355527916e+00    0.3190946    0.2102229 -61.32  0.001273953    2.157    0.536
       155  -8.8547    185.3318    194.5735   9.8836327498e+01   4.6610747654e+00    0.3145001    0.2332679 -59.29 0.0008960831    1.554    0.356
       156  -9.0167    160.7805    194.3946   1.0419839895e+02   9.2199797122e+00    0.2769609    0.2307798  89.67 0.0007349537    1.504    0.335
       157  -8.1724    230.9668    194.3220   8.9750409597e+01  -3.0357019531e+00    0.1809392    0.1654574 -14.13 0.0006164484    1.083    0.077
       158  -8.7992     76.9314    193.8240   1.2419381152e+02   2.4002463251e+01    0.2672689    0.1962524 -79.79 0.0006007502    1.343    0.255
       159  -8.8795     43.7848    193.4530   1.3208348201e+02   2.8585494849e+01     0.393162    0.2191551  69.64  0.001811029    2.074    0.518
       160  -7.9314    205.3753    192.1468   9.4219422113e+01   1.6009196045e+00     0.194981    0.1271644 -52.07 0.0004527989    1.641    0.391
       161  -8.1677    198.9642    191.9112   9.5467461248e+01   2.7682612343e+00    0.2100957    0.1771298 -82.48 0.0006439532    1.609    0.378
       162  -8.3048    179.2423    191.9425   9.9623879698e+01   6.3236918031e+00    0.1908928    0.1214283 -47.04 0.0005058779    1.549    0.354
       163  -8.5593    172.3497    192.0040   1.0114322867e+02   7.5861793663e+00    0.2604577    0.2079429  69.90 0.0008990558    1.601    0.376
       164  -9.1731    139.6069    190.8550   1.0843169947e+02   1.3979782506e+01    0.4104715     0.271929  74.92  0.001150375    2.346    0.574
       165  -8.5948      6.6699    191.2338   1.4024613855e+02   3.2992492212e+01    0.2570436    0.1261614  86.25  0.001256022    2.001    0.500
       166 -10.4774     92.2296    188.6771   1.1962014879e+02   2.2882624408e+01     1.018102    0.3486538  49.75  0.003179965    3.602    0.722
       167  -8.4499    148.5808    189.5868   1.0607454761e+02   1.2588039786e+01    0.2915007    0.2129404  85.48 0.0008191449    1.972    0.493
       168  -9.0017    129.3133    188.6378   1.1047997026e+02   1.6410381667e+01    0.3582662    0.2552812 -85.54 0.0009706409    1.875    0.467
       169  -9.1236    121.7105    188.3918   1.1228347598e+02   1.7859797780e+01    0.3336256    0.2367267 -67.48 0.0007294287    1.520    0.342
       170  -9.2733    120.0000    185.0160   1.1207875297e+02   1.8983364980e+01    0.3785618    0.2076499 -56.50  0.001138003    1.825    0.452
       171  -8.4600    237.1354    188.5008   8.7508856643e+01  -2.9336994982e+00    0.2450696    0.1642784 -39.16 0.0006581355    1.304    0.233
       172  -9.0203    216.7934    187.9700   9.1155462135e+01   4.6475516783e-01    0.3352011    0.2518507 -50.57   0.00128087    1.381    0.276
       173  -9.4905    155.9431    187.5010   1.0395619144e+02   1.1668179520e+01    0.4374584    0.2773661 -64.37  0.001180029    1.948    0.487
       174  -8.8847     33.9888    187.7584   1.3371202492e+02   3.1115457151e+01    0.3239612    0.1583522 -89.51  0.001095052    2.402    0.584
       175  -7.9574    242.4936    188.4803   8.6564670724e+01  -3.7523337420e+00     0.132823    0.1131715 -29.66 0.0001284505    1.034    0.033
       176  -8.8966    191.3974    187.6468   9.6177659414e+01   4.9957482011e+00     0.298869    0.2400958 -87.57  0.001129198    1.771    0.436
       177  -9.1054     54.5917    186.7091   1.2863679050e+02   2.8897005014e+01    0.4412762    0.2464915  82.89  0.001345984    2.324    0.570
       178  -9.0307    249.3008    185.3219   8.4792831501e+01  -4.2096742899e+00    0.3513407    0.1948178 -51.66  0.001147476    1.978    0.494
       179  -7.9429    230.4990    187.5108   8.8506817231e+01  -1.7040444217e+00    0.1355528    0.1199548 -33.00 0.0001713382    1.075    0.069
       180  -8.7832    164.9109    186.8141   1.0177271326e+02   1.0118324200e+01    0.3016211    0.2362346 -75.96 0.0009137327    1.613    0.380
       181  -9.1908    109.6484    186.2211   1.1486289815e+02   2.0539073143e+01     0.404721    0.2707702  72.27  0.001113059    1.967    0.492
       182  -8.8765    210.2378    184.4812   9.1726391680e+01   2.2726190634e+00    0.2621659    0.1788747 -42.13 0.0006617813    1.356    0.262
       183  -8.9830    202.7721    184.7454   9.3260078272e+01   3.5374692089e+00    0.2766272    0.1888149 -53.10 0.0006439557    1.554    0.357
       184  -8.5257    183.0331    185.0376   9.7421843296e+01   7.0865822751e+00    0.2257769    0.2114414 -51.09 0.0005887289    1.102    0.092
       185  -9.0020     66.6566    184.4433   1.2533480852e+02   2.7829768334e+01    0.3890898    0.2566849  82.14  0.001283528    1.751    0.429
       186  -8.4309    224.1336    183.6740   8.8916796733e+01   5.9374057122e-02    0.2355803    0.1690277 -47.84 0.0003065726    1.363    0.267
       187  -8.2999    197.0961    183.6829   9.4196519458e+01   4.7764147645e+00    0.2491918    0.1919418 -54.93 0.0008261744    1.385    0.278
       188  -8.9972    174.2553    183.6373   9.9046551564e+01   9.0415971357e+00    0.2977082    0.2391471 -86.44 0.0008305542    1.660    0.398
       189  -9.0974     44.4965    182.4715   1.3054272354e+02   3.1210793271e+01    0.3768409    0.2261179  69.90   0.00119228    1.907    0.476
       190  -7.7142      1.7582    183.5967   1.4064847131e+02   3.5215608351e+01    0.1605028   0.09995067  49.69 0.0009427705    1.672    0.402
       191  -9.1152    240.8463    181.0284   8.5400195078e+01  -2.1461643113e+00    0.3238824    0.1656746 -49.42  0.001486253    1.964    0.491
       192  -9.2542    147.5398    180.7502   1.0457426989e+02   1.4822498979e+01    0.3700376    0.2787849 -89.72  0.001095672    1.797    0.444
       193  -8.8473     26.8042    181.1759   1.3465568606e+02   3.3496684677e+01    0.3614281    0.1875757  72.31   0.00161926    2.348    0.574
       194  -8.5507     24.3449    177.0094   1.3476719683e+02   3.4767527794e+01    0.3136445     0.165461  84.57  0.001432736    2.163    0.538
       195  -8.6767    137.5410    179.3457   1.0668902198e+02   1.7070055265e+01         0.32    0.2327184  83.03 0.0008529569    1.906    0.475
       196  -9.4454    191.3900    178.3062   9.4274452496e+01   6.9477908179e+00    0.3235501    0.2779251 -89.79 0.0006123408    1.478    0.323
       197  -8.1125    169.3417    178.7043   9.9127693939e+01   1.1068769234e+01    0.2315639    0.1793167 -89.32 0.0009312032    1.788    0.441
       198  -9.2276     35.8235    176.8741   1.3195466006e+02   3.3599508108e+01    0.5637214    0.2514772  85.11  0.001887061    3.981    0.749
       199  -9.6037    248.3262    176.4986   8.3248271018e+01  -2.4811644746e+00    0.4490159    0.2600968 -51.92  0.001827486    1.815    0.449
       200  -8.6344    250.4977    172.9094   8.2191859281e+01  -2.1657746564e+00    0.2688384    0.1567843 -41.21 0.0005535102    1.439    0.305
       201  -8.6290    231.1583    177.1895   8.6343675265e+01   1.2750453711e-01    0.2908552     0.168899 -46.21 0.0008376572    1.585    0.369
       202  -8.7200    217.7203    177.3264   8.8840791624e+01   2.3804319315e+00    0.3121983    0.1757552 -55.69  0.001089956    2.111    0.526
       203  -8.5773    205.2634    177.8149   9.1351269210e+01   4.4937102352e+00    0.2669916    0.2127609 -68.62 0.0009707194    1.566    0.362
       204  -8.6141    129.3870    177.3925   1.0829576334e+02   1.9085008904e+01    0.3277918    0.2219809  80.63  0.001020339    2.238    0.553
       205  -8.9436    183.2218    176.4120   9.5608758143e+01   8.8975206938e+00    0.2922964    0.2437315 -77.22 0.0005624873    1.472    0.321
       206  -9.3418    159.2109    175.4088   1.0074971619e+02   1.3783868187e+01    0.5196469    0.3283229  71.94  0.001787255    2.761    0.638
       207  -9.6091    104.3731    174.8598   1.1411340262e+02   2.4267514633e+01    0.5709614    0.3272511  68.64  0.001968011    2.857    0.650
       208  -8.0643     97.9266    177.3194   1.1621955893e+02   2.4762003254e+01    0.2085563    0.1953951  42.46 0.0006262032    1.131    0.116
       209  -9.2331     89.0490    176.8161   1.1841131183e+02   2.6356909799e+01    0.3087527    0.2290697  86.19 0.0009411855    1.541    0.351
       210  -9.9806     57.3229    173.2930   1.2603131006e+02   3.1906021707e+01    0.8850635    0.4294063  83.95  0.002699382    4.539    0.780
       211  -8.4382    224.5133    174.2816   8.6960769338e+01   1.8020525607e+00    0.2532308    0.1243653 -46.77 0.0004602842    1.894    0.472
       212  -7.7659    241.4509    174.4622   8.4005390144e+01  -1.0331478158e+00    0.1353046    0.1150768 -34.40  9.67309e-05    1.016    0.016
       213  -9.3200    175.8361    172.2844   9.6346410311e+01   1.1225398917e+01    0.3796666    0.2679418 -51.63 0.0008145292    1.410    0.291
       214  -8.3582    143.0936    172.7338   1.0400291591e+02   1.7562314689e+01     0.269218     0.210529 -68.81 0.0008154652    1.415    0.293
       215  -9.3656    237.0719    170.5992   8.3988729069e+01   3.9629032257e-01    0.4226977     0.177477 -42.39   0.00174888    2.061    0.515
       216  -8.2327    194.5003    172.5102   9.2424710716e+01   7.5815275473e+00    0.1480445    0.1382242 -32.74   0.00081061    1.001    0.001
       217  -8.7739    134.4869    171.8541   1.0592157817e+02   1.9442765396e+01    0.2961361    0.2392967  75.02 0.0009183883    1.452    0.311
       218  -9.6180    121.4504    170.5495   1.0891503316e+02   2.2239299701e+01     0.457888    0.3087335 -77.53  0.001060569    1.934    0.483
       219  -9.1254     44.9538    171.1248   1.2889163159e+02   3.3994455832e+01    0.3782204    0.2211932  79.58  0.001078247    2.151    0.535
       220  -8.5494    205.5516    170.0596   8.9689825511e+01   6.0224050481e+00    0.3014635    0.1888819 -48.50 0.0008122267    1.528    0.346
       221 -10.0617    205.0726    164.7041   8.8660226994e+01   7.2112177110e+00     0.359281    0.2383502 -44.98  0.000510625    1.391    0.281
       222  -8.9109    230.2138    169.5210   8.4970714453e+01   1.7475121156e+00    0.4169098    0.1961441 -53.43  0.001672814    2.467    0.595
       223  -8.3193    198.4982    170.3543   9.1157698739e+01   7.2782760640e+00    0.2273426    0.1786114  70.24 0.0007165786    1.671    0.402
       224  -9.1625    167.2350    168.8051   9.7524621726e+01   1.3696770079e+01    0.4021161    0.2818002  72.36 0.0009955587    2.066    0.516
       225  -8.8039    149.7021    169.3273   1.0170607264e+02   1.7062501681e+01    0.3370455    0.2350811 -64.42 0.0009841614    1.629    0.386
       226  -8.4413     12.6465    176.3593   1.3747626294e+02   3.6023194740e+01    0.2016512    0.1240709  73.13 0.0006645853    1.662    0.398
       227  -8.4308    244.3159    169.0811   8.2459928932e+01  -4.9648518580e-01    0.2007636    0.1485609 -40.65 0.0006943856    1.152    0.132
       228  -8.4228    218.9730    168.5019   8.6801899636e+01   3.9004301513e+00    0.2553528    0.1858891 -56.93 0.0006346245    1.487    0.327
       229  -8.8699    111.7813    167.6141   1.1080232825e+02   2.4747832022e+01    0.4147099    0.2625595  76.37  0.001405942    2.539    0.606
       230  -8.4634     88.8510    168.7542   1.1702046076e+02   2.8420216899e+01     0.284019    0.1883453  89.98 0.0009798777    1.988    0.497
       231  -8.0539    211.4537    168.0226   8.8120310332e+01   5.3516958345e+00    0.2241483    0.1311347 -44.82  0.000630679    1.565    0.361
       232  -9.0536    185.0628    166.7585   9.3179407834e+01   1.0625040627e+01    0.3262392    0.2051611 -59.72 0.0006803891    1.865    0.464
       233  -8.1133    158.1494    168.1589   9.9469897107e+01   1.5653560170e+01    0.2244945    0.2056773 -21.61  0.001159637    1.150    0.131
       234  -8.7038    159.7820    164.6954   9.8347802515e+01   1.6121403697e+01    0.3249187    0.2617537 -83.82 0.0008678821    1.534    0.348
       235  -8.9248    191.9207    166.6676   9.1723422345e+01   9.3099005460e+00    0.2897893    0.2046872 -53.81 0.0006219156    1.441    0.306
       236  -9.9142    136.9228    164.4729   1.0377911574e+02   2.0737196536e+01    0.7177768    0.4268915  62.34  0.002402785    2.357    0.576
       237 -10.2091     95.2468    163.1385   1.1426476669e+02   2.8774792935e+01     0.947705    0.5334047  78.53  0.002919721    4.051    0.753
       238  -9.0711     20.4288    166.0301   1.3443591957e+02   3.7842920456e+01    0.3521697    0.1826957  65.21   0.00125764    2.398    0.583
       239  -8.0863     12.9739    167.4969   1.3644612487e+02   3.8147616643e+01    0.1755296   0.08391081  55.00 0.0006909086    2.421    0.587
       240  -7.7957    250.6252    165.2493   8.0674427733e+01  -7.9475906764e-01     0.188632    0.1069062 -35.65 0.0004890657    1.565    0.361
       241  -8.3418    233.8757    165.1337   8.3442225294e+01   1.9651928125e+00    0.2094361    0.1685308 -54.17 0.0006061327    1.266    0.210
       242 -10.7767     75.8621    170.2126   1.2070192192e+02   3.0080947450e+01     1.355158    0.5129393 -72.10  0.003748628    4.621    0.784
       243  -9.2785     33.3090    163.3640   1.3081288010e+02   3.7236373076e+01    0.4894395    0.2275552  57.60   0.00199459    2.864    0.651
       244  -8.2609    239.8704    164.1816   8.2228583264e+01   1.1403809658e+00    0.1982355    0.1697325 -53.34 0.0004940157    1.193    0.162
       245  -8.4034    212.8027    163.4868   8.6916762336e+01   6.0200853372e+00    0.2674977     0.180055 -43.47  0.000578458    1.347    0.258
       246  -8.9052    246.1512    162.9865   8.0951499210e+01   3.3454878397e-01    0.2005831      0.19587 -25.83 0.0005290694    1.170    0.145
       247  -9.2882      3.3676    162.4093   1.3823505180e+02   4.0153334017e+01    0.3831205    0.1901207  58.39  0.001826041    2.359    0.576
       248  -7.6599    222.4354    161.9608   8.4816903996e+01   4.5744045461e+00    0.1883123    0.1150298 -62.97 0.0004156083    2.241    0.554
       249  -9.1057    177.3993    160.7699   9.3533931003e+01   1.3454783292e+01    0.3450413    0.2464839 -61.14  0.000815579    1.553    0.356
       250  -8.9184    151.7925    161.2636   9.9478315051e+01   1.8526027680e+01     0.366356    0.2677259 -85.03 0.0009680439    1.914    0.478
       251  -8.7424     60.5606    160.1933   1.2308464778e+02   3.4794472030e+01    0.3706464    0.2183525  72.06  0.001400196    2.449    0.592
       252  -7.9350    241.9922    160.0352   8.1044976292e+01   1.5659773751e+00    0.1664511    0.1367064 -39.75 0.0003356244    1.035    0.034
       253  -8.6978    227.4581    159.1370   8.3337919900e+01   4.2333206387e+00    0.3210595    0.1997615 -60.79  0.001412137    1.993    0.498
       254  -9.7982    105.7168    157.7467   1.1039173185e+02   2.8297886311e+01    0.5811459    0.3915686 -82.14  0.001111878    2.001    0.500
       255  -9.7086    250.1696    157.9177   7.9304792570e+01   6.1940120806e-01    0.3334071    0.1640749 -42.36 0.0008187909    1.697    0.411
       256  -8.3140    236.8045    158.7753   8.1655475629e+01   2.6776826280e+00    0.1874238    0.1490935 -59.17 0.0005903228    1.337    0.252
       257  -8.7889    196.5119    158.1283   8.8955594263e+01   1.0224672061e+01    0.2880245    0.2202789 -81.95 0.0009549989    1.782    0.439
       258  -9.2063    167.7392    157.4698   9.4949215703e+01   1.6150099025e+01    0.4143682    0.2908187 -79.62  0.001103922    2.094    0.522
       259  -8.5774    128.0069    158.8013   1.0480241988e+02   2.3851444517e+01    0.2885897    0.2014265 -68.36 0.0007958635    1.645    0.392
       260  -8.6246    188.0243    157.8063   9.0623720909e+01   1.1971082533e+01    0.2799329    0.1829126 -57.07  0.000590476    1.646    0.393
       261  -8.5320     79.0897    158.5142   1.1774152477e+02   3.2556691554e+01    0.2619191     0.153712  27.72    0.0011206    2.012    0.503
       262  -9.4644     81.7394    155.0041   1.1634691451e+02   3.3032753704e+01    0.5250466    0.3288667  79.25  0.001458201    2.493    0.599
       263  -8.5201    217.9833    156.5848   8.4505598783e+01   6.4505486410e+00    0.2775842    0.1799188 -55.66 0.0007597236    1.619    0.383
       264  -9.1717    157.6612    156.2515   9.6991591499e+01   1.8491519694e+01    0.3530097    0.2555642 -75.81 0.0009844927    1.814    0.449
       265  -9.5113    119.6491    155.4785   1.0623844953e+02   2.6274260022e+01    0.4567053     0.313114 -86.26  0.001661661    2.126    0.530
       266  -9.5013     49.7268    155.2613   1.2521708315e+02   3.7421504016e+01    0.4131447    0.2474521  65.00  0.001685432    2.176    0.540
       267  -9.6376    241.3815    154.3864   8.0010387894e+01   2.7290718054e+00    0.3548247    0.2375429  70.41  0.001722824    2.344    0.573
       268  -8.1112    204.7309    155.2202   8.6707328322e+01   9.2325961928e+00    0.2303101    0.1681506 -56.09  0.001126743    1.399    0.285
       269  -8.5644    144.6292    154.8874   9.9799110278e+01   2.1472633416e+01     0.347171    0.2533314  70.59  0.001167719    1.762    0.432
       270 -10.0920    133.2820    151.7834   1.0192453642e+02   2.4500877721e+01    0.8227759    0.4022944 -52.87  0.001898237    2.041    0.510
       271  -9.6542     67.9218    153.7505   1.1993258544e+02   3.5413520585e+01    0.4502142    0.2870223  81.96  0.001296474    2.219    0.549
       272  -8.1622    232.7970    153.9822   8.1355948716e+01   4.2886941076e+00     0.219864    0.1419159 -60.72 0.0005289111    1.825    0.452
       273  -8.4104     90.9918    154.0520   1.1361679435e+02   3.1775496254e+01    0.2180342    0.2061791 -73.57  0.001182114    1.019    0.019
       274  -8.6262    151.9545    153.0016   9.7611733629e+01   2.0414712577e+01    0.2487991    0.1935415 -89.25 0.0006864058    1.658    0.397
       275  -8.5454     20.0349    152.6828   1.3284915264e+02   4.1163867962e+01    0.1715144    0.1547244 -89.00 0.0006568269    1.128    0.113
       276  -8.0810      8.9782    153.2285   1.3580307126e+02   4.1944585102e+01    0.1438098    0.1078236  26.10 0.0008783147    1.652    0.395
       277  -7.7692    223.3077    152.6604   8.2725907945e+01   6.2499849251e+00    0.1431918    0.1073055 -71.47 0.0004271327    1.684    0.406
       278  -8.1981    182.4967    151.5408   9.0405501795e+01   1.4443149374e+01      0.26192    0.1395636 -55.33 0.0005595025    2.064    0.515
       279  -8.9315     98.3458    150.8302   1.1093947560e+02   3.1327323414e+01     0.335602    0.2434794 -85.86 0.0009518896    1.748    0.428
       280  -9.5625     29.4410    150.8807   1.3007652665e+02   4.0735572929e+01    0.4682675    0.2433284  70.44  0.001907863    2.956    0.662
       281  -9.7091    248.8193    149.4721   7.7842936529e+01   2.3962689167e+00    0.3581012    0.1852744 -42.74 0.0007770098    1.617    0.382
       282  -9.5547    247.0585    143.7614   7.6975545989e+01   3.7496994052e+00    0.2804348    0.1646035 -40.51 0.0006258248    1.460    0.315
       283  -8.6151    250.4485    140.7694   7.5863612662e+01   3.7266741768e+00    0.2670986    0.1409045 -42.73 0.0008483455    1.583    0.368
       284  -9.6456    233.4937    147.8159   7.9971799012e+01   5.3504573988e+00    0.2757367    0.2024975 -44.39 0.0008881619    1.179    0.152
       285 -10.3090    241.2967    144.5385   7.8032986252e+01   4.5971885384e+00    0.5594209    0.2964873 -27.76  0.002340984    2.509    0.601
       286  -8.1461    162.7466    150.9088   9.4618130451e+01   1.8662313802e+01    0.2546543    0.1791532 -74.17  0.001066484    1.904    0.475
       287  -8.7572      2.8509    150.2735   1.3703039364e+02   4.3110922545e+01    0.2572501    0.1253754 -87.08  0.001158972    2.119    0.528
       288  -8.2421    212.9675    149.9705   8.4025285185e+01   8.7224016001e+00    0.2203399    0.1686956 -71.37 0.0004636384    1.584    0.369
       289  -9.9116     40.0616    148.1928   1.2674091701e+02   4.0307556196e+01    0.5204042    0.2699571  63.15  0.001974717    2.943    0.660
       290  -9.4543    243.1105    150.1860   7.8885168746e+01   3.2241040301e+00    0.3287459    0.1912503 -52.41  0.001003776    1.657    0.396
       291  -8.4730    198.8713    149.1106   8.6524838619e+01   1.1652348502e+01     0.227195    0.1945234 -71.65 0.0005140101    1.280    0.219
       292 -10.3394     89.2752    146.5035   1.1254003020e+02   3.3951142631e+01    0.7143041    0.4245968 -89.99  0.002446037    3.292    0.696
       293 -10.4520     54.6120    144.0280   1.2190896256e+02   3.9642031636e+01    0.9433582    0.5215293  85.50  0.002894087    3.360    0.702
       294 -10.4058    106.8445    144.2781   1.0719855441e+02   3.1424331507e+01     0.870163    0.5708723 -85.70  0.002239018    2.409    0.585
       295  -9.2562     78.3639    147.2884   1.1576819572e+02   3.5500018807e+01    0.3861137    0.2688875  88.67  0.001082001    1.888    0.470
       296  -8.3205    223.3112    146.9661   8.1530893469e+01   7.3711741377e+00    0.2374248    0.1926083 -82.27 0.0005907613    1.523    0.344
       297 -10.3053    148.9670    144.9843   9.6502437051e+01   2.2891596146e+01    0.5903239     0.401328 -79.82  0.001595483    2.215    0.548
       298  -9.2040    151.2834    136.1052   9.3869237573e+01   2.4437053149e+01    0.5008483    0.3023915  21.70  0.001792237    2.776    0.640
       299 -10.0372    139.1032    144.8588   9.8890669827e+01   2.4963609453e+01    0.7003832    0.3364583 -59.78  0.001276328    2.646    0.622
       300  -9.3588    140.0233    137.4622   9.6932869021e+01   2.6499414991e+01    0.3544716    0.2582752  15.06  0.001510579    1.910    0.476
       301  -9.2381     13.2377    146.2567   1.3381073191e+02   4.3304668698e+01    0.3338661    0.1893418  62.23  0.001211744    2.204    0.546
       302  -7.9114    206.7316    146.5782   8.4458274136e+01   1.0621253994e+01    0.1846799    0.1431265  62.46 0.0005122512    1.505    0.336
       303  -8.2024    175.4927    146.0965   9.0684333354e+01   1.7081086156e+01    0.2316921    0.1466597 -48.18 0.0004588432    1.511    0.338
       304  -8.8568    165.6248    144.1341   9.2419968453e+01   1.9586907713e+01    0.3234597    0.2452041 -76.44 0.0007238677    1.645    0.392
       305  -9.9665    125.0824    142.6881   1.0196677266e+02   2.8314642167e+01    0.6331849    0.4080765 -80.05  0.001619465    2.506    0.601
       306  -7.8048    194.3624    144.1753   8.6327714051e+01   1.3596357727e+01    0.2190262    0.1305905 -54.21 0.0004985326    1.720    0.418
       307 -10.8605     69.0152    140.3725   1.1705249845e+02   3.8618130444e+01    0.9180337    0.4413637 -58.69  0.003275056    1.914    0.478
       308  -9.1289      2.5889    141.9276   1.3610804117e+02   4.5129989036e+01     0.321354    0.1700467  82.40  0.001314523    2.295    0.564
       309  -8.3349    182.0085    141.9727   8.8357405702e+01   1.6617679082e+01    0.2409296    0.1839248 -80.72  0.000563668    1.673    0.402
       310  -8.7994    189.5034    150.2327   8.8654087428e+01   1.3298538577e+01     0.318111    0.2471723 -71.00 0.0007738515    1.518    0.341
       311  -8.6375    134.0000    140.0063   9.9046943874e+01   2.7150908896e+01    0.2657648   0.08799767 -48.58 0.0008008899    2.932    0.659
       312  -9.8232     23.4424    138.3672   1.2987270489e+02   4.4373741238e+01    0.4797303    0.2740495  71.57  0.002056649    2.494    0.599
       313  -8.1314     14.7862    140.2169   1.3256994189e+02   4.4648378788e+01    0.1757665    0.1045294  -1.15 0.0008767619    2.480    0.597
       314  -7.8545    218.6188    138.8063   8.0619208884e+01   9.8718472930e+00    0.2033644    0.1216975 -51.84 0.0004151918    1.587    0.370
       315  -8.6714    172.4764    138.4805   8.9594703370e+01   1.9387743784e+01    0.3310389    0.2261852 -82.55  0.000986404    2.265    0.558
       316  -8.2804    207.3162    137.7244   8.2416567264e+01   1.2311521669e+01    0.2698925    0.1593847 -53.76  0.000692197    1.692    0.409
       317  -8.7294    197.5174    137.6282   8.4248327847e+01   1.4319150404e+01    0.2902199    0.2221406 -64.10 0.0008504169    1.398    0.285
       318  -8.5959    162.7057    136.5504   9.1317979254e+01   2.1898582844e+01    0.2587178    0.1876274 -69.50 0.0007313924    1.658    0.397
       319  -9.0333     39.3858    136.4165   1.2495523594e+02   4.3300962360e+01    0.2822731    0.1979713  60.84 0.0009341064    1.738    0.425
       320  -8.5266    246.9835    130.3361   7.4293598964e+01   6.2435205473e+00    0.2353863    0.1553991 -51.60 0.0005538357    1.321    0.243
       321  -9.1716    248.2622    135.0759   7.5054567220e+01   5.1480475522e+00    0.3451758    0.1827533 -47.45 0.0008077283    1.601    0.375
       322  -9.0352    250.8001    129.8494   7.3640120787e+01   5.6650050981e+00    0.4990877     0.110939 -42.60   0.00143414    3.770    0.735
       323 -10.5146     83.4110    132.7182   1.1123335635e+02   3.8313617293e+01    0.6747291    0.3693541 -65.80  0.001279671    2.147    0.534
       324  -8.7508     85.2278    122.6892   1.0838552398e+02   4.0425950839e+01    0.4820287    0.2755169  12.16  0.001732131    3.132    0.681
       325  -7.6597    187.7197    135.6998   8.5752163821e+01   1.6759091244e+01    0.1457505    0.1198642  -9.15 0.0002303513    1.544    0.352
       326  -8.6789    179.6364    134.1787   8.7067143046e+01   1.8794061754e+01    0.3408381    0.2400308 -69.82  0.001441525    1.755    0.430
       327  -8.7510     57.6999    135.5647   1.1940661105e+02   4.1352640888e+01    0.2493909    0.1462561  22.90  0.001070839    2.064    0.515
       328  -7.9667    237.4751    133.9728   7.6478148898e+01   7.2693883413e+00    0.2131096    0.1178326 -46.52  0.001007242    1.555    0.357
       329  -8.1243    231.3808    133.8277   7.7418274518e+01   8.4192846492e+00    0.1980925    0.1191119 -36.11 0.0004887991    1.622    0.383
       330  -9.4455    112.9137    133.0853   1.0296733531e+02   3.2987525680e+01    0.4497637     0.303092 -59.49  0.001300605    1.551    0.355
       331  -9.3223    143.2017    131.6865   9.4765577485e+01   2.7156221981e+01    0.4134004    0.2731721 -66.27 0.0007304954    1.877    0.467
       332 -10.3020    132.2228    130.2958   9.7182803230e+01   2.9776187075e+01    0.8458274    0.4221985 -46.80  0.002455518    1.949    0.487
       333 -10.5477     98.3062    129.0433   1.0608511651e+02   3.6664669776e+01     1.191501    0.3550926 -48.14  0.003667522    3.143    0.682
       334 -10.4857     59.9358    125.0826   1.1658091561e+02   4.3619040228e+01    0.7762359    0.4767844  86.05  0.002572655    2.999    0.667
       335  -9.6572    153.0278    129.2875   9.1823178760e+01   2.5593479141e+01    0.4356128    0.2621908 -58.06  0.001062164    1.851    0.460
       336  -9.9795     73.1030    129.1216   1.1347819204e+02   4.0788697531e+01    0.5235985    0.3366515 -77.84  0.001346164    2.093    0.522
       337  -7.7779    220.6298    130.2784   7.8445082195e+01   1.1157723412e+01     0.144003    0.1067642 -79.82   0.00070099    1.689    0.408
       338  -8.1026    204.6326    130.3664   8.1285625222e+01   1.4345154015e+01     0.219698    0.1641071 -75.09 0.0006431542    1.609    0.378
       339  -8.0001    192.8321    130.1543   8.3472230444e+01   1.6842080465e+01    0.2294608    0.1927048 -72.30 0.0005058371    1.261    0.207
       340  -9.1175    168.3251    129.5009   8.8396342686e+01   2.2234570785e+01    0.3159474    0.2460087 -72.56 0.0007812767    1.480    0.324
       341  -8.0006      1.7652    130.5508   1.3487656070e+02   4.7888150140e+01    0.1534329    0.1104391  44.24 0.0009426727    1.676    0.403
       342  -8.1386    211.4432    129.2220   7.9804877822e+01   1.3189567860e+01    0.2089042    0.1247331 -54.61 0.0005640475    1.665    0.400
       343  -7.7147    186.5050    129.5323   8.4582319278e+01   1.8312481145e+01    0.1525096     0.141438 -62.83 4.001146e-05    1.030    0.029
       344 -10.7068     44.9510    123.6763   1.2089565575e+02   4.5792539463e+01     1.067498    0.6024604  80.30   0.00381808    3.916    0.745
       345 -10.2734    118.0724    125.3163   9.9685442227e+01   3.3800030857e+01    0.6364409    0.4522679 -67.42    0.0016744    1.671    0.402
       346  -9.8904     12.7876    129.0793   1.3151996878e+02   4.7481002988e+01    0.4510056    0.2586233  80.18  0.001811742    2.393    0.582
       347  -7.9707    228.5384    125.7498   7.6180780084e+01   1.0498756103e+01    0.2010054    0.1170523 -53.26 0.0007295119    1.617    0.382
       348 -10.1780     28.6677    122.6962   1.2572013106e+02   4.7689824098e+01    0.6864439    0.3868446  74.24   0.00282733    3.202    0.688
       349  -8.5047     26.0820    114.7163   1.2504860103e+02   4.9804977687e+01    0.3099874    0.1578214 -24.65  0.001342814    2.752    0.637
       350  -9.0384    179.1723    124.7436   8.4959393294e+01   2.0893379012e+01    0.2998377    0.2429039 -73.46 0.0006818965    1.357    0.263
       351  -8.4713    243.8133    124.5863   7.3599769893e+01   7.8671771187e+00    0.1658413    0.1278093  76.38 0.0004530798    1.564    0.361
       352  -7.6882    188.9181    124.4439   8.2926906357e+01   1.8851851519e+01    0.2054366    0.1313043  78.44 0.0008058071    2.419    0.587
       353  -7.8361    194.9920    121.9753   8.1188293478e+01   1.8056813732e+01    0.1877778    0.1560365 -49.18 0.0004236007    1.119    0.107
       354  -8.5580    172.0062    121.8001   8.5761660308e+01   2.3075878462e+01    0.2599156    0.2097181 -53.03 0.0004875535    1.195    0.164
       355  -9.3518    158.5401    121.6033   8.8676852264e+01   2.6074635027e+01    0.3366628    0.2585746 -84.94 0.0009585726    1.644    0.392
       356 -10.3012    131.4102    118.8333   9.4547791785e+01   3.2537079884e+01    0.6664839    0.4495496  87.45  0.002122252    2.546    0.607
       357  -9.7597     71.1962    119.6927   1.1192192781e+02   4.3329560421e+01    0.4820398      0.25473 -61.65  0.001669994    2.029    0.507
       358 -10.3243    141.4620    117.8223   9.1770304900e+01   3.0616468864e+01    0.6994087    0.3174593 -50.91   0.00139697    2.294    0.564
       359  -9.6563      3.0452    117.6301   1.3266617183e+02   5.0831539429e+01    0.4675866    0.2641054  76.18  0.002276021    2.593    0.614
       360  -7.8212    231.5060    117.9719   7.4081436012e+01   1.1393647980e+01    0.1965613     0.102957 -61.08 0.0004202762    2.330    0.571
       361  -8.4067    193.0765    115.3229   8.0016493424e+01   1.9801996215e+01    0.2637472    0.1874593 -66.28 0.0005915575    1.557    0.358
       362  -8.0148    185.6914    115.9726   8.1581888252e+01   2.1277506913e+01    0.2150784    0.1805679 -55.99 0.0004517637    1.128    0.113
       363 -10.1330    109.2725    114.2313   9.9311949351e+01   3.8049157132e+01    0.5189212    0.3501907 -71.01  0.001323481    2.043    0.510
       364  -9.4796    108.8017    108.2145   9.7875427548e+01   3.9468213728e+01    0.6183212    0.3701846  15.38  0.002228322    2.987    0.665
       365  -8.9265     58.7684    115.7554   1.1488527353e+02   4.5989743192e+01    0.3153086    0.1928309   5.40  0.001317769    2.385    0.581
       366  -8.5057    250.0850    115.1581   7.0818554694e+01   8.4441504869e+00    0.1887991    0.1730117 -32.76  0.001032529    1.264    0.209
       367 -10.1749     92.6858    112.6353   1.0368750763e+02   4.1480026352e+01    0.5655829    0.3385546 -64.66  0.001341283    2.156    0.536
       368  -8.9934     92.6327    105.7656   1.0191939772e+02   4.3017933726e+01     0.597957    0.3459293   2.39  0.001815381    4.583    0.782
       369 -10.0163     78.8808    112.4295   1.0780971669e+02   4.3840447969e+01    0.5516698    0.3827356 -87.13  0.001823837    2.349    0.574
       370  -8.8970     78.7428    105.0310   1.0597321718e+02   4.5526509268e+01    0.3549401    0.2428863  -5.09  0.001125695    2.032    0.508
       371 -10.4808    133.5722    109.1944   9.1521671267e+01   3.4169616558e+01    0.7903356    0.3327112 -53.69  0.002458057    2.863    0.651
       372 -10.1950    121.9814    112.7121   9.5444477650e+01   3.5846244423e+01    0.5002401    0.3327892 -66.50  0.001007352    1.945    0.486
       373  -9.9243    119.4845    106.5008   9.4483069799e+01   3.7700007889e+01    0.3955222    0.2803728 -26.18  0.001410788    1.668    0.401
       374 -10.7119    109.1577     99.0361   9.5307028013e+01   4.1348916854e+01    0.9589425    0.5175543  64.68  0.001722497    3.684    0.729
       375  -9.2734    107.9654     92.6834   9.3881880987e+01   4.2877477528e+01    0.4789464    0.2874468  22.06  0.001922968    2.394    0.582
       376  -8.4101    174.7626    111.9259   8.2803999333e+01   2.4506911635e+01    0.2844413    0.1943381 -61.02 0.0006470283    1.592    0.372
       377  -8.6160    159.2879    111.9993   8.6132492980e+01   2.7938817932e+01    0.2611576    0.2091806  89.35 0.0006797001    1.478    0.323
       378 -10.1958     66.3299    109.6263   1.1104546115e+02   4.6371914476e+01     0.660444    0.3345158 -54.94  0.002665312    1.880    0.468
       379  -9.6642     14.1626    111.1204   1.2816483792e+02   5.1593256855e+01    0.3863803    0.2489814  70.18  0.001691435    2.257    0.557
       380 -10.6408    248.7504    107.3807   6.9452283842e+01   1.0067147425e+01    0.5373521    0.2674392 -39.64  0.002545045    1.855    0.461
       381  -9.0016     42.2599    108.8570   1.1863801559e+02   4.9574705592e+01     0.366974    0.2529273  46.20  0.001951625    1.777    0.437
       382  -8.4387    189.0487    107.6064   7.8969358120e+01   2.2201393880e+01    0.2962132    0.1841645 -56.03 0.0007820205    1.645    0.392
       383  -9.6556    139.9210    104.7407   8.8785431887e+01   3.3725037285e+01     0.407135    0.3014835 -70.75 0.0006624627    1.670    0.401
       384 -10.5614     45.4486    102.3079   1.1609314979e+02   5.0703812936e+01    0.6968778    0.4537406  80.00  0.003006443    3.001    0.667
       385  -9.1846     46.1661     92.7732   1.1351851010e+02   5.2708765912e+01    0.4366669    0.2204625  11.86   0.00183951    2.834    0.647
       386 -10.6454     22.9043    102.7700   1.2372918376e+02   5.2815559866e+01    0.7166996    0.4380333  80.38  0.002991621    2.974    0.664
       387  -8.4546    166.5384    104.2783   8.2633726818e+01   2.7882203291e+01    0.2624676    0.2004793 -65.54 0.0005850792    1.415    0.293
       388  -9.5875    150.4231    102.9587   8.5841093663e+01   3.1764754981e+01    0.5259314    0.2765052 -56.65  0.001620266    2.313    0.568
       389  -9.2804      6.7909    103.1879   1.2911914897e+02   5.3893731720e+01    0.2730296    0.1991417  76.76  0.001122377    1.808    0.447
       390  -7.5648    175.5213    102.4644   8.0346661243e+01   2.6216625223e+01    0.1510732    0.1384876 -76.40 0.0007203789    1.052    0.049
       391  -8.2340    159.7848    101.0955   8.3275477342e+01   3.0034176219e+01    0.2329244    0.1933629 -72.82 0.0005170368    1.296    0.228
       392  -9.2780     81.9112    100.0454   1.0366901055e+02   4.6098276028e+01    0.3469394    0.2713655 -81.81 0.0009119346    1.792    0.442
       393 -10.2991     63.9135     96.7402   1.0856312723e+02   4.9571252673e+01    0.7038092    0.3889532 -63.37  0.002066176    2.361    0.576
       394  -9.0979     65.6401     87.4310   1.0546273262e+02   5.1273686783e+01    0.5290189    0.2683239  12.37  0.001878071    3.704    0.730
       395  -9.3945     95.0557     97.1902   9.8880636808e+01   4.4414900905e+01    0.3220814    0.2570981 -68.63 0.0006742486    1.541    0.351
       396 -10.0251    128.5556    102.3084   9.0982132465e+01   3.6682033534e+01    0.3933545     0.301805 -77.50  0.001026804    1.689    0.408
       397  -8.6354    249.6638     96.2901   6.7139143734e+01   1.1824904981e+01     0.133902   0.08732257 -71.12 0.0003367221    1.637    0.389
       398  -8.2864    151.7846     95.1645   8.3509150017e+01   3.2996138692e+01    0.2049592    0.1789045  17.52 0.0008025384    1.363    0.267
       399  -8.2974    164.7084     94.2009   8.0482364532e+01   3.0250984435e+01    0.2313711    0.1752224 -58.78 0.0004507095    1.361    0.265
       400  -9.2554    139.0558     92.4432   8.5728649792e+01   3.6366665031e+01    0.3514965    0.2628859 -86.65 0.0006923162    1.805    0.446
       401 -10.2215    123.6941     91.3824   8.9264269744e+01   3.9905470607e+01    0.6114194    0.4365557  34.97  0.001626838    1.484    0.326
       402  -8.8773    127.1085     84.2017   8.6390021545e+01   4.0536160425e+01     0.518353    0.2941041  15.88  0.001508787    5.021    0.801
       403  -7.9282    182.8770    109.7902   8.0666564170e+01   2.3134390718e+01    0.2087193    0.1672187 -71.53 0.0006034854    1.323    0.244
       404  -7.5873    188.5315     93.4994   7.5727103787e+01   2.4990100310e+01    0.1471303    0.1319818 -74.34 6.948561e-05    1.040    0.039
       405  -8.0662    176.3904     93.2112   7.7906976620e+01   2.7781202433e+01    0.2150533    0.1281786 -53.42 0.0005950417    1.724    0.420
       406  -9.7035     34.8797     90.2968   1.1682510256e+02   5.4459483340e+01    0.4311136    0.2688009 -76.59  0.001629646    2.452    0.592
       407  -9.0665    223.8891     92.5082   6.9828995894e+01   1.7538436751e+01    0.1887228     0.132149  61.96 0.0006669054    1.523    0.343
       408  -8.0383    157.7329     91.9386   8.1369995364e+01   3.2264230502e+01    0.2119044    0.1865137 -53.23 0.0004717971    1.127    0.113
       409  -9.0366     23.0634     90.3241   1.2098776945e+02   5.5538679250e+01    0.2823013    0.2134032  -3.95  0.001374863    1.428    0.300
       410  -8.0463    151.1270     89.1676   8.2081891464e+01   3.4282077671e+01    0.2073657    0.1705991 -74.03 0.0005374308    1.348    0.258
       411 -10.0556     86.6001     86.3411   9.8389850307e+01   4.8125734310e+01    0.5917494    0.4354308 -62.30  0.001494678    1.716    0.417
       412  -9.8365     48.5068     84.4356   1.1051287599e+02   5.4175131084e+01    0.4816001    0.3571581  75.20  0.001798396    2.395    0.583
       413  -7.8908    179.3004     85.6855   7.5514580349e+01   2.8489588458e+01    0.1490499     0.107243 -76.06 0.0003318012    1.612    0.380
       414  -9.9055    104.8799     83.2068   9.2048683124e+01   4.5324788587e+01    0.4601806    0.3265643 -68.91  0.001120529    2.057    0.514
       415  -8.5564    105.6362     77.1833   9.0068866625e+01   4.6282588424e+01    0.3579769    0.1802638  26.16  0.001256073    3.258    0.693
       416  -8.4508    157.8615     84.1163   7.9312074876e+01   3.3673438472e+01    0.2218874    0.1911554 -75.74 0.0004453466    1.211    0.174
       417  -9.1608    141.0199     83.0209   8.2713586448e+01   3.7688139582e+01    0.3691308    0.2237219 -51.78 0.0009843184    1.803    0.445
       418  -9.7079      9.9423     81.1910   1.2362203717e+02   5.8446577742e+01     0.341058    0.2202328  61.28  0.001418809    2.718    0.632
       419  -9.4998      5.4865     92.2231   1.2750939030e+02   5.6390116543e+01    0.3145107    0.2102138  57.73  0.001155331    2.216    0.549
       420  -9.6151     24.6595     80.5542   1.1808065487e+02   5.7451558202e+01    0.4034891    0.2702598 -83.19  0.001621824    2.506    0.601
       421  -8.6527    150.0955     80.5385   8.0016669090e+01   3.6081810769e+01    0.2790897    0.1931828 -57.75 0.0007631335    1.605    0.377
       422  -8.8612    119.3560     80.5975   8.7352220445e+01   4.2851056205e+01    0.2915828    0.2309357 -84.77 0.0007251394    1.704    0.413
       423  -8.8685     74.4489     80.2275   1.0047264564e+02   5.1351122973e+01    0.3283097     0.223686 -63.98   0.00122558    2.094    0.522
       424  -8.3043    166.8384     79.8100   7.6397319066e+01   3.2375395254e+01    0.2004744    0.1952304  45.73 0.0004473388    1.140    0.123
       425 -10.0612     63.6893     74.4488   1.0235265006e+02   5.4098297959e+01    0.6643878    0.2970832 -56.27  0.002524741    3.304    0.697
       426  -8.7792     64.4046     63.8399   9.8813649214e+01   5.5898580519e+01    0.4332178    0.2364987  -7.07  0.001640573    3.563    0.719
       427  -9.5599    128.2351     74.5870   8.3392210971e+01   4.2005672422e+01    0.5753283    0.2501291 -40.48  0.001608927    2.372    0.578
       428  -7.7159    157.2765     76.6532   7.7480464620e+01   3.5115369447e+01    0.1475482    0.1083289 -73.64 0.0004915063    1.632    0.387
       429  -8.5358    140.5060     75.5381   8.0779042996e+01   3.9121241874e+01     0.237699    0.1307682 -50.41 0.0007451742    2.026    0.506
       430  -8.6260    248.4876     74.9946   6.3121613447e+01   1.5571853647e+01    0.1882125   0.08162634 -59.14 0.0006729472    2.433    0.589
       431  -9.7445     82.3963     72.7782   9.5669117186e+01   5.1409332183e+01    0.3762083    0.2955174 -73.80  0.001156774    1.940    0.485
       432  -8.4515    151.4175     73.2299   7.7780666011e+01   3.7036608732e+01    0.2015456    0.1302048 -51.69 0.0007247534    1.656    0.396
       433  -8.6629    115.5649     72.9624   8.6126401624e+01   4.4995682542e+01    0.2575223    0.1670491 -49.83 0.0008454355    1.727    0.421
       434  -8.9683    105.9902     72.0444   8.8438328930e+01   4.7116106629e+01    0.2714835    0.2088429 -58.01 0.0007718519    1.579    0.367
       435  -9.4368     95.1135     71.0326   9.1245484349e+01   4.9411615561e+01    0.4090362    0.2254443 -52.44 0.0009398884    2.307    0.567
       436  -8.1337     42.7909     72.8691   1.0931923502e+02   5.7142301134e+01    0.1597191    0.1524161 -63.35 0.0005146202    1.359    0.264
       437  -7.7916    175.4893     72.5412   7.2964823365e+01   3.1616744930e+01    0.1402227    0.1303072  86.48 3.409479e-05    1.033    0.032
       438  -9.4332     51.4760     69.7206   1.0522071828e+02   5.6667432160e+01    0.4114572    0.2476232 -62.45  0.001678697    2.582    0.613
       439  -8.9562     28.5386     71.0080   1.1411677650e+02   5.9000770727e+01    0.3185182    0.1695654 -18.26  0.001543645    2.293    0.564
       440  -9.0396     16.5311     69.8053   1.1838685085e+02   6.0266361424e+01    0.3249101    0.1997216 -68.40  0.001414036    2.127    0.530
       441  -8.1527    156.9914     69.9638   7.5778140475e+01   3.6297813997e+01    0.1708168    0.1553086 -51.97 0.0004694576    1.132    0.117
       442  -8.8721    147.0712     68.3795   7.7382780000e+01   3.8826734592e+01    0.2635584    0.1994399 -53.64  0.000628316    1.408    0.290
       443  -8.5136    138.6461     66.3148   7.8632577789e+01   4.1066313613e+01    0.2396065    0.1606593 -50.15 0.0006959134    1.627    0.386
       444  -8.9392    121.5246     66.0106   8.2559143682e+01   4.4887540417e+01     0.272546    0.2183754 -67.27 0.0007976451    1.543    0.352
       445  -7.4583    203.2701     66.6793   6.7142402246e+01   2.6278640556e+01    0.1390569   0.09255073 -70.08 0.0002329537    1.566    0.361
       446  -7.8570    163.5279     66.0056   7.3487815546e+01   3.5427293654e+01    0.1988891    0.1086236 -60.59 0.0006162704    2.408    0.585
       447  -8.2016    163.4906     73.4844   7.5424111550e+01   3.4221721856e+01    0.2429976    0.1248001 -50.08 0.0008169037    2.078    0.519
       448  -9.2036    110.1999     63.6159   8.4748285847e+01   4.7657396592e+01     0.414756    0.2248309 -42.61  0.001286776    1.973    0.493
       449  -8.7687     37.3077     64.1607   1.0878957798e+02   5.9389136479e+01    0.2658096    0.2124526 -70.98  0.000947401    1.892    0.471
       450  -7.8545    158.0156     61.9735   7.3475207300e+01   3.7325541195e+01    0.1638336    0.1523845 -60.24 0.0003935345    1.109    0.099
       451  -8.0306     51.4456     62.4433   1.0297224736e+02   5.7979502739e+01    0.1303908    0.1064178 -11.58 0.0005184368    1.076    0.071
       452  -9.4232     97.6628     60.2252   8.7149030532e+01   5.0707156806e+01    0.3593738    0.2688083 -21.27  0.001868768    1.428    0.300
       453  -9.7995     73.2796     59.3943   9.4380041915e+01   5.5238105517e+01    0.3978502     0.229562 -47.88  0.001358733    2.031    0.508
       454  -8.1064    147.1409     59.1675   7.4855617485e+01   4.0245993129e+01    0.1907607    0.1568638 -70.52 0.0005366997    1.338    0.253
       455  -8.3116     88.7616     59.2162   8.9437723647e+01   5.2554681537e+01    0.1981382    0.1678975 -55.17 0.0006544411    1.469    0.319
       456  -9.8769     23.5307     56.6719   1.1190919513e+02   6.2125608210e+01    0.3967691    0.2890118 -78.63  0.002193472    2.671    0.626
       457  -8.4443    130.8952     57.9724   7.7994490565e+01   4.4084968696e+01    0.2128676    0.1633542 -76.34 0.0006133605    1.675    0.403
       458  -9.6528      7.6093     57.2189   1.1854274520e+02   6.3291750998e+01    0.2712491    0.2270012 -80.60  0.001123512    1.795    0.443
       459  -9.7151    119.2772     55.5727   8.0009487291e+01   4.6975711900e+01    0.3511485    0.2145545 -48.25  0.001245448    1.905    0.475
       460  -9.5021     54.3053     55.6735   9.9730642684e+01   5.8736993941e+01    0.3071193    0.2127492 -51.37  0.001174551    1.806    0.446
       461  -8.9797     44.3338     55.8764   1.0350136233e+02   6.0017792586e+01    0.2595668    0.1995122 -63.74  0.001072368    2.017    0.504
       462  -8.7480    139.8869     55.9659   7.5464807622e+01   4.2367272024e+01    0.2390335     0.180913 -44.45 0.0006839791    1.412    0.292
       463  -8.7367    105.7374     53.2229   8.2724886878e+01   5.0153855561e+01    0.2639832    0.2060782 -59.40 0.0008136588    1.653    0.395
       464  -9.4431     92.4520     50.7623   8.5613272719e+01   5.3134927669e+01    0.3304735    0.2162508 -49.30 0.0009883199    1.926    0.481
       465  -7.8927     74.3207     52.3262   9.1700468116e+01   5.6173508057e+01    0.1354542   0.09257734   5.12 0.0007047212    1.683    0.406
       466  -7.9411    144.7995     49.0432   7.2543776188e+01   4.2231810661e+01    0.1699294    0.1072743 -36.17 0.0007438171    1.722    0.419
       467  -8.4196    130.0145     49.2867   7.5672573022e+01   4.5522657610e+01    0.1876974    0.1656759  62.19 0.0004117474    1.080    0.074
       468  -7.3002    149.6965     48.7032   7.1510827469e+01   4.1161117079e+01     0.132799    0.0999864  32.25  0.000229199    1.582    0.368
       469  -8.8350    120.9229     47.4701   7.7183290079e+01   4.7761525886e+01    0.2191289    0.1801845 -52.40 0.0005008687    1.397    0.284
       470  -8.3958    112.1706     46.8912   7.9102490189e+01   4.9706930046e+01    0.1891976    0.1764974 -89.77 0.0005394125    1.246    0.197
       471  -9.1835     82.0519     46.1210   8.7164804263e+01   5.5724942993e+01    0.3438615    0.1993765 -35.87  0.001472319    1.815    0.449
       472  -8.6044     92.5996     43.3158   8.3123974512e+01   5.4136001840e+01    0.3291166    0.2021177  -6.21  0.001588022    2.257    0.557
       473  -8.5068     45.0798     44.6909   9.9422245541e+01   6.1711578574e+01    0.1946314    0.1512592 -36.45 0.0005941554    1.374    0.272
       474  -9.1270     16.6417     44.7014   1.1098218730e+02   6.4785566856e+01    0.2040363    0.1712901 -30.02 0.0007049113    1.227    0.185
       475  -8.8055    132.8728     43.6023   7.3416778266e+01   4.5644895558e+01    0.2439608    0.1886888 -50.45 0.0007460424    1.451    0.311
       476  -9.5204      5.1626     42.2790   1.1516852522e+02   6.6076770767e+01    0.2874106    0.1887133 -60.16  0.001265556    1.987    0.497
       477  -7.9152    220.5110     43.4594   5.9986286278e+01   2.5959426611e+01    0.1267531    0.1030111 -78.82 9.174398e-05    1.004    0.004
       478  -9.3359     69.6461     41.1670   8.9400968137e+01   5.8560104120e+01    0.4436379    0.2385496 -38.07  0.001830927    1.989    0.497
       479  -9.0615    105.9508     41.0248   7.8813338788e+01   5.1768763133e+01    0.3186973    0.1722127 -39.68  0.001187003    2.072    0.517
       480  -8.4273     36.8466     40.7795   1.0125831649e+02   6.3328333197e+01    0.1816652    0.1534957 -60.50 0.0007321799    1.925    0.480
       481  -8.5832     95.4111     37.9898   8.0583036524e+01   5.4271807607e+01     0.244738    0.1820965 -49.08 0.0008426967    1.706    0.414
       482  -8.1469     80.6238     36.8450   8.4421425078e+01   5.7213314741e+01    0.1652693     0.113012 -40.65 0.0005907375    1.722    0.419
       483  -9.3345     26.2343     35.5387   1.0373309080e+02   6.5300910870e+01     0.234536    0.1763961 -45.78 0.0008078488    1.668    0.400
       484  -9.2150     58.1728     42.5829   9.3836748165e+01   6.0182855216e+01    0.2728366     0.189544 -53.50  0.001010689    2.183    0.542
       485  -8.1716    125.9646     35.7202   7.2560186951e+01   4.8152151296e+01    0.1797769    0.1500566  56.80 0.0003275581    1.070    0.066
       486  -8.4167    111.7271     34.4512   7.5331383110e+01   5.1367749117e+01    0.2077534    0.1514272 -44.34 0.0005051589    1.609    0.379
       487  -7.5253    153.7249     34.3612   6.6963813927e+01   4.2076801211e+01    0.1318275   0.09230682 -70.88 0.0007005847    1.661    0.398
       488  -8.9218     48.6190     33.6627   9.4083708592e+01   6.2801891073e+01    0.2045505    0.1815229  -8.11 0.0007047399    1.235    0.190
       489  -8.4674    119.0411     33.0723   7.3250801348e+01   4.9968247878e+01    0.1921109    0.1507403 -76.96 0.0005506814    1.655    0.396
       490  -8.7905     60.6500     32.5342   8.9330090923e+01   6.1149544977e+01    0.2002281    0.1726554 -13.31 0.0004422867    1.203    0.169
       491  -7.4837    139.3118     31.7119   6.8778296721e+01   4.5652189329e+01    0.1266669   0.09457593 -81.53 0.0004350246    1.581    0.368
       492  -8.3891     72.0955     31.0913   8.5019270489e+01   5.9430096980e+01    0.1659633    0.1525762 -83.96 0.0006336772    1.646    0.393
       493  -8.6620    218.6392    247.4746   1.0177282402e+02  -1.0295701599e+01    0.3413012    0.1379553 -44.85  0.001534954    2.704    0.630
       494  -8.0341    101.4348     29.2948   7.6159248471e+01   5.4086440833e+01    0.1533117    0.1181067 -40.80 0.0005758511    1.534    0.348
       495  -8.8316     81.5056     27.5139   8.0894617065e+01   5.8157724091e+01    0.2261955    0.1865214 -56.02 0.0007513625    1.731    0.422
       496  -8.7077      3.5936     27.8936   1.1104433447e+02   6.8466016419e+01    0.1733896    0.1486697 -25.78 0.0009682339    1.357    0.263
       497  -8.7472     91.7850     26.5013   7.7698280081e+01   5.6314572101e+01    0.2243097    0.1878243 -48.37 0.0007254675    1.529    0.346
       498  -7.2472    145.6902     25.3781   6.5917416179e+01   4.4920108816e+01    0.1317649   0.08977514 -72.20   0.00070276    1.789    0.441
       499  -8.0891    104.5545     22.7853   7.3295399909e+01   5.4137659224e+01    0.1528363     0.115413 -41.59 0.0004586338    1.589    0.370
       500  -8.1637     34.6421     23.3582   9.5590573426e+01   6.5987548088e+01    0.1389775    0.1306575  24.51 0.0007508668    1.591    0.372
       501  -8.9722     63.5463     21.1763   8.4106962450e+01   6.2003530887e+01    0.2445328    0.1914654 -45.28  0.001057441    1.809    0.447
       502  -8.8401     48.3805     21.7999   8.9630861369e+01   6.4305948562e+01    0.2028236    0.1706876  -0.72 0.0006673603    1.154    0.134
       503  -8.1282     19.7683     21.5916   1.0123661059e+02   6.7916970321e+01     0.135666   0.09188389  27.18 0.0003723282    1.539    0.350
       504  -8.8876     73.9870     19.3721   8.0174131501e+01   6.0389207330e+01    0.2280087    0.1575716 -41.26 0.0008341675    1.881    0.468
       505  -8.1769     41.9690     30.0135   9.5253081336e+01   6.4192483300e+01    0.1419527    0.1123063   2.69 0.0004340751    1.003    0.003
       506  -7.9282     87.6670     17.8283   7.5801570763e+01   5.7997143471e+01    0.1484108    0.1067341 -33.17 0.0004148787    1.631    0.387
       507  -8.0082     38.7140     18.2014   9.1888140779e+01   6.6073890042e+01    0.1580579    0.1303495 -24.76 0.0007504859    1.431    0.301
       508  -7.7108    112.7756     16.9259   6.9627487165e+01   5.2990807951e+01     0.137773    0.1023379 -18.19 0.0003356208    1.580    0.367
       509  -9.0277    175.6208    247.7653   1.1037541401e+02  -3.9472089871e+00    0.3112954    0.2485373 -84.31  0.001148346    1.959    0.489
       510  -8.5338    156.5404    248.5538   1.1445570666e+02  -1.0488547652e+00    0.2502604    0.1804861  70.46 0.0007896215    2.016    0.504
       511  -8.1932    113.1412    248.7544   1.2361193873e+02   5.9092383426e+00    0.2301628     0.151346 -71.48  0.001209247    1.782    0.439
       512  -7.5974     47.7047     10.3519   8.5285936230e+01   6.5619784574e+01   0.09344354   0.09071313 -48.55 0.0007032943    1.684    0.406
       513  -8.2386     17.0742     14.2864   9.9472929950e+01   6.9118455634e+01    0.1489596    0.1118002   5.10 0.0006294884    1.113    0.101
       514  -9.1337    103.9077    247.0600   1.2533447381e+02   7.7058069712e+00    0.4185185    0.2248355 -77.17  0.001858012    2.594    0.615
       515  -8.8309    242.8518    246.7154   9.7147294225e+01  -1.3376685505e+01    0.3388622     0.127951 -36.34  0.001538099    2.445    0.591
       516  -8.8282    232.7693    247.3456   9.9095139918e+01  -1.2179639199e+01    0.1949798    0.1841894 -23.55 0.0007723245    1.422    0.297
       517  -8.7675    132.1016    247.8904   1.1949974124e+02   3.0344210980e+00    0.2355289    0.1988821  68.90 0.0007591145    1.275    0.216
       518  -7.5914     40.6639    248.3155   1.3820405781e+02   1.6424576256e+01    0.1329336   0.07261316  66.43 0.0002824721    1.694    0.410
       519 -10.0550    224.0891    244.0327   1.0015108429e+02  -1.0510377376e+01    0.5100819    0.2537356 -43.29  0.002237947    2.109    0.526
       520  -7.8281    168.6548    247.7097   1.1180399315e+02  -2.8361334607e+00    0.1341151   0.09669198   3.39 0.0004133774    1.657    0.397
       521  -8.9880    147.1114    245.8832   1.1603538819e+02   9.7629981503e-01    0.2981195    0.2077526  77.49  0.001401885    2.235    0.552
