#   1 NUMBER                 Running object number                                     
#   2 MAG_AUTO               Kron-like elliptical aperture magnitude                    [mag]
#   3 X_IMAGE                Object position along x                                    [pixel]
#   4 Y_IMAGE                Object position along y                                    [pixel]
#   5 X_WORLD                Barycenter position along world x axis                     [deg]
#   6 Y_WORLD                Barycenter position along world y axis                     [deg]
#   7 A_WORLD                Profile RMS along major axis (world units)                 [deg]
#   8 B_WORLD                Profile RMS along minor axis (world units)                 [deg]
#   9 THETA_WORLD            Position angle (CCW/world-x)                               [deg]
#  10 FWHM_WORLD             FWHM assuming a gaussian core                              [deg]
#  11 ELONGATION             A_IMAGE/B_IMAGE                                           
#  12 ELLIPTICITY            1 - B_IMAGE/A_IMAGE                                       
         1 -12.1194     42.2930     19.7417   2.9153308136e+02   7.2808004952e+00    0.0390529   0.02078493  39.13  0.002689779    1.841    0.457
         2 -12.5996    217.1858     16.0990   2.8946136618e+02   6.2326343731e+00   0.03677054   0.02337248  35.86  0.002360181    1.524    0.344
         3 -13.6245    189.9111      8.6380   2.8973325563e+02   6.4877220197e+00   0.04339949   0.02074908  33.65  0.003868657    1.980    0.495
         4 -11.1806     53.4604      1.8823   2.9128965305e+02   7.4141988741e+00   0.01662016  0.009448908  52.78  0.001502077    2.125    0.529
         5 -11.8115     58.9218      8.1283   2.9126489534e+02   7.3094388036e+00   0.02725727   0.01630155  10.91  0.002521613    2.051    0.512
         6 -12.0463     43.6772      8.2647   2.9144462969e+02   7.4024687110e+00   0.01746729   0.01481932  35.10  0.001032071    1.158    0.136
         7 -12.1460    166.1341      1.9355   2.8996923582e+02   6.7122131746e+00   0.03093527  0.009927847  26.45  0.002173712    3.240    0.691
         8 -11.0646     96.0104    224.7025   2.9218938625e+02   4.6179076949e+00   0.01732819   0.01086914  46.87  0.001712723    1.692    0.409
         9 -10.0455     77.0124    226.0000   2.9241958590e+02   4.7210018045e+00   0.01120447  0.003742905  27.94  0.000802186    2.941    0.660
        10 -10.6460    149.6028    222.9165   2.9155192224e+02   4.3053034914e+00   0.01323359  0.008950418 -82.26  0.001306601    1.858    0.462
        11 -11.3116    222.0213    214.0000   2.9065043189e+02   3.9558659706e+00   0.01057279  0.008961333  24.94   0.00122458    1.161    0.139
        12 -10.5661    232.9875    211.4836   2.9050668226e+02   3.9161147216e+00   0.01005227  0.004798384  48.93 0.0007840032    2.499    0.600
        13 -10.5935    116.1544    210.0387   2.9186217362e+02   4.6595920821e+00   0.01140737  0.007733362  75.72  0.001091691    2.032    0.508
        14 -10.4588    186.0150    204.3056   2.9100995640e+02   4.2902783075e+00   0.01375874  0.008417818  80.30  0.001171157    2.645    0.622
        15 -10.5225     48.6739    201.5208   2.9259803249e+02   5.1750762956e+00   0.01222954  0.006216325 -61.65  0.001092116    2.016    0.504
        16 -10.6505      4.7515    199.1018   2.9309681204e+02   5.4743695583e+00   0.01776396  0.009798926  53.67  0.001561626    2.264    0.558
        17 -12.4055    159.9604    191.7217   2.9123541007e+02   4.5954795077e+00   0.03250649   0.02249956  81.48   0.00272432    1.959    0.489
        18  -9.7683    133.3003    195.6578   2.9157167784e+02   4.7165558116e+00  0.006974788  0.005064827  64.81 0.0003608662    1.673    0.402
        19 -10.1579     34.3628    187.6740   2.9267895030e+02   5.4212118409e+00  0.007255612  0.004927817  60.16  0.000704044    1.792    0.442
        20 -10.1243    109.0117    185.9910   2.9179510403e+02   4.9774070698e+00   0.01193819  0.007292642  83.84  0.001014739    2.624    0.619
        21 -10.4793    183.5416    183.2259   2.9090658812e+02   4.5452305323e+00   0.01713384   0.00610586 -57.82   0.00131742    2.694    0.629
        22 -10.4709    224.0065    183.4156   2.9043524809e+02   4.2909128741e+00   0.01019169  0.008108606 -60.56  0.001141502    1.282    0.220
        23  -9.9995    210.5025    182.9983   2.9059027824e+02   4.3798356618e+00   0.01052879  0.006604966 -60.78   0.00103852    1.624    0.384
        24 -11.3676     34.4012    173.2123   2.9258810379e+02   5.5854787188e+00   0.01412099  0.009886729  70.04  0.001411659    1.850    0.459
        25  -9.8054    168.3244    169.6479   2.9099917158e+02   4.7943016422e+00  0.007154122  0.005019595  63.61 0.0007047807    1.758    0.431
        26 -11.5898    120.8467    168.0000   2.9154393566e+02   5.1084231166e+00   0.02071161  0.009895492 -73.57  0.001620733    2.913    0.657
        27 -10.1400     44.3483    168.3159   2.9244104535e+02   5.5795700560e+00  0.007144526  0.005004095 -22.71  0.000704765    1.726    0.421
        28 -10.1440     55.2979    167.6679   2.9230882467e+02   5.5190928153e+00  0.006919215  0.005064034  64.33 0.0003357785    1.644    0.392
        29 -10.3087     99.0079    166.5066   2.9179004368e+02   5.2610987888e+00   0.01050541  0.006389958  30.27 0.0008985772    1.593    0.372
        30 -10.0880    138.7039    164.7077   2.9131444842e+02   5.0348059632e+00   0.01368902  0.008413808  85.99  0.001183354    2.551    0.608
        31 -10.6030     79.4253    163.5549   2.9200069166e+02   5.4162357675e+00   0.02143312   0.01125762  81.37  0.001342637    5.033    0.801
        32 -11.0301     28.8059    156.7692   2.9255077345e+02   5.8071476946e+00   0.02572458   0.01427412  84.65   0.00190784    3.591    0.722
        33 -11.6318    106.3476    157.8560   2.9164994478e+02   5.3138646440e+00   0.02820432    0.0186573  65.33  0.002728932    1.989    0.497
        34 -10.8850    167.8870    157.4306   2.9092758091e+02   4.9358693070e+00   0.01539023   0.01030234  89.80  0.001478381    2.035    0.509
        35 -11.1684    119.2334    156.8008   2.9149257368e+02   5.2457750465e+00   0.01511271   0.01187363  59.53  0.001668988    1.426    0.299
        36 -10.0063      6.7833    155.9532   2.9280355701e+02   5.9526665791e+00   0.00885802  0.005391367 -59.62 0.0005209066    1.656    0.396
        37 -10.3971    189.8918    150.6031   2.9062752196e+02   4.8763475810e+00   0.01318977   0.00824292  66.13  0.001192948    2.258    0.557
        38  -9.8068     40.4842    151.6106   2.9238175099e+02   5.7935048198e+00  0.006600504  0.006314959  23.08 0.0002426489    1.026    0.025
        39 -10.4574    218.3841    156.5869   2.9033230775e+02   4.6307151052e+00    0.0129205  0.006496784 -79.67 0.0009576487    3.303    0.697
        40 -11.3292    107.5869    145.9827   2.9156098212e+02   5.4411523828e+00   0.02519992   0.01139573  53.68  0.001846694    3.302    0.697
        41 -10.5390     55.8035    146.1978   2.9216848554e+02   5.7601321202e+00   0.01198812  0.006559728  62.20 0.0009547875    2.860    0.650
        42 -10.3702    148.3949    145.1945   2.9107864381e+02   5.1962936275e+00  0.009571142  0.006511471 -78.81 0.0007057916    1.777    0.437
        43 -11.0654     83.4130    132.2672   2.9175790748e+02   5.7472403732e+00   0.01791284   0.01114236  77.65  0.001570181    2.514    0.602
        44 -10.3834    131.9626    131.2758   2.9118345458e+02   5.4567495459e+00    0.0139371  0.008463955  80.62   0.00117501    2.701    0.630
        45 -12.1409     98.6626    128.0565   2.9155296170e+02   5.7003922367e+00   0.03095839   0.01823068  78.28  0.002524749    2.962    0.662
        46 -10.3745    118.3731    125.7867   2.9130800528e+02   5.6036687855e+00   0.01523065  0.005892785  51.64 0.0009614218    4.264    0.765
        47 -11.3555     43.6423    123.1353   2.9216642619e+02   6.0977484416e+00   0.03228232   0.01750637  73.86   0.00229071    3.931    0.746
        48 -10.9154     58.8787    124.0212   2.9199350468e+02   5.9932272705e+00   0.01600251  0.009084305  87.60  0.001247072    3.179    0.685
        49 -11.1570     28.1179    122.9656   2.9234723711e+02   6.1958327305e+00   0.02241448   0.01283009  82.51  0.001745912    3.244    0.692
        50 -11.5732     37.6688    121.1290   2.9222383457e+02   6.1575686861e+00   0.01146499   0.01042503  23.73  0.000283783    1.081    0.075
        51 -11.6283    193.4180    118.5373   2.9038470894e+02   5.2186154601e+00   0.02598271   0.01831874  73.15  0.002347245    1.859    0.462
        52 -10.5120     71.3515    120.2895   2.9182401982e+02   5.9582757649e+00   0.01775755   0.01039547  68.82  0.001478679    2.749    0.636
        53 -11.7003    141.6572    112.4646   2.9095184087e+02   5.6101732957e+00   0.01929143   0.01086377 -28.95  0.001656743    2.441    0.590
        54 -10.3883      2.0000    115.9948   2.9260963937e+02   6.4366710586e+00   0.01114494  0.003805828 -61.22 0.0008076599    2.979    0.664
        55  -9.5153    232.3155    115.2959   2.8990987971e+02   5.0126525495e+00  0.006889984  0.005040753 -22.55 0.0003079252    1.604    0.377
        56 -10.6737    108.1376    112.5201   2.9134450482e+02   5.8180932620e+00   0.02324866   0.01141152 -81.67  0.001623159    3.879    0.742
        57 -10.7577     78.8580    112.7929   2.9168907127e+02   5.9969009554e+00   0.02146348   0.01175985  74.54  0.001542498    3.799    0.737
        58 -12.1458    159.9848    111.1323   2.9072905273e+02   5.5111567636e+00   0.02617026     0.019136 -76.66  0.002786121    1.565    0.361
        59 -10.9669    121.8243    112.1569   2.9118200618e+02   5.7371014859e+00   0.01717404  0.009645198 -75.77  0.001510461    2.319    0.569
        60 -10.4124     92.3389    112.8557   2.9153159188e+02   5.9124647104e+00   0.01319639  0.006573911 -71.95  0.001082621    2.568    0.611
        61 -10.6708    174.3955    111.4390   2.9056244618e+02   5.4178596013e+00   0.01520351   0.01165721  89.56   0.00112461    1.578    0.366
        62 -11.6044     14.9616    110.2690   2.9242187583e+02   6.4216155615e+00   0.03159005   0.02127114  77.79  0.003043555    2.073    0.518
        63  -9.6035     59.3397    109.6566   2.9189802348e+02   6.1536704435e+00  0.007202543  0.004984317  62.19 0.0007048644    1.777    0.437
        64 -12.6059    141.2463    105.2805   2.9091148874e+02   5.6943548578e+00   0.02681497   0.01229296  42.69  0.002276901    2.247    0.555
        65 -12.0264     44.4545    101.0220   2.9201827431e+02   6.3441088660e+00   0.03570938   0.02074302  79.76  0.002852025    3.105    0.678
        66 -12.1798    150.7923    103.1994   2.9078670743e+02   5.6585461351e+00   0.01966913   0.01210755  62.23  0.001798726    2.202    0.546
        67 -12.0591    127.9113    101.0643   2.9104105124e+02   5.8252699576e+00   0.02333508   0.01449214 -76.33  0.002221726    1.987    0.497
        68 -12.3918    111.9890    101.4926   2.9123014002e+02   5.9194605592e+00   0.03904631  0.007143341  37.59  0.002305415    4.507    0.778
        69 -11.4530    107.1966     98.3123   2.9126627120e+02   5.9853993941e+00   0.02379871   0.01498276  89.17  0.002033224    2.341    0.573
        70 -10.4796     81.6947    100.3693   2.9157786221e+02   6.1204921765e+00   0.01105041  0.007677729  60.55  0.001112378    1.737    0.424
        71 -10.3299     19.6146     97.6025   2.9228796933e+02   6.5368200969e+00    0.0164232   0.00688851 -67.77  0.001255374    2.898    0.655
        72 -10.8217     63.0349     96.0653   2.9176945034e+02   6.2852312407e+00   0.01721009  0.008968211  89.75  0.001147403    4.350    0.770
        73 -13.3216    170.2059     90.8595   2.9048196763e+02   5.6777142977e+00   0.02246886   0.01607426  49.78 0.0009928795    1.495    0.331
        74 -10.8507     34.0938     89.0268   2.9206446822e+02   6.5446440790e+00    0.0214239   0.01001739 -73.33  0.001651767    3.004    0.667
        75  -9.7223     79.5446     90.5376   2.9154130871e+02   6.2455735266e+00  0.006584499  0.006452421  12.76 7.652703e-05    1.003    0.003
        76 -10.7530    173.4400     86.4986   2.9041669067e+02   5.7070687264e+00   0.01158053   0.01121238 -72.38 0.0006713085    1.070    0.065
        77 -11.4983     86.7800     86.9055   2.9143372855e+02   6.2419050185e+00   0.02191056   0.01413598  68.07  0.002050261    2.155    0.536
        78 -11.0189     42.3670     87.6723   2.9195899323e+02   6.5087778168e+00   0.02074582   0.01126588  -0.28  0.001586291    3.191    0.687
        79 -10.8009     48.6632     85.3199   2.9187042989e+02   6.4964834178e+00   0.01620905  0.008628227  56.18  0.001347125    2.577    0.612
        80 -10.7442     45.5607     81.7495   2.9188438616e+02   6.5562909624e+00   0.02704261   0.01160297 -44.55  0.002099043    2.537    0.606
        81 -11.1661    104.4397     83.2488   2.9120388809e+02   6.1736897656e+00   0.01825336   0.01224534  69.57  0.001470175    2.012    0.503
        82 -10.7547     24.0094     80.0372   2.9212630185e+02   6.7092591296e+00   0.01752498  0.009079099 -89.98  0.001158141    4.431    0.774
        83 -11.4171     82.3667     73.1490   2.9139899511e+02   6.4256139653e+00   0.02168868   0.01246169  83.69  0.001701054    3.194    0.687
        84 -10.8971     62.3800     69.7883   2.9161211902e+02   6.5878824351e+00    0.0154663  0.006264575 -60.31  0.001245928    2.479    0.597
        85 -11.3690    223.5000     70.9925   2.8973379121e+02   5.5705670968e+00   0.01476037    0.0126882  53.43 0.0004942564    1.223    0.182
        86 -11.0521    132.9933    106.9377   2.9101848672e+02   5.7269064696e+00   0.01973995  0.009764099 -63.50  0.001162502    2.136    0.532
        87 -10.5930     51.4782     69.9923   2.9174119893e+02   6.6531926016e+00   0.01492712  0.006990343 -69.52  0.001205024    2.626    0.619
        88 -10.1567    195.0469     68.7633   2.9005231594e+02   5.7735886873e+00  0.009062305  0.005470325  29.18 0.0008778312    1.613    0.380
        89 -10.3739    219.2416     65.7024   2.8975020776e+02   5.6572033053e+00   0.01351842   0.01079622  -1.53  0.001501535    1.394    0.282
        90 -11.9403     20.7925     50.8861   2.9198107120e+02   7.0603727819e+00   0.02752749   0.01571167 -60.02  0.002651083    1.770    0.435
        91 -12.0905     37.1859     61.4865   2.9185536022e+02   6.8384231531e+00   0.03953498   0.01743888 -65.73  0.003230258    2.548    0.608
        92 -13.3004     28.2224     59.4767   2.9194786122e+02   6.9167831408e+00   0.04755327   0.04124853  36.14  0.004299662    1.137    0.120
        93 -11.8073    237.8913     64.1341   2.8952244030e+02   5.5584223491e+00   0.01084867  0.009258639  59.53    0.0012535    1.267    0.211
        94 -11.7915      9.5507     57.6108   2.9215516276e+02   7.0535531814e+00   0.03617111   0.02230617  60.63   0.00335852    2.140    0.533
        95 -10.8501     40.0807     52.2194   2.9176320335e+02   6.9257500186e+00   0.01831133   0.01063748 -31.87  0.001651984    2.171    0.539
        96 -11.0965     82.5606     44.9382   2.9121933200e+02   6.7448120735e+00   0.01430856   0.01184629 -58.09 0.0007905993    1.225    0.183
        97 -10.0959    157.1392     44.8930   2.9034540553e+02   6.2810484442e+00   0.01012047  0.008815782  54.62 0.0004474837    1.209    0.173
        98 -11.1503    140.3070     43.8174   2.9053569731e+02   6.3981882023e+00  0.009822316  0.008604661  42.36   0.00115489    1.145    0.127
        99 -10.3401      9.7931     43.6324   2.9206457191e+02   7.2108297741e+00   0.01484536  0.009044793  33.42 0.0008278561    1.581    0.368
       100 -10.7251      5.6896     42.5650   2.9210602144e+02   7.2483352350e+00   0.01736876   0.01210642  84.02  0.001649521    1.922    0.480
       101 -11.5274     71.2689     42.4343   2.9133596042e+02   6.8433840450e+00    0.0313669   0.01226735  41.29  0.002478231    2.579    0.612
       102 -11.1395     35.9308     37.9081   2.9172195048e+02   7.1139976207e+00   0.02067166   0.01289455 -88.45  0.001869963    2.334    0.572
       103 -11.3598     42.9063     38.2882   2.9164251165e+02   7.0664448778e+00   0.01641524   0.01370548 -20.46 0.0009942446    1.295    0.228
       104 -10.8432    119.4115     33.3347   2.9071441765e+02   6.6473245162e+00   0.01462891   0.01195267  79.34 0.0009235613    1.433    0.302
       105 -10.2486     73.2715     32.2935   2.9124868086e+02   6.9460788743e+00   0.01486838  0.006651426  46.81  0.001190577    2.567    0.610
       106 -11.2899    103.4232     30.1701   2.9088184102e+02   6.7827509225e+00   0.02546174   0.01396494  43.32  0.001990341    1.874    0.466
       107  -9.6755     46.9914     30.0095   2.9154253906e+02   7.1351105807e+00  0.007870013  0.007343826  23.05  0.000316947    1.051    0.049
       108 -10.9264     36.4998     23.2410   2.9162306515e+02   7.2769906893e+00   0.02573546  0.006401845  38.04  0.001694683    3.620    0.724
       109 -11.6582    221.1772    249.1856   2.9088094195e+02   3.5614383754e+00   0.02598615    0.0086272  40.98  0.001888507    3.023    0.669
       110 -11.6750     25.5091    242.0123   2.9312163874e+02   4.8578409304e+00   0.01351894   0.01016574  71.67  0.001251717    1.630    0.387
       111  -9.8689     88.4902     17.9610   2.9098000811e+02   7.0141816855e+00  0.009288285  0.005842287  82.33 0.0006532923    2.450    0.592
       112 -10.4258    239.6803     20.8518   2.8922848835e+02   6.0380245620e+00   0.01116364  0.009106841   9.18 0.0005799527    1.295    0.228
       113 -10.7038      8.4999    240.4846   2.9331096889e+02   4.9803888351e+00   0.01379415  0.006529536  26.94 0.0008990128    2.099    0.524
       114 -12.0110     29.9993    233.8481   2.9301824008e+02   4.9229390563e+00   0.03329546   0.01893213  64.86  0.002768308    2.751    0.636
       115 -10.6588     12.8438    227.3028   2.9317803176e+02   5.1035052054e+00   0.01086643  0.009228827 -81.07 0.0005217493    1.293    0.227
       116 -10.3596    103.5381    225.0264   2.9210342178e+02   4.5675014154e+00   0.01026292  0.006498304 -58.43 0.0006813651    1.585    0.369
