#   1 NUMBER                 Running object number                                     
#   2 MAG_AUTO               Kron-like elliptical aperture magnitude                    [mag]
#   3 X_IMAGE                Object position along x                                    [pixel]
#   4 Y_IMAGE                Object position along y                                    [pixel]
#   5 X_WORLD                Barycenter position along world x axis                     [deg]
#   6 Y_WORLD                Barycenter position along world y axis                     [deg]
#   7 A_WORLD                Profile RMS along major axis (world units)                 [deg]
#   8 B_WORLD                Profile RMS along minor axis (world units)                 [deg]
#   9 THETA_WORLD            Position angle (CCW/world-x)                               [deg]
#  10 FWHM_WORLD             FWHM assuming a gaussian core                              [deg]
#  11 ELONGATION             A_IMAGE/B_IMAGE                                           
#  12 ELLIPTICITY            1 - B_IMAGE/A_IMAGE                                       
         1 -12.2141    190.5400     37.5834   5.2980175520e+01   3.2641919578e+01     1.041124    0.9877462   5.75  0.003632722    1.154    0.134
         2 -12.3774    197.7525     29.3325   4.9552051774e+01   3.1834311598e+01    0.8734581    0.7179868  14.58  0.001538257    1.483    0.326
         3 -10.7258    216.4687     13.4577   4.3025071476e+01   2.8948070014e+01    0.5383642    0.2121941 -57.27  0.001968904    3.128    0.680
         4  -9.1129     56.3282      9.6650   7.4973699323e+01   6.6561247766e+01     0.111401     0.097696 -49.43 -1.411806e-05    1.723    0.420
         5 -11.7110    220.1500      3.6654   4.0166181991e+01   2.9072779010e+01    0.8957015    0.4487292  74.63  0.004269587    1.876    0.467
         6  -8.6263     61.8832    220.1184   1.2121147322e+02   2.1860086075e+01    0.1727014    0.1201168  72.26 0.0005448926    1.174    0.148
         7 -19.4141     10.8330    136.8091   1.2427381206e+02   4.4915821929e+01     17.99824     2.780312 -74.85   0.05220696    5.952    0.832
         8 -10.3015    115.1060    173.7931   1.0473933335e+02   2.3219573634e+01    0.3811562    0.2236169  39.17  0.001819287    1.699    0.412
         9  -9.3307    104.7607    172.6651   1.0688538568e+02   2.5218436001e+01    0.2377667    0.1961808 -74.91  0.001129458    1.193    0.162
        10  -8.6038    142.3554    171.6625   9.8293357531e+01   1.8689399126e+01    0.1503738    0.1089661  77.04 0.0007041949    1.804    0.446
        11  -9.3685     96.0071    168.4980   1.0822660274e+02   2.7554738453e+01    0.2056828    0.1278294  42.73 0.0005686008    1.582    0.368
        12 -10.4307     94.5182    154.2262   1.0626192201e+02   3.0995474362e+01    0.5925517    0.3703548 -36.55  0.002504717    2.226    0.551
        13 -10.1678    176.3503    219.3569   9.9392241874e+01   4.0188551790e+00    0.4872187    0.1314456  36.68  0.001606615    3.985    0.749
        14  -9.5435    133.9665    146.0551   9.5161386327e+01   2.5721127333e+01    0.8825291    0.2303673 -55.05  0.002126654    5.855    0.829
        15 -10.7000     94.7584    139.5237   1.0354636745e+02   3.4347639979e+01    0.2949091    0.2767772  15.99 0.0004779558    1.272    0.214
        16  -9.1238    130.9488    213.9801   1.0738377460e+02   1.2675744296e+01     0.192914    0.1631383  57.40 0.0003761582    1.046    0.044
        17  -9.8351    107.0614    210.6619   1.1165896276e+02   1.7166662741e+01    0.2191501    0.1819345  50.29  0.001013217    1.126    0.112
        18  -9.3340    106.0171    130.6405   9.8836028540e+01   3.4483396441e+01     0.360837    0.2869422 -73.10  0.001509089    1.305    0.234
        19  -9.8264    114.2919    130.2947   9.6618520792e+01   3.3049933565e+01    0.3312097    0.2832049 -30.09  0.001006684    1.319    0.242
        20  -9.8888    106.9824    138.7665   1.0028676640e+02   3.2436042441e+01    0.4698489    0.2860504 -32.63  0.001958394    2.324    0.570
        21  -9.1670    101.7679    126.2182   9.8994373271e+01   3.6260858950e+01    0.2762712    0.2408925 -13.77 0.0008899025    1.409    0.290
        22  -9.2923     96.5826    200.8206   1.1255195235e+02   2.0692952749e+01    0.2813971    0.2353763 -27.39  0.001165222    1.803    0.445
        23  -8.2996    109.8935    119.2373   9.5236626586e+01   3.6408207801e+01    0.1950574    0.1931904  38.11 0.0004067895    1.079    0.074
        24  -8.8417    167.6126    112.6598   7.9233813078e+01   2.5526883450e+01    0.3600315    0.2687657 -68.86    0.0010435    1.737    0.424
        25  -9.5991    119.1192    111.3507   9.0824252434e+01   3.6421657046e+01    0.2712418    0.2081137 -38.73  0.001238216    1.313    0.238
        26  -8.2429    205.8073    110.3612   7.0765554729e+01   1.7048151119e+01    0.2133083    0.1390081  40.99 0.0005037831    1.620    0.383
        27  -8.1600    134.4126    105.2256   8.5199396949e+01   3.4584919962e+01    0.2320026    0.1447335 -54.06 0.0009563435    1.721    0.419
        28  -8.8371    194.1695    197.4827   9.2313533701e+01   4.2390409805e+00    0.1998578    0.1913128 -80.71  0.001049142    1.354    0.261
        29 -10.4011    113.7680    195.1336   1.0826527685e+02   1.9071063324e+01    0.3897872    0.2740603 -19.45  0.001862285    2.720    0.632
        30  -8.5709     96.8253    193.1051   1.1152927237e+02   2.2202962540e+01    0.2442188    0.1716501 -31.63   0.00125546    2.352    0.575
        31  -8.5979    191.7737    192.5614   9.1881165107e+01   5.4628293350e+00    0.2745488    0.1608395 -63.10  0.001081624    3.543    0.718
        32  -8.2144    183.6638     83.3124   6.7673978647e+01   2.7246924730e+01    0.1625373    0.1223747 -71.59 0.0007045564    1.687    0.407
        33  -8.6477     94.2908    250.0137   1.1807627265e+02   1.2260160730e+01    0.1515378    0.1191024  65.91 0.0004861814    1.087    0.080
        34  -9.4231    160.1508     61.7967   6.5983393296e+01   3.6880703091e+01    0.2915307    0.2462803 -70.36 0.0005604635    1.361    0.265
        35  -8.5949    162.0362     55.2819   6.3504661782e+01   3.7456210062e+01    0.2097039    0.1962419  64.93 0.0004133839    1.083    0.077
        36 -11.2054    178.7095     48.3753   5.8167195352e+01   3.4210633793e+01    0.4916855      0.44951 -11.83  0.001400506    1.158    0.137
        37  -8.6959     99.2376    180.8581   1.0934256672e+02   2.4366248046e+01    0.2007253    0.1640191  75.05 0.0005670078    1.142    0.124
        38 -10.5586    140.2666    243.7922   1.0938608620e+02   6.3102323078e+00    0.2907685    0.2269146 -73.05  0.001991261    1.624    0.384
        39 -10.6316     77.4431    175.4967   1.1340255463e+02   2.8825631165e+01    0.3607649    0.2660471 -52.01 0.0007656585    1.547    0.354
        40 -10.8067     81.4421    170.0626   1.1177513371e+02   2.9442348904e+01    0.4344157    0.2780429 -44.19  0.002215591    1.985    0.496
        41  -8.1547     73.1038    230.6894   1.2008974482e+02   1.8451235365e+01    0.1538961   0.09282421  37.02 0.0009291426    1.773    0.436
        42  -8.8727     58.8879    228.0184   1.2238005645e+02   2.0786768488e+01    0.1833661    0.1275919  81.64 0.0006116385    1.228    0.185
