#   1 NUMBER                 Running object number                                     
#   2 MAG_AUTO               Kron-like elliptical aperture magnitude                    [mag]
#   3 X_IMAGE                Object position along x                                    [pixel]
#   4 Y_IMAGE                Object position along y                                    [pixel]
#   5 X_WORLD                Barycenter position along world x axis                     [deg]
#   6 Y_WORLD                Barycenter position along world y axis                     [deg]
#   7 A_WORLD                Profile RMS along major axis (world units)                 [deg]
#   8 B_WORLD                Profile RMS along minor axis (world units)                 [deg]
#   9 THETA_WORLD            Position angle (CCW/world-x)                               [deg]
#  10 FWHM_WORLD             FWHM assuming a gaussian core                              [deg]
#  11 ELONGATION             A_IMAGE/B_IMAGE                                           
#  12 ELLIPTICITY            1 - B_IMAGE/A_IMAGE                                       
         1 -11.8015    216.5564     14.5138   4.3719639541e+01   2.8828079459e+01    0.7408361    0.6793644 -71.50  0.002959447    1.030    0.029
         2 -12.0701    201.9877     30.6701   4.9847875783e+01   3.0619910064e+01     1.040663    0.9011825   9.86  0.005192443    1.364    0.267
         3  -9.8051     32.7768     12.1480   8.7237940665e+01   6.9449349414e+01    0.3910052   0.07981263 -40.15  0.001389602    4.128    0.758
         4  -8.7894     16.3259      8.3307   9.3588693183e+01   7.1687068688e+01    0.1221748    0.0664912 -20.51 0.0003630342    1.706    0.414
         5  -8.1909     43.3467      4.2760   7.8356794810e+01   6.9196582650e+01    0.1241943   0.07656984   4.94 0.0004741365    1.630    0.387
         6  -9.1998     12.4271      2.3035   9.2676736828e+01   7.2948069242e+01    0.2231618   0.07920704 -39.12  0.001145114    2.157    0.536
         7 -11.0396     50.9925    242.9453   1.2521360988e+02   1.9249216901e+01      0.28356    0.2065687  47.22  0.002154407    1.386    0.279
         8 -10.8164    114.5241    249.5338   1.1503724672e+02   9.5490576978e+00    0.7251806    0.1796109  40.37  0.002907088    3.408    0.707
         9  -9.6610    119.5428    248.4598   1.1405906904e+02   8.9624448588e+00    0.2541034    0.1785763  40.43 0.0009814508    1.283    0.220
        10 -10.8987    100.1428    248.7994   1.1744125109e+02   1.1764043136e+01    0.4741682     0.293702  65.18  0.003090339    1.483    0.326
        11 -10.7801     83.3858    249.0143   1.2029759035e+02   1.4074527873e+01    0.3908371    0.2495674 -89.41  0.002669425    1.650    0.394
        12  -8.6051     53.0196    250.5422   1.2537002792e+02   1.7738230890e+01    0.1546149   0.07812833  47.58 0.0005542406    1.548    0.354
        13 -12.5218     41.4792    210.5427   1.2461452246e+02   2.6246412133e+01    0.8908271    0.6382651 -50.70  0.001429199    2.046    0.511
        14 -14.0092     50.7418    201.2934   1.2215778578e+02   2.6973541890e+01     5.708125     2.104112  70.91   0.02008769    4.915    0.797
        15  -9.8709     32.9677    204.5531   1.2572741982e+02   2.8361035640e+01    0.2404651    0.1281409 -79.68  0.001486224    1.633    0.387
        16  -9.3769     60.1658    231.3126   1.2286314764e+02   2.0134913257e+01     0.189624    0.1376745 -65.45 0.0008616542    1.638    0.390
        17  -9.7655     28.3371    196.9432   1.2604146730e+02   3.0362993997e+01    0.2019089    0.1617527 -82.85 0.0007335682    1.253    0.202
        18  -9.0012     60.0272    187.8411   1.1905586459e+02   2.8577861436e+01    0.2178089    0.1574956 -80.35  0.001379992    1.243    0.195
        19  -9.7154    124.9405    228.7325   1.1091800014e+02   1.1262617272e+01    0.2040702    0.1510212  86.45 0.0008171452    1.586    0.369
        20 -10.1155     66.8173    182.0744   1.1701879287e+02   2.8915094787e+01    0.3827015    0.2535856 -39.90  0.002044232    2.327    0.570
        21 -10.1750     71.6463    176.3785   1.1530839598e+02   2.9490130908e+01    0.2812296    0.2329362 -47.89 0.0008598806    1.515    0.340
        22  -9.8813     73.0688    154.2321   1.1199037116e+02   3.4243644629e+01    0.3114576    0.2057429  76.90  0.001438285    1.663    0.399
        23  -9.7799     77.3910    158.4525   1.1158705564e+02   3.2671096429e+01    0.4058782    0.1870976 -71.65  0.001717193    2.363    0.577
        24  -9.9315     80.9232    166.2408   1.1189361179e+02   3.0408863531e+01    0.3309155    0.2695749  21.24 0.0004958756    1.635    0.388
        25 -11.0034     85.8296    160.2783   1.0987448983e+02   3.1016595934e+01    0.5968649    0.5033874   4.80  0.001756712    1.700    0.412
        26 -11.6267     68.1983    162.5942   1.1431251169e+02   3.3007709155e+01    0.4640962    0.3025472 -42.50  0.001001364    2.028    0.507
        27 -11.1467     97.9085    226.5089   1.1568569116e+02   1.5802427064e+01    0.5778566    0.2248974  55.02   0.00264772    2.514    0.602
        28 -10.2690     22.8346    155.1121   1.2375292879e+02   3.9782007372e+01    0.2946272    0.1414398 -75.47    0.0015217    1.683    0.406
        29  -8.0545     38.7124    146.3861   1.1917222099e+02   4.0214652164e+01     0.143355    0.1231498  19.81 0.0007109919    1.575    0.365
        30  -9.3167    101.0054    144.4969   1.0350110201e+02   3.2188091204e+01    0.2688432    0.1953388 -43.25  0.001295596    1.510    0.338
        31 -11.5414     68.7740    144.4309   1.1154912433e+02   3.7097907784e+01    0.7359237    0.4614485  77.91  0.003559171    1.902    0.474
        32 -10.4019     88.8689    143.0984   1.0628443159e+02   3.4484909089e+01    0.2844544    0.2561432 -36.91 0.0004002604    1.302    0.232
        33  -8.4812     84.3626    143.6924   1.0752247922e+02   3.5040570246e+01    0.2013891    0.1339702 -78.71 0.0006603606    1.601    0.375
        34  -7.5983    134.6698    149.3429   9.6276715540e+01   2.4931906726e+01    0.1548319    0.1153248  83.07 0.0007051043    1.749    0.428
        35  -8.3058    110.6675    132.6382   9.8667471568e+01   3.3217742748e+01    0.2211781    0.1787078 -11.69 0.0009051414    1.673    0.402
        36 -10.5564    113.9592    243.7401   1.1455654053e+02   1.0532667928e+01    0.3014893    0.2343279 -73.20  0.002148538    1.501    0.334
        37  -8.1893    106.2484    130.9781   9.9452929114e+01   3.4394193319e+01    0.2026223    0.1203042 -54.62 0.0003777016    1.618    0.382
        38 -10.4859     68.2224    239.7768   1.2212784713e+02   1.7628066529e+01    0.6175842    0.2280811  67.17  0.002540621    4.061    0.754
        39  -8.0158    107.5241    120.4899   9.6782467655e+01   3.6583790565e+01    0.1480635    0.1404564 -53.53 7.436228e-05    1.043    0.041
        40 -10.8674     48.4372    233.5694   1.2501941259e+02   2.1177257351e+01    0.2873889    0.2121712  44.22  0.002135245    1.464    0.317
        41  -8.3340    167.8994    112.5881   7.9753577584e+01   2.5534301825e+01    0.3341575    0.2035949 -56.27  0.001314349    2.017    0.504
        42  -9.1071     98.1836    128.7693   1.0109639572e+02   3.6306542559e+01    0.2495996    0.2166734 -30.43 0.0004829765    1.324    0.245
        43  -8.4531    134.7598    105.2653   8.5747383923e+01   3.4545606090e+01    0.2550362    0.1245063 -34.07 0.0008757076    2.405    0.584
        44 -10.4507     53.4287    231.6941   1.2404633432e+02   2.0905359964e+01    0.3016036    0.1562897 -86.01  0.001847215    1.900    0.474
        45 -10.9529     51.7006    226.6869   1.2398424002e+02   2.2015009099e+01    0.4644307    0.1874025  75.10   0.00212338    3.269    0.694
        46  -9.2610    149.6891     53.3649   6.6086190904e+01   4.0935986233e+01    0.2961063     0.230143 -61.97 0.0005945783    1.544    0.352
        47  -9.9914    145.3954     50.1834   6.5971147565e+01   4.2503524324e+01    0.4396661    0.3104261 -82.80  0.001871283    2.128    0.530
        48 -11.9278    128.6237    246.2774   1.1223862467e+02   7.9108159913e+00    0.7942901    0.3211833  38.28  0.003925694    2.201    0.546
        49 -11.4459    193.9374     37.1591   5.2848702247e+01   3.1863877215e+01    0.5908111    0.5312808  71.89  0.002258621    1.088    0.081
        50 -10.5522     59.5829    244.2145   1.2389257961e+02   1.7979550496e+01    0.3408172    0.1515189 -83.09  0.001931008    2.500    0.600
        51 -10.6886    209.8235     22.5806   4.6619195695e+01   2.9600856105e+01    0.4576467    0.3228035  35.77  0.001196696    1.740    0.425
        52 -11.2459    117.0299    230.2079   1.1255515495e+02   1.2261351206e+01     0.413772    0.3364231  31.70  0.002785174    1.405    0.288
        53 -10.3412    134.7051    230.0671   1.0926246128e+02   9.4783901173e+00    0.2144705    0.1863995  46.26  0.001489568    1.102    0.093
        54 -10.9054     66.2609    243.2781   1.2271963949e+02   1.7289429503e+01    0.3966959    0.2061576  66.48  0.000295069    1.717    0.417
        55 -14.4746      8.9776    242.1621   1.3174268978e+02   2.3972784936e+01      2.20875     1.317857  49.27   0.01276042    1.461    0.316
        56 -14.9850      6.7686    203.0379   1.3028209111e+02   3.1260351116e+01     15.35771     1.182772 -77.63    0.0355529   13.255    0.925
