#   1 NUMBER                 Running object number                                     
#   2 MAG_AUTO               Kron-like elliptical aperture magnitude                    [mag]
#   3 X_IMAGE                Object position along x                                    [pixel]
#   4 Y_IMAGE                Object position along y                                    [pixel]
#   5 X_WORLD                Barycenter position along world x axis                     [deg]
#   6 Y_WORLD                Barycenter position along world y axis                     [deg]
#   7 A_WORLD                Profile RMS along major axis (world units)                 [deg]
#   8 B_WORLD                Profile RMS along minor axis (world units)                 [deg]
#   9 THETA_WORLD            Position angle (CCW/world-x)                               [deg]
#  10 FWHM_WORLD             FWHM assuming a gaussian core                              [deg]
#  11 ELONGATION             A_IMAGE/B_IMAGE                                           
#  12 ELLIPTICITY            1 - B_IMAGE/A_IMAGE                                       
         1 -15.5158    178.4496    165.5503   7.0700547988e+01   1.4209447892e+01     4.009095     3.919125 -34.22   0.02555402    1.150    0.131
         2 -15.3617    181.2337    137.6851   6.4339898289e+01   1.8508201642e+01     5.018371     2.216123 -31.41   0.01497947    2.646    0.622
         3 -14.4817     15.9437    166.1401   1.0790784747e+02   3.8646706537e+01     3.545035     1.312307 -66.82    0.0174122    2.372    0.578
         4 -15.3819    153.9875    103.9948   6.1840219194e+01   3.0543896314e+01     4.361417     3.011397 -26.24   0.01998312    1.639    0.390
         5 -14.5088    136.4843     66.3838   5.4852744283e+01   4.1532201167e+01      3.37357     2.009092  37.33   0.01419112    1.963    0.491
         6 -13.4933    134.4337    148.5356   7.6680952101e+01   2.5659115478e+01     3.782869     1.419683 -60.04   0.01052334    5.309    0.812
         7 -13.0731    107.0153    108.3373   7.4566535202e+01   3.9497628253e+01     3.128156     1.302164 -40.99   0.01114681    2.689    0.628
         8 -10.5896     12.2024     11.9405   7.8522152316e+01   7.3196916930e+01    0.1887766    0.1537179   1.19 0.0006313457    1.229    0.186
         9  -9.7873     91.0273      8.5430   4.3727237191e+01   6.0350964521e+01    0.2016011    0.1253449  59.48 0.0005042158    1.577    0.366
        10  -9.1295     98.0085      5.9377   4.0850815014e+01   5.9010821291e+01    0.1618537    0.1465469   0.00 0.0009899896    1.113    0.101
        11 -10.3248     42.4095    245.1116   1.0766730747e+02   2.0630816055e+01    0.2291008    0.2039261  32.80  0.001419911    1.517    0.341
        12  -8.3619    201.6749    250.6617   8.0201604001e+01  -1.3267053756e+00    0.1118361   0.06836244  11.52 0.0007051356    1.724    0.420
        13  -8.6175    141.4848    250.0196   9.0431749037e+01   7.0798570531e+00    0.1265627    0.1122034 -53.29 0.0003194593    1.461    0.316
        14  -8.1644    132.6661    250.7658   9.2071789572e+01   8.2076152760e+00    0.1052137    0.0730293  23.19 0.0002033768    1.534    0.348
        15  -8.1505    128.6408    250.7121   9.2779801755e+01   8.7734240539e+00    0.1073879   0.07697759  17.35 0.0007024369    1.684    0.406
        16  -8.9150     88.9446    250.2761   9.9806931364e+01   1.4178174348e+01    0.1494867    0.1106594  45.87 0.0003868124    1.083    0.077
        17  -8.8480     75.9128    250.3654   1.0212307145e+02   1.5820197232e+01    0.1474389     0.103085  46.95 0.0003802083    1.114    0.102
        18  -8.9147     71.0027    248.4898   1.0285422558e+02   1.6724933896e+01    0.1478413    0.1162742  59.44 1.635769e-05    1.072    0.067
        19  -8.5352     24.6310    250.5050   1.1097061709e+02   2.1644076089e+01    0.1211786   0.08489931  35.76 0.0004142319    1.546    0.353
        20  -9.2368     21.7712    248.2154   1.1134990771e+02   2.2309607559e+01    0.1451273   0.09811764  60.66 0.0004342869    1.035    0.033
        21  -8.1373     15.2576    250.6848   1.1253097581e+02   2.2554959201e+01    0.1029118   0.04987009  62.21 0.0002352075    1.534    0.348
        22 -10.9762     33.3976    246.4021   1.0929436985e+02   2.1399436093e+01    0.1978396     0.174561  38.95 0.0005580147    1.482    0.325
        23  -9.3560     37.4219    243.5295   1.0844963225e+02   2.1442619351e+01    0.1493524    0.1399465  68.21  0.001053479    1.422    0.297
        24  -8.6424      7.9096    247.4930   1.1362109829e+02   2.3785010111e+01    0.1294844   0.07721508  42.61  0.000355357    1.433    0.302
        25  -8.6105    155.5383    246.5146   8.7551380823e+01   5.5681891612e+00    0.1129141   0.08780784  30.00 0.0005639408    1.081    0.075
        26  -8.9003    136.1259    246.1032   9.0954901298e+01   8.3738917284e+00    0.1616774    0.1283113  23.33 0.0004773611    1.288    0.224
        27  -8.9345    119.0428    246.3459   9.4051323013e+01   1.0729966246e+01    0.1583754    0.1124192  41.26 0.0004395876    1.107    0.097
        28 -10.2347    104.3177    245.8101   9.6659118850e+01   1.2827165432e+01    0.2206868    0.1515048  38.78 0.0007053741    1.221    0.181
        29  -8.5011    102.2759    242.3446   9.6706681296e+01   1.3637218811e+01    0.1161949   0.08954706  50.80 0.0004132107    1.036    0.035
        30 -10.0424     71.7253    242.9027   1.0231374490e+02   1.7534949178e+01    0.1986161    0.1406318  45.57 0.0004244519    1.158    0.137
        31 -10.2823     58.0657    243.6647   1.0481847796e+02   1.9071334373e+01    0.2129162    0.1887847 -49.11  0.001265012    1.673    0.402
        32  -9.8840     56.8091    239.2034   1.0474522222e+02   1.9963301978e+01    0.2242006    0.1901329 -43.11  0.001299295    1.810    0.447
        33  -9.9431     50.2587    245.1956   1.0629785089e+02   1.9730063417e+01    0.1740534    0.1348567  54.64 0.0005131394    1.109    0.098
        34 -10.2386     50.7595    239.6134   1.0586165200e+02   2.0602859256e+01    0.3885476    0.3266949   4.81  0.002729443    1.949    0.487
        35  -8.9132     52.5514    235.4652   1.0526777404e+02   2.1100206666e+01    0.1554644    0.1255893 -74.82  6.07756e-05    1.448    0.309
        36 -10.1148     49.0322    234.7841   1.0586478834e+02   2.1626196397e+01    0.2558402    0.2075105 -50.19  0.001824124    1.809    0.447
        37  -9.6762     54.5886    231.2289   1.0460414836e+02   2.1593432483e+01    0.2310613    0.1981597  31.01 0.0009846772    1.468    0.319
        38  -9.6126     57.6499    226.4241   1.0368396828e+02   2.2073638704e+01    0.2280467    0.1913625  -0.02  0.001599668    1.936    0.484
        39 -10.3167     62.8629    221.2841   1.0228690394e+02   2.2357439250e+01    0.2180532    0.1769531  46.72 0.0003616546    1.193    0.162
        40 -10.0731     59.1722    220.6457   1.0295104305e+02   2.2928055971e+01     0.447141    0.2928386 -30.24   0.00238104    3.335    0.700
        41  -8.3591    205.6566    245.6975   7.8879239657e+01  -1.3132480976e+00        0.113   0.06839806  13.40 0.0007039206    1.681    0.405
        42  -9.0045    197.0167    244.4882   8.0149199216e+01  -1.4510379558e-03    0.1561005   0.07620363  20.92 0.0008079926    2.377    0.579
        43  -9.5612    113.1603    243.3083   9.4813164091e+01   1.1997083937e+01    0.1816019    0.1555223  16.39 0.0006407078    1.420    0.296
        44  -9.3943     22.7203    242.5331   1.1094010623e+02   2.3157836003e+01     0.237101    0.1121877 -77.00  0.001500262    2.141    0.533
        45  -9.4411     17.2420    242.5917   1.1187631449e+02   2.3697604286e+01    0.2470538    0.1703912 -40.29  0.001170955    2.901    0.655
        46  -9.4553      3.4687    243.1465   1.1420425029e+02   2.4920681803e+01    0.1896559    0.1503368 -41.76   0.00149617    2.293    0.564
        47  -8.7362    146.4038    242.8233   8.8741012343e+01   7.3696780033e+00     0.135986     0.104238 -26.66 0.0009396684    1.693    0.409
        48  -9.7793    133.9317    242.6013   9.0963732303e+01   9.1826320424e+00    0.1624299    0.1446129  19.42 0.0005889651    1.240    0.194
        49  -9.8105     36.9324    235.1075   1.0807270210e+02   2.2928084015e+01    0.1665229    0.1418031  78.46 0.0003296726    1.248    0.199
        50 -10.6653     36.0829    229.1353   1.0788417587e+02   2.4067476278e+01    0.2535114    0.1624754  45.37 0.0003700968    1.307    0.235
        51  -9.7875     30.1224    228.1391   1.0891751626e+02   2.4883986868e+01     0.277324    0.2103439 -56.85  0.002056655    1.827    0.453
        52 -10.2065     27.8820    223.8144   1.0909230155e+02   2.5897004456e+01    0.3123222    0.1582479 -76.42  0.001554668    1.947    0.486
        53  -9.3643     35.4700    239.4531   1.0857252270e+02   2.2341403324e+01    0.1902651    0.1310147  59.65 0.0004984072    1.061    0.057
        54 -11.6461     31.2973    234.0619   1.0902457831e+02   2.3716147812e+01    0.2782005    0.1921081  85.59 0.0005200155    1.326    0.246
        55  -9.8541     27.6583    241.9728   1.1006466815e+02   2.2743971170e+01    0.1586079    0.1480033  74.54 0.0006059048    1.441    0.306
        56  -9.4273     31.4262    240.5457   1.0933935844e+02   2.2589063652e+01     0.189831    0.1394864  73.90 9.405232e-05    1.152    0.132
        57  -8.8293     10.8623    243.1394   1.1297359276e+02   2.4226961769e+01    0.1190074   0.09829701  58.66 0.0003747171    1.280    0.219
        58  -9.1328    141.6549    241.9705   8.9496375335e+01   8.1693171155e+00    0.1431251    0.1315594  35.79 0.0004641804    1.163    0.140
        59  -8.8609     87.5631    242.5180   9.9408741473e+01   1.5572629489e+01     0.180055   0.08899969  38.82 0.0001861387    1.648    0.393
        60  -8.6735     91.2062    240.8427   9.8597548615e+01   1.5360316283e+01     0.151614    0.1277282  13.68 0.0003961401    1.609    0.378
        61  -9.7401     83.5781    241.2182   1.0002653528e+02   1.6300722936e+01    0.1908977    0.1455781  37.53 0.0003573518    1.277    0.217
        62  -9.1924     63.6418    241.2036   1.0364930130e+02   1.8808996287e+01    0.2430156    0.1251201 -78.01  0.001158507    2.205    0.547
        63  -8.6731     98.4188    241.7461   9.7356870799e+01   1.4252561090e+01    0.1238305    0.1056769 -52.04 0.0004518911    1.534    0.348
        64  -9.2128    126.5158    241.4774   9.2188436650e+01   1.0399692790e+01    0.2135426    0.1312033 -29.48  0.001201353    2.751    0.636
        65  -8.9503    133.7866    228.2582   8.9330279680e+01   1.1339785042e+01    0.1487706     0.125137  16.12 0.0004329177    1.323    0.244
        66 -10.0961    130.3903    235.1188   9.0770651701e+01   1.0792453446e+01    0.2671737    0.2037752  -1.87  0.001726758    1.868    0.465
        67  -9.0036    134.1346    232.0828   8.9722059816e+01   1.0704694327e+01    0.1685667    0.1585744 -21.84  0.000343285    1.304    0.233
        68  -8.8836    122.2392    241.0523   9.2924118208e+01   1.1067575671e+01    0.1826366    0.1539802 -24.46 0.0006542748    1.609    0.379
        69  -8.4684    122.7212    237.7030   9.2476997081e+01   1.1503732812e+01    0.1515475    0.1179214  21.82 0.0001957476    1.427    0.299
        70  -9.4182    149.7693    245.9849   8.8509188403e+01   6.4575511255e+00    0.2392915    0.1601162 -13.80  0.001451573    2.344    0.573
        71 -10.5316     67.7421    239.0034   1.0274477754e+02   1.8672285204e+01    0.3737954    0.1670126 -64.51  0.002164015    2.536    0.606
        72  -9.6587     78.9798    223.2075   9.9325473882e+01   1.9947305926e+01    0.1717585    0.1552077  87.96 0.0003366127    1.232    0.188
        73  -9.1462     68.0784    220.1403   1.0117763421e+02   2.1909080422e+01    0.1672668      0.13577  56.88 0.0002680251    1.056    0.053
        74  -9.1689     66.9132    230.6510   1.0225948029e+02   2.0194543108e+01    0.1549427    0.1330523  48.22 0.0005790314    1.219    0.180
        75  -9.2954     75.6856    227.0083   1.0029668788e+02   1.9711713578e+01    0.1760754    0.1352654  42.07 0.0003404875    1.216    0.178
        76  -9.9363     73.0102    222.2954   1.0040317062e+02   2.0889291568e+01    0.1872611    0.1560633 -88.55 0.0003719385    1.252    0.201
        77  -9.8959     75.4072    218.1088   9.9559516683e+01   2.1329701934e+01    0.2010998     0.154572  47.53 0.0003818009    1.132    0.117
        78  -9.4427     71.5030    216.9260   1.0022387049e+02   2.2054379678e+01    0.1838703    0.1479791  32.69 0.0004443309    1.392    0.282
        79  -9.7984     72.5347    232.0303   1.0131438785e+02   1.9249061941e+01    0.2380611    0.2043755  36.76  0.001123314    1.327    0.246
        80 -10.7715     71.5487    227.4296   1.0112209806e+02   2.0170218202e+01    0.2548661    0.2361275  16.88 0.0001379647    1.478    0.323
        81  -8.2142    130.3531    247.2889   9.2116598950e+01   9.0179848938e+00    0.1083232   0.07815033  16.79 0.0007025631    1.672    0.402
        82  -9.2207    118.1189    239.1364   9.3478715641e+01   1.1937964915e+01    0.1654562    0.1333584  30.20 0.0004984595    1.245    0.197
        83  -9.8922    104.2642    237.5322   9.5878958131e+01   1.4120654901e+01    0.3091769     0.191918  24.03  0.001817144    1.988    0.497
        84  -9.2562    107.1426    233.5009   9.4937904178e+01   1.4363528941e+01    0.1798235    0.1545806  30.80 0.0007250487    1.256    0.204
        85  -9.9988     77.3720    238.2306   1.0091919565e+02   1.7588967212e+01    0.1950994    0.1489495  49.29 0.0004853361    1.078    0.072
        86 -10.5418    204.2090    237.4078   7.7966025889e+01  -1.7562380215e-01    0.2044509       0.1804   7.50  0.001030834    1.225    0.184
        87  -8.9758    111.9236    238.2690   9.4532938807e+01   1.2941305051e+01    0.1557989    0.1203393  42.26 0.0003718718    1.073    0.068
        88 -10.0450     41.9819    236.4696   1.0724483283e+02   2.2135941612e+01    0.2718572    0.2005124 -62.18  0.001614558    1.746    0.427
        89  -8.4379     17.4910    233.5600   1.1144504797e+02   2.5219143178e+01    0.1507114   0.08593073 -86.00 0.0005257919    1.645    0.392
        90  -8.6200     21.3706    238.2832   1.1098064497e+02   2.4015623580e+01    0.1219169   0.09150927 -76.69 0.0009597926    1.525    0.344
        91  -9.4654     17.4885    237.1960   1.1160496306e+02   2.4590191379e+01    0.1676805     0.117389  89.86  0.000918854    1.357    0.263
        92  -8.6809     20.8515    235.1955   1.1092993302e+02   2.4599626593e+01     0.203945    0.1620413 -55.99 0.0003523028    1.852    0.460
        93  -9.2283    157.0227    236.8160   8.6103139700e+01   6.6635481104e+00    0.1706525    0.1335047  33.29 0.0004580432    1.030    0.029
        94  -9.6445    146.0863    236.1062   8.7999048365e+01   8.3615862995e+00    0.1678127    0.1512976  23.77 0.0004120263    1.156    0.135
        95  -9.3858    134.8913    236.8687   9.0140549079e+01   9.8797657566e+00     0.170733    0.1365258  22.40 0.0007462416    1.303    0.232
        96  -9.9599    101.9145    228.4087   9.5407945182e+01   1.5927884291e+01    0.1813339    0.1752774 -76.86 0.0001731673    1.278    0.218
        97  -9.9646     95.4630    235.8452   9.7355561977e+01   1.5595126397e+01    0.1865156    0.1766736  64.53 0.0007140558    1.237    0.192
        98  -9.8716     99.5350    233.1001   9.6329232421e+01   1.5485759404e+01    0.2277824     0.187002  77.30 0.0008496924    1.270    0.212
        99  -8.8928     72.3104    237.0665   1.0175861405e+02   1.8425438665e+01    0.1450721    0.1164057  66.31 0.0004119238    1.107    0.096
       100  -8.3926      8.8072    237.3820   1.1310327253e+02   2.5398081530e+01    0.1180702   0.08505408  35.71 0.0003376223    1.560    0.359
       101  -8.8689      1.8586    237.5010   1.1428363164e+02   2.6022103579e+01    0.1309428   0.07845469  43.30   0.00039816    1.433    0.302
       102  -8.5245    183.4607    235.5059   8.1242798913e+01   2.9918119265e+00    0.1159577   0.08925306  21.42 0.0002079241    1.102    0.093
       103  -9.2132    125.8723    234.3168   9.1519198388e+01   1.1567679465e+01    0.2007294    0.1509634  32.01 0.0006730105    1.232    0.188
       104  -9.0271    126.5319    230.5115   9.0962757204e+01   1.2058784998e+01    0.1674976    0.1596894  25.59 0.0001126912    1.206    0.171
       105  -8.3052    120.2793    235.3242   9.2671959482e+01   1.2216296925e+01    0.1045155   0.08515541   7.88 0.0002882297    1.589    0.371
       106 -10.2779     90.7770    234.2549   9.8084527266e+01   1.6487874128e+01    0.1911869    0.1779936 -40.16 0.0004170605    1.468    0.319
       107  -8.9432    228.6581    234.6816   7.3576755782e+01  -3.1837723100e+00    0.1152455   0.06750597  10.45 0.0007049305    1.716    0.417
       108  -8.9771    180.5506    234.2140   8.1574594657e+01   3.5776363681e+00    0.1399142    0.1022454 -15.42 0.0005715206    1.586    0.369
       109  -9.6697    170.1900    233.7181   8.3340398560e+01   5.1557147443e+00     0.196467     0.133228  -5.80 0.0008947264    1.981    0.495
       110  -8.9074    162.4467    233.5493   8.4707102720e+01   6.3175571295e+00    0.1696675     0.105455 -29.25  0.000808578    2.096    0.523
       111  -9.3990    140.0843    233.3077   8.8763592289e+01   9.6481456083e+00    0.1635677    0.1470796  11.87 0.0002830814    1.242    0.195
       112 -10.0434     77.1779    233.2729   1.0054677022e+02   1.8443056138e+01    0.1918965    0.1856069 -51.83 0.0008253482    1.429    0.300
       113  -9.2720     79.9273    229.3519   9.9692135369e+01   1.8753530160e+01    0.1588494    0.1322144  63.77 0.0004018764    1.084    0.077
       114  -9.0657    152.8328    232.9247   8.6372326560e+01   7.8242892781e+00     0.168741    0.1345226  19.71 0.0003142742    1.250    0.200
       115 -11.0309    114.5924    232.3709   9.3417976882e+01   1.3490629486e+01    0.2534498     0.178878  33.69 0.0001697389    1.310    0.237
       116  -8.2324    212.7023    232.2909   7.5813637701e+01  -7.6126950027e-01   0.09622596   0.08296376  45.30 0.0002836179    1.559    0.359
       117  -8.5158    166.4592    232.4833   8.3844264697e+01   5.8716552495e+00     0.116605   0.09345217  28.25 0.0008086633    1.042    0.041
       118  -9.4066    121.8232    231.2319   9.1931274591e+01   1.2631118790e+01    0.1730961     0.159537  14.57 0.0004024434    1.279    0.218
       119 -10.1641     84.7185    231.3927   9.8965236677e+01   1.7774410332e+01     0.340924     0.225468  19.09  0.001724256    2.190    0.543
       120 -10.6398     92.5660    227.8681   9.7143254033e+01   1.7313315264e+01    0.3367675    0.2197964  54.48  0.001219031    1.304    0.233
       121 -11.3268     85.8613    222.6950   9.7939726535e+01   1.9117327284e+01    0.4703431    0.2946087 -31.91   0.00170761    3.186    0.686
       122  -9.6664     91.8908    221.9210   9.6687481715e+01   1.8427724798e+01    0.2022548    0.1808575  25.05 0.0003776925    1.353    0.261
       123 -10.4450     97.4219    218.4445   9.5240939505e+01   1.8261214350e+01    0.5130163    0.1604284  40.22  0.002239774    2.571    0.611
       124 -10.4620     99.5237    223.6772   9.5380037052e+01   1.7060033745e+01    0.2284787    0.2017636 -19.49 0.0009064341    1.583    0.368
       125  -8.9310     95.5657    223.5105   9.6131864314e+01   1.7642808419e+01    0.1811929    0.1450432  35.80 0.0001269286    1.251    0.201
       126  -8.4212    194.4736    231.4501   7.8768409668e+01   1.9132485614e+00    0.1150504   0.09005709  22.09   0.00020343    1.020    0.020
       127  -8.7194    187.7340    230.8424   7.9849048441e+01   2.9646764011e+00    0.1926499    0.1093317   6.25 0.0009524759    2.789    0.641
       128  -9.7300    146.4032    230.4902   8.7248103751e+01   9.1295854680e+00    0.2027155    0.1624434  28.69 0.0005903414    1.137    0.120
       129 -10.5438    176.4501    227.2443   8.1335452554e+01   5.0994223095e+00    0.2512147    0.1723599 -22.96  0.001592663    1.744    0.426
       130  -8.8472    158.8008    228.8690   8.4755253475e+01   7.5138788287e+00    0.1692166    0.1353725  18.40 0.0003940172    1.232    0.188
       131 -10.2690    152.9324    227.3138   8.5631725406e+01   8.6187360305e+00     0.260805    0.2091231   9.29 0.0002063045    1.387    0.279
       132  -9.5090    156.6140    223.8518   8.4488154206e+01   8.5688811754e+00    0.2432935    0.1835511 -14.39  0.001166989    1.678    0.404
       133 -13.3369    154.3705    181.8534   7.8528291197e+01   1.5707866113e+01     2.720644     1.629425 -12.87    0.0109114    3.445    0.710
       134 -12.3493    147.6017    220.5532   8.5737091613e+01   1.0440386957e+01      2.26109      1.27475   0.79  0.006579517    8.545    0.883
       135 -13.5453    186.2230    193.7243   7.4349182326e+01   8.3501884420e+00     2.275073     1.210454  38.57  0.007314828    1.694    0.410
       136 -12.9960    141.9896    211.8250   8.5632422525e+01   1.2687378991e+01     1.718857     1.159289  20.28  0.009776829    1.735    0.424
       137 -12.3940    160.2625    195.2773   7.9572919206e+01   1.2427129228e+01     1.230795    0.9299792 -43.04  0.007110623    1.483    0.326
       138  -8.6151    113.4396    248.7607   9.5296307511e+01   1.1145511742e+01    0.1179556    0.1066267 -39.14  0.000409734    1.480    0.324
       139  -8.2653      2.5563    229.4962   1.1388597391e+02   2.7346834634e+01    0.1015951   0.07362016  66.92 5.741113e-05    1.050    0.048
       140  -9.7513    119.7893    211.1497   8.9936399073e+01   1.6240527379e+01    0.2096834    0.1740861  28.78 0.0003550636    1.242    0.195
       141 -10.8366    109.6935    226.2991   9.3694217445e+01   1.5174379854e+01    0.2803848     0.213091 -37.86  0.000591907    1.789    0.441
       142  -9.3510    113.6193    223.1705   9.2589773094e+01   1.5124690000e+01    0.3131107    0.1624209 -56.02  0.001668235    2.277    0.561
       143  -9.8406    116.5840    220.3054   9.1683383032e+01   1.5166719919e+01    0.3398817    0.2407119  79.03  0.001928418    1.785    0.440
       144  -9.0423    120.2840    219.2878   9.0840316820e+01   1.4787031995e+01    0.1763227    0.1330864  45.60 0.0002132312    1.104    0.094
       145 -10.3350    119.9759    215.2812   9.0414014904e+01   1.5505803478e+01     0.227283     0.217746 -48.42 0.0003696658    1.255    0.203
       146  -8.4365     61.7639    227.9687   1.0302207409e+02   2.1299852876e+01    0.1246255    0.0866412 -79.84 0.0002781279    1.513    0.339
       147  -8.7839    229.0710    227.4910   7.2424934756e+01  -2.4575368718e+00    0.1556526   0.08997174  32.87 0.0003425683    1.468    0.319
       148  -9.5086    210.1473    227.1248   7.5471193332e+01   2.0054543404e-01    0.1767429     0.125217  11.23 0.0004511231    1.279    0.218
       149  -8.6621    116.4343    226.7797   9.2454615208e+01   1.4122861619e+01    0.1347905    0.1114421 -39.30 0.0004187449    1.558    0.358
       150  -9.5068     46.6334    225.6360   1.0570699257e+02   2.3512096082e+01    0.2394043    0.1839424 -27.13  0.001074145    2.409    0.585
       151  -9.5144     42.0666    225.7475   1.0657018212e+02   2.4010762063e+01    0.1798024    0.1479694  71.92 0.0004905449    1.136    0.120
       152  -9.1483     19.7770    227.2264   1.1074638758e+02   2.6110059176e+01    0.1539364    0.1044981  65.32 0.0004839433    1.088    0.081
       153  -9.2418      1.9193    221.8069   1.1371516655e+02   2.8777147080e+01    0.1926957    0.1214739 -83.99  0.001089454    1.480    0.324
       154  -9.7680      9.6953    225.7926   1.1248812305e+02   2.7345059660e+01    0.2767112    0.2063562  57.36  0.002214005    1.138    0.121
       155  -9.4980     14.8992    223.0903   1.1143413946e+02   2.7334966287e+01    0.1678665    0.1520292 -70.17  0.000407974    1.538    0.350
       156  -9.6205      1.2053    218.0822   1.1370228452e+02   2.9519400151e+01    0.3447565    0.1000603 -70.61  0.001765612    3.233    0.691
       157  -9.3845      6.7731    220.2025   1.1278060673e+02   2.8628465818e+01    0.3309823    0.1087944  60.08  0.001209153    2.437    0.590
       158  -9.5576      5.0000    215.6388   1.1291470877e+02   2.9630254600e+01    0.2979661    0.1057441  88.15     0.001553    2.690    0.628
       159  -8.6929    239.3100    226.3179   7.0623952183e+01  -3.6920113069e+00    0.1136498   0.06774261   8.05 0.0003238644    1.639    0.390
       160  -8.5679    184.4417    226.4985   7.9807618710e+01   4.0103181755e+00    0.1174767   0.09358773  21.52 0.0003676491    1.060    0.056
       161  -9.3928    162.0632    225.3752   8.3687475719e+01   7.5215753879e+00    0.2147333    0.1749768 -75.17  0.001423115    1.804    0.446
       162 -10.3921    126.6407    224.8020   9.0271949014e+01   1.2942285907e+01    0.2085365    0.2015282  28.04  0.000619958    1.193    0.162
       163 -10.1450     65.6513    225.4375   1.0208482646e+02   2.1265870380e+01    0.1869157    0.1662297  50.91 0.0002546845    1.236    0.191
       164  -9.0023    190.4296    224.8228   7.8510139650e+01   3.3424655217e+00    0.1486192    0.1027021 -17.12 0.0006471808    1.642    0.391
       165  -9.1332    167.4838    225.0092   8.2644263008e+01   6.7538813967e+00    0.1756335    0.1309271  34.13  0.001160468    1.105    0.095
       166  -9.9526    119.9943    224.2037   9.1477084583e+01   1.4021132269e+01    0.1851684    0.1717155  12.76  0.000292786    1.277    0.217
       167  -9.7849    124.0023    220.1741   9.0223007454e+01   1.4084816486e+01    0.2039983    0.1716128 -34.94 0.0004120339    1.497    0.332
       168  -9.3721    126.5272    216.5291   8.9279598120e+01   1.4305201689e+01    0.1876139    0.1753982  28.17 0.0004978394    1.162    0.139
       169  -8.4253    180.4469    224.4895   8.0228946148e+01   4.8731777948e+00    0.1186013   0.09494455  21.87 0.0003672595    1.071    0.067
       170 -10.1414    115.3476    191.9371   8.8296252965e+01   2.0400355148e+01     0.227325    0.1944673  32.36 0.0004052065    1.196    0.164
       171 -10.0990    104.8796    222.9890   9.4266223400e+01   1.6417100339e+01    0.2106204    0.1745303  51.13 0.0003695766    1.015    0.015
       172  -9.3540    108.9975    219.2955   9.3052774371e+01   1.6450482694e+01    0.1748232    0.1597254  71.66 0.0003371642    1.149    0.130
       173  -9.2387    109.9624    208.7665   9.1622083912e+01   1.8144521202e+01    0.1981316    0.1679714  32.77 0.0005088106    1.213    0.176
       174  -9.5067    119.5198    194.4816   8.7770405147e+01   1.9261762181e+01    0.2084033    0.1880608  46.39 7.027384e-05    1.044    0.043
       175  -9.6160    110.4714    190.9944   8.9207893622e+01   2.1349279031e+01    0.2258207    0.1881771  25.83 0.0003562156    1.327    0.247
       176  -9.0768    113.8709    187.1670   8.7934939934e+01   2.1544047059e+01    0.1877353    0.1684998  42.01 0.0002351224    1.091    0.083
       177  -9.6847    104.8662    205.6273   9.2281635618e+01   1.9472509706e+01    0.2228616    0.1844278 -37.04 0.0004467741    1.563    0.360
       178  -9.3238    119.6761    198.9129   8.8352147571e+01   1.8425144996e+01    0.2303905    0.1812805 -26.49 0.0003833691    1.698    0.411
       179 -10.0207    124.8694    210.8626   8.8884368066e+01   1.5511767682e+01    0.2060234    0.1893835  26.24 0.0003533865    1.171    0.146
       180 -10.8177    104.0896    215.4896   9.3593401216e+01   1.7822753146e+01    0.4687726    0.3369002  60.59  0.001474324    1.321    0.243
       181 -10.0643    106.0715    210.2039   9.2583956229e+01   1.8467430709e+01    0.2905653    0.1787471  44.09 0.0003315093    1.374    0.272
       182 -10.8164    125.0220    206.3733   8.8264012545e+01   1.6261347226e+01    0.6269352    0.2105054  35.19  0.002468767    2.979    0.664
       183 -10.1753    120.9241    202.9894   8.8645982144e+01   1.7496304778e+01    0.2803514    0.2343178  17.14   0.00030916    1.390    0.281
       184  -9.6607    102.1581    197.0892   9.1788441120e+01   2.1467742223e+01    0.2060758    0.1607911  42.59 0.0003065508    1.165    0.142
       185 -10.7130    103.4908    188.6746   9.0399685830e+01   2.2885065308e+01    0.5123342    0.2182287 -45.81  0.002171519    3.017    0.669
       186  -9.8827    109.2019    186.9424   8.8916718163e+01   2.2330320465e+01    0.4720821    0.1969573  48.50  0.001395793    2.300    0.565
       187 -10.8741     98.7421    211.7355   9.4243570962e+01   1.9263672154e+01    0.3197573    0.2743332 -17.51  0.002036369    1.650    0.394
       188 -10.9690     92.9594    211.4274   9.5379340317e+01   2.0146503146e+01    0.4209107    0.2685409 -47.98  0.001268649    1.992    0.498
       189  -9.6497     89.0569    210.3037   9.6050336952e+01   2.0902188618e+01    0.2013908    0.1683856 -85.61 0.0002606142    1.255    0.203
       190 -10.6581    111.5949    213.2228   9.1831265429e+01   1.7115217219e+01    0.2326223    0.2205971 -36.27 0.0003469672    1.305    0.234
       191 -11.0971    114.9559    207.5502   9.0456828632e+01   1.7606230558e+01     0.588983    0.2852111 -51.42  0.002979022    2.377    0.579
       192  -9.7546    109.7036    196.0237   9.0052788634e+01   2.0516237719e+01     0.236393    0.1837358  52.55 0.0003012461    1.144    0.126
       193 -10.8017    109.7911    203.1659   9.0960937652e+01   1.9180495429e+01    0.2844974    0.2274865  57.96 0.0006249555    1.144    0.126
       194 -10.5705    105.9434    198.5193   9.1171537362e+01   2.0624830402e+01    0.2710809    0.2177445 -59.55 0.0003214587    1.392    0.281
       195 -12.2303    188.8795    152.3918   6.6032583616e+01   1.4483674014e+01    0.9777052    0.7285296  -2.51  0.002970668    1.570    0.363
       196  -9.0553     37.4762    221.8756   1.0718767273e+02   2.5222424579e+01    0.1671779    0.1489782 -56.18 0.0004658137    1.590    0.371
       197 -11.0076     56.4691    210.4212   1.0266192123e+02   2.5159856738e+01    0.5268984    0.3281653  61.19  0.002605523    1.379    0.275
       198 -10.6956     44.7985    218.9243   1.0559929494e+02   2.4944042222e+01    0.3730801     0.257809  24.18  0.001697261    1.889    0.471
       199  -9.8824     64.7971    206.4682   1.0062843799e+02   2.4876907826e+01    0.3915334    0.1643202  51.20  0.001951507    2.081    0.520
       200  -9.9426     61.2845    214.2087   1.0201466811e+02   2.3853822796e+01    0.1801989    0.1722749 -63.04 0.0004493625    1.401    0.286
       201  -9.5902     64.7730    211.4311   1.0107853224e+02   2.3936578768e+01    0.3525953    0.2553075  11.45  0.002101678    2.213    0.548
       202 -10.2517     61.2399    203.7548   1.0111415685e+02   2.5851352505e+01    0.3638373    0.2490311   8.82  0.001603575    2.607    0.616
       203 -10.1590     55.6677    204.0054   1.0228548394e+02   2.6492431431e+01    0.2189305    0.1767449  60.55 0.0004618166    1.048    0.045
       204  -9.4037     56.9287    199.8485   1.0165950962e+02   2.7154178047e+01     0.171115    0.1462429  67.04 0.0003141371    1.080    0.074
       205 -10.9747     54.2283    216.8833   1.0362088077e+02   2.4217776942e+01    0.4563426     0.368393 -25.05   0.00244319    2.100    0.524
       206 -10.0354     51.9019    212.4645   1.0373753698e+02   2.5322567827e+01     0.192645    0.1793507  54.66 0.0004746757    1.303    0.232
       207 -11.1555     42.9246    213.9317   1.0561549168e+02   2.6088327903e+01    0.4700744     0.391915 -88.03  0.002349112    1.247    0.198
       208  -9.3247     46.8309    212.8712   1.0477187179e+02   2.5840836474e+01    0.1794331    0.1176508  60.62 0.0002467146    1.239    0.193
       209  -8.4221    179.3290    221.2734   7.9963671560e+01   5.4789428015e+00    0.1185701   0.08038786  14.35 0.0006986244    1.588    0.370
       210  -8.6070    166.7711    220.6125   8.2158300641e+01   7.4880139601e+00    0.1575956   0.09646418  43.20 0.0003345928    1.446    0.309
       211  -8.4283    216.3429    219.3006   7.3234449445e+01   2.5485574852e-01     0.119986   0.07443632  10.99 0.0002574501    1.675    0.403
       212  -9.4250    163.6969    218.2077   8.2386257395e+01   8.3113724766e+00    0.3354048    0.1994738  -2.82  0.001496336    3.433    0.709
       213  -8.9019     80.0830    214.8375   9.8322103596e+01   2.1303387084e+01     0.192445    0.1497697  27.60 0.0003627284    1.497    0.332
       214  -9.8720     81.7300    218.7237   9.8369374137e+01   2.0378564421e+01     0.197054    0.1574901  59.57 0.0004404454    1.037    0.035
       215 -10.5304     84.7433    214.2503   9.7330782962e+01   2.0777842212e+01    0.2166863    0.1780693  33.38 0.0002436016    1.321    0.243
       216  -8.7783     16.4698    219.4343   1.1097422646e+02   2.7850127469e+01    0.1066487   0.07942699  66.12 7.972804e-05    1.030    0.029
       217  -9.2379    108.7780    247.7482   9.6036377358e+01   1.1930309891e+01    0.1538246    0.1462585 -31.27  0.001033474    1.414    0.293
       218  -9.0189    157.0121    217.9261   8.3598882765e+01   9.3885179741e+00    0.1773405    0.1486514  30.09 0.0003497108    1.040    0.039
       219  -9.4108     36.7406    217.2825   1.0703772013e+02   2.6150079866e+01    0.1673349    0.1290965  80.32 0.0003373366    1.150    0.131
       220 -10.0110    179.0663    216.2159   7.9263706070e+01   6.2214106777e+00    0.3377814    0.1738704  21.47  0.001593197    2.538    0.606
       221  -8.9278    169.7515    217.2475   8.1124450893e+01   7.5142124920e+00    0.1573132    0.1233036  11.43 0.0004053799    1.313    0.238
       222  -8.6849    161.1091    215.8191   8.2529258995e+01   9.0680145669e+00    0.1609702     0.126111  18.21 0.0003872807    1.275    0.216
       223  -9.7309     65.9100    215.9552   1.0124561891e+02   2.2949275725e+01    0.1671465    0.1389971  62.03 0.0003208347    1.060    0.057
       224  -9.5395     69.1242    212.7157   1.0031883496e+02   2.3139539899e+01    0.1797903    0.1675548  45.06 0.0004404095    1.287    0.223
       225  -9.7965     13.0617    215.4788   1.1141701660e+02   2.8911389703e+01    0.1643603    0.1522018  88.04 0.0005530873    1.412    0.292
       226  -8.5426    200.3897    214.7672   7.5241903214e+01   3.1650943423e+00    0.1559034    0.1023426 -18.75  0.000940146    1.681    0.405
       227  -9.3204    193.3494    214.2858   7.6403481618e+01   4.2948932591e+00    0.1229228   0.08048899  12.82 0.0005566124    1.657    0.396
       228  -9.1074    186.9552    214.0237   7.7503926108e+01   5.3103601888e+00    0.1835212    0.1461507  20.05 0.0003640497    1.090    0.082
       229  -8.8477    184.9394    210.9309   7.7389059324e+01   6.0534346614e+00    0.1846003    0.1420803  14.48 0.0006402403    1.237    0.192
       230  -9.1954     29.0384    214.0065   1.0831388527e+02   2.7589426473e+01    0.1616124    0.1264237  68.26 0.0003201287    1.053    0.050
       231 -10.3529    170.4359    210.8493   8.0048270372e+01   8.3443294462e+00    0.3277193    0.2206705  -4.91  0.001487629    2.047    0.511
       232  -9.2039    167.5927    208.2439   8.0187526387e+01   9.1865724508e+00    0.1845981    0.1692929  -0.57    0.0003891    1.148    0.129
       233  -9.5001     74.3653    213.1452   9.9306174429e+01   2.2376161903e+01    0.1799868     0.140259  40.42 0.0004453091    1.254    0.203
       234 -10.8757     77.6561    207.3862   9.8077775127e+01   2.3014854349e+01    0.5070991    0.3445104 -71.93  0.001436995    1.568    0.362
       235  -9.8999     82.7434    201.4420   9.6399679691e+01   2.3451300951e+01    0.1968133    0.1813485  56.50 0.0003259397    1.157    0.135
       236 -10.4713     80.0415    196.7865   9.6461083194e+01   2.4731377717e+01    0.3990009    0.2161223 -51.62  0.001432304    2.201    0.546
       237 -10.7916     89.4721    190.6346   9.3707963354e+01   2.4605310013e+01    0.8345981    0.4063043 -42.09  0.003617638    3.213    0.689
       238 -10.9704     80.1134    190.8320   9.5772869245e+01   2.5904007666e+01    0.4449519    0.2635683  64.89  0.001532698    1.790    0.441
       239 -10.4035    122.9256    148.8558   7.9432771196e+01   2.7730717967e+01    0.2607982    0.2326013   5.51 0.0003567889    1.318    0.241
       240  -9.7397     81.3712    176.1622   9.3690510964e+01   2.8744595543e+01    0.3242201    0.2584199  39.95 0.0006125864    1.261    0.207
       241 -10.2218    111.4417    152.7329   8.2909100933e+01   2.8959579449e+01    0.2833284    0.2420174  22.14   0.00039634    1.343    0.255
       242 -10.1867    108.7875    157.2220   8.4345448797e+01   2.8460251002e+01    0.4807495    0.2406209  30.48  0.001975911    2.449    0.592
       243  -9.8822    106.8910    150.5538   8.3617654616e+01   3.0213678214e+01    0.2734884    0.2173623 -61.32 0.0003766519    1.277    0.217
       244 -10.0392     68.9697    182.1107   9.7245505970e+01   2.9219978272e+01    0.2023531    0.1686709 -73.57  0.000318159    1.230    0.187
       245 -11.8114     76.8446    170.6994   9.4029518214e+01   3.0556106035e+01      1.03104    0.5225546  63.64  0.004512081    2.486    0.598
       246 -10.9834     83.5855    168.8441   9.2185046637e+01   2.9978324503e+01    0.3247599    0.2642955 -68.59 0.0002357206    1.240    0.193
       247 -10.5207     89.0717    167.0174   9.0623036114e+01   2.9546859204e+01    0.2328665    0.2271259  71.98 0.0003071012    1.144    0.126
       248 -10.8430     86.8655    161.2885   9.0298342608e+01   3.1122373325e+01    0.7184675     0.324013  48.73  0.003110035    2.187    0.543
       249 -10.4034     96.0839    163.3899   8.8403245330e+01   2.9233065787e+01    0.4835488    0.3199689 -59.30  0.002501145    1.545    0.353
       250 -10.4890    100.3713    162.7400   8.7278244272e+01   2.8683935939e+01    0.2544397    0.2274125  39.48 0.0003296918    1.159    0.137
       251 -10.6466     80.7966    184.8722   9.4916302627e+01   2.7016685960e+01    0.5460985    0.2696876 -41.66  0.002325828    3.301    0.697
       252 -10.5629     90.9105    172.6274   9.1001443006e+01   2.8075358755e+01    0.5923164    0.3499977 -29.55  0.002448025    3.382    0.704
       253  -9.8468     80.0898    164.1980   9.2365630149e+01   3.1498230560e+01    0.2630814    0.2323775  14.53 0.0007705958    1.430    0.301
       254 -10.2894     74.9741    164.0223   9.3577793785e+01   3.2273264359e+01    0.2722839    0.2459232  25.73            0    1.323    0.244
       255 -10.4231     72.7871    187.0330   9.6949643098e+01   2.7685724565e+01    0.2348191    0.2055617 -75.54 0.0003550216    1.211    0.174
       256 -11.4834     73.8955    180.1291   9.5898359791e+01   2.8965455513e+01    0.7558507    0.5083069  61.37  0.004323509    1.407    0.289
       257 -10.2912    114.3011    157.1491   8.3021694814e+01   2.7528050085e+01    0.2419845    0.2223684  19.38 0.0004743772    1.221    0.181
       258 -10.3133    116.9584    152.0429   8.1459321385e+01   2.8136333341e+01    0.4832877    0.3336251 -10.82  0.001547151    2.588    0.614
       259 -10.0548     84.3780    206.3621   9.6588751415e+01   2.2288215240e+01     0.204519    0.1921532  45.68  0.001459194    1.227    0.185
       260 -11.0250     88.4345    202.6797   9.5344825861e+01   2.2414910248e+01     0.517049    0.2384156 -64.67  0.002252756    2.398    0.583
       261 -10.5059     99.9503    156.9460   8.6426457513e+01   2.9995971416e+01    0.3601206    0.2605926  52.13 0.0003495613    1.331    0.249
       262 -10.5679    103.0664    153.6802   8.5108966234e+01   3.0185895459e+01    0.4835605    0.2695438 -65.94   0.00198004    2.045    0.511
       263 -12.0740    116.7235    120.3131   7.4883805259e+01   3.5009603111e+01     1.024621    0.6334981  22.99  0.003538839    2.401    0.584
       264  -9.8043     36.2640    210.3285   1.0667583529e+02   2.7513850079e+01     0.257047    0.2057898  -3.07  0.001304844    2.156    0.536
       265 -10.7097     66.2930    193.1222   9.9023807623e+01   2.7311401715e+01    0.2150519    0.1839583  54.78  0.000351279    1.117    0.105
       266 -12.8141     63.6281    161.7591   9.6041048919e+01   3.4329749137e+01      1.37832    0.9978719  43.25  0.008053015    1.351    0.260
       267 -13.3854     30.2950    201.9823   1.0731006169e+02   2.9774368773e+01     1.943795      1.39122  -3.65   0.01156599    2.736    0.634
       268 -12.7694     63.3436    182.2576   9.8530031137e+01   2.9930688544e+01      1.94212    0.6539556 -64.96  0.008285717    2.894    0.654
       269 -12.4366     49.6013    201.3374   1.0331261562e+02   2.7744513919e+01     1.147338    0.5477909 -59.41  0.006194162    2.305    0.566
       270 -10.9473     55.3630    169.1669   9.8926729649e+01   3.3753613882e+01     0.262142    0.2521225  28.80 0.0006046625    1.313    0.238
       271 -13.1790     29.1538    125.7846   1.0053923273e+02   4.6643740919e+01     2.276371    0.8356783  50.08  0.009412755    3.034    0.670
       272 -12.3931     18.1552    190.5538   1.0906563079e+02   3.3287177788e+01     1.099971    0.5399029  50.83   0.00651842    1.686    0.407
       273 -12.1123     30.7365    187.8358   1.0622385372e+02   3.2583743107e+01    0.9342155    0.4911692 -60.56  0.005315243    2.047    0.511
       274 -11.4074     78.7700    143.8653   8.9571417030e+01   3.6241620105e+01    0.7890037     0.397675 -37.25  0.002999661    3.315    0.698
       275 -12.1387     27.1833    177.5468   1.0621846780e+02   3.5109499881e+01     1.156449    0.3954945 -61.41  0.005350899    2.830    0.647
       276 -11.4498     22.8818    170.9455   1.0667711951e+02   3.6953229909e+01    0.4697728    0.3059478  77.28   0.00294402    1.320    0.242
       277 -13.4029     11.1262    131.3844   1.0621922461e+02   4.6900987246e+01     1.569696     1.068228 -63.64  0.008825663    1.368    0.269
       278 -10.1355     61.4750    247.6503   1.0447951430e+02   1.8015656347e+01    0.1772002    0.1394123  54.45 0.0004104462    1.098    0.089
       279 -13.4652     25.6539    142.1457   1.0340055749e+02   4.3147349026e+01     2.204084    0.9544277  19.69  0.009786298    3.303    0.697
       280 -11.9114     42.1163    131.7671   9.7660362775e+01   4.3878796755e+01     0.833658    0.5837089 -39.55   0.00460675    1.779    0.438
       281 -12.7876     56.1984    148.4597   9.6158030633e+01   3.8303253848e+01     1.288874    0.8183476  52.11  0.006966538    1.535    0.348
       282 -12.6774     45.4151    176.7627   1.0203378140e+02   3.3300481084e+01     1.124626    0.8074088 -63.30  0.006621416    1.464    0.317
       283 -13.8190     39.0939    161.2500   1.0198194402e+02   3.7415546636e+01     2.080973     1.291479  75.31   0.01170931    1.563    0.360
       284 -11.9592     75.8362    150.5359   9.1398816918e+01   3.5157866321e+01    0.8518367    0.4467512  29.91  0.003857844    2.230    0.552
       285 -12.3945     62.0523    139.7066   9.3343154644e+01   3.9569601612e+01    0.9150106     0.649486  69.43  0.003217491    1.465    0.318
       286 -13.1254     69.6208    136.9070   9.0848017001e+01   3.9180126533e+01     1.618654     1.355976  31.72  0.009463831    1.344    0.256
       287 -12.9061     63.5908    128.3540   9.1066856411e+01   4.2022120439e+01     1.452498    0.9950921  18.22   0.00736612    1.959    0.490
       288  -9.3620    180.6978    211.1213   7.8191474096e+01   6.6894783928e+00     0.255857    0.1431251 -35.29  0.001407341    2.028    0.507
       289  -9.1555    183.5468    205.5184   7.6789458426e+01   7.0451396766e+00    0.2673539    0.1696115  24.93 0.0008469857    1.536    0.349
       290  -9.6909    181.5398    202.0727   7.6605425832e+01   7.8706507227e+00    0.3815947    0.1890013 -36.47  0.001704369    2.262    0.558
       291 -10.0696    193.7661    209.6346   7.5597708663e+01   4.8616309854e+00    0.2505965    0.1639071  10.30  0.001071911    1.735    0.424
       292 -10.3899      1.9456    209.7349   1.1323634476e+02   3.1007879773e+01    0.2647336    0.1840002  76.43  0.001036942    1.107    0.097
       293  -9.5658      4.9735    206.9765   1.1254892323e+02   3.1263782689e+01    0.2009071    0.1318024  72.31 0.0008995705    1.153    0.133
       294  -8.8415    225.1047    208.4828   7.0038849464e+01   3.0259878279e-01    0.1726118      0.13049 -15.63 0.0006627655    1.262    0.208
       295  -8.1950    188.3792    209.2688   7.6505744961e+01   5.7497210325e+00    0.1259488   0.08221168  14.66 0.0006992195    1.688    0.408
       296  -9.0417     72.6836    209.0691   9.9259757165e+01   2.3359730005e+01    0.1543988    0.1343132  76.34 0.0003867639    1.118    0.105
       297  -9.2822    176.7970    207.7870   7.8393434000e+01   7.7880281064e+00     0.184829    0.1455801  12.37 0.0007563468    1.262    0.208
       298  -9.2235     43.9338    207.1042   1.0492157242e+02   2.7276597407e+01    0.1650393    0.1351542  65.51 0.0002839488    1.069    0.065
       299  -8.6315    241.8110    206.4231   6.7013505208e+01  -1.8226375613e+00     0.157881   0.08779202  24.51 0.0005049169    1.661    0.398
       300 -10.0791    224.2545    247.0094   7.6056602942e+01  -3.9017177300e+00     0.167342    0.1124834  11.97 0.0004267863    1.251    0.201
       301  -9.6181     39.0473    205.6551   1.0579878059e+02   2.8108285980e+01    0.1810843    0.1429519 -84.27 0.0003762269    1.258    0.205
       302  -9.2783    189.3883    203.7835   7.5443236679e+01   6.3654655326e+00    0.2721543    0.1619402  -7.07  0.001318365    2.578    0.612
       303  -9.6702     70.8186    204.7843   9.9229588536e+01   2.4421194595e+01    0.2000673    0.1609598  57.57 0.0003916216    1.041    0.039
       304 -10.7177     67.6873    200.9918   9.9512522899e+01   2.5566210004e+01    0.2210534    0.2085298  75.98 0.0003107141    1.222    0.182
       305  -8.2771    202.6721    204.6984   7.3222694580e+01   4.1537197883e+00    0.1244836   0.08231951   9.92 0.0004274057    1.643    0.391
       306 -11.0779     97.4104    202.4677   9.3446626751e+01   2.1159380012e+01    0.2482667    0.1986824  46.36   0.00160166    1.106    0.096
       307  -9.3180     97.6831    197.9838   9.2847878267e+01   2.1966649157e+01    0.2196185    0.1617875 -76.62 0.0003394375    1.490    0.329
       308  -8.5053     98.4238    194.5250   9.2259367747e+01   2.2519658967e+01    0.1751091    0.1147209  29.59 0.0001357251    1.671    0.401
       309 -10.0165     94.7437    193.7986   9.2958115663e+01   2.3208379022e+01    0.2040921    0.1923728  71.29 0.0004924223    1.123    0.109
       310  -9.7488    129.5477    194.4561   8.5668832469e+01   1.7651154683e+01    0.2310509    0.2138669 -17.93 0.0001412888    1.262    0.208
       311 -10.2731    139.4850    177.0286   8.0818612651e+01   1.9176923730e+01    0.6083052    0.3225926 -58.97  0.002645774    2.374    0.579
       312  -8.8106    142.3940    175.2221   7.9888491193e+01   1.9003904660e+01    0.1850189    0.1340746 -47.46 0.0003396793    1.492    0.330
       313 -10.0232    145.6494    178.5127   7.9765225544e+01   1.7827162062e+01    0.2541147     0.208376  25.17 0.0002595273    1.242    0.195
       314 -10.2005    147.6351    173.7698   7.8522216006e+01   1.8345134655e+01    0.4256772    0.3598979  18.54  0.002498516    1.254    0.202
       315  -9.9400    129.0844    201.5306   8.6777673620e+01   1.6467200865e+01    0.2303018    0.1888516 -32.34 0.0003845197    1.489    0.329
       316 -10.4460    133.6295    200.0701   8.5644275780e+01   1.5994837140e+01    0.3473158     0.246981  70.13  0.001252241    1.793    0.442
       317 -10.7627    142.4749    183.4463   8.1257857540e+01   1.7480825511e+01    0.3054344    0.2505111  36.42 0.0002339154    1.124    0.110
       318  -9.3482    134.1574    195.5838   8.4881416512e+01   1.6698026860e+01    0.1848633    0.1577437  48.90 0.0003892673    1.073    0.068
       319  -9.5530    134.6037    192.1568   8.4275369864e+01   1.7235821542e+01    0.2450993    0.2131539 -21.54 0.0004420945    1.366    0.268
       320  -9.9140    138.3313    189.8664   8.3149314217e+01   1.7026777101e+01    0.2463946    0.2002132  31.88 0.0005443362    1.176    0.150
       321  -9.4149    138.4657    185.9557   8.2504051339e+01   1.7709110042e+01    0.2757539    0.2266964 -49.52 0.0005504322    1.345    0.257
       322  -9.5231    186.4716    199.1984   7.5223210611e+01   7.4967973773e+00    0.2250025    0.1681552   4.37 0.0007316422    1.434    0.303
       323  -9.4121     92.9898    198.4849   9.3902223355e+01   2.2560452121e+01    0.1876486    0.1676911 -52.94  8.53772e-06    1.341    0.255
       324 -10.1731     73.8196    198.8455   9.8004597227e+01   2.5176126156e+01     0.213889    0.1637419  60.62 0.0002638386    1.115    0.104
       325  -8.9400    210.1329    198.2855   7.0845206204e+01   3.8592108290e+00    0.1665546     0.131264  26.22 0.0004294342    1.123    0.110
       326 -10.0819    124.0258    197.4781   8.7250081302e+01   1.7995459585e+01    0.2018761    0.1850186 -54.92 0.0003463716    1.238    0.192
       327  -9.8671    114.1764    197.8122   8.9350227334e+01   1.9488522687e+01    0.2053227    0.1913979 -12.23 0.0002446088    1.317    0.241
       328  -9.0895    231.7262    197.1110   6.7026642448e+01   7.3317264040e-01     0.231338    0.1273697  15.15  0.001205715    2.137    0.532
       329  -9.7246    223.8409    196.0164   6.8129478141e+01   2.0505953053e+00    0.3318068    0.1854223  25.69  0.001833108    1.751    0.429
       330  -9.8543    167.5262    196.2327   7.8310836753e+01   1.1063242800e+01    0.2432759    0.1823432  15.86 0.0005460068    1.422    0.297
       331  -9.4771    202.5999    194.5862   7.1526927994e+01   5.5582635546e+00    0.3852686    0.1863952  23.65  0.001700179    2.686    0.628
       332  -9.7720     74.1301    194.0177   9.7426795657e+01   2.6089959464e+01    0.1934582    0.1549945  52.63 0.0003426823    1.102    0.092
       333 -10.1711    129.6245    172.9962   8.2274258521e+01   2.1659077383e+01    0.2377115    0.1963003  36.57 0.0001898905    1.166    0.143
       334 -10.1578    124.9159    192.2732   8.6318053162e+01   1.8801271517e+01    0.2300345    0.2004457 -12.78 0.0003641866    1.428    0.300
       335  -9.3534    129.8764    177.7208   8.3004523510e+01   2.0705706752e+01    0.2277259    0.1756587 -44.95 0.0003819597    1.429    0.300
       336  -9.6959    130.9355    188.9983   8.4561528249e+01   1.8415514537e+01    0.2083957    0.1695632  39.33  0.000298442    1.119    0.107
       337  -9.3078    126.2411    187.9996   8.5403029951e+01   1.9375724441e+01    0.1921286    0.1763247  49.31 0.0003162292    1.025    0.024
       338 -10.2470    129.2122    185.0998   8.4325653025e+01   1.9423671379e+01    0.4350934    0.2401059 -42.43  0.001910282    2.135    0.532
       339  -8.8175    219.5453    192.4666   6.8225684217e+01   3.1727176863e+00    0.1864368    0.1270339   8.33 4.622651e-05    1.491    0.329
       340  -9.2623    224.0414    181.7058   6.5528279977e+01   3.9077820270e+00    0.2389358    0.1492312 -24.08 0.0008431756    1.559    0.358
       341  -9.3760    226.4635    178.0433   6.4445584070e+01   4.0178096992e+00     0.261786    0.1538942  -5.57 0.0006580747    2.155    0.536
       342 -10.8158    222.5898    186.8629   6.6712934702e+01   3.4436382744e+00    0.5277187    0.1769293 -37.50  0.001940312    3.027    0.670
       343 -10.8761    218.8484    183.6171   6.6752293167e+01   4.4759112673e+00    0.4796697    0.3372423 -19.94   0.00266113    1.377    0.274
       344  -8.8189    210.4609    192.0968   6.9714206058e+01   4.6495224925e+00    0.1664028    0.1134489 -27.86 0.0003295226    1.479    0.324
       345  -9.1841    215.6874    190.4152   6.8516988537e+01   4.0513996997e+00    0.1949483    0.1308378  26.27 0.0006864341    1.366    0.268
       346 -10.4552    210.2865    180.6953   6.7687521068e+01   6.2787237493e+00    0.3995137    0.2663076 -43.39  0.002017525    1.738    0.424
       347  -9.3150    206.4674    185.0364   6.9152286019e+01   6.2861244007e+00    0.2918768    0.1584615 -18.48 0.0009323086    2.376    0.579
       348  -9.0460    205.5418    188.9715   7.0021865003e+01   5.8763346348e+00    0.1946032    0.1511795  10.03 0.0003794917    1.208    0.172
       349  -9.5801    202.4756    187.5429   7.0311095317e+01   6.5813862704e+00    0.2285224    0.1972731  48.74 0.0009135811    1.385    0.278
       350  -8.3910    237.3876    187.2990   6.4377533469e+01   1.1190680634e+00    0.1280421   0.07838763   9.61 0.0007015372    1.785    0.440
       351  -8.7008    210.7950    187.2133   6.8787453602e+01   5.2732225672e+00    0.1657169     0.124611   8.73 0.0002957343    1.276    0.216
       352 -10.8833    120.2436    186.1214   8.6404818316e+01   2.0713265371e+01    0.3112752     0.219323  41.76  0.001752919    1.284    0.221
       353 -11.7743     35.2099    173.5520   1.0407198416e+02   3.5130875010e+01     1.049588    0.3965383  85.47  0.003852227    4.112    0.757
       354  -8.4794    243.4605    186.0504   6.3195987239e+01   3.7358851696e-01    0.1738919   0.08853608  -9.71 0.0008092186    2.646    0.622
       355 -10.3216     85.9435    185.3199   9.3824913698e+01   2.6186754224e+01    0.2156406    0.1951218 -74.37 0.0003021035    1.188    0.159
       356 -10.7909     89.7083    181.0821   9.2436074616e+01   2.6499112395e+01    0.2302388    0.2071238  30.81 0.0003237633    1.262    0.208
       357  -8.5077    229.3566    185.3074   6.5311467131e+01   2.5959373333e+00    0.1287666    0.0816265   8.56 0.0007041722    1.725    0.420
       358  -8.0365    233.3634    184.3096   6.4478856136e+01   2.1094147173e+00    0.1288422   0.08078306   8.43 0.0003170391    1.749    0.428
       359  -9.6294    162.8563    183.1721   7.7038250772e+01   1.4004160237e+01    0.2066631    0.1815718  -4.51 0.0004163593    1.205    0.170
       360  -9.9985    134.6022    181.7779   8.2648297522e+01   1.9133445701e+01    0.2253255     0.205966  27.79  0.000475604    1.107    0.097
       361  -9.4955    198.9963    180.8330   6.9720868515e+01   8.1473051748e+00    0.2790265    0.1707931 -29.72 0.0009312702    1.695    0.410
       362  -9.2519    204.3453    179.8383   6.8576660627e+01   7.3930909444e+00    0.1722662    0.1465351  -5.45 0.0005067756    1.096    0.088
       363 -11.1803    203.0806    174.3468   6.7773931835e+01   8.4242137326e+00    0.5020463    0.4664945  35.19   0.00330301    1.217    0.178
       364 -10.1389    205.2766    167.2050   6.6005674960e+01   9.1236830150e+00    0.3594878    0.2080051 -25.17  0.001498233    1.853    0.460
       365  -8.4630    235.5622    179.9761   6.3327753112e+01   2.3332009849e+00    0.1625332   0.09155235  -6.90 0.0003444901    2.235    0.553
       366 -12.2576    112.5909    114.8257   7.4659884657e+01   3.7003571788e+01     1.061455     0.735469   4.85  0.003815601    2.506    0.601
       367  -9.4635    124.9175    170.6379   8.2919900703e+01   2.2935514294e+01    0.2231877    0.1894186 -57.59 0.0004558969    1.256    0.204
       368  -9.2961    123.9974    166.6190   8.2440661163e+01   2.3895587106e+01    0.2070347    0.1834017 -41.89  0.001219498    1.238    0.192
       369 -10.5297    122.0555    178.9129   8.4904229677e+01   2.1799666056e+01    0.3572011     0.282812  13.37  0.000628625    1.586    0.369
       370  -9.8781    124.3371    174.9750   8.3769109632e+01   2.2181928768e+01    0.2347982    0.2190816  -6.13 0.0004320328    1.237    0.191
       371  -9.4919    218.5987    177.7054   6.5699186775e+01   5.3353661570e+00    0.2975605    0.1811496  16.14 0.0009320335    1.905    0.475
       372  -9.5138    230.7683    176.1367   6.3382303084e+01   3.5897244278e+00    0.2839842    0.1911604 -43.01  0.001647648    1.774    0.436
       373  -9.2928    134.8418    176.6261   8.1747794691e+01   2.0059278338e+01    0.1987078    0.1774703 -28.14 0.0004592875    1.265    0.209
       374 -10.8224    118.9972    169.5471   8.4068752111e+01   2.4168861308e+01    0.3289255    0.2592046 -78.29 0.0005975047    1.446    0.309
       375  -8.9224    109.8506    177.4040   8.7378813204e+01   2.4110579974e+01    0.1837643    0.1519007  41.28 0.0002215811    1.155    0.134
       376  -9.5858    113.0904    174.6682   8.6229529079e+01   2.4129594650e+01    0.2247974    0.1941685 -63.53 0.0004057013    1.227    0.185
       377 -10.1601    112.2321    169.5394   8.5607984377e+01   2.5311437451e+01    0.4232096    0.2270186 -57.07  0.001988576    1.984    0.496
       378  -9.5541    115.4688    166.0564   8.4290636738e+01   2.5478846929e+01    0.2387043    0.2070649 -11.42 0.0004141755    1.457    0.314
       379  -8.8590     94.6144    176.8182   9.0741255001e+01   2.6635974975e+01     0.184605    0.1737206  43.65 0.0003000962    1.156    0.135
       380  -9.3201    103.0289    177.0629   8.8864476741e+01   2.5273593692e+01    0.2202468    0.1730465  49.01 0.0003763276    1.161    0.139
       381 -10.0468     98.7678    175.1493   8.9553674613e+01   2.6336895647e+01    0.2729831    0.1902162  46.53  0.001508476    1.316    0.240
       382  -9.7377    117.8598    175.4182   8.5278974946e+01   2.3187501849e+01    0.2137841    0.1867446 -48.90 0.0003652535    1.259    0.206
       383  -9.2236    224.4804    173.8842   6.3988997594e+01   4.9072255969e+00    0.3249911    0.1576895 -18.00  0.001315454    2.790    0.642
       384  -8.3884    209.6415    174.2090   6.6584461364e+01   7.3264592471e+00     0.164027     0.111245 -22.08 0.0002113124    1.484    0.326
       385 -10.5092    107.1025    172.0440   8.7179343156e+01   2.5644315319e+01    0.2617725    0.2236285 -51.39 0.0003896684    1.283    0.221
       386  -8.1713    241.6933    172.6740   6.0988995768e+01   2.3349937925e+00     0.126446   0.08196428   3.79 0.0007036181    1.650    0.394
       387  -9.1307    233.6403    172.0067   6.2134697572e+01   3.6872751770e+00    0.1703483    0.1345553 -12.32 0.0003580429    1.117    0.105
       388  -8.9711    218.8626    172.1704   6.4604867716e+01   6.0726979707e+00    0.1758124    0.1307467   9.09 0.0004118304    1.326    0.246
       389  -8.9439    230.4055    170.7157   6.2409429784e+01   4.3810727205e+00    0.1741302    0.1062411 -19.92 0.0009457587    1.623    0.384
       390 -10.2130    142.9718    169.9056   7.8829493966e+01   1.9897039600e+01    0.2530944    0.2148951  -7.42 0.0002800732    1.392    0.282
       391  -9.7663    147.8332    167.0667   7.7270344703e+01   1.9553419305e+01    0.2678307    0.1828993  36.74  0.001384235    1.408    0.290
       392  -9.3588    138.2662    169.7896   7.9827843567e+01   2.0759075487e+01    0.3148767    0.2295924   5.43  0.001401342    1.965    0.491
       393  -9.0869    135.0249    166.9341   8.0031170797e+01   2.1887571835e+01    0.1944834    0.1851205  43.34 0.0003439565    1.022    0.021
       394  -9.4279    133.8811    170.8608   8.0973769208e+01   2.1329080704e+01    0.1928697    0.1756551   3.94 0.0004161973    1.233    0.189
       395 -10.1082     95.6867    170.6986   8.9610882567e+01   2.7744965926e+01    0.2242769     0.219824 -87.31 0.0005366423    1.147    0.128
       396 -10.5242    101.3889    169.4038   8.8088613616e+01   2.7114149679e+01     0.229752    0.2229044  27.85 0.0007853928    1.176    0.149
       397 -10.5264    152.0089    167.1938   7.6405395164e+01   1.8769434858e+01    0.4646907     0.198648 -46.09  0.001541232    2.487    0.598
       398  -9.0863    246.8549    167.1720   5.9142667845e+01   2.2499466308e+00     0.380808     0.193099  37.77  0.002029988    1.995    0.499
       399 -10.2419    229.3367    165.5691   6.1584354074e+01   5.2644552176e+00    0.3877782    0.2202351 -14.14  0.001576066    2.068    0.516
       400  -9.4620    234.0937    162.1145   6.0139084393e+01   4.9590716014e+00    0.2459392     0.167833   1.04 0.0004848012    1.564    0.361
       401 -13.7310    135.0394    109.2481   6.7585557803e+01   3.3625637391e+01     1.818885     1.642428 -71.21  0.009767977    1.172    0.147
       402 -10.5390    129.0181    165.6193   8.1134697139e+01   2.3213515242e+01    0.3880558    0.2023659 -51.49     0.001288    2.036    0.509
       403  -9.8114    106.9001    166.2359   8.6305187942e+01   2.6878613789e+01    0.2122616    0.1902874 -54.91 0.0002240394    1.200    0.167
       404  -8.4709    217.4186    166.4158   6.3734480048e+01   7.1431860098e+00    0.1285398     0.108778   3.04 0.0001744848    1.054    0.051
       405  -9.9608    119.7224    163.0692   8.2800053498e+01   2.5358686243e+01    0.2252984    0.2018178  25.19 0.0002112143    1.209    0.173
       406 -10.0508    146.7687    162.1117   7.6574130649e+01   2.0683900015e+01    0.2312746    0.2029202  24.29 0.0002529387    1.161    0.139
       407  -9.9502    111.2191    162.4608   8.4670469680e+01   2.6944167024e+01    0.2242012    0.2213238 -66.40 0.0004047523    1.112    0.101
       408 -10.0047    194.9105    177.9250   6.9929336570e+01   9.2851668352e+00    0.2147124    0.1634946 -18.54 0.0004494277    1.344    0.256
       409  -9.2913    132.8638    161.8763   7.9597450101e+01   2.3269165117e+01    0.1921306    0.1793496   6.85 0.0003058072    1.173    0.148
       410  -8.8885    107.0187    161.7087   8.5532210909e+01   2.7808496521e+01     0.182165    0.1641165  51.92 0.0003074244    1.060    0.056
       411  -9.6572    124.4202    160.2803   8.1224551112e+01   2.5102144217e+01    0.2192945    0.2004058  31.83 0.0003728323    1.128    0.113
       412  -9.0696    213.0353    159.5550   6.3122437285e+01   8.9177093081e+00    0.2648005    0.1709138 -67.36  0.001069927    3.754    0.734
       413 -10.6531     91.1421    156.9767   8.8581600509e+01   3.1403804029e+01    0.3117221    0.2597101 -60.02 0.0004088351    1.231    0.187
       414 -10.0193     95.8331    153.9771   8.6934119021e+01   3.1312953294e+01    0.2391899    0.2249697  33.69 0.0003057121    1.176    0.150
       415  -9.9018     97.9027    150.0284   8.5742674268e+01   3.1841658323e+01    0.2202907    0.2082967  45.64 0.0003355667    1.116    0.104
       416 -10.8497     79.5356    157.6560   9.1549271091e+01   3.3020233299e+01    0.2538804    0.2433552 -49.99  0.000557641    1.223    0.182
       417  -9.3614     75.5684    155.5323   9.2221517061e+01   3.4071624406e+01    0.2210241    0.2066527 -28.60 0.0001473592    1.332    0.249
       418  -9.2241    119.5801    158.4715   8.2018658410e+01   2.6329342390e+01    0.2197941    0.1310821  39.51 6.738144e-05    1.628    0.386
       419  -9.5324    122.2059    155.8099   8.0920482102e+01   2.6414055902e+01    0.2478562    0.2066561  17.39 0.0004056215    1.412    0.292
       420  -9.0256    237.7235    156.2409   5.8396401735e+01   5.1693872361e+00    0.2121204    0.1417863 -16.45 0.0007865044    1.427    0.299
       421  -9.5257    216.8623    155.8255   6.1709228972e+01   8.8012619944e+00     0.408311    0.2039833  23.42   0.00123562    3.065    0.674
       422 -10.3985    227.7848    155.1162   5.9749913927e+01   7.0021723035e+00    0.2893308     0.194693 -12.77  0.001496854    1.529    0.346
       423  -9.4085    204.8865    154.0258   6.3424686842e+01   1.1233036645e+01     0.199098    0.1769149   0.62 0.0004505696    1.031    0.030
       424 -10.3483     84.6390    153.9606   8.9711131012e+01   3.3077229930e+01     0.231802    0.2097445  60.75 0.0003421843    1.066    0.062
       425 -10.4666     84.8376    148.5365   8.8781363539e+01   3.4260506127e+01    0.2747088    0.2345963 -47.43 0.0006083472    1.298    0.230
       426  -9.9237    208.5441    152.1916   6.2397308795e+01   1.0850765864e+01    0.2908275    0.2178349 -67.05  0.001249359    2.123    0.529
       427 -11.0332    214.2645    147.4994   6.0423702594e+01   1.0529803288e+01    0.4726538    0.2987833 -13.28  0.001635286    1.861    0.463
       428  -9.0659    223.8369    149.9641   5.9336015010e+01   8.4381751690e+00     0.195265    0.1545525   0.02 0.0002988865    1.233    0.189
       429  -9.9854    226.8073    146.2003   5.8066916419e+01   8.4655607096e+00    0.2275394    0.1441411 -12.23 0.0003310645    1.774    0.436
       430 -10.4273     91.0812    148.1738   8.7133416059e+01   3.3361031693e+01    0.2239572    0.2202835  29.27 0.0003434479    1.164    0.141
       431  -9.6325    103.8952    141.0926   8.2593254711e+01   3.2798492305e+01    0.2642899    0.1925822 -50.72 0.0004873992    1.396    0.284
       432  -9.1449     98.7334    140.9482   8.3880005231e+01   3.3714620435e+01    0.2373002     0.203683  84.19 0.0002439089    1.191    0.160
       433  -9.9925    101.0744    137.1221   8.2541402515e+01   3.4167602847e+01    0.3189161    0.2463682  35.52 0.0003449028    1.367    0.268
       434  -9.4421     88.9821    144.2573   8.6988518081e+01   3.4574297280e+01     0.204817    0.1909434 -73.78 0.0002913874    1.075    0.070
       435 -11.2525     92.2370    139.8195   8.5345629610e+01   3.5049306127e+01    0.4720623    0.3186441 -49.62 0.0003607922    1.525    0.344
       436  -9.2051     85.0472    143.9600   8.7953484896e+01   3.5261282394e+01    0.2024333     0.188924  85.29 0.0004583695    1.025    0.025
       437  -9.3165     86.9867    140.9298   8.6916738409e+01   3.5643943611e+01    0.2246443    0.1929107  46.10 0.0003485037    1.177    0.150
       438  -9.7915    102.9370    147.5274   8.4041612442e+01   3.1547708692e+01    0.2367787    0.1868568 -54.70 0.0003409821    1.288    0.224
       439  -9.9445    106.3155    144.9414   8.2719923216e+01   3.1533119358e+01    0.3221684    0.2205322  31.10  0.001356084    1.629    0.386
       440  -9.1761    206.2904    145.7108   6.1429043299e+01   1.2286781396e+01    0.1857007    0.1462155   0.38 0.0001801241    1.333    0.250
       441  -9.8288    208.6932    142.9664   6.0419148458e+01   1.2269712648e+01    0.2383655    0.1757906  24.18 0.0003966453    1.426    0.299
       442  -9.7623     98.7882    145.3473   8.4682995970e+01   3.2727892478e+01    0.2280219    0.2048141 -46.93 0.0002968843    1.205    0.170
       443  -9.9356    222.0532    144.7579   5.8538075517e+01   9.5293524192e+00    0.2474922    0.1708507 -31.07  0.001366311    1.349    0.259
       444  -8.4991    247.7523    143.0113   5.4184201824e+01   5.3175962045e+00     0.161295   0.09377079 -29.80 0.0003079561    1.511    0.338
       445  -9.2512    127.1485    155.8041   7.9771986146e+01   2.5525417399e+01    0.2222611     0.197464 -31.42 0.0002558467    1.253    0.202
       446  -9.7375    214.7273    141.0259   5.8963801028e+01   1.1442085179e+01    0.1856943     0.158372 -20.25 0.0003075418    1.082    0.075
       447  -8.9744    219.9428    136.3455   5.7078081992e+01   1.1188125011e+01    0.1767367    0.1588146  13.00 0.0003843624    1.091    0.084
       448 -10.0599    206.0250    135.0126   5.9145738281e+01   1.4049351866e+01    0.2071783    0.1915389  -6.83 0.0005222842    1.012    0.012
       449  -8.6744    216.2635    134.6572   5.7317315053e+01   1.2139714738e+01    0.1299903    0.1024209 -57.11 0.0006975561    1.598    0.374
       450 -10.7789     97.3242    131.9839   8.2497729558e+01   3.5965242066e+01    0.3910134    0.2570072 -54.89  0.001489693    1.494    0.330
       451  -9.3229    212.5385    132.5625   5.7479443976e+01   1.3178993006e+01    0.1349927    0.1236919 -11.72 -9.695581e-06    1.016    0.016
       452  -9.5630     87.8771    130.6734   8.4763663363e+01   3.7841847540e+01    0.2154195    0.1827451 -51.12 0.0003190654    1.206    0.171
       453 -10.1193     86.7736    115.9554   8.2018852047e+01   4.1407654360e+01    0.4446462    0.2371747  34.44  0.001875872    2.081    0.519
       454 -10.4102     96.7069    123.3376   8.0862152551e+01   3.8026983570e+01     0.251583    0.2417386 -34.54 0.0002886773    1.138    0.121
       455 -10.0849     90.3009    109.3500   7.9502858952e+01   4.2320949662e+01    0.5440165    0.2151639 -44.16  0.001806887    2.725    0.633
       456 -11.0709     90.0261    121.2254   8.2244842536e+01   3.9652802995e+01    0.9994374    0.3743514  49.05  0.003461311    3.079    0.675
       457 -10.4864     97.3071    117.7836   7.9474052583e+01   3.9178622410e+01    0.2724981    0.2451735   7.08 0.0004635223    1.322    0.243
       458 -10.3314     92.9787    115.2345   8.0101551317e+01   4.0516635621e+01    0.3693044    0.2583763 -58.37 0.0004745887    1.394    0.283
       459 -11.2813     96.3199    106.9180   7.7194593238e+01   4.1805032717e+01    0.5390224    0.3433149 -23.49  0.002197785    2.506    0.601
       460 -10.0803    100.1101    100.0995   7.4388705924e+01   4.2621657737e+01     0.401824    0.2898101  26.28 0.0009769219    1.678    0.404
       461  -9.9404     76.9969    123.0355   8.6279739560e+01   4.1328616312e+01    0.5112579    0.3023098 -26.00  0.001782216    3.234    0.691
       462 -11.0691     81.2768    129.4278   8.6324003160e+01   3.9180927775e+01    0.4834028    0.2266766 -52.69  0.001182835    2.054    0.513
       463  -9.8643     82.2279    122.7854   8.4751183250e+01   4.0569873404e+01    0.4184592    0.2454362 -59.50  0.000424004    1.641    0.391
       464 -10.2428     92.8137    129.0798   8.3114119104e+01   3.7389270939e+01    0.2461825    0.2172292 -48.43 0.0002877735    1.178    0.151
       465 -10.1656    206.4834    128.9993   5.7715866854e+01   1.4929831150e+01    0.1942413      0.17932  20.89  0.001158212    1.091    0.084
       466  -9.3298     50.0436    128.5311   9.4943455217e+01   4.3723327293e+01    0.2327894    0.1630627 -53.22 0.0004407347    1.434    0.303
       467 -14.2054    126.1674     84.7708   6.3035371697e+01   4.0480243671e+01     2.737227     1.976136  27.85   0.01265804    1.680    0.405
       468 -10.2533    211.9143    126.7546   5.6278919986e+01   1.4218332646e+01    0.2391653    0.1716354 -22.41 0.0007314029    1.371    0.271
       469  -9.9167     87.1992    126.0329   8.4026092529e+01   3.9017839366e+01     0.215191    0.1986013  48.23 0.0003546666    1.127    0.113
       470 -12.2771     47.1236    147.5802   9.8402446343e+01   3.9611466541e+01     1.486028     0.390667 -70.12  0.005040177    3.885    0.743
       471 -10.1773     33.5562    117.7823   9.8144871484e+01   4.8110670312e+01    0.2285578    0.2017492 -65.97 0.0003171467    1.123    0.110
       472 -10.8302     38.9717    118.9418   9.6695242451e+01   4.7269231424e+01    0.6635458    0.2118742 -51.26  0.001595626    3.109    0.678
       473  -9.0401     37.0304    114.9742   9.6665891007e+01   4.8422613643e+01    0.1943629    0.1666643 -74.21 0.0003251463    1.032    0.031
       474  -9.1369      2.9389    123.4711   1.0775380621e+02   4.9335223667e+01    0.1798265    0.1317342 -81.76 0.0004363967    1.098    0.089
       475 -11.1374    202.4527    121.6702   5.6730053716e+01   1.6934501381e+01    0.3912604    0.2262515 -14.00   0.00159693    2.501    0.600
       476  -9.4030     67.1836     98.3012   8.3908207008e+01   4.8587061418e+01    0.2189583     0.192557 -36.03 0.0006071358    1.211    0.174
       477  -8.7562     71.4484     97.4417   8.2347523104e+01   4.8143487438e+01    0.2072666    0.1896944 -51.98 0.0001894771    1.058    0.055
       478 -10.1510     74.8748     94.4329   8.0516997840e+01   4.8297642218e+01    0.2610599     0.227776  -8.94 0.0005097143    1.364    0.267
       479  -9.9350     71.7956    105.0605   8.4022186043e+01   4.6322371650e+01    0.2489737    0.2354314 -55.14 0.0003401187    1.072    0.067
       480 -10.4702     65.8619    103.9170   8.5606596215e+01   4.7468392875e+01    0.3118616    0.2464101  45.41 0.0003724171    1.344    0.256
       481  -8.8451     63.5264    100.5537   8.5593417760e+01   4.8590912198e+01    0.1948134    0.1808636  -3.41 0.0005154675    1.254    0.203
       482 -10.3298     74.7476    117.7246   8.5860171579e+01   4.2912936977e+01    0.2459156    0.2245099 -52.94 0.0003822953    1.122    0.108
       483  -9.1903     72.7882    114.1382   8.5694583218e+01   4.4049267203e+01    0.1844739    0.1786179  78.04 0.0003023799    1.080    0.074
       484 -10.0980     62.0750    112.7870   8.8631079192e+01   4.5910110604e+01    0.2631575    0.2235419 -47.40 0.0004218369    1.217    0.178
       485  -9.6923     64.8924    117.5543   8.8718810723e+01   4.4391806074e+01    0.4119503    0.2261205 -39.58  0.001461959    2.310    0.567
       486  -9.9117     69.0404    116.5380   8.7293174278e+01   4.4039878040e+01    0.2504108    0.2068396 -60.18 0.0003805718    1.136    0.120
       487 -10.5590     69.6748    110.3552   8.5829326274e+01   4.5400847786e+01    0.4716686     0.295234 -76.43  0.001170429    1.861    0.463
       488  -9.8567     65.2809    109.4051   8.6966037779e+01   4.6261065663e+01    0.2544753    0.2098231 -83.70 0.0005858834    1.220    0.180
       489 -10.3265     58.7533    117.5790   9.0546889015e+01   4.5221747099e+01    0.2450373    0.2103629 -59.40  0.000303391    1.124    0.110
       490  -9.0457     48.6598    115.0054   9.3124364567e+01   4.7107181280e+01    0.1941604    0.1641498 -50.77 0.0003719023    1.221    0.181
       491  -8.6787     48.7120    111.6961   9.2519279745e+01   4.7890208282e+01    0.1854588    0.1451932  75.73 0.0003175466    1.339    0.253
       492  -9.6042     52.9873    116.2925   9.2041467854e+01   4.6270153733e+01    0.2577949    0.1964891 -78.96 0.0003563954    1.242    0.195
       493  -9.2270     52.2857    112.6953   9.1601033421e+01   4.7214502971e+01    0.2328582    0.1707417 -76.05 0.0007251806    1.293    0.227
       494 -10.2070     17.0249    117.0480   1.0300017464e+02   4.9791409238e+01    0.1836086    0.1537143 -82.91 0.0003708961    1.018    0.018
       495 -10.9600    227.1441    243.6394   7.5122400009e+01  -3.9270375740e+00     0.277861    0.1313037  31.68  0.001053581    1.705    0.413
       496 -10.3197     28.5068    114.5512   9.9205195715e+01   4.9374752694e+01    0.2338273    0.1929065 -61.64 0.0002167009    1.160    0.138
       497  -9.5735     32.6828    112.1365   9.7561145895e+01   4.9545343234e+01    0.2020585    0.1932648 -66.87 0.0004194566    1.162    0.139
       498  -8.9175      1.4572    115.0287   1.0739450919e+02   5.1395775645e+01    0.1780318   0.09611088 -76.76  0.000375194    1.484    0.326
       499 -10.3719     43.2336    113.2420   9.4480979862e+01   4.8159832329e+01     0.232082    0.2040175 -62.09 0.0003057634    1.109    0.099
       500  -9.6695     77.9673    113.1254   8.3950761706e+01   4.3488949993e+01    0.2036411    0.1906824 -63.30 0.0003580362    1.049    0.047
       501 -11.1861     56.5529    186.7160   1.0050547073e+02   2.9862109816e+01       0.5346    0.2452681  38.83  0.001527402    1.977    0.494
       502  -8.4465     26.2515     99.3632   9.7582031661e+01   5.3203597836e+01    0.1670017     0.134203  18.09 0.0003481779    1.521    0.343
       503 -10.5436     14.1750    112.1810   1.0326962327e+02   5.1168395074e+01     0.357725    0.1541324 -61.46  0.001078056    1.912    0.477
       504 -10.1787     17.9631    108.7653   1.0166154954e+02   5.1677840993e+01    0.3629788     0.204473  52.19  0.001685405    1.929    0.481
       505 -10.0367     24.4881    105.5081   9.9130323164e+01   5.1898570203e+01    0.3784688    0.1833901  51.70  0.001165097    2.381    0.580
       506  -8.8769     22.8637    101.1781   9.8993299586e+01   5.3071497025e+01    0.2163636    0.1441451 -57.57  0.000643904    1.331    0.249
       507 -10.4893     24.7030    110.3530   9.9776069288e+01   5.0725282103e+01    0.2461758    0.2391305  10.58 0.0002327281    1.267    0.211
       508 -11.0796    210.4375    111.6655   5.3013030001e+01   1.6916092456e+01     0.302726     0.230877  45.76   0.00128584    1.389    0.280
       509  -9.5470     81.9074    111.9559   8.2538285054e+01   4.3130870795e+01    0.2058036    0.1927033 -70.29 0.0002742911    1.012    0.011
       510  -9.5948     62.7790     95.6235   8.4698137716e+01   4.9848295258e+01     0.224702    0.1923339 -52.24 0.0003521848    1.097    0.089
       511 -10.1476     56.6441    111.8409   9.0102731832e+01   4.6861721764e+01    0.2411241    0.2183708 -57.03 0.0003023061    1.111    0.100
       512 -10.3108     59.9084    107.1210   8.8151845911e+01   4.7546594211e+01    0.2519361    0.2354128  12.29 0.0003725518    1.253    0.202
       513  -9.7225     54.2584    107.3541   8.9967743266e+01   4.8235903401e+01    0.2413956    0.2047538 -54.74 0.0003840483    1.137    0.121
       514 -10.9083     57.1461    101.0165   8.7740264064e+01   4.9359455739e+01    0.5307811    0.4805053   4.90  0.001680336    1.315    0.239
       515 -10.4292     41.1036    104.3401   9.3583254969e+01   5.0523085282e+01    0.2801731     0.220178 -66.91  0.001240697    1.114    0.102
       516 -10.5292     44.4263    107.8585   9.3163448626e+01   4.9309303850e+01    0.3423843    0.2064987 -47.35 0.0005452802    1.683    0.406
       517 -10.2389     49.5321    105.2231   9.1045325951e+01   4.9333012254e+01     0.280994    0.2450392  29.14 0.0003163334    1.314    0.239
       518  -9.8274     17.9160    103.0665   1.0088872505e+02   5.3034572165e+01    0.2867998    0.1919076 -32.79 0.0003146027    1.858    0.462
       519  -9.7350      6.0017    112.0300   1.0573493089e+02   5.1797271877e+01    0.1867369    0.1733895  49.76  0.000327037    1.270    0.212
       520  -9.8872      8.7080    109.3067   1.0460497107e+02   5.2250330221e+01     0.379162    0.1789855  73.50  0.001620422    2.550    0.608
       521 -11.1100     11.7580    107.0401   1.0338337695e+02   5.2565864096e+01    0.3977817    0.2760856  71.22  0.001691993    1.454    0.312
       522  -9.7866     38.8798    110.2200   9.5321719316e+01   4.9361695087e+01     0.236523     0.163903 -63.57 0.0004420285    1.263    0.208
       523  -9.1536     35.5718    108.4534   9.6067395718e+01   5.0132120684e+01    0.1950712    0.1742005 -84.08 7.819805e-05    1.050    0.048
       524  -9.0222     74.3871    110.1761   8.4372078159e+01   4.4732919563e+01    0.2092072    0.1929626  20.06 0.0004714668    1.243    0.196
       525  -8.8848     21.6941    107.7134   1.0034307692e+02   5.1617016023e+01    0.1725168    0.1502404 -32.15 0.0001858198    1.374    0.272
       526 -10.4736    249.8712    106.1345   4.5957629033e+01   1.0042773504e+01    0.2499775    0.1929057 -42.75    0.0010787    1.260    0.207
       527  -8.9088      4.5262    106.8543   1.0562036470e+02   5.3110227085e+01    0.1806225   0.09800099 -74.52 0.0005976495    1.482    0.325
       528 -10.0406    206.2708    106.3667   5.2423578922e+01   1.8633770317e+01    0.1860989    0.1369195  64.45 0.0009163336    1.608    0.378
       529 -10.7091     77.5649    105.1934   8.2292424606e+01   4.5394055528e+01    0.2891598    0.2303976 -38.05 0.0003619936    1.351    0.260
       530  -9.7951     74.0112    100.9724   8.2391015407e+01   4.6930768070e+01    0.2409696    0.2046873  36.71 0.0003136319    1.274    0.215
       531  -8.6534     77.6354    100.2391   8.1094523279e+01   4.6525183239e+01    0.2168374    0.1837566  78.04 0.0004074619    1.301    0.232
       532  -9.0280     80.7666     99.0072   7.9830079286e+01   4.6295786587e+01    0.2357616     0.202334  34.42  0.001298342    1.264    0.209
       533 -11.0007     85.1042    105.1120   8.0013895032e+01   4.4176317656e+01    0.3377079    0.2808809 -76.41 0.0005968801    1.253    0.202
       534 -10.2911     85.8418     98.8361   7.8245289099e+01   4.5477577568e+01    0.3510479     0.260117 -22.73 0.0009134277    1.757    0.431
       535  -9.3682     88.3881     94.1488   7.6258279838e+01   4.6084387743e+01    0.2204874    0.1973932  18.38 0.0005186682    1.260    0.206
       536 -10.4629     92.5973    101.9485   7.7030233188e+01   4.3590433979e+01    0.4607503    0.3255583  66.90  0.001327616    1.771    0.435
       537  -8.3996      1.2863    103.6721   1.0628302022e+02   5.4059790684e+01     0.122792   0.07673442  71.78 0.0004628136    1.611    0.379
       538  -9.0180     32.1230     96.1070   9.5042524661e+01   5.3422592779e+01    0.1939584    0.1687796 -80.44 0.0003016811    1.069    0.065
       539  -9.6408     36.1489    102.1296   9.4793230711e+01   5.1581668607e+01    0.2174549    0.2001004 -50.56 0.0004855331    1.160    0.138
       540  -8.8381     34.7135     98.7296   9.4652530750e+01   5.2539293054e+01      0.19335    0.1484644 -70.82 0.0001886223    1.138    0.121
       541 -10.4173     93.5232    246.2630   9.8649599840e+01   1.4199767403e+01    0.3956843    0.1948862  42.21  0.001567079    1.556    0.357
       542  -9.0312     46.4920    100.9505   9.1185595132e+01   5.0713612275e+01    0.1820058    0.1713275 -76.08 0.0003227046    1.071    0.066
       543  -8.9703     30.3484    100.0856   9.6344346019e+01   5.2649070520e+01     0.178861    0.1412655 -69.90 0.0004917711    1.083    0.077
       544  -8.9297     17.4730     98.0368   1.0029679696e+02   5.4263082700e+01     0.178378    0.1382356 -71.74 0.0005030827    1.072    0.067
       545 -10.4825     13.8171     97.3729   1.0141910223e+02   5.4700470210e+01    0.4208186    0.1709095 -44.30  0.001852809    2.758    0.637
       546  -9.8485     15.1752     93.3699   1.0036241294e+02   5.5545043421e+01    0.2472899     0.197868  68.93 0.0003861039    1.321    0.243
       547  -9.6435     40.0058     97.2363   9.2599635842e+01   5.2334290239e+01    0.2296581     0.165571 -57.87 0.0004153825    1.225    0.184
       548  -8.8232     41.3397     93.7413   9.1446261025e+01   5.3014453342e+01    0.1988617    0.1465067 -63.14 0.0002712448    1.187    0.158
       549  -9.0175     18.5148     93.9805   9.9314483947e+01   5.5141085740e+01    0.1775151    0.1358944 -70.03 -1.138328e-05    1.087    0.080
       550 -12.0609    242.4826     95.3732   4.4479726964e+01   1.2937408864e+01     0.457343    0.3659013 -22.45  0.002744187    1.147    0.128
       551  -9.7915     45.6431     96.3841   9.0538420078e+01   5.1896047378e+01    0.2334186    0.1933456 -50.04  0.000326515    1.165    0.142
       552  -9.2729     23.0478     96.4980   9.8182250561e+01   5.4167743342e+01    0.2687266    0.1559757 -41.47  0.001117722    1.896    0.473
       553  -9.3724     27.9751     94.7096   9.6200931894e+01   5.4151250395e+01    0.1990662    0.1734146 -15.52 0.0002495663    1.392    0.281
       554  -8.7249     94.7582     91.0296   7.3502590068e+01   4.5612286749e+01    0.2146249    0.2011605  39.74  0.000327079    1.120    0.107
       555  -9.2840    100.6935     89.7337   7.1400848205e+01   4.4762237782e+01    0.2492339    0.2088909  -5.18 0.0001808282    1.462    0.316
       556  -9.7378    105.0587     90.7702   7.0445282313e+01   4.3684650412e+01    0.4549961     0.271363 -68.37  0.001754832    2.550    0.608
       557 -10.2836     94.3102     95.8241   7.4938763846e+01   4.4643535917e+01    0.3027892    0.2548369 -71.37 0.0007120903    1.258    0.205
       558 -10.6547    100.3367     94.0108   7.2694845660e+01   4.3909393231e+01    0.7361881     0.330507  50.14  0.002774475    2.492    0.599
       559 -10.0258    227.9730     95.3239   4.6429470317e+01   1.5825046948e+01    0.1810133    0.1764468   8.71 0.0005507591    1.112    0.101
       560 -10.7946    196.2994     95.0062   5.1256681413e+01   2.2639717071e+01    0.3871731    0.2131591  61.18  0.001659856    2.104    0.525
       561  -9.8435      7.5110     95.5499   1.0327527137e+02   5.5573057912e+01    0.1231381    0.1001848 -73.65 0.0001582708    1.017    0.017
       562  -9.4639      3.4332     95.4892   1.0463015297e+02   5.5846697565e+01    0.1840828    0.1247507  76.55   6.8962e-05    1.480    0.324
       563  -9.5402      3.4940     92.0470   1.0416908694e+02   5.6649692518e+01    0.1737252    0.1289878 -75.03 0.0003493635    1.086    0.079
       564 -10.1997     80.9877     93.2524   7.8292526055e+01   4.7563902650e+01    0.2382474    0.1934479 -47.29  0.000315735    1.176    0.149
       565  -8.5605     68.5734     94.1988   8.2474131958e+01   4.9329152679e+01    0.2053887    0.1297543 -54.82 0.0003744827    1.455    0.313
       566  -8.8531     66.6305     91.0068   8.2311837682e+01   5.0354482036e+01    0.1944768    0.1603384 -54.15 0.0004228649    1.115    0.103
       567  -9.5205     55.5934     93.4884   8.6572368046e+01   5.1333426074e+01    0.2664396    0.2044731 -45.90  0.001380316    1.267    0.210
       568 -10.2965     60.5641     89.6617   8.3992304944e+01   5.1543360169e+01    0.4415199    0.2870265  58.50  0.001429533    1.922    0.480
       569 -10.7478    248.7559     91.9384   4.2900663184e+01   1.2214249397e+01    0.2304953    0.2010974  76.58  0.001460331    1.396    0.284
       570  -9.6874     48.9997     91.5151   8.8350917386e+01   5.2638553933e+01    0.2332778    0.1630515 -47.49 0.0003691466    1.359    0.264
       571 -10.0332     35.1847     91.5418   9.3118147613e+01   5.4195502665e+01    0.2309167     0.222611  44.30 0.0008795931    1.188    0.158
       572  -9.7398    224.8226     91.2164   4.5886276437e+01   1.7080719550e+01    0.2416813    0.1372796 -64.29 0.0009643043    2.920    0.658
       573  -8.9020     21.9896     91.2835   9.7664451159e+01   5.5493378820e+01    0.1645109    0.1492319 -67.22 0.0003264245    1.088    0.081
       574 -11.1482    199.0411     88.4171   4.9100425083e+01   2.3092427208e+01    0.4915047    0.2173677  39.67  0.001265265    2.994    0.666
       575  -9.1807     43.2048     89.7872   8.9963996026e+01   5.3734334929e+01    0.1849148    0.1658835 -76.83 0.0004370738    1.077    0.071
       576  -9.7173     88.0650     88.2899   7.4759077436e+01   4.7436718077e+01    0.2403084    0.1956012 -49.18 0.0006745823    1.166    0.143
       577 -10.4887     71.4704     88.7580   8.0146806943e+01   5.0126905820e+01    0.2508464    0.2263241 -27.37 0.0004126708    1.186    0.157
       578  -9.5276     29.7246     89.3985   9.4606368872e+01   5.5243441057e+01    0.1495769     0.125783  -2.46 0.0003242369    1.465    0.317
       579 -10.1524     50.6679     97.3579   8.9070413693e+01   5.1057360163e+01    0.2297502    0.1980393 -52.67 0.0003182442    1.109    0.099
       580  -9.1739     12.0762     89.1333   1.0078118734e+02   5.6770647001e+01    0.1874486    0.1383405 -53.95 0.0004144623    1.243    0.195
       581  -9.5142     83.2591     87.1469   7.5932239016e+01   4.8537420883e+01    0.4424448    0.2256293 -37.21  0.001115033    2.292    0.564
       582  -8.9462    207.3093     87.2822   4.7495109910e+01   2.1431507596e+01    0.1387662    0.1083788  15.25 0.0006980635    1.565    0.361
       583 -10.0982     65.1840     85.7535   8.1439957939e+01   5.1769300499e+01    0.3953687    0.2965986  65.04  0.001299524    1.632    0.387
       584  -8.8314     59.5316     83.5275   8.2783619922e+01   5.3094882117e+01    0.1776557    0.1309792  47.28 0.0001366923    1.505    0.335
       585  -8.5863     67.2581     82.6174   7.9896626754e+01   5.2163981820e+01    0.3256325    0.1761542  36.22 0.0003650243    2.012    0.503
       586  -8.6727     46.9954     87.5408   8.8137173079e+01   5.3812436003e+01    0.1813326      0.13366  33.27 0.0004189895    1.517    0.341
       587  -9.4068     35.2098     86.3655   9.2043972907e+01   5.5411429840e+01    0.2119057    0.1520717 -53.68 0.0005738941    1.232    0.188
       588  -8.7588     21.9642     86.7008   9.6857273403e+01   5.6576391140e+01    0.1627774    0.1487105 -64.40 0.0003300973    1.093    0.085
       589  -9.2507      5.8837     87.1712   1.0266807566e+02   5.7644343587e+01     0.170565    0.1426647 -87.61  0.000288959    1.122    0.109
       590 -11.5580    243.3041     84.0826   4.1758430266e+01   1.4354574359e+01    0.4159627    0.2404766 -13.58   0.00192689    2.188    0.543
       591 -10.2898    239.0331     83.5072   4.2151194903e+01   1.5284937473e+01     0.237755    0.1368059  66.81  0.001157094    2.161    0.537
       592 -11.3573    179.3232     83.7861   5.1262553842e+01   2.8370138344e+01       0.6781    0.3267576 -57.46  0.002259215    3.341    0.701
       593 -12.1212    182.6340     78.0901   4.9102309350e+01   2.8531648648e+01    0.7383734    0.3079494  60.02   0.00271427    2.641    0.621
       594 -11.5231    194.1423     78.0566   4.7161148204e+01   2.5849219105e+01     0.347735    0.3002226 -35.35  0.001536492    1.097    0.088
       595 -11.4624    190.3159     76.9867   4.7496578659e+01   2.6906804276e+01    0.4379691     0.282786   2.18  0.001241416    2.511    0.602
       596  -9.3783     76.1893     86.1633   7.7914442944e+01   4.9952000027e+01    0.2022788    0.1837389 -28.81  0.000536514    1.151    0.131
       597  -9.5097    107.4249     85.0966   6.8139458706e+01   4.4399466523e+01    0.2215998     0.203166  18.83 0.0004663641    1.184    0.156
       598  -9.2834     15.9517     85.0859   9.8735195199e+01   5.7437355226e+01     0.184253    0.1535223 -65.81 0.0003397424    1.025    0.024
       599 -10.7890    214.1341     84.3551   4.5727035476e+01   2.0382562968e+01    0.3828599    0.1162146  51.56  0.001328087    3.376    0.704
       600  -8.7285     80.1479     84.1424   7.6075229827e+01   4.9735616802e+01    0.1828817    0.1614872 -82.12 0.0002687586    1.241    0.194
       601  -9.0319     40.9630     83.8331   8.9420669601e+01   5.5380970570e+01    0.1912172    0.1596135 -38.76 0.0003295025    1.223    0.182
       602  -9.0464     27.7552     84.1024   9.4263877288e+01   5.6674039268e+01    0.1859066    0.1664598  54.05 0.0002844187    1.260    0.206
       603 -13.9249    163.2930    128.2888   6.5852717365e+01   2.3898745340e+01     2.551996     1.654785 -13.40   0.01067815    2.347    0.574
       604 -10.8939     94.8866     85.7822   7.1978292324e+01   4.6721708064e+01    0.4028369    0.2420651  43.13  0.001167774    1.738    0.425
       605  -9.4990    102.8635     82.8031   6.8757712280e+01   4.5796449943e+01    0.2309678    0.1927651 -32.51 0.0003599767    1.226    0.184
       606  -8.9757    104.5053     78.9437   6.7116170938e+01   4.6258133980e+01    0.2009042    0.1970639  30.21 -0.0001452456    1.053    0.051
       607  -9.3408     88.9792     82.4286   7.2797783627e+01   4.8542082754e+01    0.2255329    0.1875248 -36.12 0.0003172017    1.203    0.169
       608  -8.6894     97.6058     81.4517   6.9891844894e+01   4.7116494925e+01    0.2099408    0.1731616 -15.78 0.0001002857    1.415    0.293
       609 -10.4241     93.0015     78.4286   7.0362600957e+01   4.8636408774e+01     0.457408    0.3205552  -1.71   0.00183484    2.268    0.559
       610  -9.3640     99.0234     78.0305   6.8431089406e+01   4.7547514544e+01    0.2434612    0.2234285 -65.70 0.0003129989    1.133    0.117
       611  -8.9555     71.4926     83.2269   7.8644598465e+01   5.1366851038e+01    0.1997903    0.1303038 -51.03  0.000681852    1.417    0.294
       612 -10.8820    248.9781     80.1792   4.0178889151e+01   1.3776931754e+01    0.3141897     0.230956 -56.21  0.001820032    1.441    0.306
       613  -8.7718     51.7212     81.8934   8.5099675785e+01   5.4525721554e+01    0.1832735    0.1553415 -60.41 0.0002926701    1.074    0.069
       614  -9.5337     34.4765     82.0791   9.1379519534e+01   5.6488854629e+01    0.1895389    0.1125624 -60.86 0.0004017547    1.442    0.307
       615  -8.5634      5.5371     82.4928   1.0209547153e+02   5.8758390644e+01    0.1234138   0.09885105 -67.95 -4.937417e-07    1.023    0.023
       616  -9.8176    109.7290     81.0201   6.6275243225e+01   4.4759655346e+01    0.2439495     0.211799  33.71 0.0002033141    1.218    0.179
       617  -9.5032     14.5361     81.4407   9.8613817414e+01   5.8396529667e+01    0.1760343    0.1576393 -24.47 6.366711e-05    1.291    0.225
       618  -9.2506      2.4901     80.9493   1.0297704582e+02   5.9298242413e+01     0.188817     0.097398 -70.82 0.0005642924    1.545    0.353
       619 -10.0654     97.3356     71.7835   6.6964401474e+01   4.9150807312e+01     0.280006    0.2430736  -7.25 0.0004580817    1.288    0.224
       620  -9.6934     95.0754     59.1436   6.3383972160e+01   5.2052785820e+01     0.452068    0.2322896  31.30  0.001717093    2.697    0.629
       621 -12.4142    127.7349     57.6656   5.4032036374e+01   4.5088222188e+01     1.104923    0.4919377  51.37  0.004253087    2.218    0.549
       622 -10.8877    100.0627     54.3457   6.0181658311e+01   5.1887264006e+01    0.9633246    0.2780685 -38.33  0.002748414    3.388    0.705
       623 -11.9540    133.5041     52.2989   5.0874247363e+01   4.4586465469e+01     0.536539    0.4775821  88.17  0.002842745    1.224    0.183
       624  -9.9900    112.9138     64.0944   5.9978345912e+01   4.7347171840e+01     0.303338    0.2596073 -47.68 0.0003362613    1.174    0.148
       625  -9.7584    108.1084     75.9357   6.5159099648e+01   4.6118096231e+01    0.2736455    0.2545584 -38.11  0.000794892    1.047    0.045
       626 -10.7076    122.6883     67.8962   5.8677299133e+01   4.4464218461e+01    0.5693214    0.3796726  -1.37  0.002285289    2.471    0.595
       627 -11.0438     94.0228     65.7761   6.5990349953e+01   5.0998654486e+01     1.093778    0.4978327  34.18  0.003960422    2.921    0.658
       628 -10.0047    115.0438     59.3647   5.7799035055e+01   4.7721940967e+01    0.3725126     0.285575 -23.70  0.001438836    1.390    0.280
       629 -11.7706    108.0915     51.8205   5.6997434115e+01   5.0579561536e+01     1.108063      0.63612 -65.23  0.003957079    3.314    0.698
       630 -10.1314    115.9916     68.6872   6.0676591299e+01   4.5818377273e+01    0.3323238    0.2554855  19.98 0.0003507619    1.594    0.373
       631 -11.0163    120.1130     63.9303   5.8027889590e+01   4.5765603605e+01    0.4601719    0.3454255  32.30  0.001276872    1.484    0.326
       632 -10.4447     82.0250     78.3626   7.3787203283e+01   5.0665527810e+01    0.4777891    0.3768032 -81.88  0.001475697    1.600    0.375
       633 -10.9052     87.1436     73.4127   7.0627844835e+01   5.0783287412e+01    0.6429942     0.513105 -78.29  0.002392353    1.574    0.365
       634 -10.1761    105.0268     68.9821   6.3799100453e+01   4.8126324971e+01    0.4021148    0.2730435 -25.96  0.001327199    1.684    0.406
       635  -9.9107    101.1844     66.2417   6.4001234893e+01   4.9454890573e+01    0.3847162    0.2691783 -60.58 0.0007109014    1.716    0.417
       636 -10.3117    103.2423     62.8291   6.2247184587e+01   4.9670329038e+01    0.4037729    0.3116983 -29.71  0.001127168    1.318    0.241
       637  -9.9028     75.2781     79.3270   7.6277924587e+01   5.1612168192e+01      0.24063    0.2202073 -24.56  0.001384357    1.134    0.118
       638  -9.3969     38.4410     80.0195   8.9451468459e+01   5.6545459102e+01    0.1793539    0.1759076  25.77  0.000472533    1.166    0.142
       639  -9.0834     23.7857     80.1174   9.4919768862e+01   5.7962332677e+01    0.1721247    0.1263466 -45.84 0.0003321168    1.294    0.227
       640  -9.3815     63.8805     78.9957   8.0049296469e+01   5.3484584696e+01    0.2058002     0.180109 -43.99 0.0003107475    1.073    0.068
       641  -8.8515     60.1728     79.5962   8.1508122029e+01   5.3893026868e+01    0.2213431    0.1432482  27.88 0.0003745779    1.790    0.441
       642  -8.6886     58.0140     76.9814   8.1549705206e+01   5.4786520677e+01     0.196448    0.1751821 -77.47 0.0003212284    1.189    0.159
       643  -9.0381     28.2463     78.8724   9.2987160329e+01   5.7848161503e+01     0.180311    0.1545272 -78.71 0.0005377199    1.142    0.124
       644  -8.8921     69.6891     78.4527   7.7900121277e+01   5.2711036492e+01    0.1665758    0.1381265  17.35  0.000318913    1.391    0.281
       645  -9.6691     43.7541     77.4240   8.6854247361e+01   5.6536802591e+01    0.2329272    0.2056524 -42.41 0.0007416134    1.099    0.090
       646  -8.9540      7.8712     78.3523   1.0056661130e+02   5.9575117563e+01    0.1624412    0.1366479 -56.45 0.0004726978    1.111    0.100
       647  -8.6911     53.9886     77.2383   8.3063971931e+01   5.5283808199e+01     0.176201    0.1655597 -44.03 0.0003126423    1.057    0.054
       648  -8.4889     17.6266     77.2293   9.6667008448e+01   5.9142884165e+01    0.1743145   0.09347291 -57.59  0.000262151    1.514    0.339
       649  -9.7420    115.5349     81.6359   6.4873349457e+01   4.3410842311e+01    0.2535414    0.2393983   3.99 0.0004215592    1.128    0.113
       650  -9.2983     48.7603     76.1170   8.4667202245e+01   5.6220369038e+01     0.193327    0.1680981 -66.99 0.0003965032    1.122    0.109
       651  -9.5479    102.5382     74.3993   6.6265591209e+01   4.7576676397e+01    0.2396638    0.2266988 -16.86  0.000237248    1.079    0.073
       652  -8.6498     65.7440     75.4254   7.8378444100e+01   5.3991931787e+01    0.1677706     0.136114  17.44 0.0002764841    1.428    0.300
       653  -9.9384     73.8546     73.2110   7.4924008740e+01   5.3171047164e+01    0.2316487    0.2004654 -41.97 0.0002614953    1.083    0.076
       654 -10.5329     10.0846     72.8368   9.8738294118e+01   6.0706144495e+01    0.3762814    0.1473313 -70.04  0.001396116    2.181    0.542
       655 -13.5646    143.2209    135.1415   7.1836268915e+01   2.6663087986e+01     2.178522     1.310798 -39.08  0.009835746    1.754    0.430
       656  -8.8411     64.0287     72.2269   7.8033515071e+01   5.4952902058e+01    0.2085553    0.1558508  71.44 0.0005710509    1.832    0.454
       657  -9.3670     79.4187     70.3000   7.2144685513e+01   5.2829336263e+01    0.2309493    0.1965374 -23.46 0.0006206263    1.231    0.187
       658  -8.7880     50.3388     71.0566   8.2687906196e+01   5.7151060530e+01    0.1859487    0.1545172 -50.13 0.0004788812    1.073    0.068
       659  -8.3341     42.5473     71.5582   8.5777081849e+01   5.8009503224e+01    0.1321385    0.1167687 -53.18 9.352451e-05    1.011    0.011
       660  -9.7411     36.9192     70.2712   8.7608415204e+01   5.8939454488e+01    0.2855031    0.1881724 -80.92  0.001159971    1.880    0.468
       661  -8.6940     23.4570     71.4926   9.3195477227e+01   5.9984535449e+01    0.1287986    0.1064367 -55.31 0.0001994878    1.038    0.037
       662  -8.6479     70.6217     69.3761   7.4838963775e+01   5.4521422056e+01    0.2908584     0.128168 -53.83  0.001142083    2.317    0.568
       663  -9.7275    207.3512     70.2898   4.3087620379e+01   2.3992324318e+01    0.2002759    0.1180762 -33.66  0.000926214    1.564    0.360
       664  -9.9595    221.7164     69.1719   4.0852535883e+01   2.0941545099e+01     0.293658    0.1119404  69.14  0.001021852    3.709    0.730
       665  -9.0158     74.0250     68.7061   7.3452160034e+01   5.4095042128e+01    0.1835232    0.1757787  -8.37 0.0003086859    1.076    0.070
       666  -8.5850     58.5189     69.0825   7.9072486279e+01   5.6455231159e+01    0.1953039    0.1237783 -49.96 0.0003329992    1.427    0.299
       667  -8.4938     44.4338     66.8305   8.3732717606e+01   5.8835567735e+01    0.1810747    0.1098675 -46.26 0.0004853087    1.472    0.321
       668  -8.6941     64.6625     66.0163   7.5880266786e+01   5.6185709961e+01    0.1927997    0.1594911 -43.58 0.0003523282    1.109    0.098
       669  -8.8083     56.2912     81.9679   8.3504304505e+01   5.3900077513e+01    0.1906638    0.1578772 -55.15 0.0002720975    1.090    0.083
       670  -9.0751     81.8298     65.3235   6.9718254560e+01   5.3415336624e+01    0.1860621    0.1725699   7.65 0.0003282037    1.129    0.114
       671  -8.6718     76.5354     64.9520   7.1368297273e+01   5.4437743251e+01    0.2027431    0.1319202 -46.56 3.644981e-06    1.450    0.310
       672  -9.0599     71.7511     64.8590   7.2986684281e+01   5.5277612027e+01     0.201947    0.1727493 -27.44 0.0003360581    1.164    0.141
       673 -13.3015    134.9228    124.5432   7.1362318329e+01   3.0497976685e+01     1.853359     1.272336  28.66   0.00855441    1.733    0.423
       674 -13.2004    119.9110    139.1801   7.8222503770e+01   3.0333279889e+01     1.855071     1.538986  56.76   0.01006079    1.210    0.173
       675 -10.1888     87.1431     62.8487   6.7151168692e+01   5.2912760418e+01    0.3661506    0.2733389 -61.73  0.001135749    1.567    0.362
       676  -9.6389     88.6879     58.9024   6.5283428022e+01   5.3373777886e+01    0.3085279     0.203794 -43.19  0.001312098    1.460    0.315
       677  -9.3087     24.4300     64.5822   9.1155368230e+01   6.1466701683e+01    0.1262409    0.1065106 -53.50 6.294186e-05    1.009    0.009
       678  -8.7337     66.9123     62.3187   7.3858662864e+01   5.6598740465e+01    0.1795286    0.1664921   0.53 0.0002943788    1.125    0.111
       679  -8.3851     57.8659     62.4230   7.7226517593e+01   5.7974351578e+01    0.1627867    0.1302859  12.04 0.0004719503    1.440    0.305
       680  -8.5438     41.2922     61.0277   8.3265028427e+01   6.0485249864e+01    0.1837426    0.1521951 -48.08 0.0006535802    1.057    0.054
       681  -9.8412     80.0578     60.2237   6.8565435481e+01   5.4752878457e+01    0.4018179     0.192183  38.23 0.0008546762    2.286    0.563
       682  -8.6985     62.4200     60.0683   7.4744542102e+01   5.7774896045e+01    0.1992081    0.1232392 -45.55 0.0003180067    1.479    0.324
       683  -9.2782    207.5182     58.4868   3.9941167920e+01   2.5645152749e+01      0.13949    0.1293073 -46.32 6.822041e-05    1.013    0.013
       684 -12.5299    167.0098     53.8139   4.4754567057e+01   3.6102457847e+01    0.6973371    0.5100966 -88.35  0.001910136    1.636    0.389
       685  -8.5072     57.2125     57.7874   7.5935244028e+01   5.9035846199e+01    0.1800802    0.1435721 -24.81 0.0003571582    1.285    0.222
       686  -8.2244     49.3170     58.7506   7.9334842818e+01   5.9952004866e+01    0.1217435    0.1030998  76.29 0.0002971813    1.524    0.344
       687  -8.1228     32.2708     58.3008   8.6175781829e+01   6.2092374981e+01    0.1296786   0.08533287 -34.48 0.0003356792    1.529    0.346
       688  -8.7837    104.9195     57.1416   5.9787505590e+01   5.0349989143e+01    0.1933136    0.1676926  12.63 0.0003892105    1.259    0.205
       689  -9.8380    120.1700     55.2767   5.5063625848e+01   4.7255729217e+01    0.3127835     0.229093   8.81 0.0008456282    1.822    0.451
       690 -10.3666    122.5691     50.5249   5.2804749702e+01   4.7476811158e+01    0.3606384    0.2299321 -40.41   0.00166207    1.561    0.359
       691 -11.0257    123.7397     45.4551   5.0718219566e+01   4.7993772775e+01    0.4880726    0.2280034 -28.17  0.001892592    2.309    0.567
       692  -8.2453     70.6749     56.7461   7.0586923574e+01   5.7096124911e+01     0.135129    0.1050574  -2.81 0.0002787134    1.547    0.353
       693 -10.1273    176.2144     55.0019   4.3565413045e+01   3.3653042691e+01    0.2637741     0.150234 -56.61  0.001088472    2.088    0.521
       694  -9.9178    172.0750     50.0787   4.2764517687e+01   3.5387220487e+01    0.2152084    0.2091244 -34.82            0    1.054    0.051
       695  -8.9368     62.7449     55.0627   7.2889184046e+01   5.8737516523e+01    0.1898243    0.1589511 -37.39 0.0003353783    1.094    0.086
       696  -8.3505      7.6930     55.2970   9.6071115968e+01   6.4833084639e+01    0.1133734   0.08714738  75.14 0.0002882654    1.589    0.371
       697  -7.8509     95.4941     54.5095   6.1597456388e+01   5.2815347825e+01    0.2220024     0.136636 -27.87 9.523159e-05    1.779    0.438
       698  -9.1227     95.2899     49.6572   5.9865980101e+01   5.3713473986e+01    0.3921448    0.1738638 -50.29  0.001422005    2.854    0.650
       699  -9.0767     68.8415     53.8042   7.0188278849e+01   5.7983450596e+01    0.2866482    0.1881543  24.05  0.001369671    1.840    0.456
       700  -9.6728     81.7355    246.2888   1.0077321105e+02   1.5726902071e+01    0.1645057    0.1546878  59.72  0.000351334    1.296    0.229
       701  -9.5865    113.8937     52.8902   5.5831282060e+01   4.9095483718e+01    0.3299097    0.2233595  21.17   0.00143083    1.985    0.496
       702 -11.1555    113.4694     47.9374   5.4152300286e+01   5.0006635008e+01    0.5825512    0.3783771 -64.05  0.002500244    2.211    0.548
       703 -10.8391    115.4970     44.5051   5.2373974301e+01   5.0080597782e+01    0.5610204     0.350135 -71.18  0.002196285    2.793    0.642
       704  -9.1406     91.1120     51.3603   6.1780205154e+01   5.4276288292e+01    0.2237168    0.1847547 -23.92 0.0003863426    1.211    0.174
       705  -8.8227     86.8892     52.3762   6.3492206254e+01   5.4938403449e+01    0.1905018    0.1744299  18.89 0.0004264102    1.111    0.100
       706  -8.4887    119.3140     51.2646   5.3867266580e+01   4.8118500262e+01    0.1460839    0.1116289  22.18 0.0001812897    1.543    0.352
       707  -8.1679     72.3519     50.2696   6.7617413036e+01   5.8048910269e+01    0.1390764    0.1048226   1.85 0.0005992617    1.629    0.386
       708 -10.0399    114.4290     75.1224   6.3161158486e+01   4.4932917041e+01    0.5912807    0.4318888   2.44  0.001916318    1.984    0.496
       709  -8.2658     19.5463     48.4714   8.8869326173e+01   6.5430881179e+01    0.1253443    0.1025444 -45.86 0.0001231713    1.021    0.021
       710  -9.1519     90.8516     47.1724   6.0276752464e+01   5.5060757323e+01    0.1889615    0.1596494  -2.55 0.0003799057    1.266    0.210
       711  -9.9027     84.8763     43.8250   6.0863460964e+01   5.6839928229e+01    0.2002532    0.1783095  -0.28  0.000271918    1.126    0.112
       712  -9.6128    136.4326     44.7625   4.7648749949e+01   4.5023526593e+01    0.1953126    0.1433021 -16.03 0.0004631105    1.532    0.347
       713 -10.5851    145.8226     43.8989   4.5457380115e+01   4.2824485723e+01    0.2229856    0.1964414  18.14 0.0004763324    1.253    0.202
       714  -9.7485     82.7099     55.8491   6.6127640945e+01   5.5101884317e+01    0.2703576    0.2197038 -50.58 0.0008476059    1.264    0.209
       715  -8.9191    121.0000     43.9295   5.0815317843e+01   4.8876976990e+01    0.2358657   0.08204095 -32.38 0.0005026427    2.881    0.653
       716 -11.3233    109.8162     69.3427   6.2568742319e+01   4.7040155701e+01     1.542544    0.3935336 -45.54   0.00433938    4.122    0.757
       717 -10.2139    108.4896     38.8330   5.2022262294e+01   5.2559471159e+01    0.2694157    0.2477896 -28.95 0.0007892869    1.087    0.080
       718  -9.3088     71.8307     41.8345   6.4504247870e+01   5.9668750185e+01    0.2004988    0.1697054  -8.91 0.0003754899    1.189    0.159
       719  -8.2577     90.4919     41.4935   5.8168053082e+01   5.6084157469e+01    0.1402799    0.1319513  -2.18 1.014594e-05    1.015    0.015
       720 -10.3521    140.5217     39.8278   4.5107084643e+01   4.4717786024e+01    0.2917992    0.1482362  40.23  0.001142308    2.316    0.568
       721 -10.5860    132.8498     40.0065   4.6737368040e+01   4.6589588027e+01    0.2444908    0.2038781  53.63 0.0006474373    1.179    0.152
       722 -10.5573    126.1070     38.9132   4.7806806641e+01   4.8389679782e+01    0.3876961    0.1662119  63.10  0.001432019    2.563    0.610
       723  -9.1667     97.0460     38.7647   5.5129936596e+01   5.5123718461e+01    0.1911963    0.1753014  30.67 0.0002961033    1.075    0.070
       724  -8.8639     73.7098     46.2807   6.5605183571e+01   5.8538357674e+01    0.1849415    0.1508835  -0.32  0.000651214    1.341    0.255
       725  -8.4165     40.2821     39.6653   7.6317493244e+01   6.4995588412e+01    0.1192668    0.1007137 -79.61 0.0004406697    1.617    0.382
       726  -9.1706    190.0116     37.4618   3.6419119523e+01   3.2638281161e+01    0.2211608     0.181383 -35.53 0.0008201737    1.184    0.155
       727  -8.8924    103.7864     37.0391   5.2567005166e+01   5.3893947393e+01    0.1913006    0.1772758  -8.30  0.001096769    1.064    0.060
       728  -8.4890     77.5343     40.4431   6.1943673066e+01   5.8844702446e+01    0.1376581    0.1262856  -6.29 7.554529e-05    1.031    0.030
       729 -10.3784    150.0979     34.8469   4.1621482864e+01   4.2985191513e+01    0.2260277    0.1932849 -68.56 0.0005414353    1.230    0.187
       730 -10.4695    112.7055     34.7644   4.9381457926e+01   5.2172505243e+01    0.2616845    0.2279686  74.14 0.0006179906    1.253    0.202
       731  -8.1233     80.3042     34.7104   5.8626687850e+01   5.9239130170e+01    0.1293616    0.1092892 -72.40 0.0002159702    1.569    0.363
       732  -8.3842     65.6676     34.7089   6.3783220287e+01   6.1988999257e+01    0.1366448   0.09936445   3.64 0.0003922454    1.631    0.387
       733 -10.0157    105.2071     32.8748   5.0534650918e+01   5.4173475336e+01    0.2090114     0.192607 -64.81 0.0006332992    1.218    0.179
       734  -9.4408    118.1805     29.5927   4.6088788329e+01   5.1573083199e+01    0.2121066    0.1185849  46.57 0.0008570725    1.757    0.431
       735 -10.4112     99.9606     33.6077   5.2234381239e+01   5.5253166561e+01    0.2279719    0.1880816 -10.83 0.0005923316    1.254    0.202
       736  -8.6486    145.2026     32.0791   4.1548184775e+01   4.4574986952e+01    0.1836875     0.114725 -25.60 0.0004570755    1.666    0.400
       737  -9.8245     76.9861     29.7689   5.7596142048e+01   6.0654510070e+01    0.2051125    0.1682273  16.80 0.0004726533    1.236    0.191
       738  -8.3807    105.4667     26.4087   4.7848346377e+01   5.4986895190e+01    0.1392431     0.128554  28.70 0.0003029422    1.042    0.041
       739  -9.6835    102.0000     25.0073   4.8148510458e+01   5.5964984535e+01    0.2251298   0.07789504 -28.56 0.0007998495    2.925    0.658
       740  -8.3850    110.2669     24.3204   4.5831128799e+01   5.4128877298e+01    0.1413351    0.1025861  21.71 0.0004781287    1.559    0.359
       741  -9.1160     91.0262     23.0000   5.0254542760e+01   5.8678715834e+01    0.2210497   0.07553393  55.61 0.0007967649    2.903    0.656
       742  -9.3923      4.5198     24.5040   8.8566587612e+01   7.1506690894e+01    0.1186028   0.09212927 -40.03 0.0002304199    1.023    0.023
       743  -9.3736     73.7045     16.4504   5.2535023674e+01   6.3152305286e+01    0.1896173    0.1131158  39.30 0.0009511511    1.643    0.391
       744  -9.2614     75.4904    245.0290   1.0179671291e+02   1.6719546435e+01    0.1618924    0.1171446  50.00 0.0005097846    1.065    0.061
       745  -9.0848     78.8177    243.3756   1.0106785279e+02   1.6564524469e+01    0.1799301    0.1163939  35.95 0.0002828992    1.439    0.305
