#   1 NUMBER                 Running object number                                     
#   2 MAG_AUTO               Kron-like elliptical aperture magnitude                    [mag]
#   3 X_IMAGE                Object position along x                                    [pixel]
#   4 Y_IMAGE                Object position along y                                    [pixel]
#   5 X_WORLD                Barycenter position along world x axis                     [deg]
#   6 Y_WORLD                Barycenter position along world y axis                     [deg]
#   7 A_WORLD                Profile RMS along major axis (world units)                 [deg]
#   8 B_WORLD                Profile RMS along minor axis (world units)                 [deg]
#   9 THETA_WORLD            Position angle (CCW/world-x)                               [deg]
#  10 FWHM_WORLD             FWHM assuming a gaussian core                              [deg]
#  11 ELONGATION             A_IMAGE/B_IMAGE                                           
#  12 ELLIPTICITY            1 - B_IMAGE/A_IMAGE                                       
         1 -14.4258    233.8949     90.8170   5.2574070685e+01   1.6428683834e+01     2.087819     1.046414 -39.23   0.01055872    1.666    0.400
         2 -15.5551    246.1670     22.7756   3.7274523005e+01   2.2954823964e+01     4.731304     1.631435 -30.98   0.02261998    2.793    0.642
         3 -13.2449    248.3668     99.1039   5.2552178343e+01   1.2701293998e+01      2.51248      0.40446 -36.14  0.007541038    5.027    0.801
         4 -13.0409    249.4851     59.0313   4.4243264506e+01   1.8032838087e+01     2.279402    0.4059452 -31.59  0.006015108    7.671    0.870
         5 -14.1334    236.1097     40.3567   4.1575329614e+01   2.2829176950e+01     1.564161      0.52516 -54.41  0.006457925    3.234    0.691
         6 -12.4011    215.5463     16.7057   3.8165696491e+01   2.9604927198e+01    0.3200997    0.1994887 -34.85  0.001941142    1.561    0.359
         7  -9.5018    167.0000      8.9126   4.0596574246e+01   4.1237964620e+01    0.1883126   0.07174357 -25.05 0.0007980021    2.912    0.657
         8  -9.4558    160.6028      8.8000   4.1258380544e+01   4.2776716411e+01    0.1752292    0.1083259 -42.23  0.000950592    1.649    0.394
         9  -9.5476    148.0000      7.9553   4.2505080937e+01   4.5906639233e+01    0.1914334   0.07470202 -23.13 0.0008005583    2.929    0.659
        10 -11.6920    217.2733      4.3083   3.5367835856e+01   3.0482770991e+01     0.321497     0.161631 -31.82  0.001826879    1.960    0.490
        11  -9.9148    189.5338      6.9726   3.7991081911e+01   3.6200969193e+01    0.1713265    0.1122098 -35.09 0.0007012599    1.556    0.357
        12 -10.5858    110.9628      4.9618   4.7129495122e+01   5.5262462541e+01    0.1983628    0.1665887  54.35 0.0003210722    1.049    0.047
        13 -10.2382    116.6096      5.2145   4.6217701342e+01   5.3858356431e+01    0.1638657    0.1243212   8.37  0.000407399    1.584    0.369
        14  -9.9470     50.9492      3.3370   6.3255831702e+01   6.8962205268e+01    0.1805663    0.1338882  34.62 0.0003539763    1.098    0.089
        15  -9.7752    159.1559      2.1828   3.9560171422e+01   4.3691419587e+01     0.180564    0.1309757 -69.66  0.001072577    1.337    0.252
        16  -9.9500    247.7019    234.3382   7.8202000002e+01  -6.6436466625e+00    0.1644028    0.1192431 -26.66 0.0006567108    1.471    0.320
        17 -10.4961    210.3507    248.9901   8.7143574951e+01  -4.3706377303e+00    0.2862402    0.1415432 -42.58  0.001552522    2.559    0.609
        18 -11.1276    193.3234    247.6282   9.0192567096e+01  -2.1566607597e+00    0.4118256     0.217737 -40.90  0.002306836    2.185    0.542
        19 -10.1850    245.2570    230.4046   7.7967980107e+01  -5.8924828588e+00     0.229568    0.1263059 -38.78 0.0008274225    2.073    0.518
        20 -11.5231    246.4821    225.4136   7.6935933500e+01  -5.3900380607e+00    0.3677513    0.2964897  27.32  0.002413008    1.717    0.418
        21 -11.5761    240.1433    220.2355   7.7133889086e+01  -4.0059709278e+00    0.5720847    0.2265561 -38.87  0.002854232    2.520    0.603
        22  -9.8565    240.0646    240.1157   8.0424394036e+01  -6.5502377086e+00    0.1454505    0.1291187  -1.25 0.0007485546    1.657    0.397
        23  -9.7476    219.6458    239.7858   8.3988955131e+01  -4.2401768588e+00    0.1470807   0.09908051 -34.56 0.0009396021    1.674    0.402
        24 -11.0117    230.4188    236.5242   8.1526675295e+01  -5.0425645133e+00    0.2664734    0.1996324 -39.82   0.00127223    1.924    0.480
        25 -11.4717    190.9218    235.1213   8.8742467414e+01  -6.8349076318e-02    0.4414288    0.3345434 -62.89  0.002467673    2.695    0.629
        26 -10.7865    203.5604    232.6792   8.5871544087e+01  -1.3244004865e+00    0.4386685    0.2175365  35.25  0.001918424    2.031    0.508
        27 -10.4514    159.4692    236.5342   9.5473067402e+01   3.9090031138e+00     0.224211    0.1059562 -33.06  0.001044402    2.452    0.592
        28 -10.9535    216.0084    232.8375   8.3540749291e+01  -2.8769150035e+00    0.4113423    0.2363307 -32.21  0.002445134    1.675    0.403
        29  -9.9248    240.3798    231.2701   7.8936917380e+01  -5.4726466440e+00       0.1895    0.1225618 -31.24  0.001244764    1.550    0.355
        30 -10.0425    225.6528    231.5012   8.1559072485e+01  -3.8376154230e+00    0.1727909    0.1337821 -38.89 0.0009534413    1.807    0.446
        31 -10.9302    235.3858    228.8831   7.9404538184e+01  -4.6079454280e+00    0.3296701    0.1707571 -36.37  0.001707793    1.935    0.483
        32 -10.4155    229.7365    228.0970   8.0266940593e+01  -3.8570498290e+00    0.2582608    0.1390284 -41.54  0.001049444    2.246    0.555
        33 -10.0354    211.6658    226.9776   8.3389783111e+01  -1.5257868751e+00    0.2586959    0.1011071 -37.11  0.001224253    2.488    0.598
        34 -10.4339    199.0747    226.7251   8.5772862603e+01   1.1673917527e-01    0.2406801    0.1775872 -47.77   0.00143448    1.957    0.489
        35  -9.6573    138.7557    228.0008   9.8784744283e+01   8.2543421824e+00    0.1613171    0.1125121 -45.41 0.0008966774    1.640    0.390
        36  -9.9195    223.3152    225.9915   8.1068581626e+01  -2.8137303849e+00    0.1732996    0.1248706 -16.62  0.001109694    1.173    0.148
        37 -10.1970    205.9309    225.0125   8.4155653964e+01  -5.1668796442e-01    0.2663772    0.1637528 -40.28  0.001430817    1.845    0.458
        38 -10.1908    190.5543    225.3176   8.7237142499e+01   1.4553717057e+00    0.2778274    0.1129029 -37.97  0.001272421    2.486    0.598
        39 -10.4854    217.1088    222.9986   8.1704731930e+01  -1.6375368637e+00    0.2692862    0.1628058 -43.67  0.001508837    2.114    0.527
        40 -10.6567    227.9384    221.4868   7.9477047809e+01  -2.7472336341e+00    0.2404826    0.2187686  -8.93  0.001547649    1.545    0.353
        41 -11.1320    226.4835    213.2404   7.8318717564e+01  -1.4130378053e+00    0.4537854    0.2246699 -47.60  0.002105639    3.145    0.682
        42 -10.2320    244.0326    236.1232   7.9107255613e+01  -6.4774765376e+00    0.1828807    0.1402263 -19.22 0.0007999291    1.367    0.268
        43 -10.4469    206.3422    236.6714   8.5978773510e+01  -2.2327820280e+00     0.219825    0.2019572  35.45  0.001533536    1.769    0.435
        44 -11.9409    248.0206    216.5383   7.5181876485e+01  -4.4069615542e+00    0.6012728    0.2406867 -34.82  0.003139562    2.177    0.541
        45 -11.0426    247.1235    206.2442   7.3546153709e+01  -2.9252161329e+00    0.3555889    0.2001009 -45.19  0.001669634    2.449    0.592
        46 -10.6463    193.1570    218.0869   8.5504002703e+01   2.2248280078e+00    0.2929589    0.1724785 -36.12  0.001057745    1.706    0.414
        47 -10.3865    219.9293    216.8996   8.0143129833e+01  -1.1178893973e+00    0.2151537    0.1501315 -22.97  0.001269119    1.258    0.205
        48 -10.2114    204.6494    212.2307   8.2219595773e+01   1.5709602138e+00    0.2044936    0.1417718 -36.04 0.0008072154    1.518    0.341
        49  -9.7610    170.6080    216.2154   8.9890254867e+01   5.7129193597e+00    0.1872492    0.1133975 -28.83 0.0009579891    1.702    0.412
        50  -9.3231    138.2475    214.9664   9.6954267531e+01   1.0717097165e+01    0.1616332    0.1170354 -46.03 0.0004988082    1.549    0.355
        51 -10.9990    233.3090    211.8603   7.6870686643e+01  -2.0564892273e+00    0.4289907    0.1857374 -28.14  0.002147514    2.089    0.521
        52 -10.6083    243.0735    200.3546   7.3170895546e+01  -1.6276019356e+00    0.4472965    0.2038568 -31.79  0.002289991    1.844    0.458
        53 -10.9011    216.9447    211.2985   7.9719540510e+01   8.1640603698e-02    0.3268221     0.164833 -37.97  0.001703968    1.946    0.486
        54 -11.0732    240.4809    207.6534   7.4901057427e+01  -2.3343508855e+00    0.4008371    0.1965374 -44.84  0.001989996    2.716    0.632
        55  -9.6065    210.8394    217.8620   8.2006880313e+01  -9.7819798097e-02    0.1594016    0.1389163 -11.74  0.001075683    1.318    0.241
        56 -10.4041    224.2961    191.8819   7.4860069015e+01   2.0331457169e+00    0.3346779    0.1658004 -40.99  0.001536462    2.034    0.508
        57 -10.0891    229.5102    206.5417   7.6600635314e+01  -8.3045809974e-01    0.3214757    0.1057347 -40.68  0.001352302    3.066    0.674
        58 -11.0592    228.1924    199.9469   7.5649393045e+01   3.0143249300e-01      0.52236    0.2282134 -47.12  0.002211356    3.385    0.705
        59 -10.7231    231.1494    194.0469   7.4052556928e+01   7.9068391751e-01    0.6257724    0.1530876 -35.82  0.002277359    3.663    0.727
        60  -9.8224    206.4747    206.9949   8.0940855830e+01   2.1333632095e+00    0.1935657     0.112568 -33.19  0.001038231    1.611    0.379
        61  -9.6072    183.3318    206.8011   8.5567142922e+01   5.4519806793e+00    0.1888066    0.1087815 -29.21 0.0009382673    1.726    0.421
        62 -10.1114    217.3552    204.5895   7.8450936103e+01   1.0322271512e+00    0.2413561    0.1328952 -31.30   0.00101532    1.631    0.387
        63  -9.6585    202.4541    204.0104   8.1188228158e+01   3.1617161783e+00    0.1906586    0.1152611 -34.17  0.001022939    1.574    0.365
        64 -10.0206    197.3575    203.5079   8.2106806532e+01   3.9651715012e+00    0.2523422    0.1444343 -32.61 0.0009032174    1.652    0.395
        65  -9.8869    187.3783    203.1784   8.4078421103e+01   5.4680560309e+00    0.1786367    0.1222742 -46.59 0.0009492628    1.775    0.437
        66  -9.9116    172.6674    203.2233   8.7210504127e+01   7.6612382714e+00    0.1910757    0.1144146 -31.30 0.0007660225    1.683    0.406
        67 -10.7962    250.1290    200.4206   7.2028084966e+01  -2.4802638105e+00    0.3945545      0.14267 -34.36  0.001901124    2.310    0.567
        68 -11.0233    237.1132    197.1525   7.3595135289e+01  -4.3258045713e-01    0.3234844    0.1490543 -32.37   0.00157973    1.853    0.460
        69  -9.5628    223.6077    200.2637   7.6525873399e+01   8.5468127588e-01    0.1772238   0.09777456 -24.70 0.0005869284    1.626    0.385
        70  -9.1911    210.2562    200.3544   7.9016813845e+01   2.6501136435e+00    0.1339122   0.08342499 -10.28  0.000509878    1.608    0.378
        71  -9.5031    215.5088    198.0419   7.7604189561e+01   2.2853491441e+00     0.191139    0.1112246 -34.10  0.001027944    1.580    0.367
        72 -10.0432    201.9778    196.7419   7.9953918533e+01   4.4024741865e+00    0.2284681    0.1599161 -43.27  0.001041676    1.654    0.395
        73  -9.5828    176.3602    197.1909   8.5323019502e+01   8.1665810523e+00    0.1813838    0.1266004 -47.52 0.0006922064    1.697    0.411
        74 -10.3618    184.5950    195.1150   8.3185939080e+01   7.2666630413e+00    0.3211486    0.1084263 -34.28  0.001132378    3.320    0.699
        75 -11.0707    246.3874    192.6019   7.1227855889e+01  -9.3801064036e-01    0.3873606    0.2326351 -39.98  0.002271798    1.745    0.427
        76 -10.3314    243.5269    187.5004   7.0758631701e+01   1.5232138990e-01    0.2467634   0.09970038 -35.89 0.0009988925    2.102    0.524
        77 -10.2529    229.9883    186.5565   7.2860817391e+01   2.0727449548e+00    0.2456769    0.1628938 -35.51   0.00101102    1.432    0.302
        78  -9.6989    209.4815    194.0199   7.7995194806e+01   3.7640447747e+00    0.2001993    0.1134723 -33.01  0.001035732    1.610    0.379
        79 -10.6035    241.5384    191.2659   7.1778483359e+01  -1.4069741543e-01    0.2259157    0.1416925 -33.14 0.0007040323    1.416    0.294
        80 -11.1192    237.0545    186.6626   7.1674712476e+01   1.1128827097e+00    0.4127597    0.1592662 -36.35  0.001578892    2.236    0.553
        81 -10.6727    235.5247    180.7240   7.0814860718e+01   2.2070871635e+00     0.235356    0.1827839 -32.90  0.001052233    1.312    0.238
        82  -9.8832    215.4851    187.1696   7.5576421378e+01   4.0013787338e+00     0.235884    0.1145885 -41.92  0.001060166    2.090    0.522
        83  -9.8469    210.4892    188.0396   7.6677171990e+01   4.5831468262e+00    0.2009094    0.1151478 -34.65  0.001034888    1.596    0.374
        84  -9.5008    220.3811    186.8009   7.4609884684e+01   3.3637085457e+00    0.1882315    0.1018214 -26.47 0.0009476929    1.690    0.408
        85  -9.3172    193.3004    187.3308   7.9916227510e+01   7.2796368882e+00    0.1429346   0.09369807  -6.31 0.0003626592    1.647    0.393
        86 -11.9771    241.3887    180.1297   6.9732891849e+01   1.5114256843e+00    0.7793968    0.1920076 -39.21  0.002883806    3.577    0.720
        87 -10.5056    249.7510    184.4540   6.9197626952e+01  -1.9445288251e-01    0.4549148    0.1450285 -39.90  0.001950192    2.873    0.652
        88 -11.4526    247.5755    177.7574   6.8295477348e+01   1.0507673344e+00    0.3676634    0.1773426 -38.17  0.001819801    1.830    0.453
        89 -10.2360    244.5247    174.5091   6.8165501281e+01   1.9297737577e+00    0.1920708    0.1180442  38.46 0.0003696771    1.941    0.485
        90  -9.6542     77.5158    185.5543   1.0793752207e+02   2.5932968190e+01    0.1397716    0.1323266  36.08 0.0004004557    1.019    0.019
        91 -10.2191    223.9227    183.4126   7.3329996584e+01   3.3961890069e+00    0.2929694    0.1615368 -35.45  0.001371327    1.619    0.383
        92 -10.4889    219.2652    177.3774   7.2999670708e+01   5.0238248583e+00    0.3588461    0.1471254 -35.63  0.001515836    2.173    0.540
        93 -10.1507    210.7291    181.8718   7.5447424846e+01   5.5550864664e+00    0.3631572    0.1339712 -28.16  0.001292859    3.395    0.705
        94 -10.1378    197.5428    182.1717   7.8063339348e+01   7.5121312720e+00    0.3172299    0.1206445 -37.73  0.001207984    2.484    0.597
        95  -9.7623    183.4660    182.5083   8.1024028364e+01   9.6818484022e+00    0.1416252    0.1205928  -3.41 6.774034e-05    1.004    0.003
        96  -9.5076    177.0000    180.9989   8.2115662133e+01   1.1010122111e+01     0.226687    0.0766497 -42.85 0.0008018759    2.939    0.660
        97 -10.1613    226.9249    176.7892   7.1529400967e+01   4.0088312927e+00    0.3479635    0.1520387 -18.64  0.001225737    3.909    0.744
        98 -10.3754    227.8951    171.1256   7.0258740835e+01   4.7611155696e+00    0.3293546     0.153577 -42.60  0.001408958    2.137    0.532
        99 -10.2215    210.5569    175.7928   7.4290044896e+01   6.5868747953e+00    0.2977449    0.1176265 -40.99 0.0009480576    2.407    0.585
       100  -9.9610    197.5728    176.2481   7.6889650375e+01   8.5330975964e+00    0.2486652     0.123715 -41.91  0.001018325    1.985    0.496
       101  -9.7264    169.4781    177.4936   8.3084305244e+01   1.2923326823e+01    0.1461859    0.1268975  -1.23 1.212695e-05    1.018    0.018
       102 -10.2345    232.7018    173.9720   6.9996396944e+01   3.6294260646e+00    0.2622282    0.1254447 -34.62  0.001190837    1.786    0.440
       103 -10.2698    223.5518    172.7671   7.1334578961e+01   5.1343005115e+00    0.2911355    0.1540283 -42.57  0.001375073    1.909    0.476
       104  -9.7033    187.7777    172.0419   7.8034968466e+01   1.0873847972e+01    0.1887756    0.1076488 -39.02 0.0008601685    1.682    0.405
       105 -11.1200    246.2222    168.6748   6.6786513790e+01   2.5699930698e+00     0.346851    0.2000828 -40.54  0.001611468    1.655    0.396
       106 -11.5952    235.2790    146.9273   6.4205287287e+01   7.4877005293e+00    0.4813452    0.2775403 -39.11  0.001636128    1.520    0.342
       107 -10.0023    231.4589    159.4930   6.7354701874e+01   6.0778972832e+00    0.2497118    0.1087907 -33.50 0.0006743838    1.988    0.497
       108 -10.4766    237.4064    158.4938   6.6191999410e+01   5.3571619638e+00    0.2581388    0.1890811 -43.25 0.0009804507    1.464    0.317
       109 -10.4363    233.3699    153.7545   6.5890819443e+01   6.6995653432e+00    0.3525746    0.1770446 -42.76  0.001502343    1.907    0.476
       110 -10.5803    240.0222    163.5395   6.6768930134e+01   4.2027191217e+00    0.3036739    0.1659932 -35.43 0.0009903929    1.540    0.351
       111 -11.2864    237.2144    168.8003   6.8246250759e+01   3.7918361782e+00    0.4007839    0.2123854 -41.43  0.001550886    1.821    0.451
       112 -10.4277    233.8164    163.4030   6.7744491022e+01   5.1147097661e+00    0.2978845    0.1501471 -42.37  0.001468621    1.929    0.482
       113 -10.5083    218.7569    167.8662   7.1212060042e+01   6.6454511961e+00    0.3113423    0.2104609 -37.06  0.001181626    1.384    0.277
       114  -9.8815    205.2450    168.6232   7.3859890938e+01   8.6289076311e+00    0.2479011    0.1571346 -45.68 0.0009911123    1.733    0.423
       115  -9.7009    229.3879    165.6469   6.8925170253e+01   5.4097312109e+00    0.2512714    0.1060156 -40.39  0.001127784    2.162    0.537
       116 -10.2498    191.5004    164.9624   7.5815925445e+01   1.1535026287e+01    0.3184896    0.1240772 -35.25  0.001204499    2.539    0.606
       117 -10.9599    213.0636    162.6117   7.1176182298e+01   8.4048429368e+00    0.3883187    0.1762155 -37.68  0.001736882    1.976    0.494
       118  -9.7765    199.4836    164.0489   7.4035468890e+01   1.0362336975e+01    0.2124263    0.1244913 -36.48 0.0009408983    1.571    0.364
       119 -11.2864    246.2429    159.3024   6.4974015264e+01   3.9722070989e+00    0.6507327    0.2016299 -42.18  0.002583313    3.083    0.676
       120 -10.0513    224.3932    247.8030   8.4387294806e+01  -5.8076531542e+00    0.2156066     0.101429 -39.88 0.0009848564    2.473    0.596
       121 -10.2926    224.9746    242.8213   8.3503624744e+01  -5.2412569539e+00     0.224286    0.1381153 -26.93  0.001015572    1.499    0.333
       122  -9.8600    205.5760    153.6525   7.0694314578e+01   1.1166530092e+01    0.2526301    0.1203636 -34.31 0.0009145444    1.933    0.483
       123  -9.9906    228.4774    151.4981   6.6228572399e+01   7.8098479099e+00    0.2513079    0.1093788 -39.48  0.001039257    2.016    0.504
       124  -9.9690    229.4070    147.8150   6.5321906863e+01   8.2575027187e+00    0.2725762    0.1598638 -26.77 0.0008943211    1.551    0.355
       125  -9.9940    221.1256    151.8737   6.7539452912e+01   8.9093287121e+00    0.1951878    0.1673125 -34.40 0.0006721923    1.199    0.166
       126  -9.4834    202.5862    151.2184   7.0738190809e+01   1.2102454550e+01    0.2041658    0.1191304 -28.34 0.0009559782    1.653    0.395
       127 -10.0619    215.5348    148.3504   6.7771523676e+01   1.0408859162e+01    0.2591269    0.1160493 -42.02  0.001121038    2.087    0.521
       128 -10.5030    223.6391    146.4465   6.5986870872e+01   9.3985817719e+00    0.2936264    0.2082252 -36.14  0.001668991    1.253    0.202
       129 -10.0086    207.8767    144.4934   6.8313617080e+01   1.2365756365e+01    0.2938311    0.1611999 -24.97  0.001315405    1.945    0.486
       130  -9.6764    219.1544    144.1921   6.6268953128e+01   1.0505892408e+01    0.1799226    0.1510882 -48.81  0.001066486    1.370    0.270
       131  -9.3169    200.4848    144.5403   6.9691685138e+01   1.3652304523e+01    0.1405375    0.1241983 -18.46 0.0004073943    1.022    0.022
       132  -9.8137    214.4486    142.4939   6.6717023499e+01   1.1581573112e+01    0.2434698    0.1122457 -46.29  0.000989127    2.299    0.565
       133 -10.8017    230.1264    139.6344   6.3514811051e+01   9.4588252089e+00    0.6158337    0.1357893 -40.66  0.001988943    3.944    0.746
       134  -9.8566    181.8593    141.7253   7.2761759749e+01   1.7580617745e+01    0.3151572     0.162347 -57.56   0.00108719    3.384    0.705
       135 -10.3624    238.9732    140.5088   6.2332095144e+01   7.9268060435e+00    0.2456165    0.1525621 -44.64 0.0009467545    1.582    0.368
       136  -9.9404    224.2758    139.6154   6.4449571263e+01   1.0415159997e+01    0.2623808    0.1437396 -33.43  0.001298625    1.585    0.369
       137  -9.2001    166.0000    139.9789   7.5808754850e+01   2.0965377927e+01    0.2449512   0.08261627 -42.30 0.0007695889    2.880    0.653
       138  -9.9705    218.6869    137.9139   6.5012588918e+01   1.1631992912e+01    0.2824436    0.1775864 -31.13  0.001470311    1.404    0.288
       139 -11.0469    234.6671    135.5807   6.1970171187e+01   9.3771054581e+00    0.4765461    0.1889138 -43.31  0.002051909    2.352    0.575
       140 -10.3544    233.8761    129.0222   6.0722735499e+01   1.0542625249e+01    0.3332953    0.1468515 -43.51  0.001509199    2.090    0.522
       141  -9.7930    172.4956    137.9957   7.3904475380e+01   2.0093121602e+01    0.2113525    0.1281668 -61.25 0.0008106826    2.621    0.618
       142  -9.5674    192.6349    136.2006   6.9341314944e+01   1.6584695225e+01    0.2090491    0.1237267 -29.45 0.0009447405    1.672    0.402
       143  -9.6976    187.6948    135.4964   7.0153860553e+01   1.7644913191e+01    0.2585261    0.1229715 -39.31  0.001057822    1.962    0.490
       144 -10.2387    224.4773    133.4145   6.3102831832e+01   1.1396632437e+01    0.3142074    0.2360064  66.60  0.001733513    1.977    0.494
       145 -10.4691    198.4065    131.6625   6.7217078236e+01   1.6325253794e+01     0.257324    0.1244147 -41.52 0.0008206741    1.923    0.480
       146 -10.3764    205.1716    160.9764   7.2304967301e+01   9.9606113887e+00    0.3363883    0.1810072 -36.80  0.001593113    1.689    0.408
       147  -9.8418    179.4028    132.2333   7.1089247934e+01   1.9857058329e+01    0.2112681    0.1325988 -47.65 0.0009503974    1.666    0.400
       148  -9.8663    220.7989    128.9440   6.2733865466e+01   1.2758924098e+01    0.2177589    0.1386465 -53.64   0.00107918    1.893    0.472
       149  -9.5383    192.3442    129.2083   6.7800576693e+01   1.7912025540e+01    0.2104167    0.1217405 -45.76  0.000726798    1.735    0.424
       150  -9.2506    211.6809    128.3376   6.4111000561e+01   1.4470787835e+01    0.1348075    0.1044597 -63.83 0.0007049475    1.707    0.414
       151 -10.1824    227.7945    124.8896   6.0764605041e+01   1.2217310340e+01     0.304557    0.1487206 -41.94  0.001308418    1.819    0.450
       152  -9.1691    199.6775    125.6987   6.5626413263e+01   1.7143876800e+01    0.1422754    0.1054146   0.46 0.0007027451    1.631    0.387
       153 -10.0960    179.5942    124.0110   6.9103601234e+01   2.1375001545e+01    0.3397539    0.1352728 -39.86  0.001245954    2.373    0.579
       154  -9.6836    164.5972    124.7392   7.2493946880e+01   2.4285518482e+01    0.2159546     0.138841 -49.42  0.000947209    1.661    0.398
       155  -9.6037    170.0000    123.9903   7.1119498871e+01   2.3324700394e+01    0.2452917    0.0821014 -40.64 0.0007919315    2.870    0.652
       156  -9.3224    212.5211    122.4828   6.2668248122e+01   1.5309009643e+01    0.1372359    0.1202185 -27.40 0.0008100631    1.001    0.001
       157  -9.6682    231.4975    119.9985   5.9167629869e+01   1.2366803685e+01    0.2866388    0.1098712 -37.41 0.0007094078    2.196    0.545
       158 -10.9036    230.6428    116.1622   5.8472061344e+01   1.3118870350e+01     0.211432    0.1814599 -22.32 0.0008841201    1.089    0.082
       159 -10.7172    218.8231    119.4549   6.0975724486e+01   1.4670940069e+01    0.3391086    0.2260229  65.75  0.001715942    2.155    0.536
       160  -9.3927    194.3008    120.6643   6.5447258331e+01   1.9070492031e+01    0.1409251    0.1101732 -66.26 0.0003766266    1.659    0.397
       161 -12.0794    235.1508    114.5122   5.7479397804e+01   1.2605285292e+01    0.6730947      0.17038 -40.77  0.002399122    3.280    0.695
       162  -9.2120    173.6449    114.3010   6.7959606750e+01   2.4422859024e+01    0.1478955    0.1189192 -80.90 0.0007037924    1.706    0.414
       163 -12.5671    240.0976    124.5299   5.8883980518e+01   1.0233803868e+01     1.312093    0.3376521 -36.18  0.004714701    3.291    0.696
       164 -11.0491    218.7371    110.8116   5.9071679188e+01   1.6097614271e+01    0.5813386    0.1484992 -42.72  0.001917725    3.570    0.720
       165 -11.7372    229.5066    102.8817   5.5763500707e+01   1.5393537423e+01    0.3348809    0.2031996 -35.01  0.001792642    1.422    0.297
       166  -9.5549    222.3326    104.6050   5.7154863593e+01   1.6429190516e+01    0.2672395    0.1428671 -34.92  0.001029919    1.648    0.393
       167  -9.7311    205.5575    105.0273   5.9829015414e+01   1.9556892855e+01    0.2158433    0.1228721 -37.94  0.001020047    1.577    0.366
       168  -9.5686      7.4875    105.4726   1.1930648493e+02   5.3406711588e+01    0.1338425    0.1158473 -63.02 9.559099e-05    1.013    0.013
       169  -9.7747    221.4582    160.9863   6.9349670863e+01   7.3577107949e+00    0.1976041    0.1492453 -25.93 0.0008570203    1.124    0.110
       170  -9.5211    200.6637    102.8523   6.0122695410e+01   2.0893018940e+01    0.2025663    0.1143811 -44.30 0.0008865012    1.668    0.401
       171  -9.5472    195.0000    102.9353   6.1104847557e+01   2.2027692903e+01    0.2325611   0.07491809 -37.32 0.0007406574    2.863    0.651
       172 -10.0726    160.0000     99.9673   6.7175671367e+01   3.0062420756e+01    0.2532516   0.08398792 -39.02 0.0008036824    2.951    0.661
       173 -12.8998    245.8544    142.5562   6.1727117193e+01   6.5704969466e+00     2.270148    0.7337835 -49.48  0.005880029    8.012    0.875
       174  -9.9944    221.5106     97.7551   5.5745568805e+01   1.7658717454e+01    0.2383935     0.117646 -33.06 0.0006979323    1.863    0.463
       175  -9.7489    202.8040     97.9824   5.8616556857e+01   2.1270668737e+01    0.2301266    0.1403155 -55.45  0.001068657    1.890    0.471
       176 -10.9503    212.8734     96.1637   5.6635106969e+01   1.9564699915e+01    0.5042496    0.1661177 -50.72  0.001505884    4.708    0.788
       177  -9.8513    194.7893     97.3496   5.9787205508e+01   2.3016268112e+01    0.1995069    0.1672374 -46.16  0.001113402    1.137    0.121
       178 -11.2552    243.4469    150.4687   6.3661131975e+01   5.7145273518e+00    0.6370043    0.3086781 -25.87  0.003064384    2.023    0.506
       179  -9.4490    206.6982     94.3246   5.7140161435e+01   2.1081375754e+01    0.1385734   0.09938108 -63.11 0.0006492214    1.636    0.389
       180 -12.9928    248.7363    127.7961   5.8355558453e+01   8.3763314439e+00     2.716504    0.3431821 -40.97  0.007141503    6.548    0.847
       181 -10.2640    171.5180     90.9140   6.2387384948e+01   2.9136948139e+01    0.2251792    0.1393573 -38.28 0.0009350306    1.559    0.358
       182  -9.8353    157.7875     89.9985   6.4955232133e+01   3.2394316342e+01    0.2083738    0.1188919 -37.63 0.0008760858    1.731    0.422
       183  -9.9251     25.0449     90.5118   1.0969839059e+02   5.6049257556e+01    0.1910374    0.1360766  10.61 0.0004525992    1.513    0.339
       184  -9.8854    167.8470    249.6758   9.5606789316e+01   7.6189565690e-01    0.2489484   0.09414046  24.07 0.0008815719    2.514    0.602
       185 -11.5405    224.0161     82.6977   5.2040562205e+01   1.9472183026e+01    0.3808263    0.2697385   1.01  0.001797921    2.153    0.536
       186  -9.6952    170.5146     83.4931   6.0606368532e+01   3.0636805685e+01    0.1447935    0.1376677 -60.91 0.0008098512    1.055    0.053
       187 -10.1785    159.1275     81.6861   6.2368360649e+01   3.3553066885e+01    0.2767713    0.1945985 -46.96   0.00132117    1.451    0.311
       188  -9.7989    210.9983     76.6104   5.2357095739e+01   2.2952917831e+01    0.2260881    0.1536314 -37.43  0.001160636    1.334    0.250
       189  -9.8546    220.0000     78.8939   5.1698714724e+01   2.0812765668e+01    0.2145071   0.06609573 -35.21 0.0007152696    2.879    0.653
       190  -9.9503    201.2286     77.6988   5.3988533192e+01   2.4817408169e+01    0.2618776     0.141935 -45.44 0.0009135136    1.728    0.421
       191  -9.3842    174.5854     77.7867   5.8327581391e+01   3.0657037756e+01    0.2091423    0.1257954 -46.20 0.0009494481    1.656    0.396
       192  -9.8503    166.7720     78.0167   5.9835742690e+01   3.2407623295e+01    0.2001659    0.1175172 -36.45 0.0008845099    1.676    0.404
       193  -9.6438    222.3437    156.7934   6.8342791233e+01   7.9068110643e+00    0.2741162    0.1105541 -35.72 0.0008443031    2.177    0.541
       194 -10.6665    157.6159     75.0581   6.0811101817e+01   3.5025946783e+01    0.3355466    0.1382784 -36.35  0.001243275    2.412    0.585
       195  -9.4037    206.4624     73.9791   5.2353201244e+01   2.4279377448e+01    0.1964931   0.09249596 -53.40 0.0008077968    2.432    0.589
       196 -10.5296    233.2712    247.4450   8.2757753039e+01  -6.7273113246e+00    0.2239125    0.1918089 -17.24  0.001356324    1.621    0.383
       197 -10.3622    221.6451     70.8481   4.9676484375e+01   2.1652252029e+01    0.1851099    0.1339625 -57.75 0.0009363039    1.336    0.251
       198  -9.2841    176.2794     71.6439   5.6392247705e+01   3.1248090318e+01    0.1477061    0.1035519 -63.83  0.000585867    1.658    0.397
       199  -9.4938    214.4094     70.1654   5.0411683279e+01   2.3199528014e+01     0.195891    0.1010472 -46.12 0.0009383826    1.761    0.432
       200 -10.0235    218.3749    247.3180   8.5403158867e+01  -5.0732953942e+00    0.1846469    0.1314659 -30.27  0.001233825    1.563    0.360
       201  -9.6447    183.5568     76.8049   5.6520089840e+01   2.8794350990e+01    0.2055605    0.1213324 -46.78 0.0009459742    1.668    0.400
       202  -9.2757    203.3037     66.6332   5.1020811922e+01   2.6018908868e+01    0.1432817   0.09126182 -61.78 0.0007035237    1.742    0.426
       203 -10.2500    171.0000     64.0073   5.5229778636e+01   3.3637251603e+01    0.2307678   0.07864306 -33.75 0.0007999709    2.925    0.658
       204  -9.3406    197.2770     63.6739   5.1116259819e+01   2.7741986300e+01    0.1383963   0.09340123 -61.84 0.0005172981    1.589    0.371
       205 -11.4115    192.6358     60.2344   5.0900985383e+01   2.9252118729e+01    0.3923184    0.2152118 -37.32  0.001888833    1.710    0.415
       206 -10.7377    192.5953     55.7696   4.9783402907e+01   2.9883638072e+01    0.3625179    0.1610112 -44.58  0.001542187    2.119    0.528
       207 -12.5068    226.6688     56.4461   4.5908178007e+01   2.2633652534e+01    0.4327323    0.2094302 -47.95   0.00218317    1.829    0.453
       208 -10.1910    196.9753    157.2153   7.3096203665e+01   1.1999662242e+01    0.2957022    0.1634654 -37.61  0.001375195    1.671    0.402
       209  -9.8661    157.9643     61.9746   5.6992452859e+01   3.7022952955e+01    0.2355357    0.1695334 -67.87  0.001131939    1.674    0.403
       210  -9.8021    139.6626     55.3256   5.8649841653e+01   4.2434339265e+01    0.1510322    0.1116573 -74.16  0.000166492    1.723    0.419
       211  -9.5121    126.2958     51.6928   6.0468424241e+01   4.6212272404e+01    0.1437061    0.1134236 -74.78 0.0003502302    1.587    0.370
       212  -9.2328    194.6447     50.3151   4.8150351257e+01   3.0163344743e+01    0.1423048   0.09078637 -66.81 0.0007045254    1.742    0.426
       213 -10.0956    226.4975    156.5779   6.7592791610e+01   7.2966623562e+00    0.2659872    0.1117068 -37.14 0.0008847247    2.058    0.514
       214  -9.2944    173.6449     40.3162   4.8339515427e+01   3.6272835376e+01    0.1451553   0.09424245 -68.65  0.000704561    1.744    0.427
       215 -10.2209    216.2751    156.4864   6.9339441328e+01   8.9202287146e+00    0.2599658    0.1642461 -34.73  0.001370746    1.396    0.283
       216  -9.2306    179.3248     37.6646   4.6866241542e+01   3.5266544545e+01    0.1429173   0.09082797 -65.46 0.0004710509    1.716    0.417
       217 -10.3142    168.6515     36.5695   4.8009387979e+01   3.7919150701e+01    0.2302626    0.1230482 -32.15  0.001081877    1.921    0.479
       218 -10.0922    211.6532    151.1654   6.9054526452e+01   1.0576349368e+01    0.2572505    0.1106549 -37.76   0.00108983    2.076    0.518
       219  -9.1764    149.3154     34.3406   5.0314227330e+01   4.2876761267e+01    0.1425177   0.09996633  33.10 0.0005057005    1.705    0.414
       220 -10.1119    125.8450     30.2579   5.3297993017e+01   4.9146163573e+01    0.2338252    0.1857923 -44.38  0.001028196    1.382    0.277
       221  -9.5665    187.5488    155.0218   7.4520668891e+01   1.4042644280e+01    0.2224575    0.1306583 -36.74  0.001027648    1.596    0.373
       222  -9.5481    174.3225     28.6331   4.5090718785e+01   3.7497791099e+01    0.1442467    0.0873822 -63.85 0.0007037577    1.794    0.443
       223 -10.2519     30.3494     28.1833   8.6958908412e+01   6.9045783312e+01    0.2477361    0.1487418   4.06  0.001252605    1.803    0.445
       224  -9.7756    136.6447     25.2096   4.9587483345e+01   4.7039332870e+01    0.1771158    0.1313716  -6.61 0.0004399183    1.670    0.401
       225 -10.1149    172.2375     23.0811   4.3847879250e+01   3.8597968179e+01    0.4188172   0.06815969 -32.06  0.001329082    4.643    0.785
       226  -9.7006    175.6974    238.5282   9.2359821230e+01   1.4123319270e+00    0.2418527    0.1790508 -55.13  0.001422885    2.106    0.525
       227 -10.5356    193.1992     17.4682   4.0212867786e+01   3.4351201588e+01    0.2246191   0.09987621 -24.23  0.001028821    2.636    0.621
       228  -9.8494    155.6796     16.4545   4.4039894794e+01   4.3252447479e+01    0.2159631    0.1219848 -25.63  0.001077966    1.984    0.496
       229  -9.8998    140.5958     16.7840   4.6248420122e+01   4.6921019486e+01    0.1819727    0.1175687 -41.22 0.0009522651    1.655    0.396
       230  -9.3820     23.4957     15.4878   8.4674312781e+01   7.1974559161e+01    0.1284072   0.09993292  -1.65 0.0002108277    1.012    0.012
       231 -10.8006    175.5686    246.2633   9.3536001765e+01   2.7107455392e-01    0.3155977    0.2060362 -38.62  0.001903154    1.746    0.427
       232 -10.0708    177.6563    242.6759   9.2581062733e+01   5.3173795160e-01    0.1855865     0.116917 -29.60 0.0007447958    1.636    0.389
       233 -10.6707    250.5478    245.8465   7.9567493336e+01  -8.3181414099e+00    0.2545484   0.08732852 -33.76  0.001253686    2.605    0.616
       234  -9.9305    186.9908    246.7658   9.1311421185e+01  -1.2513396834e+00    0.2146658    0.1308041 -19.88   0.00112776    1.641    0.391
       235 -10.2808    163.6233    246.8147   9.6077442147e+01   1.7406952733e+00     0.149983    0.1203589 -52.16 0.0009511043    1.783    0.439
       236  -9.9239    237.6700    244.1588   8.1478163170e+01  -6.7930980912e+00    0.2138776    0.1210751 -39.56  0.001294857    2.207    0.547
       237 -10.1415    202.0045    242.2358   8.7685606022e+01  -2.4736154284e+00    0.2297109    0.1590072 -39.21  0.001446472    1.782    0.439
       238 -10.9866    248.4500    239.3448   7.8884925953e+01  -7.3329787064e+00    0.3213555    0.1326733 -35.99  0.001290312    2.337    0.572
