#   1 NUMBER                 Running object number                                     
#   2 MAG_AUTO               Kron-like elliptical aperture magnitude                    [mag]
#   3 X_IMAGE                Object position along x                                    [pixel]
#   4 Y_IMAGE                Object position along y                                    [pixel]
#   5 X_WORLD                Barycenter position along world x axis                     [deg]
#   6 Y_WORLD                Barycenter position along world y axis                     [deg]
#   7 A_WORLD                Profile RMS along major axis (world units)                 [deg]
#   8 B_WORLD                Profile RMS along minor axis (world units)                 [deg]
#   9 THETA_WORLD            Position angle (CCW/world-x)                               [deg]
#  10 FWHM_WORLD             FWHM assuming a gaussian core                              [deg]
#  11 ELONGATION             A_IMAGE/B_IMAGE                                           
#  12 ELLIPTICITY            1 - B_IMAGE/A_IMAGE                                       
         1 -13.9047    160.6297     52.3549   7.9610236400e+01   3.8654150665e+01     1.612251     1.186666  23.37  0.006103414    1.765    0.433
         2 -13.8117    173.0092     36.9978   7.3011659778e+01   3.7730456521e+01    0.9052802      0.87977 -61.63  0.003325662    1.131    0.116
         3 -11.5487    189.7261     14.7626   6.4715818663e+01   3.6252456029e+01     0.247081    0.2102962 -68.46 0.0008973461    1.157    0.136
         4 -13.5539    190.7769      4.9496   6.2152785254e+01   3.7012951186e+01    0.9089838    0.6080641  72.07  0.004130045    1.261    0.207
         5 -10.7793    168.9869    234.6270   1.1954272790e+02   8.6315569550e-01    0.2151304    0.1968694 -45.61 0.0001921842    1.270    0.212
         6 -18.5474     64.8225    245.0972   1.4074576624e+02   1.6071084484e+01     6.065725     5.345598  60.39   0.04020919    1.352    0.260
         7 -11.3411     11.4939    206.1424   1.4727289037e+02   3.0423839925e+01     0.255189    0.1938659  56.63  0.001312871    1.346    0.257
         8  -9.9596      6.2019    208.0000   1.4835323358e+02   3.0548570923e+01    0.1191101   0.07166652  37.66 0.0007349417    1.948    0.487
         9 -11.8169     35.6855    184.1013   1.4061738075e+02   3.2703675795e+01    0.2678753    0.1610056  55.31 0.0008383509    1.602    0.376
        10 -10.7317    158.7731    204.9908   1.1679171187e+02   8.2022106692e+00    0.3525032    0.1699395  52.09  0.001228835    2.145    0.534
        11 -10.1937      3.8211    225.6050   1.4984582145e+02   2.7205470285e+01    0.1003624    0.0605168 -71.03 0.0006669085    1.598    0.374
        12 -11.7464    207.0039    179.7876   1.0194565486e+02   3.5713884443e+00    0.7467883    0.4172741  28.74   0.00310163    2.221    0.550
        13 -10.5556    163.4610    204.1696   1.1565678611e+02   7.4609243483e+00    0.2586613    0.2130091  58.91 0.0004976511    1.212    0.175
        14 -11.9959    196.0145    171.4501   1.0243065222e+02   7.3987695281e+00    0.7349793    0.3897993 -49.24   0.00233244    2.016    0.504
        15 -10.4553    193.8293    165.5883   1.0163177836e+02   9.0215665817e+00    0.2680142     0.240499 -31.26 0.0006731022    1.129    0.114
        16 -10.9112    122.4134    165.5120   1.1776676067e+02   2.3866007584e+01     0.293373    0.2359094  76.90 0.0004823908    1.316    0.240
        17 -12.6422    193.3956    192.4649   1.0723643074e+02   3.8697861311e+00    0.8452021    0.4963881 -52.24  0.002742739    1.971    0.493
        18  -9.1965     24.6851    165.7127   1.4106434587e+02   3.8056507126e+01     0.115649   0.08315186 -50.91 0.0006997999    1.586    0.369
        19 -10.0818    223.5106    163.5465   9.5328209514e+01   3.3274445760e+00    0.2441096    0.1292182 -49.80 0.0007211379    2.083    0.520
        20  -9.8770      3.9753    176.0640   1.4643907721e+02   3.7594425496e+01    0.1131456   0.08693987  86.11  0.000797737    1.072    0.067
        21  -9.9114    198.9155    222.3755   1.1164136457e+02  -2.4345589124e+00    0.1904726    0.1533207  32.51 0.0004870205    1.106    0.096
        22 -12.1975     24.7675    156.9706   1.4007042829e+02   4.0062702303e+01    0.4429817    0.3062661  52.05  0.001823118    1.537    0.350
        23 -11.2338    155.3474    197.2313   1.1615944898e+02   1.0426978675e+01    0.2850927    0.2195769  60.18  0.001470016    1.317    0.241
        24 -11.0434    208.3897    196.9040   1.0509203088e+02   1.8399555168e-01    0.2353556     0.186712  48.44 0.0005442944    1.316    0.240
        25 -10.7000    139.6315    156.2273   1.1174268681e+02   2.2574811759e+01     0.264954    0.2060663  50.33 0.0003466362    1.270    0.212
        26 -12.0664    134.3989    148.2161   1.1128002986e+02   2.5502052280e+01    0.7043642    0.2905692 -57.42  0.002315636    2.860    0.650
        27 -12.5790    134.0000    143.9718   1.1043738942e+02   2.6566843401e+01     1.014397    0.3201249 -56.46  0.002696446    4.344    0.770
        28 -11.4332     27.6929    150.9897   1.3866330162e+02   4.1171386861e+01     0.355821    0.2028833  52.37  0.001957251    1.902    0.474
        29 -12.7818      4.9273    112.2569   1.3941036772e+02   5.1808383720e+01    0.6985716    0.4716161  52.18  0.004434285    1.806    0.446
        30 -13.6622      3.1078    127.3174   1.4183575503e+02   4.8564441369e+01     1.866207     1.018121 -84.55   0.01068858    1.662    0.398
        31 -12.0216     13.0400    142.2660   1.4114192576e+02   4.4464461626e+01    0.3747918    0.2378968  87.59  0.001023234    1.473    0.321
        32 -12.7380      7.5882    143.6517   1.4260120075e+02   4.4568006240e+01    0.5080734    0.3806968 -11.67  0.003345011    2.023    0.506
        33 -12.0662    144.5885    146.1253   1.0834077752e+02   2.3841891208e+01    0.5229839    0.3555466 -88.00  0.002080932    2.224    0.550
        34 -11.2084      2.6185    141.7981   1.4357577012e+02   4.5344710287e+01     0.368331    0.1619716 -71.89  0.001296216    1.703    0.413
        35 -12.8348    112.6568    139.3607   1.1481930823e+02   3.1897088488e+01    0.7945707     0.561802   4.41  0.003277474    2.454    0.592
        36 -12.1190    103.4785    138.5539   1.1704082924e+02   3.3786659438e+01    0.2929879    0.2854796  61.27 0.0005422495    1.098    0.090
        37 -10.4563    174.8111    148.9102   1.0200244602e+02   1.6610045642e+01    0.2943357    0.2200328 -67.40 0.0008427472    1.574    0.365
        38 -18.9840     48.8861     97.8150   1.2370670179e+02   5.1289116686e+01     18.29502     1.170867 -57.53   0.03046775   14.569    0.931
        39 -11.8710    106.0536    130.9055   1.1467405550e+02   3.5128681988e+01    0.3986534    0.3489046 -86.27  0.001194002    1.185    0.156
        40 -11.0888    107.4933    125.5058   1.1304328524e+02   3.6126438439e+01    0.3312232    0.2496044 -32.53 0.0006228901    1.522    0.343
        41 -12.0383    119.0896    129.4644   1.1089451141e+02   3.2968689807e+01     0.417085    0.3870393 -74.02  0.001090786    1.052    0.049
        42 -12.2267    135.4704    122.2063   1.0491391296e+02   3.1231017384e+01    0.6998439    0.2591783 -50.93  0.002245816    2.831    0.647
        43 -10.8055    160.8855    127.5453   1.0008847870e+02   2.4382394109e+01    0.3420452    0.2079231 -60.75  0.001338501    1.985    0.496
        44 -12.0124    124.2233    126.6470   1.0888614616e+02   3.2585167081e+01    0.6423753    0.4012204  81.46  0.002255037    3.028    0.670
        45 -11.1135    167.6452    190.0432   1.1217872706e+02   9.4591659319e+00    0.4116694    0.2968228 -27.60  0.001970516    1.729    0.422
        46 -10.7688    113.1059    118.6944   1.0988744759e+02   3.6627077182e+01    0.2755199      0.24197 -75.21 0.0004062819    1.189    0.159
        47 -10.5916    168.4294    113.3624   9.4801612476e+01   2.5651178872e+01    0.4111658    0.2860556 -83.21  0.001221453    2.087    0.521
        48 -11.1222    142.9205    127.7585   1.0442988262e+02   2.8364862363e+01    0.3743287    0.2771634  78.95 0.0008825229    1.732    0.423
        49 -10.2657    205.5123    110.1889   8.6440820879e+01   1.7506220120e+01    0.2738225    0.2158222  55.65 0.0006570524    1.306    0.234
        50  -9.8772    163.0419    110.2843   9.5216992444e+01   2.7562500819e+01    0.2161757    0.2005825  67.01 0.0002753244    1.075    0.069
        51 -11.7917     90.7212    109.3467   1.1382467371e+02   4.2830104811e+01    0.2883693    0.2696554 -77.45 0.0007160488    1.109    0.098
        52 -12.3126     84.6026    109.1221   1.1554632311e+02   4.3888103879e+01    0.4432551    0.2567659 -47.93  0.002033462    1.594    0.373
        53 -10.1153      9.0453    211.2601   1.4806397366e+02   2.9597202337e+01    0.1725593   0.09070884  75.40 0.0003848286    1.580    0.367
        54 -10.6212    163.0545    210.2617   1.1679802146e+02   6.3580791955e+00    0.2381931    0.1860314 -74.17  0.001261211    1.576    0.365
        55 -11.1415     89.1651     78.2680   1.0579349769e+02   4.9688623845e+01    0.2986896    0.2357739  52.25  0.001095296    1.462    0.316
        56 -10.6018    161.0256    198.2858   1.1512698890e+02   9.1026027644e+00    0.2901374    0.2095214  73.50  0.001343332    1.770    0.435
        57  -9.0473     13.5509    247.1786   1.4949160902e+02   2.2038075067e+01    0.1339929   0.07984437 -89.34 0.0006447276    1.317    0.241
        58  -9.9056     13.2853     59.8163   1.2672379472e+02   6.2281802770e+01     0.161282    0.1309726 -50.93 0.0005719793    1.156    0.135
        59 -12.7781    177.3506     29.2952   7.0213935859e+01   3.7624743771e+01       0.5338    0.4146017  29.74  0.001753721    1.616    0.381
        60  -9.6810    125.7985     26.6201   7.8873044960e+01   5.0291432799e+01    0.1935022    0.1209449  68.30 0.0009501112    1.749    0.428
        61 -12.0396    159.1590    235.7457   1.2165038778e+02   2.4203977194e+00    0.3397215    0.2590638  28.61  0.001179802    1.363    0.267
