#   1 NUMBER                 Running object number                                     
#   2 MAG_AUTO               Kron-like elliptical aperture magnitude                    [mag]
#   3 X_IMAGE                Object position along x                                    [pixel]
#   4 Y_IMAGE                Object position along y                                    [pixel]
#   5 X_WORLD                Barycenter position along world x axis                     [deg]
#   6 Y_WORLD                Barycenter position along world y axis                     [deg]
#   7 A_WORLD                Profile RMS along major axis (world units)                 [deg]
#   8 B_WORLD                Profile RMS along minor axis (world units)                 [deg]
#   9 THETA_WORLD            Position angle (CCW/world-x)                               [deg]
#  10 FWHM_WORLD             FWHM assuming a gaussian core                              [deg]
#  11 ELONGATION             A_IMAGE/B_IMAGE                                           
#  12 ELLIPTICITY            1 - B_IMAGE/A_IMAGE                                       
         1 -12.5402    218.2498     33.9365   1.8749226187e+01   2.8100002922e+01     3.169218    0.6739931 -48.39   0.01065995    3.631    0.725
         2 -13.1279    181.2349     86.0491   3.6048025925e+01   2.8147065869e+01      2.20785    0.7161644 -33.24  0.002627367    3.216    0.689
         3 -14.6889    240.4940     83.8280   2.8116789491e+01   1.7605209245e+01     2.466163     1.752441  38.44   0.01584028    1.943    0.485
         4 -12.9540    236.3140     30.1328   1.6679308396e+01   2.5127534534e+01     1.717509     1.242263   6.99   0.00418488    2.317    0.568
         5 -13.3396    234.2453     64.0482   2.4409830382e+01   2.1302320755e+01     1.486038    0.7705697 -37.61  0.005506322    1.451    0.311
         6 -12.9926    248.2769     39.1863   1.7933000572e+01   2.1974284168e+01     2.166067    0.8261996 -23.71  0.009466846    3.135    0.681
         7 -10.5616    125.2034     22.5068   2.5252319111e+01   5.1236218328e+01    0.6870505    0.2259255 -27.26  0.001742417    3.164    0.684
         8 -10.3384    202.1440     18.2157   1.5952622023e+01   3.3226763146e+01    0.4355872    0.3848459  76.48  0.002958037    1.350    0.259
         9  -9.4088    210.5498     15.8126   1.4827772476e+01   3.1730754836e+01    0.4361151    0.1666595 -61.85  0.001870037    2.537    0.606
        10 -14.0271    248.1377    107.3711   3.2174260029e+01   1.3242739685e+01     4.816576      1.43284 -27.30  0.006981818    4.883    0.795
        11 -11.0938    248.0760      4.9863   1.0664538932e+01   2.5710033442e+01    0.7175668    0.2061485 -46.44  0.003685357    2.122    0.529
        12  -8.5677    239.9956      1.8469   1.0265707663e+01   2.7461095255e+01    0.2362284    0.1420876  43.31  0.001348608    2.982    0.665
        13  -9.4065    155.5181     13.3091   1.8204280157e+01   4.4550500384e+01    0.4785746    0.2360677 -10.57  0.001868935    3.108    0.678
        14  -9.0436    227.1409      6.7307   1.1838130426e+01   2.9379213721e+01    0.2096196    0.1679302  -9.60  0.001199333    1.668    0.401
        15  -8.3666     98.5554      4.5700   2.2001761914e+01   6.0152487628e+01    0.1381668    0.1247115  88.30 0.0001015025    1.004    0.004
        16  -8.9290     70.3705      2.0517   2.6691439990e+01   6.7645950323e+01    0.2361386    0.1684591  56.64 0.0005856876    1.287    0.223
        17  -8.2592     75.0744    175.6480   8.0206325056e+01   2.8233704135e+01    0.1711671    0.1264467  18.87 0.0002783351    1.451    0.311
        18 -10.0674     93.0760    250.1816   8.3427119694e+01   1.1374309146e+01    0.1762542    0.1308134  26.24 0.0005411106    1.077    0.071
        19 -10.4647    228.7887    170.5893   4.6631552638e+01   7.0953833621e+00     0.267066    0.2331222 -38.30  0.001146681    1.455    0.313
        20 -10.3075    230.6057    167.3933   4.5805309371e+01   7.3107987931e+00     0.312102     0.169077 -43.19  0.001321427    1.905    0.475
        21  -9.5124    177.6017    169.8139   5.5047725007e+01   1.4107350212e+01    0.1773701    0.1144838 -49.91 0.0009500509    1.751    0.429
        22  -8.9958    167.4003    167.5949   5.6627468514e+01   1.6013137346e+01    0.2589004    0.2061689 -78.53  0.001423083    2.003    0.501
        23 -10.9233    198.0431    161.5375   4.9844836950e+01   1.2498873827e+01      0.48866    0.3557863 -45.51  0.001599521    1.474    0.322
        24 -12.7715    162.9823     98.8903   4.2503890927e+01   2.9645107241e+01     2.168605      1.36531 -87.21  0.008446585    3.018    0.669
        25  -9.6468    248.7560    244.5043   5.5079941998e+01  -3.6424668017e+00    0.1994451   0.05031595 -27.28 0.0008999315    4.398    0.773
        26  -9.2481    224.5089    242.9612   5.8412610526e+01  -1.3991791863e+00    0.1364412   0.08042777 -28.15 0.0007357852    1.546    0.353
        27 -12.5769    202.4973     93.0395   3.4635056412e+01   2.2847305073e+01      1.13296    0.6571899  53.25   0.00435593    2.032    0.508
        28 -12.9927    247.6300     69.0266   2.4327875193e+01   1.8411355812e+01     1.244712    0.4436366 -29.79  0.005686052    2.463    0.594
        29 -11.6303    244.7569     63.0322   2.3292209354e+01   1.9648780291e+01     0.314169    0.2251375 -40.12 0.0004065448    1.041    0.040
        30 -13.2054    221.2993     87.2273   3.0919716457e+01   2.0342320573e+01    0.9025337     0.614993  40.86  0.003666096    1.928    0.481
        31  -8.7794    117.9069    239.7499   7.7288549161e+01   1.0256125305e+01    0.1668707    0.1295342  12.23   0.00114809    1.171    0.146
        32  -8.8767    211.8142    159.9734   4.7296945714e+01   1.0811722080e+01       0.2614    0.1892872 -66.87   0.00142147    2.640    0.621
        33  -8.8084    208.5820    155.7979   4.7028098710e+01   1.1894467243e+01    0.2298608    0.1706272 -71.32  0.001207805    2.593    0.614
        34  -9.6374    191.9042    144.1077   4.7513681709e+01   1.6264053476e+01     0.195564    0.1690426 -26.47 0.0003897668    1.029    0.028
        35 -12.1065    189.2906    154.5701   5.0040380073e+01   1.4921957510e+01    0.6781709    0.5531647 -40.16  0.002078736    1.225    0.184
        36 -11.2315    188.1383    146.3943   4.8632608198e+01   1.6475101763e+01    0.4960499    0.3392615  54.73  0.002030011    1.951    0.487
        37 -12.9611    188.4832     96.4930   3.7510047271e+01   2.4945570181e+01     1.395314    0.7075095 -38.14  0.004658088    1.705    0.414
        38 -10.5582    157.6771    150.4643   5.5348003583e+01   2.0728350166e+01     0.358851    0.2542381 -61.10  0.001596898    1.758    0.431
        39 -12.1177     13.5080    145.4769   9.6049682631e+01   4.2774238248e+01    0.9733241    0.3563504  80.13  0.003484186    2.958    0.662
        40 -10.1833    133.6071    144.3799   5.9538153118e+01   2.6114292148e+01    0.9854589    0.2569442 -55.65  0.002279065    6.895    0.855
        41 -10.7781      3.2086    146.4903   9.9493269454e+01   4.3252656790e+01    0.3281844    0.1845761  66.85  0.001601582    1.568    0.362
        42 -10.4775    249.9249    140.6506   3.8376533804e+01   8.5207377551e+00    0.3831555    0.2274605 -37.09 0.0003397714    1.363    0.266
        43  -9.5745    144.8938    144.1700   5.6861358081e+01   2.4169763510e+01    0.3616921    0.2759272 -19.44  0.001014425    1.499    0.333
        44  -8.1334     63.1376    139.2484   7.8729532930e+01   3.8998691009e+01     3.171865      1.07925  51.76  0.009278549    3.900    0.744
        45 -11.6985     43.5518    136.4893   8.4945947761e+01   4.2274053642e+01    0.7269167    0.5274393  89.37  0.002046779    1.353    0.261
        46 -12.0448     36.1927    136.5742   8.7514127974e+01   4.3080110756e+01    0.8188179    0.6989434 -77.68  0.003296483    1.139    0.122
        47  -9.4074    222.8400    145.0228   4.2803283224e+01   1.1507501568e+01    0.1800523    0.1580589  -7.75  0.000382536    1.147    0.128
        48  -9.9717    247.7563    144.4001   3.9336251200e+01   8.2941067334e+00    0.2096369    0.1945642  76.25  0.001033637    1.716    0.417
        49 -10.8386     11.4955    133.0252   9.5922868936e+01   4.6297159762e+01    0.3045408    0.2355402  70.34  0.001668861    1.143    0.125
        50 -11.1488    184.5819    134.0727   4.6719579351e+01   1.9177886382e+01    0.3501386    0.2792311  45.51  0.001256681    1.427    0.299
        51 -10.1334    206.7230    132.2105   4.2657642608e+01   1.5863272472e+01    0.3156267    0.1960845 -46.26  0.001701238    1.571    0.364
        52  -9.4381    222.0539    133.8580   4.0729331285e+01   1.3274000121e+01    0.2090963    0.1547642   7.92  0.001057981    1.586    0.369
        53  -9.7606    226.6966    131.3796   3.9592324330e+01   1.2961693503e+01    0.2185189    0.1219196 -47.06 0.0009988814    1.832    0.454
        54  -9.9577    136.1584    128.5526   5.5525343669e+01   2.9033463318e+01     0.568009    0.1454382 -49.31  0.001625622    3.984    0.749
        55 -12.3671     29.0079    138.3770   9.0207666112e+01   4.3327169804e+01     1.098128    0.6147897 -57.72  0.004068452    1.827    0.453
        56 -11.1839    183.2997    128.1550   4.5674002429e+01   2.0434290244e+01    0.5066029    0.3397497  16.99  0.002510622    2.061    0.515
        57 -10.0583    160.9444    128.2651   4.9964003822e+01   2.4435775676e+01    0.3571157    0.2734345 -60.53  0.001512506    1.478    0.324
        58  -8.8482    223.7575    128.5711   3.9431763029e+01   1.3808985730e+01    0.2180712    0.1414267 -58.12  0.001190753    2.145    0.534
        59 -11.7682    126.5534    105.3209   5.2247932198e+01   3.5998502174e+01    0.9283053    0.6249463  88.77  0.003705962    2.394    0.582
        60 -10.2756    135.0000    120.0423   5.3830223898e+01   3.1083610887e+01    0.5152902    0.2330585 -46.74  0.001378728    2.130    0.530
        61 -10.8532    134.7383    111.8537   5.1894530388e+01   3.2892267939e+01    0.7379732    0.2214956 -46.21  0.002291292    3.195    0.687
        62 -10.1347    135.4584    102.4110   4.9292854037e+01   3.4744638332e+01    0.6953591    0.3587312 -34.66  0.002665706    2.244    0.554
        63 -10.2621     52.0455    119.9190   7.9426704146e+01   4.5748206711e+01    0.2532848    0.2232796  42.88  0.001330778    1.142    0.124
        64 -11.1764    225.2438    114.9075   3.6428822016e+01   1.5609780412e+01    0.4247167    0.2999313 -35.22  0.001766579    1.130    0.115
        65  -9.5751    178.2294    113.6883   4.3312230308e+01   2.3922044587e+01    0.2511596     0.194883 -45.13 0.0003948445    1.180    0.153
        66  -9.0530    122.3207    113.6556   5.5467294326e+01   3.5018122407e+01    0.1590515    0.1202184 -89.66 0.0007049792    1.728    0.421
        67  -9.7343    196.3185    109.1631   3.9268879698e+01   2.1368808009e+01    0.3039408     0.134854 -39.68 0.0009700531    1.911    0.477
        68 -10.1973    144.8169    109.4617   4.8954496004e+01   3.1329920059e+01    0.2999896    0.2351032 -73.44  0.001479896    1.511    0.338
        69 -10.6944    150.8542    106.9342   4.6999560142e+01   3.0600413796e+01     0.343666    0.3111681 -28.19 0.0008944126    1.135    0.119
        70  -9.2452    217.8606    104.8948   3.5254816969e+01   1.8302209714e+01    0.1881819    0.1487942 -22.19 0.0004243525    1.223    0.182
        71  -9.9648    145.1557     97.8417   4.5868412794e+01   3.3611586598e+01    0.3378161    0.2959575 -72.69 0.0006684724    1.185    0.156
        72  -8.8800     44.0509    237.1967   9.3140602916e+01   1.8808074114e+01    0.1650258    0.1393793  22.96 0.0004255061    1.243    0.195
        73  -8.3438    247.2454    216.9793   5.1434071329e+01  -6.1447975124e-01    0.1233381    0.0660098 -28.69 0.0003800998    1.520    0.342
        74  -8.0014    123.8337     84.4198   4.7085263529e+01   4.1069936015e+01    0.1900272    0.1481838  39.89 0.0003273815    1.437    0.304
        75  -8.7379    221.3630    212.6411   5.4605397615e+01   2.4286081705e+00    0.1626087     0.133719  -8.55 0.0004735627    1.231    0.188
        76 -10.9003    199.0245     70.7566   2.9694700829e+01   2.6960150792e+01    0.5281093    0.2716107 -46.57  0.001649785    1.668    0.401
        77  -9.6008    151.0216     71.5271   3.7249893317e+01   3.7282612559e+01    0.2768027     0.199808 -41.27  0.000508457    1.290    0.225
        78  -8.1593     95.2484     70.9742   5.0920456806e+01   5.0418505592e+01    0.2035888    0.1950552 -76.37 0.0003230315    1.020    0.020
        79  -9.7448    169.0993     68.9916   3.3404500674e+01   3.3594972005e+01     0.369278    0.1871992 -40.64  0.001404746    1.727    0.421
        80  -8.6066    192.9612     68.6599   2.9927141631e+01   2.8510455662e+01    0.1833712    0.1640121 -62.06 0.0005547747    1.097    0.089
        81  -8.5639    158.7862     69.1607   3.5155260113e+01   3.5903126025e+01    0.2203549    0.1777937 -57.93 0.0006110697    1.151    0.132
        82  -9.4293    222.8860    164.6803   4.6455852086e+01   8.6571531647e+00    0.1945976    0.1300356 -23.45 0.0003361084    1.246    0.197
        83  -9.9672    172.7948     64.9269   3.1706407327e+01   3.3426718893e+01    0.3483994    0.1812046 -50.50 0.0009500592    1.815    0.449
        84 -10.4210    169.5311     57.6749   3.0134562116e+01   3.5302020076e+01    0.5318507    0.3032936 -29.96  0.002105855    1.784    0.440
        85  -9.1436    186.0523     62.4873   2.9205670344e+01   3.0900165569e+01    0.2707179    0.1732758 -36.81   0.00077192    1.375    0.273
        86  -8.6066    110.5846     62.9223   4.3586151010e+01   4.8510386191e+01    0.2324481     0.147106 -41.41 0.0005586583    1.560    0.359
        87 -10.1413    126.5787     71.2141   4.2323607848e+01   4.3086655998e+01    0.3667774    0.2448567 -50.49 0.0008792855    1.445    0.308
        88  -8.5176    214.9746     53.7161   2.3783755848e+01   2.6224178097e+01    0.1692815    0.1476154 -57.41 0.0005019279    1.121    0.108
        89  -9.1007    198.9862     50.3943   2.4534407660e+01   2.9897358910e+01     0.347674    0.1742151 -30.16     0.001369    1.868    0.465
        90 -10.4751    157.7251     49.8765   2.9566174801e+01   3.9262656634e+01     0.361851    0.1884787  87.62  0.001397091    2.721    0.632
        91 -10.4360    143.9227     49.5756   3.1712301204e+01   4.2663885753e+01     0.406676      0.20828  51.11  0.001201548    2.159    0.537
        92  -9.5133    205.4530     45.7289   2.2709928457e+01   2.9185749668e+01    0.4927964    0.1570856 -39.43  0.002055266    2.305    0.566
        93 -10.9189    133.1917     38.8493   2.9946501553e+01   4.6978859212e+01    0.6600529    0.2810734 -36.66  0.001838167    2.176    0.540
        94 -10.0334    187.2504     39.9815   2.2985649383e+01   3.3830128434e+01    0.2526715    0.2420043  58.68 0.0004312302    1.301    0.232
        95  -9.0953    190.1232     35.3727   2.1447721895e+01   3.3792903156e+01     0.273418    0.1686102 -29.57  0.000618359    1.565    0.361
        96  -9.1727    182.1424     40.4528   2.3655155411e+01   3.4910446761e+01     0.236522     0.165324 -38.22  0.000485007    1.271    0.213
        97  -9.6846    158.9817     38.8425   2.5968102963e+01   4.0559932903e+01    0.2523692    0.1876311 -36.81 0.0007236662    1.285    0.222
        98  -9.0574    154.5047     39.4854   2.6786137655e+01   4.1561391607e+01    0.1434631    0.1273819 -63.85 0.0008103889    1.023    0.022
        99  -9.8990    144.8102     31.5888   2.5567729055e+01   4.5049709570e+01    0.2436278    0.1600956 -41.25  0.001203878    1.402    0.287
       100  -7.8645    182.2283     29.0121   2.0432083538e+01   3.6360657342e+01    0.1610445   0.09834856 -34.43 0.0008267097    1.473    0.321
       101  -8.0989    175.7509     25.9802   2.0174060490e+01   3.8224937727e+01    0.1739641    0.1038496 -33.03  0.000769683    1.544    0.352
       102  -8.4035    152.2445    212.9871   6.6980245592e+01   1.0397061611e+01    0.1564322     0.133789  -0.09 0.0002229201    1.064    0.060
       103  -8.8545    240.7408    206.5639   5.0791476079e+01   1.1971093971e+00    0.1206512   0.08977753  26.12 0.0009359073    1.592    0.372
       104  -9.4374    202.5689    200.9172   5.5840830171e+01   6.0435025447e+00     0.188477     0.146286  20.40 0.0003851791    1.276    0.216
       105 -10.3613    192.6040    194.3424   5.6506098607e+01   8.1911286772e+00    0.7322222    0.3868893 -59.42   0.00266059    6.035    0.834
       106  -7.9788    219.5237     11.5942   1.3321927570e+01   3.0366422751e+01     0.120782   0.09179551 -53.04 0.0002002825    1.024    0.023
       107  -9.9135    220.1178    187.9870   5.0906862387e+01   5.7609232886e+00    0.3026892    0.2409308 -55.96   0.00203287    2.095    0.523
       108 -11.2701    215.7838    180.8863   5.0391505434e+01   7.2575735141e+00    0.4372717    0.2736109 -13.90   0.00182356    1.549    0.355
       109  -9.2088    131.6303    188.4590   6.7804357130e+01   1.7465707074e+01    0.2040663    0.1857867  10.52 0.0002930322    1.020    0.020
       110  -9.9887    246.7628    186.0845   4.6709836677e+01   3.0479559471e+00    0.1750723    0.1472623  -4.43 0.0003661867    1.282    0.220
       111 -10.7292    208.7812    173.0309   5.0148037556e+01   9.2738357529e+00    0.3240642    0.2880506 -82.68   0.00125401    1.953    0.488
