#   1 NUMBER                 Running object number                                     
#   2 MAG_AUTO               Kron-like elliptical aperture magnitude                    [mag]
#   3 X_IMAGE                Object position along x                                    [pixel]
#   4 Y_IMAGE                Object position along y                                    [pixel]
#   5 X_WORLD                Barycenter position along world x axis                     [deg]
#   6 Y_WORLD                Barycenter position along world y axis                     [deg]
#   7 A_WORLD                Profile RMS along major axis (world units)                 [deg]
#   8 B_WORLD                Profile RMS along minor axis (world units)                 [deg]
#   9 THETA_WORLD            Position angle (CCW/world-x)                               [deg]
#  10 FWHM_WORLD             FWHM assuming a gaussian core                              [deg]
#  11 ELONGATION             A_IMAGE/B_IMAGE                                           
#  12 ELLIPTICITY            1 - B_IMAGE/A_IMAGE                                       
         1 -12.7943     61.8034     44.3821   6.7494295063e+01   6.2751134650e+01    0.5709584    0.4931524  68.98 0.0003994328    1.343    0.255
         2 -10.9691     14.3208     38.5872   9.3205680529e+01   7.0206418949e+01    0.7713577    0.5428013 -82.35  0.004225631    1.477    0.323
         3 -11.1625     73.7479     26.8317   5.3943238053e+01   6.3645437715e+01    0.8068812    0.6135695  15.26  0.003972188    1.581    0.367
         4 -12.0747     52.0461     36.9891   6.9174958289e+01   6.6049349436e+01    0.7937816    0.5102366  64.42  0.000593639    2.427    0.588
         5 -10.9647     18.6393     27.3361   8.6451670495e+01   7.2571207846e+01    0.6141973    0.3442627 -57.42  0.003082381    1.595    0.373
         6  -9.2725     31.7927     12.7395   6.8931941463e+01   7.4143757229e+01    0.2742992    0.2102769  34.83  0.001465331    1.342    0.255
         7 -10.3180     40.7938     21.0265   6.7687983515e+01   7.1157241816e+01    0.5400931    0.3965088  83.23  0.002535808    2.433    0.589
         8 -10.2292     35.5298     18.6035   6.9801897342e+01   7.2453130331e+01    0.4750105    0.3958926  32.37   0.00198053    1.231    0.188
         9 -11.3040     42.4677     15.4120   6.3296876130e+01   7.1924902843e+01    0.2981506    0.2359038  31.57 0.0002014469    1.246    0.198
        10 -10.9750     50.4294     22.1276   6.2546435318e+01   6.9276982900e+01    0.4069085    0.2973176 -20.14  0.001035541    1.525    0.344
        11 -12.3755    105.0478     21.1696   4.1048418396e+01   5.6746953212e+01    0.4171225    0.3328725 -24.53 0.0004936108    1.333    0.250
        12 -10.3804    131.4959     22.2266   3.5840612382e+01   4.9521661604e+01    0.4645267     0.307694 -16.93  0.002139357    1.720    0.419
        13  -8.8870    123.6245     22.7338   3.7546393971e+01   5.1586147869e+01    0.6821513    0.3428415 -73.01  0.002194194    3.609    0.723
        14 -10.8122     68.8697     17.0642   5.0679412741e+01   6.6293908395e+01    0.5645816    0.3463022  54.90  0.002637999    1.613    0.380
        15 -10.2549     69.8527     11.6292   4.7115458690e+01   6.6836850690e+01    0.3838901    0.2539394  48.31  0.001173403    1.418    0.295
        16 -11.2055     62.1798     16.8033   5.3461612442e+01   6.7818303524e+01    0.7074878    0.3517833  30.23  0.002625806    2.893    0.654
        17 -11.0957    151.9066     17.9678   3.1048952499e+01   4.4506527143e+01    0.5145501    0.3818401  -9.84 0.0003685572    1.567    0.362
        18 -10.8009    165.4173     19.1812   2.9753359977e+01   4.0807006603e+01    0.5474679    0.3030207  33.77   0.00177022    2.546    0.607
        19 -11.2921    218.4067     18.3433   2.4635720664e+01   2.8128207993e+01    0.5762294     0.338498 -65.05  0.001801012    1.719    0.418
        20 -11.3707    227.6272     15.4608   2.3292707633e+01   2.6437745965e+01    0.6246629    0.2904595  75.23  0.002690576    2.330    0.571
        21 -10.3991    237.9303     17.4965   2.3153483184e+01   2.4124013216e+01     0.332072    0.2423822   9.66  0.001381531    1.853    0.460
        22 -10.2325    243.7484     13.8270   2.1963848722e+01   2.3325219845e+01    0.3375396    0.1905132  37.82   0.00175086    2.752    0.637
        23 -11.3237    182.4412     18.3323   2.7644012279e+01   3.6555126452e+01    0.2940198    0.2824653 -35.99 0.0002836703    1.121    0.108
        24 -11.2592    175.4925     12.3270   2.6470826447e+01   3.8920000004e+01    0.7278374    0.5404596  60.86  0.003953653    1.395    0.283
        25  -9.0299    184.9346     13.4667   2.5945902323e+01   3.6433464934e+01      0.31322    0.1987499 -79.95  0.001506784    1.621    0.383
        26  -9.4436    143.5629     16.2078   3.1578083045e+01   4.6940887597e+01    0.3468038    0.2345672 -80.44 0.0008931737    1.583    0.368
        27  -9.1122     18.2489     12.4040   7.9801948900e+01   7.5922367201e+01    0.2392509    0.1951797  37.12  0.001232948    1.386    0.279
        28  -9.1143     13.8073     11.3799   8.3290333649e+01   7.6565012176e+01    0.2380022    0.1685352 -34.79 0.0006633885    1.294    0.227
        29 -10.8455      5.5036     15.8998   9.3080820928e+01   7.6131640209e+01    0.3982276    0.3158518  77.27  0.001781318    1.519    0.342
        30 -10.2086      9.9079     15.0118   8.8663856164e+01   7.6069428154e+01    0.3286609    0.2270083 -23.26  0.001352746    1.437    0.304
        31  -8.7725    127.4958     16.1521   3.4125147566e+01   5.1312286109e+01     0.346552     0.209601   8.73 0.0007831976    2.428    0.588
        32 -10.2247    117.0159     15.0573   3.5627463584e+01   5.4283943596e+01    0.3049819    0.2693999  40.94 0.0007396735    1.173    0.147
        33 -10.8181    210.5612     13.3285   2.3879929234e+01   3.0369169396e+01    0.7010273      0.28196 -14.94   0.00230176    3.153    0.683
        34 -11.1066    207.7183      3.4221   2.1423738520e+01   3.1946669467e+01    0.5389381    0.2668507 -50.76  0.002682601    1.756    0.430
        35 -11.2333    133.0838     12.6418   3.1785884242e+01   5.0167144707e+01    0.2663389    0.2615115  43.49 0.0002426962    1.102    0.093
        36 -10.7793    115.7243      2.1473   3.0144083158e+01   5.5934663778e+01    0.2873298    0.2578571  79.97 0.0003938744    1.035    0.034
        37  -9.2688    120.3132      2.0038   2.9349052262e+01   5.4688462594e+01    0.2500021    0.1964581 -77.68 0.0007934479    1.282    0.220
        38  -8.9318    111.3386      4.4208   3.1943225274e+01   5.6926963043e+01    0.2907732    0.1857305  16.18  0.001157067    2.009    0.502
        39 -10.1300     96.9484     12.9460   3.9191732438e+01   5.9894505832e+01    0.2971784    0.2488793  12.93 0.0004158748    1.328    0.247
        40 -10.5038    100.9831     10.9786   3.7225978116e+01   5.9052065064e+01    0.3380797    0.2831167 -74.64  0.001793005    1.291    0.225
        41 -10.3255    107.3755      7.0368   3.3930178769e+01   5.7750650946e+01    0.3768764      0.24338  64.27 0.0007981109    1.418    0.295
        42 -10.0733    107.0064      2.2813   3.1741173039e+01   5.8302839779e+01    0.5785698     0.296835  33.56  0.002317945    2.412    0.585
        43  -9.4147     50.8457     12.2222   5.6333790966e+01   7.0895100872e+01    0.3143913    0.1956324  37.52 0.0008927088    1.596    0.374
        44  -9.9784     54.7592      8.0531   5.1541314662e+01   7.0713753836e+01    0.4604863    0.4173264 -80.21  0.002516961    1.377    0.274
        45  -9.2436     48.9452      8.0303   5.4590345465e+01   7.1921641236e+01    0.2312106    0.1926407  44.43  0.000787377    1.196    0.164
        46 -10.2421    191.2354      6.2252   2.3301107978e+01   3.5582467339e+01    0.8204968    0.2223776 -22.93  0.002875111    3.486    0.713
        47 -10.7027    196.4066      3.4455   2.2144156738e+01   3.4590253532e+01    0.6675847    0.3234798  59.33   0.00313916    2.203    0.546
        48  -8.8238     75.7487     12.4008   4.5353441846e+01   6.5329838965e+01       0.1978    0.1591957  25.61 0.0006015286    1.299    0.230
        49  -8.4282     78.5912     10.3811   4.3218949897e+01   6.4890935276e+01    0.2684332    0.1173585 -39.57  0.001045786    2.426    0.588
        50  -9.2591     24.1836     11.5568   7.4190337275e+01   7.5417151069e+01     0.345552    0.1892595  11.65  0.001549136    2.428    0.588
        51 -10.7615     24.8553      7.1015   7.0705869172e+01   7.6192967433e+01    0.2143705    0.1992373  40.63 0.0003121136    1.273    0.215
        52  -9.8612     21.4996      5.4804   7.2516373885e+01   7.6940010824e+01    0.2590573    0.1826095   6.04 0.0008868026    1.536    0.349
        53  -9.6802    218.5010     10.8604   2.2709026365e+01   2.8840358119e+01    0.3255788    0.1964637 -67.99  0.001782046    1.633    0.388
        54  -9.7880    230.1514      8.1231   2.1345271784e+01   2.6607302087e+01    0.3827593    0.1905166  -1.45  0.001623546    3.437    0.709
        55  -9.7329    165.2789      1.6650   2.3978940833e+01   4.2552440035e+01    0.2482352     0.184734  74.70 0.0003113621    1.290    0.225
        56 -11.7368    156.0180      3.5194   2.5482008244e+01   4.4835475686e+01    0.4204162    0.2374318  57.23 0.0001413497    1.764    0.433
        57 -11.9715    160.0799      1.6669   2.4449779422e+01   4.3919473243e+01    0.6536495    0.3210419 -43.01  0.001433914    1.893    0.472
        58  -9.0764    120.2578      9.9894   3.2821649434e+01   5.3946147074e+01    0.2372859    0.1894059  84.63 0.0002219381    1.223    0.182
        59  -9.6946    123.2097      5.9334   3.0587566727e+01   5.3536523763e+01    0.3633075    0.2305306  34.65  0.001659249    1.835    0.455
        60 -10.3417     91.4548      8.6884   3.8453711796e+01   6.1816185979e+01    0.4875213     0.238185  48.31  0.002022628    1.939    0.484
        61  -9.3686     87.5602      6.4732   3.8319855803e+01   6.3068904891e+01    0.2360792    0.2037706  89.33 0.0005034961    1.236    0.191
        62  -9.8803      7.5030      9.3052   8.8367613610e+01   7.7503311225e+01    0.2456752    0.1875361  27.85 0.0008673241    1.447    0.309
        63 -10.1418      1.5345      8.4943   9.4161319588e+01   7.8008809799e+01     0.222861    0.1845214 -44.87 0.0005118967    1.026    0.026
        64  -9.6700    200.2403      8.4733   2.3288444741e+01   3.3217821484e+01    0.4101361     0.229473  52.75  0.002031018    2.065    0.516
        65  -8.8992    127.8071      8.2638   3.0839469786e+01   5.2052492315e+01    0.2992678    0.1253536  80.22  0.001062686    2.645    0.622
        66 -11.5725     79.4049      4.3357   3.9474246993e+01   6.5383367996e+01    0.3595696    0.2808248  52.87 0.0004196652    1.179    0.152
        67 -10.6867     73.6735      5.6769   4.2132271031e+01   6.6661133344e+01    0.3382697    0.2495321 -29.70 0.0004303655    1.418    0.295
        68 -11.1678     74.8016      2.5995   3.9885335320e+01   6.6721878339e+01    0.4460415    0.2762898  66.26 0.0006330233    1.600    0.375
        69  -9.6830    170.7869      6.0898   2.4929893363e+01   4.0724674218e+01    0.4065593    0.2409535  65.81  0.001276055    1.648    0.393
        70  -8.5136    184.5363      4.5161   2.3300272268e+01   3.7384996677e+01    0.2212687    0.1335275 -57.75 2.830217e-05    1.548    0.354
        71 -11.4034    178.0499      2.8502   2.3296021468e+01   3.9160933739e+01    0.4846485    0.2447993  62.50 0.0008455145    1.970    0.492
        72  -8.8960    185.5104      1.4864   2.2325299440e+01   3.7413823752e+01    0.2048389    0.1481204  52.36 0.0003321895    1.564    0.360
        73  -9.4271     98.3960      6.3758   3.5547024564e+01   6.0230312914e+01    0.2515895    0.2250743  10.13 0.0008318117    1.210    0.174
        74 -10.3281    238.0109      3.6234   1.9873521299e+01   2.5406152474e+01    0.3228115    0.2929119  37.97  0.001679539    1.429    0.300
        75  -9.5173    233.7762      2.5907   1.9827534051e+01   2.6360050702e+01    0.2085824    0.1328904 -73.52 0.0008812861    1.532    0.347
        76  -9.0374     62.0809      6.2226   4.6937562155e+01   6.9342905683e+01    0.2632831    0.2011204  77.85  0.001363053    1.626    0.385
        77 -11.6239     37.6002      4.6154   5.9122384374e+01   7.4606713846e+01    0.2905503    0.2445675   6.06 0.0005293713    1.148    0.129
        78  -9.1314     43.1616      1.3887   5.3099396618e+01   7.4033917360e+01     0.342358    0.1264958  50.48  0.001341276    2.679    0.627
        79 -10.6352    218.0370      2.6490   2.0635443095e+01   2.9700816687e+01    0.3393896    0.2521696 -77.97  0.001829074    1.296    0.228
        80 -10.7547     91.7544      2.5200   3.5105827083e+01   6.2372952711e+01    0.3917183      0.25446 -85.77  0.001279038    1.857    0.461
        81 -10.2221     30.6918      2.6852   6.2676592901e+01   7.6100917976e+01    0.2845775    0.1951962 -50.69  0.000933427    1.732    0.422
        82  -9.5642     13.3686      2.6127   7.8419952356e+01   7.8426534003e+01    0.2989846    0.2024419 -70.20  0.001615563    1.956    0.489
        83 -11.0185    249.8294      1.6251   1.8899934652e+01   2.3264678376e+01     0.179822     0.150288 -63.91 0.0003773899    1.161    0.139
        84  -9.0670     51.7213      2.4400   4.9163881575e+01   7.2123742057e+01    0.4659537    0.1268571  46.77  0.001577102    3.329    0.700
        85 -10.3915    135.2533      1.6513   2.7126160705e+01   5.0618547571e+01    0.3101509     0.186277  80.60 0.0009669741    1.584    0.369
        86  -8.9555     18.0142      2.0625   7.3324491768e+01   7.8018983848e+01    0.2020115    0.1342076 -17.52 0.0005568536    1.639    0.390
        87  -8.2518    146.2641      1.3710   2.5734309799e+01   4.7644051367e+01     0.143338    0.1016787  34.83 0.0003387376    1.659    0.397
        88  -8.4656     22.6877      1.2850   6.8312680654e+01   7.7553248449e+01    0.1151563    0.1033556  72.08 0.0006990434    1.577    0.366
        89  -9.4248      5.3538      1.4151   8.6478592861e+01   7.9351816893e+01    0.2038077    0.1144699   4.96 0.0006808609    1.912    0.477
        90  -8.4978    140.4471    111.7881   6.2603023554e+01   3.2032901810e+01    0.1984977    0.1424931 -29.08 0.0003744182    1.544    0.352
        91 -10.0491    201.3595    249.5518   7.4104344679e+01   1.8750525847e+00     0.197193    0.1345443  15.95 0.0008347206    1.009    0.009
        92 -10.5750    115.8347    248.2264   8.9509089062e+01   1.2106946114e+01    0.2247196    0.1815729  25.96  0.001277877    1.138    0.121
        93  -9.0978     16.3853    108.1544   1.0281462037e+02   5.2196818233e+01    0.1990571    0.1206755 -84.12 0.0003611337    1.518    0.341
        94 -10.9018     21.0138    110.1710   1.0126260110e+02   5.1336049707e+01    0.3787134    0.2980021  80.59    0.0011643    1.163    0.140
        95  -9.1847    231.4895    110.0010   4.5315034159e+01   1.4459935053e+01    0.1790443   0.08756987 -47.04 0.0008103374    2.557    0.609
        96  -9.9741    104.2087    109.1659   7.1856216528e+01   3.9940387830e+01    0.2613089    0.2230392  49.30 0.0002466764    1.135    0.119
        97  -8.9068    135.3337    109.3046   6.3258651648e+01   3.3594338088e+01    0.1530885    0.1177124   7.05 0.0006591915    1.663    0.399
        98  -9.9740     36.9229    106.8599   9.4856033413e+01   5.0753554448e+01    0.3416873    0.1709877 -48.13  0.000955302    2.205    0.546
        99  -9.2407     91.8830    106.3573   7.5049402150e+01   4.2904911866e+01    0.2731738    0.2115113 -46.04 0.0003196565    1.360    0.265
       100 -10.4082     31.7190    105.8922   9.6719303517e+01   5.1516497554e+01    0.5871963    0.2438691 -39.34  0.002061632    3.605    0.723
       101  -8.6458      8.3382    106.1230   1.0569524882e+02   5.3234461278e+01    0.2704094   0.09272805 -71.37  0.001090755    2.517    0.603
       102 -10.0803     47.5198    104.6312   9.0470049545e+01   5.0145563898e+01    0.4275783     0.191949 -52.00   0.00171982    2.271    0.560
       103  -8.5799     43.6489    105.7304   9.2124023466e+01   5.0316248997e+01    0.2093426    0.1793477  84.31 0.0005582813    1.119    0.106
       104  -9.4147    132.0387    103.9974   6.2751916332e+01   3.5358294106e+01    0.2230553    0.2146242  43.99  0.000364475    1.021    0.020
       105 -10.2389    102.4821    101.8886   7.0593903846e+01   4.1921106870e+01    0.6684725    0.4080795  14.50  0.002395787    2.963    0.662
       106  -9.2576    100.6391     98.6094   7.0329025327e+01   4.3027709404e+01    0.2716342    0.2426998 -40.82 0.0006136461    1.176    0.150
       107 -10.4337     70.7938    101.9038   8.1264625983e+01   4.7589520592e+01    0.3602793    0.2755568 -63.00  0.001063484    1.315    0.239
       108  -9.1781     85.0084    102.0186   7.6304636928e+01   4.5171966597e+01    0.1804239    0.1702945  52.51            0    1.026    0.026
       109 -10.1549     78.7898    100.5789   7.8113784239e+01   4.6601170521e+01    0.4074225    0.3718197 -19.80  0.002188445    1.246    0.197
       110 -10.2528     56.7281    100.8038   8.6261201735e+01   4.9941330607e+01    0.3536671    0.2403508 -47.32  0.001697105    1.566    0.361
       111 -10.4954     43.7993     99.6362   9.1067784956e+01   5.1870230721e+01     1.035834    0.2141316  25.44  0.002841425    5.054    0.802
       112  -9.2464     42.5281     96.5050   9.1035856830e+01   5.2825199729e+01    0.3042958     0.165033 -61.18 0.0009554847    1.735    0.424
       113  -8.7897     23.2997    100.0527   9.9305869341e+01   5.3765325996e+01    0.1956548     0.159477 -88.32 0.0004104523    1.128    0.113
       114 -11.5959    117.6499     98.0099   6.5071746506e+01   3.9665703029e+01    0.2798484    0.2591269  29.95 0.0003013477    1.096    0.087
       115  -9.4987      5.9431     98.0843   1.0606621827e+02   5.5420930920e+01    0.4990757    0.1637832  20.48  0.002014325    3.024    0.669
       116 -10.1587      2.8853     92.8161   1.0694511122e+02   5.6920773442e+01    0.4814051     0.195349  48.34  0.001508356    2.386    0.581
       117  -9.9701      2.3462     86.1056   1.0671234984e+02   5.8667597977e+01    0.4799563     0.184017 -68.96  0.001906986    2.224    0.550
       118  -9.6272      3.1638     79.2471   1.0582283857e+02   6.0399943980e+01    0.4273586    0.1905925 -63.40  0.001566841    1.966    0.491
       119 -10.1615    140.4415     95.4505   5.8374199075e+01   3.5212071292e+01    0.4957609    0.2428557 -50.71  0.001866489    2.354    0.575
       120 -10.0242    124.5828     96.7192   6.2797588679e+01   3.8449448964e+01    0.4248986    0.2627894  60.46  0.001755029    1.942    0.485
       121  -8.6347     93.7330     78.6603   6.6965126580e+01   4.8925486426e+01    0.2258283    0.1353911 -26.21 0.0003220244    2.556    0.609
       122  -9.4319     90.9342     83.5314   6.9384845109e+01   4.8393198746e+01    0.3156224    0.2091752 -35.35  0.001002842    1.751    0.429
       123 -10.0857     84.7519     94.1976   7.4459540366e+01   4.7083425141e+01    0.3813881    0.2858462  74.00 0.0007628526    1.632    0.387
       124  -8.9937     80.3561     94.7121   7.6139784502e+01   4.7749576279e+01    0.3048176    0.2061758  54.91 0.0008642967    1.588    0.370
       125 -10.3839     85.8090     89.4073   7.2825241802e+01   4.8020856818e+01    0.5296183    0.3571396 -27.15  0.001854875    2.026    0.506
       126  -9.1852     87.0029     83.7225   7.0815634782e+01   4.9120923104e+01     0.231288    0.2174132 -81.20 0.0003602954    1.087    0.080
       127  -9.5941     20.1059     81.7672   9.8333586397e+01   5.8774830798e+01    0.4278911    0.1902924  38.13  0.001859664    2.216    0.549
       128 -10.7911     32.4281     92.7336   9.4569785979e+01   5.4865722945e+01    0.4750898     0.381956 -49.85  0.001765269    1.286    0.223
       129 -11.2395     25.6856     88.1601   9.6760810994e+01   5.6666598171e+01    0.8963834    0.3679437 -49.37  0.002641687    2.506    0.601
       130 -10.0943     17.4482     91.1841   1.0069715225e+02   5.6509111422e+01    0.4473177    0.2381117 -18.18  0.000831709    2.670    0.625
       131 -10.5054     47.5415     92.6809   8.8291874227e+01   5.3217714926e+01    0.3832155    0.2674836  82.12  0.001847753    1.616    0.381
       132  -9.3392     44.3877     87.8866   8.8654306132e+01   5.4836688806e+01    0.2492518    0.1614279 -48.88  0.001023068    1.577    0.366
       133  -9.8562    134.1404     91.9865   5.8982697123e+01   3.7293520319e+01    0.4567615    0.2521327  30.76  0.001704129    2.452    0.592
       134  -9.6599    107.2644     91.7284   6.6415432513e+01   4.3213423515e+01    0.4079759    0.2615402 -30.84  0.001534457    1.951    0.488
       135  -8.6190    104.2547     90.4051   6.6975740856e+01   4.4133012599e+01     0.198141    0.1436473  53.48 0.0001537845    1.409    0.290
       136 -10.7796     58.2350     88.4090   8.3024369007e+01   5.2874086792e+01    0.6936635    0.4078885  80.01  0.002108973    2.670    0.625
       137  -9.0000     52.4828     90.5148   8.5830592517e+01   5.3138462019e+01    0.2671725    0.1641788  86.00 0.0008345698    2.138    0.532
       138  -9.1036     70.8673     91.1354   7.8733435699e+01   5.0239192748e+01     0.233731    0.1954455  75.62 0.0006533862    1.294    0.227
       139  -9.2531     39.7281     88.4836   9.0752528920e+01   5.5217480185e+01    0.3720407    0.1637283 -57.66  0.001520099    2.087    0.521
       140 -10.7480    132.7254     81.6379   5.6350676912e+01   3.9628121997e+01    0.6671755    0.4074761   0.35  0.002056651    4.165    0.760
       141 -11.1145    123.8768     86.6306   6.0150659901e+01   4.0669696715e+01    0.7971542     0.421858  40.09  0.002363324    1.985    0.496
       142 -10.8106    120.8137     83.6349   6.0110952094e+01   4.1968477538e+01    0.6353929    0.3253614  46.50  0.002286588    1.915    0.478
       143 -10.1301     97.6385     88.6852   6.8608223942e+01   4.5876079564e+01    0.3250873    0.2652285  55.31  0.001605306    1.242    0.195
       144  -8.4713      6.7632     88.9242   1.0503102132e+02   5.7735828776e+01    0.1772128    0.1301416  61.74 0.0005227817    1.308    0.236
       145  -8.7266     14.3437     87.8473   1.0165980533e+02   5.7583457695e+01    0.2020379    0.1031474 -66.03 0.0009406739    1.745    0.427
       146  -9.6156    110.7193     85.2484   6.3509030311e+01   4.3875433077e+01    0.2876432    0.2410315  38.99  0.000713959    1.196    0.164
       147 -11.1674     80.1817     83.4534   7.3209106231e+01   5.0472795868e+01    0.5861654    0.3461375  26.79  0.000690837    2.048    0.512
       148 -11.1911     73.1349     80.4503   7.5036730289e+01   5.2455914797e+01    0.7138968    0.3868856 -36.49  0.001737767    2.392    0.582
       149  -9.8742     65.6300     85.8534   7.9439823306e+01   5.2390861988e+01    0.3480073    0.2791623  -2.66  0.001717022    1.573    0.364
       150  -9.8704    155.0714     85.0376   5.2136849991e+01   3.3809548911e+01     0.260714    0.2515176 -13.16 0.0003398569    1.040    0.039
       151 -10.7301    155.3508     79.3788   5.0461032583e+01   3.4730548216e+01    0.4970242     0.353603  36.91 0.0009262974    1.535    0.349
       152  -9.7963    150.0511     80.2161   5.1841913750e+01   3.5829739437e+01    0.3656386     0.249789 -72.25  0.001322703    2.137    0.532
       153 -10.4665    141.5673     84.2150   5.4943457600e+01   3.7085748862e+01     0.635392    0.2727948  54.03  0.001618404    2.433    0.589
       154  -9.9736     64.3699     62.1670   7.3025509483e+01   5.8319352833e+01    0.7198321       0.4014  17.33  0.002606845    2.953    0.661
       155 -10.7635     45.3341     68.9380   8.3850146711e+01   5.9557496181e+01    0.5538006    0.2972304 -52.93 0.0003250302    1.759    0.431
       156 -10.6665     51.6147     82.6061   8.4425302367e+01   5.5270773685e+01    0.3460274    0.2951908 -57.76 0.0007823719    1.146    0.127
       157 -13.1147     52.9470     74.6109   8.1852136387e+01   5.7103300017e+01    0.8426761    0.4239501 -66.54  0.001048675    2.124    0.529
       158  -8.8953     44.5438     79.7871   8.6866347825e+01   5.6901363589e+01    0.3552926    0.2167466 -33.81  0.001559857    2.043    0.511
       159 -10.6588     38.9086     81.4824   8.9748077717e+01   5.7121389302e+01    0.3180003    0.2971881  34.36 0.0004415455    1.122    0.109
       160 -11.5284    167.4982     77.5372   4.7514382564e+01   3.2197719342e+01    0.4818369    0.3407833 -10.04 -0.0006769347    1.773    0.436
       161 -10.4156    165.2068     71.3705   4.6175389301e+01   3.3732200430e+01    0.3848184    0.2851255 -34.84  0.001147543    1.315    0.240
       162  -9.1372    177.4789     78.4496   4.5953231173e+01   2.9757861786e+01    0.1422515    0.1354534  -5.23 5.706977e-05    1.063    0.059
       163  -9.5267     74.7817     66.0223   6.9936066398e+01   5.5541186878e+01    0.2704443    0.2427396  17.03 0.0006508092    1.206    0.171
       164  -9.8149     82.3887     61.9827   6.5552172957e+01   5.4939726968e+01    0.3687421    0.3394134 -42.27  0.001675298    1.100    0.091
       165  -9.7305     77.4334     61.9081   6.7457523048e+01   5.5953164082e+01    0.3171675     0.263029 -13.28 0.0007715065    1.446    0.308
       166 -10.4022     87.8619     67.6173   6.5471902144e+01   5.2581706871e+01    0.6897783    0.3522918  41.54  0.001020924    1.963    0.490
       167 -10.6938     88.6870     73.4394   6.7091346023e+01   5.1126280790e+01    0.7011533     0.472797 -25.88  0.001247172    1.979    0.495
       168 -10.0926     94.4125     71.6797   6.4517574705e+01   5.0317746767e+01    0.5028487    0.4102724 -53.94   0.00210461    1.259    0.206
       169  -8.9007     12.8206     78.1252   1.0122933456e+02   6.0206499350e+01     0.183674    0.1362392 -54.09 0.0002589967    1.310    0.237
       170  -9.8981    142.0245     76.0356   5.2408700042e+01   3.8479006502e+01    0.3516864    0.2312884 -83.13  0.001348178    2.585    0.613
       171  -8.7405    145.4640     75.4709   5.1452901448e+01   3.7758652905e+01    0.2205905    0.1475298  65.95 0.0001378532    1.695    0.410
       172  -9.7424    110.2653     75.9323   6.0796603470e+01   4.5932297545e+01    0.4723364    0.3025324 -40.10  0.002052543    1.617    0.382
       173  -9.6668    134.2072     76.0220   5.4276118403e+01   4.0343402449e+01    0.4503348    0.2174343  67.73  0.001378444    3.647    0.726
       174  -9.4064    100.0267     75.1792   6.3770783143e+01   4.8356205146e+01    0.2476096    0.2172638 -49.40 0.0006643519    1.158    0.136
       175  -9.9804     63.4902     74.5757   7.7271430884e+01   5.5507092294e+01    0.4687669    0.2764316  54.30  0.001965615    1.998    0.500
       176  -9.8443     32.4068     47.5718   8.4435868125e+01   6.6399037297e+01    0.2411389    0.2210993  50.02  0.001426462    1.181    0.153
       177 -10.4315     29.1144     74.9681   9.2996231736e+01   5.9802781195e+01      0.36466    0.2296292 -47.64 0.0008125481    1.589    0.370
       178 -10.1095     29.9821     68.8555   9.1339618274e+01   6.1301445360e+01    0.4164062    0.2678397 -64.71  0.001453303    1.428    0.300
       179 -11.0425     25.1649     67.7122   9.3535636287e+01   6.2030058144e+01    0.4331012    0.3432595 -36.06 0.0004677336    1.328    0.247
       180 -10.6018     22.8477     63.6235   9.3919494406e+01   6.3274860168e+01    0.4886256    0.2385032 -51.09  0.001254105    1.904    0.475
       181 -12.3821     25.0066     56.1250   9.1084466986e+01   6.5007155554e+01    0.4392744    0.2710356 -61.99 0.0009089746    1.462    0.316
       182 -10.3933     19.5270     55.5362   9.4049381132e+01   6.5600247426e+01      0.40132    0.2649618  71.33  0.001085642    1.770    0.435
       183  -9.4975     18.7904     73.0550   9.7665515591e+01   6.1139545957e+01    0.3346061    0.2554342 -74.45  0.001874611    1.194    0.162
       184 -10.2242    174.9710     75.0622   4.5456141134e+01   3.0860940164e+01    0.2138011    0.2090032 -23.03 0.0003493219    1.021    0.020
       185 -11.1820      9.6117     51.4533   9.9032916788e+01   6.7258735767e+01    0.7612934    0.4567707  36.37  0.003141122    1.796    0.443
       186  -9.1769    160.5607     72.5458   4.7409595623e+01   3.4647681111e+01    0.2157177    0.1322097 -43.85 0.0004803697    1.625    0.385
       187  -9.7458    157.1949     70.8979   4.7587375062e+01   3.5725732382e+01    0.2730854    0.2496612 -70.22 0.0002724242    1.146    0.127
       188  -8.8190    157.3254     67.6970   4.6598612376e+01   3.6219697003e+01    0.2086371    0.1850132 -62.97 0.0005361686    1.173    0.147
       189  -9.1724      2.8380     72.8991   1.0542882933e+02   6.2050071277e+01    0.2011785     0.154664 -56.25 0.0004623403    1.249    0.200
       190  -9.9029    218.8543     69.9297   3.7674191355e+01   2.2043098008e+01    0.1881904    0.1844653 -32.75 0.0003262891    1.112    0.101
       191 -10.1740    173.4909     69.1076   4.4030354192e+01   3.2127459343e+01     0.250824    0.2483837 -86.96 0.0004222174    1.040    0.038
       192  -9.1508    145.9238     70.1078   4.9711354909e+01   3.8587541336e+01    0.2397226    0.2045327 -76.14  0.000840712    1.312    0.238
       193 -10.7552    141.3909     68.0358   5.0075459167e+01   4.0053087679e+01    0.4652813    0.3608381   8.09  0.001495837    1.682    0.405
       194  -9.1270    102.1152     69.9148   6.1376155146e+01   4.9011055600e+01    0.2434659     0.212617 -81.92 0.0009973396    1.284    0.221
       195 -11.7925      2.4311     66.0789   1.0498467193e+02   6.3821318608e+01    0.3574275    0.3325454 -85.31 0.0007829144    1.058    0.055
       196 -11.4563      3.6171     59.8339   1.0367884964e+02   6.5380686171e+01    0.6004221    0.4804221  25.34  0.002314263    1.384    0.278
       197  -9.3547    119.7385     67.4220   5.5291513293e+01   4.5422332590e+01    0.2864039    0.2587817 -15.34 0.0006385442    1.215    0.177
       198 -10.5475     15.2317     64.8882   9.8167239100e+01   6.3494859720e+01    0.5232732    0.2564901 -23.84  0.001542813    2.695    0.629
       199 -10.1589     35.0536     53.7348   8.4836774050e+01   6.4593909947e+01    0.8352025    0.7034196 -41.62  0.004727649    1.158    0.136
       200  -8.6802     36.4581     67.4581   8.7791254737e+01   6.0994185566e+01    0.1395706    0.1320842 -79.54 3.915867e-05    1.031    0.030
       201  -8.9496    215.0498     65.9878   3.7156117527e+01   2.3329448770e+01    0.1921579    0.1671815 -37.98  0.001185984    1.040    0.038
       202 -10.1340    127.0729     57.4953   4.9981963624e+01   4.5440198096e+01    0.5372318    0.2719806  64.88  0.001784994    2.344    0.573
       203 -10.6351    134.8071     64.2513   5.0384366312e+01   4.2334708644e+01    0.4072231    0.3455037  39.52 0.0008391715    1.226    0.184
       204  -9.9864    132.5359     60.0514   4.9526736748e+01   4.3631414229e+01    0.3589039    0.3322801  20.65  0.000836558    1.172    0.147
       205  -8.7490     64.8072     69.1523   7.5094254346e+01   5.6597136964e+01    0.1985004    0.1756495 -16.01 0.0004254298    1.267    0.211
       206  -9.9669     97.8393     64.1507   6.0804947499e+01   5.1160878857e+01    0.2469605     0.233712 -36.72 0.0002645102    1.086    0.079
       207  -9.0712    147.5247     64.0044   4.7454577889e+01   3.9230907108e+01    0.2321473    0.1483943 -33.96  0.001025271    1.573    0.364
       208  -9.6738    123.9761     62.6015   5.2530090804e+01   4.5296273045e+01    0.2781257    0.2278869 -74.29 0.0003914013    1.409    0.290
       209  -8.6509    102.3285     62.6691   5.8818360040e+01   5.0443967395e+01    0.1618242    0.1560558  22.49 0.0003551517    1.077    0.071
       210 -10.0066    102.7618     59.0772   5.7392034431e+01   5.1054822442e+01    0.3838322    0.2860364  26.40            0    1.612    0.380
       211  -9.6929     61.2767     52.0378   7.0803147041e+01   6.1174236449e+01    0.3825428    0.2403009 -49.15  0.001718149    1.567    0.362
       212 -10.2466     54.0968     60.8397   7.7289627656e+01   6.0312453986e+01    0.3810616    0.2768038 -83.08  0.000377742    1.728    0.421
       213 -11.9634     56.3301     56.7710   7.4861521370e+01   6.0924541634e+01    0.4888591    0.3332489  59.37 0.0002594155    1.817    0.450
       214  -9.2886    193.9752     60.3477   3.8404502285e+01   2.8651629062e+01    0.2640826    0.1668916 -45.23 0.0005805748    1.515    0.340
       215  -8.9308    175.9707     61.3083   4.1364783300e+01   3.2709439293e+01    0.1944586    0.1921244 -79.06  0.001098095    1.042    0.041
       216 -10.2362    161.2294     60.5340   4.3671620872e+01   3.6401657582e+01    0.2937388    0.2460924  36.97  0.001529453    1.296    0.228
       217 -10.1580    155.0539     60.2369   4.4742608455e+01   3.7975174308e+01    0.3279522    0.2924932  87.54 0.0009792737    1.173    0.147
       218  -9.5321     71.7141     60.3985   6.9257637611e+01   5.7393772724e+01    0.3547591    0.2926766   7.62  0.001772163    1.448    0.309
       219  -9.0122     94.4229     59.8577   6.0425367394e+01   5.2804424723e+01    0.3179592    0.2006581  31.96  0.001317178    1.888    0.470
       220  -9.6883    143.8904     58.6822   4.6510013485e+01   4.1015850248e+01    0.4007159      0.15014  43.93  0.001231646    3.190    0.687
       221 -10.7789    225.8936     55.4598   3.3329690628e+01   2.2422625213e+01    0.2511657    0.1900716 -44.61 0.0003083297    1.190    0.160
       222  -9.2864    136.5131     56.4593   4.7386409991e+01   4.3242045708e+01    0.2596162    0.1533187 -20.26 0.0007698378    2.179    0.541
       223  -9.1540    167.7652     56.1873   4.1195578206e+01   3.5448272362e+01    0.1992029    0.1718179  19.60 0.0007632493    1.333    0.250
       224 -11.4088     68.5338     48.3335   6.6049073342e+01   6.0639047560e+01    0.8148697    0.5462963 -53.34   0.00278771    1.564    0.361
       225  -8.6653     57.0230    249.0106   1.0122195735e+02   1.8628121698e+01     0.125117   0.08767343  40.75 0.0009301828    1.002    0.002
       226  -9.5259     95.4977     52.5375   5.7308611862e+01   5.4013512708e+01    0.2661704    0.2292784  34.75 0.0007325487    1.198    0.166
       227 -10.1065     44.2794     54.4333   8.0094667529e+01   6.3272120982e+01    0.4166066    0.3198542  53.65  0.002161175    1.455    0.313
       228 -10.1630     46.4946     47.3280   7.6428640765e+01   6.4638366287e+01    0.5504609    0.3282703  -1.75  0.001276152    3.013    0.668
       229  -8.6682     98.6509     54.6952   5.7088856885e+01   5.2865149541e+01    0.1589174    0.1216806  15.26 0.0002439795    1.700    0.412
       230 -10.7647    193.7990     51.6333   3.6026485306e+01   2.9856183821e+01    0.4723702    0.3138265   9.51  0.001541045    2.194    0.544
       231  -8.6791    105.8539     53.2245   5.4262664205e+01   5.1436283346e+01    0.2140096     0.183415  17.45 0.0009864785    1.342    0.255
       232 -10.7751    181.6013     51.4556   3.7635268133e+01   3.2752956101e+01     0.394429    0.3367044  79.75  0.002205821    1.227    0.185
       233 -10.7836    153.5810     48.2480   4.1165141093e+01   4.0174997927e+01    0.5254375    0.3907645  -7.68  0.002015686    1.654    0.396
       234  -9.6476    145.9376     52.2987   4.3971977779e+01   4.1516487939e+01    0.2195911    0.1938309  65.01  0.001149264    1.124    0.110
       235  -9.7571    175.7349     48.7595   3.7691766902e+01   3.4542789594e+01    0.3886645    0.2294976 -14.59  0.001302321    2.113    0.527
       236  -9.0355     92.5240     54.4951   5.9079431113e+01   5.4309957620e+01    0.2878282       0.2383  42.16 0.0009033819    1.202    0.168
       237 -11.0045    136.5371     49.4317   4.4957519220e+01   4.4375315911e+01    0.3619337    0.2816243  73.62 0.0001950183    1.343    0.256
       238  -9.2425    122.9875     50.4857   4.8503609265e+01   4.7670228644e+01    0.6391115    0.1643506  59.24  0.001657022    4.470    0.776
       239 -10.6483    127.9702     48.0131   4.6388872474e+01   4.6805435384e+01    0.3830773    0.2874395 -41.67 0.0003989621    1.343    0.256
       240 -10.3569    125.6019     44.7947   4.5762706775e+01   4.7930739596e+01    0.4990282    0.2880611  57.69   0.00055622    1.676    0.403
       241  -9.7880     86.6071     49.5024   5.9235365369e+01   5.6623091976e+01    0.5044311      0.25371  39.25   0.00193401    2.154    0.536
       242 -11.2150    159.5636     54.3994   4.2065622687e+01   3.7748597012e+01    0.5907843    0.2604766  64.76  0.002199989    2.459    0.593
       243  -7.8006     22.8398     46.9032   8.9974512603e+01   6.7505153814e+01    0.4071444    0.3358338  25.02  0.002217148    1.296    0.228
       244 -10.3724     17.0303     46.6569   9.3501276818e+01   6.8020985728e+01    0.4778247    0.2453943 -68.02  0.001438102    1.757    0.431
       245  -9.0154     30.9931    248.2438   1.0632939085e+02   2.1319465252e+01    0.1425688   0.06507418  31.76  0.000884252    1.599    0.375
       246 -10.9688      9.6528     31.7644   9.4669326333e+01   7.2155612950e+01    0.3039796    0.2571915   5.25 0.0003263141    1.273    0.214
       247 -11.1321      7.2075     35.8125   9.7458794700e+01   7.1291199217e+01    0.4893924    0.3901721 -36.34  0.002081873    1.206    0.171
       248 -10.2926      4.7619     31.7881   9.8314130579e+01   7.2385175802e+01    0.3506634    0.2272075 -64.15 0.0008729054    1.332    0.249
       249  -8.8075    228.0828     48.8224   3.1487067542e+01   2.2763980076e+01     0.285659    0.1066353 -46.52  0.001190492    2.572    0.611
       250  -9.4419    142.5441     49.4368   4.3692915564e+01   4.2828998424e+01    0.2842068    0.2319119  80.12 6.049464e-05    1.289    0.224
       251  -9.8648    145.8582     46.3853   4.1989882826e+01   4.2436400986e+01    0.2561415     0.251719  20.66 0.0004884637    1.085    0.079
       252  -9.0039    201.5075     47.9589   3.4069651980e+01   2.8564139014e+01    0.2883675    0.1440845  31.83  0.001059005    3.583    0.721
       253 -11.0192     79.5113     43.9423   5.9628941779e+01   5.9270617313e+01    0.7161898    0.5330433 -28.26  0.002565241    1.476    0.323
       254  -9.0776    162.5560    246.5033   8.0491826640e+01   6.6991114558e+00    0.1093571   0.07834017  23.50 4.612828e-05    1.031    0.030
       255 -10.1160     74.1924     34.8886   5.7715377485e+01   6.2136368750e+01    0.4838881     0.357496 -50.35  0.001534116    1.458    0.314
       256  -9.7731     77.9146     34.2065   5.5890731719e+01   6.1437013835e+01    0.3745492    0.3127407  84.43   0.00100284    1.465    0.317
       257 -10.2893     80.3214     31.3615   5.3607562575e+01   6.1384535891e+01    0.6011287    0.4292156 -89.21  0.002635048    2.132    0.531
       258  -8.4859    235.2156     47.3768   3.0481899359e+01   2.1508646101e+01    0.1515493    0.1134456 -81.56 0.0004431609    1.554    0.357
       259 -10.2239    115.0785     45.6563   4.8736851935e+01   5.0486071962e+01    0.3812468    0.2697849  50.73  0.000743467    1.377    0.274
       260  -8.9264     38.5605     47.0190   8.0699418765e+01   6.5798939308e+01    0.2138292    0.1309631 -57.33  0.000499953    1.551    0.355
       261  -9.4376      3.6398     46.0079   1.0178345592e+02   6.8895693355e+01    0.2898383    0.1466397 -42.37 0.0003733456    1.892    0.471
       262  -9.1520    164.2389     46.5999   3.8804670251e+01   3.7701304903e+01    0.2051874    0.1307577  52.89 0.0009244496    1.601    0.375
       263  -9.6212    185.5945     43.4188   3.4748689469e+01   3.2852820795e+01    0.2681593    0.2264899  19.80 0.0005907947    1.408    0.290
       264  -9.9131    103.1037     40.5463   5.0066048457e+01   5.4351379264e+01     0.706975    0.2579809 -41.88  0.002381965    2.797    0.642
       265  -9.2757     86.8574     43.1184   5.6500682422e+01   5.7787768696e+01    0.2192219    0.2011088 -81.78 0.0003163059    1.198    0.165
       266 -10.2398     91.0502     41.4513   5.4308410802e+01   5.7118329839e+01    0.5739223    0.3883821  69.22  0.001256266    1.797    0.444
       267  -9.8315     86.8297     34.8145   5.2844894363e+01   5.9276521242e+01    0.7444419     0.501399  -1.78   0.00309895    2.272    0.560
       268  -9.1811    107.6203     43.7739   5.0061326891e+01   5.2680596842e+01     0.348874    0.2108854  45.18 0.0008640374    1.670    0.401
       269  -9.4272    108.1998     40.1960   4.8449714222e+01   5.3130447594e+01    0.2907575    0.2092355 -38.04 0.0004689351    1.419    0.295
       270  -9.0382     93.7523     37.9558   5.1888880489e+01   5.7084979144e+01    0.2641431    0.2028521 -21.21 0.0002821269    1.462    0.316
       271 -11.3594     97.3862     34.9664   4.9418617861e+01   5.6692601247e+01    0.4082238    0.3255768 -67.83 0.0005109697    1.472    0.321
       272  -9.6918    244.3161     45.0953   2.9173600090e+01   2.0011641032e+01    0.3128165    0.1710503  40.04   0.00160596    2.556    0.609
       273  -9.1283     72.0486     42.2267   6.1949038189e+01   6.1189509888e+01    0.2896996    0.2148684  12.37 0.0007687652    1.759    0.431
       274  -8.8359     46.3378     41.7016   7.4312629278e+01   6.5943629544e+01     0.358311      0.18506 -40.45  0.001509055    2.036    0.509
       275 -10.4965     27.8956     42.6980   8.5578628227e+01   6.8059338763e+01    0.2455783     0.212194 -89.56 0.0002335881    1.280    0.219
       276  -9.1223     25.1418     38.6251   8.5975236964e+01   6.9312348058e+01    0.4697045    0.1745282 -40.01  0.001697595    3.103    0.678
       277 -10.6641    228.1705     39.7896   2.9261574863e+01   2.3775170109e+01    0.4062414    0.2931906 -12.91  0.002378734    1.491    0.329
       278  -8.6248    201.0241     43.0000   3.2774655187e+01   2.9286476837e+01    0.2216211   0.09916818  53.60 0.0006383508    2.400    0.583
       279  -9.4179    203.7765     39.6111   3.1551792693e+01   2.9067243090e+01    0.2441074    0.1700048 -37.81 0.0003359894    1.272    0.214
       280  -9.9582    143.8142     41.2193   4.0595222323e+01   4.3722125397e+01    0.3269069    0.2419136  75.60 0.0007606504    1.401    0.286
       281  -8.7267     34.6813     41.8065   8.1102314467e+01   6.7513430171e+01    0.2882513    0.1735674  -3.66  0.001235169    2.418    0.586
       282  -8.6869      2.0886     41.8676   1.0212581554e+02   6.9987837558e+01    0.1802763    0.1589813  69.68 0.0002734939    1.211    0.174
       283  -9.5322    222.8254     40.7946   2.9987376728e+01   2.4769828390e+01    0.2073461    0.1789922 -38.16  0.000440432    1.028    0.027
       284  -8.4538    165.5635     40.2558   3.6581194601e+01   3.8228419850e+01    0.1987183    0.1414832 -10.83 0.0009392953    1.676    0.403
       285 -10.1347    158.7565     39.1839   3.7292823556e+01   4.0116153481e+01    0.3535145    0.2236541  80.70 0.0009832015    1.768    0.434
       286  -9.5855    127.0820     39.9143   4.3586130185e+01   4.8299882302e+01    0.4595331    0.2163924  68.14  0.001666987    2.405    0.584
       287  -9.9846     40.1306     39.4510   7.6939129980e+01   6.7351239786e+01    0.2102394    0.1951571 -23.43 0.0004439763    1.046    0.044
       288  -9.3955    238.6904     37.6575   2.7881682532e+01   2.1901135053e+01    0.2743674    0.1781008  22.57  0.001465793    2.298    0.565
       289  -8.3644    236.6786     35.2958   2.7476476941e+01   2.2551216988e+01    0.1660645    0.1117779 -68.33 0.0001987642    1.598    0.374
       290  -9.0502    120.8985     39.1299   4.4724882465e+01   5.0033941967e+01    0.2301197    0.1976065 -75.55 0.0003334401    1.248    0.199
       291  -9.0646      1.4655    244.0184   1.1195250946e+02   2.4557068126e+01    0.1319629   0.08320317  75.17 0.0004280096    1.530    0.346
       292  -9.2805     54.6491     32.1034   6.5494797187e+01   6.6592260331e+01    0.2882218    0.2349019 -11.53  0.001269457    1.364    0.267
       293 -10.1160    178.9855     36.7867   3.3630792294e+01   3.5301063231e+01    0.4004825    0.2664414  45.64  0.001457107    1.694    0.410
       294  -8.5225    148.9982     38.4892   3.8696911596e+01   4.2748259984e+01    0.2229254    0.1429819  63.91 0.0009534304    1.529    0.346
       295  -9.1448    137.4680     37.4693   4.0483635836e+01   4.5923734283e+01    0.3793679    0.1827334  50.95 0.0009739093    2.056    0.514
       296 -12.1814    107.8959     29.1744   4.3885807471e+01   5.4903584595e+01    0.4958107    0.3999434   2.95  0.002462605    1.480    0.324
       297 -10.6207    113.7919     34.5993   4.4662911914e+01   5.2571192869e+01    0.6299524     0.412306 -46.23  0.001726877    1.603    0.376
       298  -9.4950    118.3925     32.3364   4.2614221831e+01   5.1697822816e+01    0.3145466    0.2255789  24.98 0.0009130642    1.746    0.427
       299  -8.9411    164.0021     36.5031   3.5608447730e+01   3.9117813471e+01    0.2174995    0.1416975  71.06 0.0006456187    1.556    0.357
       300  -8.6315    131.7088     36.2921   4.1214927519e+01   4.7612746917e+01    0.2283658    0.2018021 -63.43 0.0002611289    1.151    0.131
       301  -9.3673    129.6099     33.2215   4.0484177554e+01   4.8601280087e+01    0.2827404    0.2382765 -21.87 0.0007316063    1.277    0.217
       302  -9.8171    133.2506     31.4914   3.9088718000e+01   4.7868061938e+01    0.4751399    0.2877015 -16.76  0.002016763    1.992    0.498
       303  -8.9139    134.3061     27.6867   3.7438553902e+01   4.8085273919e+01    0.3547225    0.1754931 -20.16  0.001360195    2.391    0.582
       304  -9.0283    242.1530     34.3904   2.6851749861e+01   2.1575475813e+01    0.1953788    0.1452487 -21.98 0.0005046411    1.278    0.218
       305  -9.4235     60.8835     34.3624   6.3440844154e+01   6.4975429468e+01    0.2916795    0.1951229 -51.52 0.0005472381    1.602    0.376
       306  -8.4300     61.3438     30.3132   6.1231153513e+01   6.5662962079e+01    0.1469527    0.1429868   7.01 0.0003572742    1.025    0.025
       307  -9.3067     19.0943     34.2347   8.8595558537e+01   7.0907104338e+01    0.2459375    0.1499995 -41.08 0.0007926745    1.562    0.360
       308  -8.3719     44.0063    244.0000   1.0358393472e+02   2.0734892849e+01     0.176701   0.04585616  28.96 0.0007920801    2.871    0.652
       309  -8.8532    145.8277     34.1944   3.7751282697e+01   4.4163011292e+01     0.378111    0.1809389  54.10  0.001506764    2.028    0.507
       310  -9.9426    226.0213     33.2118   2.7814480827e+01   2.4943943458e+01    0.4012038    0.1570186  65.60 0.0006448624    2.730    0.634
       311  -8.1890    207.6926     33.3064   2.9457114997e+01   2.8911405318e+01    0.1407679   0.08616318 -55.80  0.000701808    1.609    0.379
       312  -9.0444    159.3180     32.6828   3.5049924580e+01   4.0815989913e+01    0.2792605    0.1778596 -60.25 0.0008494572    1.713    0.416
       313 -10.5426    153.5702     32.1136   3.5739420606e+01   4.2391928350e+01     0.432349    0.2511199  79.46            0    1.899    0.473
       314  -8.6674    190.0627     32.5747   3.1062879747e+01   3.3104068773e+01    0.1955484    0.1327231  76.92   0.00100065    1.542    0.351
       315  -8.5238     29.2603     32.4705   8.0927987307e+01   7.0316903750e+01    0.2728346    0.1687048 -67.86  0.001124394    1.800    0.444
       316 -10.7508     37.1688     26.5082   7.2947705655e+01   7.0602660415e+01    0.4939964    0.3119247 -25.53 0.0005152676    1.894    0.472
       317 -10.0472     32.4932     27.0372   7.6324733050e+01   7.1131753584e+01     0.462463    0.3263455 -49.32  0.002083331    1.342    0.255
       318  -9.2373     24.5455     31.1182   8.3625791859e+01   7.1137974468e+01    0.2944597    0.2099403 -61.45  0.001599914    1.361    0.265
       319 -10.3934    247.9958     29.9129   2.5410044428e+01   2.0922554320e+01    0.2970952    0.1288063 -35.31  0.001381272    1.744    0.426
       320 -10.4099    234.0210     30.4919   2.6524844589e+01   2.3593008598e+01     0.358154    0.2045513  51.62  0.001123607    2.126    0.530
       321 -11.0421    145.7110     28.9300   3.5893216417e+01   4.4875437422e+01    0.5151575    0.2930701  52.43 0.0006791176    1.757    0.431
       322  -9.4868    125.3396     30.6443   4.0378185727e+01   5.0093084715e+01    0.2756873    0.2477466  31.99 0.0005995436    1.200    0.167
       323  -8.2856    220.3328     30.3115   2.7551628637e+01   2.6461765880e+01    0.1236538    0.0954294  25.95  0.000704392    1.677    0.404
       324  -9.4556    178.6483     29.7007   3.1516874766e+01   3.6239779603e+01    0.1952109    0.1819063  65.96 0.0009217523    1.138    0.121
       325  -9.7423    211.8323     27.1004   2.7431351531e+01   2.8668100617e+01    0.2957926    0.2311998   8.48  0.001441568    1.615    0.381
       326  -9.0775    189.3854     28.4498   2.9938070654e+01   3.3742665163e+01    0.3206943    0.1369784  76.14  0.001283382    2.597    0.615
       327  -9.9613    244.9423    242.2899   6.6352554491e+01  -2.0677922309e+00    0.2166573    0.1010138  22.12 0.0009377892    1.637    0.389
       328  -9.4408    145.8084    242.1773   8.3128171833e+01   9.2628266963e+00    0.1531828    0.1059914  13.15 0.0005643215    1.330    0.248
       329  -9.6950    102.3883    241.2042   9.1563191011e+01   1.4703601185e+01    0.1315705    0.1039728  80.95 0.0009599031    1.715    0.417
       330  -8.3882    206.6597    240.2751   7.2054906567e+01   2.2132539234e+00   0.09283978   0.06937432  33.83 0.0006998885    1.615    0.381
       331  -9.9904     48.2295     26.6034   6.6224849685e+01   6.8821115031e+01     0.371812    0.2258636  44.09  0.000886985    1.708    0.415
       332  -8.6313    167.7194    237.3469   7.8478561907e+01   7.1587383723e+00   0.09869441   0.07619753  44.69  0.000478333    1.640    0.390
       333  -9.2149    161.2644     26.4564   3.2694781200e+01   4.1068087512e+01    0.2624709     0.131296  64.43 0.0008518354    1.919    0.479
       334  -8.7855    101.2138     25.8871   4.4219355696e+01   5.7105040225e+01    0.2563083    0.1945825  47.69 0.0006665083    1.281    0.219
       335  -9.9595    187.5571    235.4869   7.4686635722e+01   4.9564174885e+00    0.2298356   0.08184312  32.19  0.001070532    2.160    0.537
       336 -10.5475      2.6485     24.5402   9.8217513203e+01   7.4221403293e+01    0.4016001    0.1889201 -55.59  0.001756081    1.734    0.423
       337  -9.4122    232.4618     23.3740   2.4913289659e+01   2.4646352632e+01    0.3863633    0.1800626 -77.10  0.001757865    2.822    0.646
       338 -10.4679    172.1823     23.3435   3.0300949106e+01   3.8602739993e+01    0.5428224    0.2945213  72.36  0.001684088    1.838    0.456
       339  -8.3921    228.3618    234.2701   6.7771261402e+01   3.9271249357e-01     0.107435   0.05728279   9.42 0.0004713365    1.651    0.394
       340  -8.8745     32.0391    232.3004   1.0554657427e+02   2.3822315059e+01    0.1557997    0.1050037  41.80 0.0004026228    1.072    0.067
       341 -10.8995     85.7910     22.2675   4.7170951002e+01   6.1515700650e+01    0.5356743    0.3036723  67.36 0.0007128351    2.024    0.506
       342  -9.6202    187.3309    230.6228   7.4094629946e+01   5.5353679370e+00    0.2213001   0.07905839  26.67  0.001070023    2.517    0.603
       343  -9.3580     71.9676     14.9643   4.8232287162e+01   6.5882754158e+01    0.2276038    0.1969001 -89.06 0.0004162457    1.377    0.274
       344  -8.9703    177.9668    231.0000   7.5818800459e+01   6.6481367843e+00    0.1869018   0.04897698  33.76 0.0008047526    2.959    0.662
       345 -11.0565     62.2456     22.4549   5.6652856509e+01   6.6884194648e+01    0.3703787    0.3299572  25.40  0.001052904    1.098    0.089
       346  -8.2489      3.3302    230.2856   1.1137720554e+02   2.6685986132e+01    0.0865916   0.07790645  -3.86 0.0002909374    1.615    0.381
       347 -10.2736    153.6482     22.8783   3.2532784097e+01   4.3491961182e+01    0.2612228    0.2343492 -83.64 0.0003814595    1.061    0.058
       348  -8.7980    163.2568    227.0068   7.8034405179e+01   9.0047744783e+00    0.1226878    0.0951171 -29.19 0.0005604794    1.533    0.348
       349 -10.2693     26.2080     22.8341   7.8780834763e+01   7.2818292047e+01    0.2296505    0.1968067 -42.76 0.0002177464    1.088    0.081
       350  -9.7419    205.4222     20.9462   2.6319824749e+01   3.0771965705e+01    0.3487509    0.1744688 -58.08  0.001607964    2.044    0.511
       351  -9.0659    188.2432     21.5699   2.8040353604e+01   3.4779926774e+01    0.2576101    0.1764906 -28.13 0.0008690867    1.410    0.291
       352  -8.4223    207.4232    226.4936   7.0077930966e+01   3.5652575419e+00    0.1095244   0.07735133  10.90 0.0001382004    1.042    0.040
       353  -9.3429    160.5442     19.0074   3.0287883086e+01   4.2101841262e+01    0.3562481    0.1743274 -47.84 0.0007414111    2.022    0.505
       354  -8.3058    143.6678    226.3208   8.1747888899e+01   1.1638731555e+01    0.1130361   0.07699934  49.14 0.0007049334    1.698    0.411
       355  -8.7683    223.8864    224.9220   6.7171245542e+01   1.8099615941e+00    0.1618768    0.1030359   7.27 0.0005694905    1.228    0.186
       356  -8.9865    132.1502    225.1627   8.3926061329e+01   1.3307417611e+01    0.1541462    0.1151702  42.69 0.0003977058    1.298    0.230
       357  -8.4627    125.5121    225.5081   8.5321022990e+01   1.4122253472e+01    0.1190793   0.09020153  31.37 0.0005448038    1.028    0.027
       358  -9.2103    199.7087     18.9028   2.6234407165e+01   3.2312086431e+01    0.3208738    0.1695295 -22.62  0.001519309    1.886    0.470
       359  -9.5142     89.2704    220.7670   9.2537497147e+01   1.9489917485e+01    0.2426345     0.178858  16.84 0.0009017375    1.420    0.296
       360  -8.8129    175.4373    218.1125   7.4574309622e+01   8.5569274063e+00    0.1892627    0.1111262 -42.10  0.001164752    2.134    0.531
       361  -8.5797      2.4806    212.4964   1.1124316582e+02   2.9912363588e+01    0.1121048   0.07922829  50.77 2.658491e-05    1.017    0.017
       362  -9.3592    144.5193     20.5067   3.3023505504e+01   4.6205595498e+01    0.2983719    0.1740942 -67.17 0.0008878275    2.033    0.508
       363  -8.5363    117.9666    211.7822   8.5374519078e+01   1.7242382362e+01    0.1659788   0.08062045  32.43  0.000414647    1.631    0.387
       364 -10.1550    145.3046     12.6683   3.0023990018e+01   4.6842103103e+01    0.5143822    0.1966697  68.22  0.001294499    2.385    0.581
       365  -7.9910    193.6016     19.7361   2.7003997118e+01   3.3676562457e+01    0.1357353   0.09563669  41.83 0.0006972534    1.722    0.419
       366  -9.6703     14.0242     18.7623   8.6646787791e+01   7.4917896064e+01    0.4971065    0.2198627  -8.64  0.001839655    3.748    0.733
       367  -8.4143     20.2207     17.6061   8.0885343337e+01   7.4608425588e+01    0.2570499    0.1234573  14.00    0.0011125    2.531    0.605
       368  -8.9139    242.7970    210.0728   6.2067759221e+01   1.1483804342e+00    0.1459101    0.1163388   1.89 0.0006705084    1.290    0.225
       369  -8.4793    230.6393    209.7082   6.3869017311e+01   2.5900724587e+00    0.1139254   0.06330872   7.37  0.000702851    1.697    0.411
       370  -8.3813    194.6919    209.3176   6.9810129375e+01   7.1234205795e+00   0.09924734   0.08552195  41.32  0.000599901    1.635    0.388
       371  -9.1128    124.0025    206.0180   8.3378538261e+01   1.7346438800e+01    0.1764393    0.1424414  27.73            0    1.035    0.033
       372  -8.2614     95.3122    205.3386   8.9708563932e+01   2.1365413704e+01    0.1181965   0.09055766  -3.95 0.0004907852    1.692    0.409
       373  -8.5042    221.4593    198.5758   6.3599899381e+01   4.9248676154e+00    0.1128511   0.08349942   7.26 9.706347e-05    1.015    0.015
       374  -8.5970     96.0216    195.7216   8.8506055380e+01   2.3004428535e+01     0.181056    0.1364431  35.29  0.000392746    1.090    0.082
       375  -9.2365      7.3016    194.7758   1.0976964684e+02   3.2923981936e+01    0.2925985    0.1384155  42.29  0.001709877    1.545    0.353
       376  -8.9185    195.2545     15.2520   2.5578605714e+01   3.3740897573e+01    0.1844723    0.1307817 -58.49 0.0003525495    1.303    0.233
       377 -10.0484      6.7512    175.2345   1.0935576008e+02   3.6992962588e+01     0.290034    0.1524867  40.47 0.0008101898    1.503    0.335
       378  -9.3239     87.4396     13.8864   4.2325290637e+01   6.2238305463e+01    0.6248944    0.1657772  57.81   0.00164864    3.214    0.689
       379  -9.0085     18.1718    174.4302   1.0637696838e+02   3.6250127064e+01    0.2202274    0.1129147  18.63   0.00113506    2.104    0.525
       380 -10.4080      7.3358    166.4919   1.0892435958e+02   3.8844777434e+01    0.2038009    0.1808227  60.03 0.0003633695    1.129    0.114
       381 -12.9952     37.0089    159.1448   1.0030262720e+02   3.7903488430e+01     1.610201    0.2734226  47.37  0.002445459    4.656    0.785
       382 -10.5583      2.4751    155.5589   1.0989935894e+02   4.1630835404e+01    0.4669808    0.2469232 -75.21  0.002355779    1.878    0.468
       383  -9.6708    249.0408    153.9839   5.1707728403e+01   6.3931896342e+00    0.1786788    0.1370177  -7.35  0.000613803    1.012    0.012
       384 -10.3397     11.1567    151.8221   1.0729326579e+02   4.1874016526e+01    0.2356863    0.2059164  -6.61  0.001302809    1.458    0.314
       385 -10.1345     14.9140    150.4845   1.0613631248e+02   4.1898396620e+01    0.2295579    0.1413799  42.73 0.0005867739    1.392    0.282
       386  -8.7002     53.9709    150.6742   9.4562017629e+01   3.7987796920e+01    0.1889963       0.1566  45.36 0.0004391533    1.083    0.077
       387 -10.0366     24.6486    163.0918   1.0405354664e+02   3.8187686086e+01    0.2114662    0.1677835  29.40 0.0003527691    1.273    0.215
       388  -9.1925     62.8109    146.9920   9.1489305615e+01   3.7743223261e+01    0.3117845     0.184149 -83.46  0.001077327    1.946    0.486
       389  -8.3218    205.5506     12.5297   2.4022432020e+01   3.1591161900e+01    0.1339207    0.1092755 -53.68 0.0002059575    1.063    0.059
       390  -8.1115      1.2741    160.2854   1.1036648316e+02   4.0648586476e+01    0.1053017   0.08748883 -53.01 0.0001821332    1.507    0.336
       391  -9.4480     10.3444    147.0982   1.0731761768e+02   4.3034085313e+01    0.2238748    0.1701626  -8.39  0.001172571    1.732    0.423
       392  -9.1884      4.9117    144.3207   1.0881388955e+02   4.4061918178e+01    0.3165292    0.1589277 -36.98  0.001370187    3.032    0.670
       393  -9.7144    240.3950    143.2205   5.0885410245e+01   8.8748882526e+00     0.295485    0.1651527 -48.91  0.001474537    2.936    0.659
       394  -9.4124     28.9891    144.2090   1.0150910534e+02   4.2184244286e+01    0.1780631    0.1520601  48.56  0.001104557    1.086    0.079
       395  -9.1133     41.9734    143.0032   9.7392648858e+01   4.1174498773e+01    0.2019447    0.1538828 -35.49 0.0004091864    1.675    0.403
       396  -8.2909     38.4684    143.4485   9.8521106602e+01   4.1437475437e+01    0.1353734    0.1151677  60.45 3.344013e-05    1.028    0.027
       397  -9.2560     12.3353    143.0019   1.0652306545e+02   4.3855436009e+01    0.1796487    0.1447123  75.90 0.0004699733    1.090    0.083
       398  -9.4931      1.8978    139.5932   1.0954701018e+02   4.5368268903e+01    0.2584262    0.1232928  70.26 0.0009664471    1.855    0.461
       399 -10.0627     41.3856    138.0881   9.7073881710e+01   4.2426719694e+01    0.3051948    0.1352888  43.67  0.001336762    1.990    0.497
       400  -8.2980     20.9793    137.0535   1.0348043018e+02   4.4612164131e+01     0.155176    0.1303058  74.79 0.0003541091    1.056    0.053
       401  -9.2609    235.9780    136.5513   5.0206823977e+01   1.0353100892e+01    0.1585217    0.1125858  38.46 0.0004989115    1.529    0.346
       402  -8.3258     82.9923    136.0112   8.3782464563e+01   3.7431871691e+01    0.1715444    0.1560892  49.96 0.0003816516    1.012    0.012
       403  -9.5420     58.3130    135.8797   9.1421558687e+01   4.0971937173e+01    0.2652335    0.2300845 -40.13 0.0003568352    1.352    0.261
       404  -9.8262     59.7866    131.8636   9.0391493675e+01   4.1757340630e+01    0.4353711    0.2713023  41.16  0.002130704    1.470    0.320
       405 -10.9231      6.1713    132.6677   1.0793968246e+02   4.6759107721e+01    0.5816256    0.2523501  39.47  0.002756384    1.971    0.493
       406  -8.0863     20.3055    131.3069   1.0328671978e+02   4.6073236620e+01    0.1268501   0.09439546 -44.20 0.0003910961    1.606    0.377
       407  -8.3667     86.9803    130.0295   8.1520463530e+01   3.8191507170e+01    0.1765748    0.1574364  45.21 0.0003705806    1.048    0.046
       408  -9.2545     42.1103    129.9711   9.5945575742e+01   4.4344322476e+01    0.2447231    0.1870182  39.55  0.001358354    1.234    0.189
       409  -9.9706     34.1524    126.9397   9.8281259394e+01   4.5922929677e+01     0.385194    0.2122503 -81.87  0.001562214    1.797    0.444
       410 -10.0335     39.0887    123.5145   9.6212714913e+01   4.6280905259e+01    0.3571606    0.2383916  -2.77  0.001479006    2.069    0.517
       411  -9.6124     18.1991    128.0421   1.0374607870e+02   4.7045962313e+01    0.3129249    0.2281068 -53.60  0.001567526    1.525    0.344
       412  -9.0578     12.0995    127.6310   1.0574718024e+02   4.7595044311e+01    0.3153817    0.1313603 -62.74  0.001403587    2.357    0.576
       413  -9.8294     50.6716    126.4484   9.2639848326e+01   4.4239391869e+01      0.23309    0.2107655  76.17 0.0001833754    1.037    0.036
       414  -8.9219    241.5096    124.0336   4.6914399089e+01   1.1052845253e+01    0.1880634   0.09972598 -29.16  0.001033832    1.597    0.374
       415 -10.4882     61.7004    121.3090   8.8143645603e+01   4.4099621696e+01    0.3784444     0.274372 -46.56 0.0001710596    1.537    0.349
       416  -9.9846      7.7225    122.3638   1.0691363837e+02   4.9186416322e+01    0.2890576    0.2233019 -28.79  0.001716397    1.620    0.383
       417  -8.8571     84.1581    122.1366   8.0910112199e+01   4.0510330958e+01    0.2187612    0.2014424 -20.80 0.0006050939    1.244    0.196
       418 -10.6270     44.6804    119.5309   9.3760472340e+01   4.6675883531e+01    0.3692253    0.2314523  41.44 0.0006344565    1.495    0.331
       419 -10.6289     33.3405    113.6963   9.7082483146e+01   4.9354255441e+01    0.4765232    0.2271684  60.98  0.001491951    2.350    0.574
       420  -9.6875     32.8631    118.0582   9.7764064313e+01   4.8287841981e+01     0.229826     0.187354 -25.16  0.000476454    1.511    0.338
       421  -9.5167     30.3207    121.0467   9.8986960650e+01   4.7770398093e+01    0.3289083    0.1834862  47.34  0.001176919    1.670    0.401
       422  -9.6887     28.1059    116.3657   9.9284942227e+01   4.9159645518e+01    0.3656545    0.2046195 -89.71  0.001170065    1.789    0.441
       423 -11.3713     21.5947    118.8811   1.0185175279e+02   4.9072408194e+01    0.5085729    0.3454401  51.31  0.002786126    1.364    0.267
       424  -9.9329    221.4291    119.3500   4.8772339476e+01   1.4947117489e+01    0.3048353    0.2108016  27.55  0.001422926    1.533    0.348
       425  -8.8524     94.1263    119.1319   7.7181862064e+01   3.9518678926e+01    0.2252975    0.2027756   0.55 0.0006959586    1.274    0.215
       426 -10.0700      4.4596    116.6404   1.0773502624e+02   5.0804017028e+01    0.4191991    0.3154717 -17.83  0.001910169    1.676    0.403
       427 -10.0580     13.5979    113.1485   1.0425208064e+02   5.1116601706e+01    0.2914607    0.2010127  26.56 0.0008716308    1.498    0.332
       428  -9.8887     11.4773    116.6646   1.0526366560e+02   5.0369725047e+01    0.5930759    0.1921707  65.56  0.002082716    3.543    0.718
       429 -10.4545      6.9633    110.7405   1.0650697548e+02   5.2142659295e+01    0.5864109     0.170562  40.10  0.002054328    2.887    0.654
       430  -9.0645    104.1831    115.1360   7.3254496973e+01   3.8598717733e+01    0.2154578     0.201427   8.37 0.0003731741    1.156    0.135
       431  -9.4756     46.6726    114.0908   9.2279372020e+01   4.7826820248e+01    0.2592371    0.2093104  18.57 0.0006627463    1.369    0.270
       432  -8.2025     76.6552    113.7046   8.1695173702e+01   4.3755650152e+01    0.1477567     0.116438 -15.94 0.0007032185    1.668    0.400
