#   1 NUMBER                 Running object number                                     
#   2 MAG_AUTO               Kron-like elliptical aperture magnitude                    [mag]
#   3 X_IMAGE                Object position along x                                    [pixel]
#   4 Y_IMAGE                Object position along y                                    [pixel]
#   5 X_WORLD                Barycenter position along world x axis                     [deg]
#   6 Y_WORLD                Barycenter position along world y axis                     [deg]
#   7 A_WORLD                Profile RMS along major axis (world units)                 [deg]
#   8 B_WORLD                Profile RMS along minor axis (world units)                 [deg]
#   9 THETA_WORLD            Position angle (CCW/world-x)                               [deg]
#  10 FWHM_WORLD             FWHM assuming a gaussian core                              [deg]
#  11 ELONGATION             A_IMAGE/B_IMAGE                                           
#  12 ELLIPTICITY            1 - B_IMAGE/A_IMAGE                                       
         1 -15.4923     45.1509    202.1238   1.3102765531e+02   2.8410021475e+01     11.48041     4.507331  74.43   0.05025797    3.531    0.717
         2 -13.1123    196.5460     33.4163   6.1292984859e+01   3.1614581079e+01     1.176006     1.104595  36.39  0.006262681    1.124    0.110
         3 -13.9864    210.9461     16.6098   5.4684797046e+01   2.9886333749e+01       1.7604     1.171983  26.90  0.008477361    1.986    0.496
         4 -11.3689      2.1041     13.2905   1.1273518386e+02   7.1787207349e+01    0.4850956    0.1648654 -58.66  0.002301174    2.786    0.641
         5 -10.2811      1.8226      4.2797   1.0916249451e+02   7.3370896323e+01    0.3516429    0.1043425 -48.38  0.001754186    2.373    0.579
         6  -8.3628    104.9463     39.7858   8.2321439350e+01   5.3275515134e+01    0.1731889     0.112487  45.99 -0.000430966    1.554    0.357
         7 -11.4041    184.8793    249.5596   1.1112213770e+02   6.4471648083e-01    0.4822966    0.1393725  35.81  0.001965713    3.400    0.706
         8 -11.9690     93.2269    249.3593   1.2642958165e+02   1.4260518864e+01    0.4059853    0.2467041  64.33  0.002802438    1.442    0.306
         9 -11.2320     31.3193    249.0572   1.3618736843e+02   2.1865006663e+01    0.3879116    0.2026424  50.95  0.002883932    1.415    0.293
        10 -11.4018     39.0744    246.7361   1.3488944503e+02   2.1383728707e+01    0.4650879    0.2694361  87.67  0.003505285    1.549    0.354
        11  -9.0648     16.9318    250.0616   1.3836586399e+02   2.3200004417e+01    0.1198094    0.1092422 -83.39  0.001128557    1.716    0.417
        12 -11.4969      3.0843    247.9114   1.4028697319e+02   2.4876362881e+01    0.4675063    0.2328505  70.91  0.002374297    1.419    0.296
        13 -10.2165      1.7758    237.1826   1.4010211566e+02   2.6707579071e+01    0.2926098     0.102955 -78.17  0.001861149    2.510    0.602
        14 -12.2045     14.4356    240.7766   1.3835466621e+02   2.4920647045e+01    0.6364031    0.2176307  56.28  0.004000462    2.044    0.511
        15  -9.9643      9.9442    235.9951   1.3883501439e+02   2.6134938558e+01    0.1685928    0.1198645  81.55 0.0004544942    1.189    0.159
        16 -11.2084     54.9741    238.6291   1.3189740635e+02   2.0850476168e+01    0.3821802    0.2023248  81.08   0.00191389    1.849    0.459
        17 -11.0542     21.0683    234.9047   1.3708272370e+02   2.5216241879e+01    0.2056076    0.1476853 -74.18   0.00151547    1.610    0.379
        18 -13.9499     10.4765    206.9738   1.3744780657e+02   3.1096812519e+01     1.546563    0.7422472 -89.68  0.009118419    1.719    0.418
        19 -11.6170     60.7607    192.7472   1.2727510175e+02   2.8331488835e+01    0.3134434     0.242961 -47.20  0.001631808    1.822    0.451
        20  -9.4763    191.8004    192.7852   1.0142478351e+02   7.0094038593e+00    0.3084662     0.152521 -58.53  0.001084629    4.914    0.796
        21  -8.4772    181.5139    192.4542   1.0330408515e+02   8.9211271849e+00    0.1309841    0.1127969  34.49 8.228396e-05    1.008    0.008
        22 -11.7251     66.7096    185.4681   1.2537288450e+02   2.9003137147e+01    0.2533218     0.213914 -61.90 0.0007964988    1.405    0.288
        23  -9.6104    249.4828    230.4946   9.7780668028e+01  -7.0317654000e+00    0.1140936   0.08352359  18.30 0.0001068237    1.011    0.011
        24 -10.9386     76.7500    173.7362   1.2195469123e+02   3.0029231878e+01    0.2228083    0.1925748 -80.28 0.0005035864    1.151    0.131
        25 -13.2206     63.6305    171.0808   1.2444683909e+02   3.2330843336e+01    0.4511063    0.2575368 -48.17   0.00159842    2.264    0.558
        26 -11.9747     84.2322    164.8658   1.1916511993e+02   3.0809238096e+01    0.7173254    0.4884259  62.71  0.004070363    1.425    0.298
        27 -12.6947     67.4205    144.0204   1.2008983427e+02   3.7666337267e+01    0.8680933    0.5270506  85.09  0.003298127    1.940    0.484
        28 -11.8397     58.2152    133.2562   1.2076397206e+02   4.1243862624e+01     1.955888    0.6409954 -76.78  0.004325793    9.748    0.897
        29 -10.1052    160.7989    249.5976   1.1515907186e+02   4.3311431057e+00    0.1695306   0.08121464  48.38 0.0009581503    1.713    0.416
        30  -8.9838    100.5748    145.6071   1.1237176466e+02   3.2391794734e+01    0.2359241    0.1522646 -34.19  0.001096349    2.201    0.546
        31 -12.0145     85.9619    148.5944   1.1635180443e+02   3.4042209299e+01    0.2689258    0.2298344 -53.15  0.000415998    1.276    0.216
        32 -10.4124     42.0514    230.9836   1.3352581626e+02   2.3620887424e+01    0.2050693    0.1269539  72.87 0.0007718404    1.273    0.214
        33  -9.7681     97.5141    149.7310   1.1380714273e+02   3.1998970043e+01    0.2573706    0.2459158  83.70 0.0007804716    1.100    0.091
        34  -9.5210    109.3742    135.5709   1.0836763755e+02   3.3071953696e+01    0.2977313    0.2118648 -15.29  0.001342322    2.374    0.579
        35 -10.4873     96.4915    132.4882   1.1096039408e+02   3.5937796785e+01    0.2551264    0.2231303 -29.40  0.001008657    1.382    0.276
        36  -9.0972    106.6427    122.8484   1.0642393722e+02   3.6337167093e+01    0.1887211    0.1652715 -64.05 0.0003930281    1.102    0.092
        37 -13.8187     40.5426    216.3559   1.3285674072e+02   2.6326246568e+01    0.8057754    0.5595993  68.54  0.002732163    1.072    0.067
        38 -10.2202    167.7368    112.7528   8.9370535546e+01   2.5864464817e+01    0.3544998     0.287035 -79.84 0.0009605844    1.587    0.370
        39  -9.3144    203.9823    111.1516   8.1659820405e+01   1.7872540276e+01    0.3701567    0.1747246  32.34  0.001248212    3.122    0.680
        40 -12.5956     33.4508    225.1552   1.3459413837e+02   2.5564468510e+01    0.2751718    0.2284151  79.69 0.0007492862    1.273    0.214
        41 -11.6154    242.3118     93.7325   7.0939123289e+01   1.2078388651e+01    0.3249318    0.2937402  -4.53  0.001899377    1.087    0.080
        42  -9.3205      6.3202     84.3105   1.2794275997e+02   5.6989887647e+01    0.1190894    0.0673732 -47.97  0.000371858    1.646    0.392
        43 -10.8115    227.0897    202.8426   9.6869059861e+01  -4.9416115931e-01    0.3349991    0.2391017 -54.77 0.0008144782    2.393    0.582
        44 -11.4399    149.8621    228.9791   1.1456710341e+02   8.8448684516e+00    0.4290103    0.1393087  39.56  0.001850475    2.654    0.623
        45 -11.7300    126.4613    246.5882   1.2063106820e+02   9.9293090150e+00    0.3595441    0.1988937  63.63  0.002103532    2.041    0.510
        46 -11.9161    107.4461    244.8384   1.2367346186e+02   1.2953152799e+01     0.349183     0.240707  89.22  0.002312772    1.675    0.403
        47 -11.7402    139.5757    248.8000   1.1864553194e+02   7.6620692568e+00    0.3431323    0.2427244 -81.54  0.002334198    1.992    0.498
        48 -10.9830     12.0055    232.0165   1.3835507776e+02   2.6593909750e+01    0.2018139    0.1040232  53.10  0.001491748    1.447    0.309
