#   1 NUMBER                 Running object number                                     
#   2 MAG_AUTO               Kron-like elliptical aperture magnitude                    [mag]
#   3 X_IMAGE                Object position along x                                    [pixel]
#   4 Y_IMAGE                Object position along y                                    [pixel]
#   5 X_WORLD                Barycenter position along world x axis                     [deg]
#   6 Y_WORLD                Barycenter position along world y axis                     [deg]
#   7 A_WORLD                Profile RMS along major axis (world units)                 [deg]
#   8 B_WORLD                Profile RMS along minor axis (world units)                 [deg]
#   9 THETA_WORLD            Position angle (CCW/world-x)                               [deg]
#  10 FWHM_WORLD             FWHM assuming a gaussian core                              [deg]
#  11 ELONGATION             A_IMAGE/B_IMAGE                                           
#  12 ELLIPTICITY            1 - B_IMAGE/A_IMAGE                                       
         1 -18.0316    230.9340    142.5139   2.3953797028e+01   1.4412179228e+01      5.15831     3.545192 -51.16    0.0385705    1.077    0.071
         2 -10.3107    216.4271     38.1087   9.2067174295e+00   3.2094792088e+01    0.2996489    0.1362265 -46.97  0.001955087    1.863    0.463
         3 -11.2896    231.3964     24.0272   6.0495004595e+00   3.1568758151e+01    0.3797956    0.2920356 -35.25  0.003079132    2.300    0.565
         4 -10.6483    190.9132     14.0846   6.9885507351e+00   3.9133064441e+01    0.2685726    0.1701691 -72.01  0.002071413    1.100    0.091
         5  -9.3221    116.5827     12.0339   1.4052041899e+01   5.3424338470e+01    0.2478185    0.1728208  89.12  0.001702393    1.139    0.122
         6  -9.9861    120.4040      8.7967   1.2703120775e+01   5.2989652980e+01    0.3202026    0.2360809 -66.61  0.001332368    1.268    0.211
         7  -9.1607    101.5178      7.8131   1.5247606094e+01   5.6964080239e+01    0.2016918    0.1263433  73.49  0.000360267    1.254    0.203
         8 -10.6700    125.3300    126.4847   3.8572856394e+01   3.2537605310e+01    0.5751587    0.2291178 -62.18  0.002068713    2.986    0.665
         9 -10.1977    135.3064    113.4975   3.3848316337e+01   3.3570379227e+01    0.3969433    0.1847786 -56.03  0.001759231    2.019    0.505
        10 -10.3776    136.4953    109.2225   3.2754531485e+01   3.4227756801e+01    0.4367622    0.2817859  81.35  0.001755537    1.985    0.496
        11  -8.0253    166.7669    214.2722   4.4344210251e+01   8.0946659204e+00    0.1635033    0.1171307 -29.37 0.0002815043    1.287    0.223
        12  -9.2263     95.1164    181.8665   5.5929026451e+01   2.3866226329e+01     0.355802    0.2582955 -29.38 0.0009413569    1.562    0.360
        13 -10.7269     55.0789     92.9354   5.2222738784e+01   5.2142551494e+01    0.6268433    0.4330875  35.69 0.0007951332    1.374    0.272
        14 -11.3471     70.3073    101.0196   4.8583130741e+01   4.7816806320e+01    0.7224052    0.6894451  30.95  0.002721065    1.120    0.107
        15 -11.3397     63.1457     96.2288   4.9992563928e+01   5.0098213175e+01     1.060798    0.7752957   4.16  0.005052862    1.941    0.485
        16  -7.8633     80.9674    222.4991   6.5136945969e+01   1.5398605832e+01    0.2053439     0.132723  22.21 -0.0001699112    1.484    0.326
        17 -10.2497     34.6483     89.5872   5.9884344642e+01   5.5854789826e+01    0.6682072    0.3554784 -39.14   0.00284533    2.239    0.553
        18 -10.9633     29.6535     87.4471   6.1657855026e+01   5.6980479954e+01    0.8093263    0.6588187 -43.96   0.00450902    1.277    0.217
        19  -8.2238    178.2351    220.3274   4.3059210340e+01   5.8428308653e+00    0.1933639    0.1462885 -78.71  0.001183685    1.957    0.489
        20  -8.0764    113.0422     88.9818   3.3585404863e+01   4.2546767910e+01    0.1973349    0.1752368  84.29 0.0003457772    1.030    0.029
        21 -10.0690    162.3196     84.0758   2.3225367402e+01   3.4316932146e+01     0.328467    0.2600347  42.91  0.001804042    1.845    0.458
        22  -8.5332    153.9571     76.9181   2.3095874225e+01   3.7024640681e+01    0.1821163     0.148013 -78.86 0.0003179113    1.015    0.015
        23  -8.0457     33.5779    177.1539   7.4046517850e+01   3.2507199560e+01    0.2108949    0.1306179 -56.11 0.0004941577    1.596    0.373
        24  -7.9715    184.9231     66.4796   1.6950643281e+01   3.3245184175e+01    0.1496763   0.09974743  72.92 0.0004156217    1.512    0.339
        25  -8.6059     59.3126    199.6491   6.8542388000e+01   2.3591479869e+01    0.1610887    0.1053908  58.83 0.0007045792    1.724    0.420
        26  -8.9399     19.0777    198.6984   8.0701509073e+01   2.7786124950e+01    0.2534257    0.2038679 -64.78  0.000366475    1.259    0.206
        27  -9.3170    219.7695    197.1471   3.3174226839e+01   6.2627934311e+00    0.2960571    0.1701279  32.76  0.001526268    2.264    0.558
        28  -9.2159     18.7509    151.7169   7.6427145419e+01   4.1111949527e+01    0.3518971    0.1257343  20.52  0.001201851    2.696    0.629
        29  -8.6840    196.1450     52.1993   1.3248184490e+01   3.3447968975e+01    0.1651051    0.1169755 -54.55 0.0002937501    1.329    0.248
        30  -8.7793     69.8659    145.1560   5.7479403021e+01   3.6932606224e+01    0.3179337    0.1977018  46.49 0.0008960238    1.638    0.389
        31 -11.3921    119.4703    122.2822   3.9114938132e+01   3.4460213277e+01    0.5512838    0.4816562 -63.79  0.003216167    1.087    0.080
        32 -11.2596      7.7436    136.9043   7.9017016326e+01   4.6159069583e+01    0.5137039    0.4592634  54.43 0.0003534846    1.138    0.121
        33  -9.8308     74.5511    223.6903   6.6982941372e+01   1.5786663644e+01    0.2899189     0.223585 -37.68 0.0007971786    1.338    0.252
        34  -9.8034    121.0010    136.7791   4.1550430370e+01   3.0961489862e+01    0.4140941    0.1904476 -58.47  0.001203771    2.107    0.525
        35  -8.6105     86.8848     23.4967   2.2683419348e+01   5.8244629012e+01    0.1822637    0.1550369 -71.34  0.001276236    1.245    0.197
        36  -8.3098    103.0219     24.0444   1.9479685109e+01   5.4844621290e+01    0.1741896    0.1397529  82.98 0.0003800169    1.024    0.024
        37  -7.5601     80.8575     34.8154   2.7582536915e+01   5.8013126566e+01    0.1614601    0.1254933  87.52   0.00032513    1.283    0.221
        38  -9.9178     58.8965    205.3657   6.9315500816e+01   2.2122165576e+01    0.2582525    0.2045259 -89.55  0.001312448    1.374    0.272
        39  -7.6231     85.4928    118.9696   4.7586701980e+01   4.1067530299e+01    0.1975823    0.1404804 -57.73 -0.0001283707    1.396    0.284
        40  -9.2776    106.8925    128.2786   4.3439465214e+01   3.5258999155e+01    0.2604441    0.1920522 -71.80   0.00102796    1.383    0.277
        41 -10.0635    129.6978    109.3463   3.4200287216e+01   3.5407082886e+01    0.4778155    0.1722258  46.51  0.001500604    2.906    0.656
