#   1 NUMBER                 Running object number                                     
#   2 MAG_AUTO               Kron-like elliptical aperture magnitude                    [mag]
#   3 X_IMAGE                Object position along x                                    [pixel]
#   4 Y_IMAGE                Object position along y                                    [pixel]
#   5 X_WORLD                Barycenter position along world x axis                     [deg]
#   6 Y_WORLD                Barycenter position along world y axis                     [deg]
#   7 A_WORLD                Profile RMS along major axis (world units)                 [deg]
#   8 B_WORLD                Profile RMS along minor axis (world units)                 [deg]
#   9 THETA_WORLD            Position angle (CCW/world-x)                               [deg]
#  10 FWHM_WORLD             FWHM assuming a gaussian core                              [deg]
#  11 ELONGATION             A_IMAGE/B_IMAGE                                           
#  12 ELLIPTICITY            1 - B_IMAGE/A_IMAGE                                       
         1 -14.1140    164.9213     51.4581   7.5537282389e+01   3.7614941014e+01     1.756949     1.272892  17.51  0.006175252    1.996    0.499
         2 -13.9891    178.0625     35.3733   6.8991146817e+01   3.6591333293e+01    0.8828601    0.8494439 -73.71  0.003454052    1.139    0.122
         3 -12.2869    189.7643     14.9848   6.2276383290e+01   3.6155184335e+01    0.2912919    0.2280305 -79.78 0.0009318134    1.170    0.146
         4 -13.7180    197.6915      4.3287   5.8903652939e+01   3.5393029463e+01    0.8759072    0.4875467  72.13  0.004238776    1.505    0.335
         5 -12.6483    193.5288    192.6703   1.0406468440e+02   3.7581565881e+00    0.8891538    0.4874872 -52.69  0.002868231    2.132    0.531
         6 -18.9183     52.8314    242.3661   1.4052285645e+02   1.7733676482e+01     6.692125     6.060811  81.56   0.04898208    1.330    0.248
         7 -10.9031    208.8862    197.4155   1.0189897899e+02  -8.8600261571e-04     0.229885    0.1894169 -47.72  0.000548825    1.325    0.246
         8  -9.7737    160.6555    198.2918   1.1214013875e+02   8.9928953095e+00    0.1484113    0.1122816  73.23 0.0005492193    1.659    0.397
         9 -11.1254    154.3600    196.4957   1.1319345173e+02   1.0586108535e+01    0.3071225    0.2476843  87.03  0.001212397    1.501    0.334
        10 -10.6175    198.5648    222.7725   1.0867540397e+02  -2.6226503602e+00    0.2367155    0.1688424  36.74  0.000387139    1.291    0.225
        11 -19.0305     38.5779    106.6101   1.2591353479e+02   5.0612455613e+01     17.22126    0.7318943 -60.20   0.02471139   19.700    0.949
        12 -10.9678    167.7368    189.0119   1.0882948586e+02   9.5333823063e+00    0.3287641     0.238438 -47.85 0.0009423263    1.428    0.300
        13 -12.0879     19.1922    214.1933   1.4448514701e+02   2.7641132870e+01     0.221448    0.1512712  63.99 0.0009159796    1.251    0.201
        14 -11.2770    205.7493    180.5623   9.9134925672e+01   3.7374695062e+00    0.3814146    0.2911001  46.01   0.00144531    1.360    0.265
        15 -11.1466    208.8106    178.5970   9.8119637873e+01   3.5235033590e+00    0.3634634    0.3065223  17.71  0.001978436    1.239    0.193
        16 -10.4108      4.4241    214.5528   1.4722756116e+02   2.9051617064e+01    0.1132598   0.09624021  83.51 0.0008555501    1.268    0.211
        17 -10.8794    163.0149    210.6671   1.1385486527e+02   6.0465130523e+00    0.2978815    0.1991438 -58.17  0.001080066    1.732    0.423
        18 -11.9208    195.8813    170.2576   9.8974872226e+01   7.7220376068e+00    0.6492281    0.3816884 -46.43  0.002778429    1.702    0.413
        19 -10.7883    193.8190    164.9354   9.8256292455e+01   9.2250031793e+00    0.3842751    0.3090065 -65.23  0.001261761    1.441    0.306
        20 -13.9052     12.5043    205.9793   1.4512824338e+02   3.0098944020e+01    0.5227133    0.2759503  37.07  0.003077827    2.093    0.522
        21  -9.8184    220.7504    229.4762   1.0556953964e+02  -7.4063713644e+00    0.2496316   0.09848361 -51.01 0.0008789704    4.461    0.776
        22 -10.9945     23.8986    166.0748   1.3904452091e+02   3.8043092757e+01    0.2174793    0.1867901  16.55 0.0006131054    1.600    0.375
        23 -10.5533    120.1370    163.7157   1.1491980517e+02   2.4661648209e+01     0.249338     0.203896 -78.35 0.0005743253    1.280    0.219
        24  -9.5056    223.3144    163.6214   9.2172894583e+01   3.5726291367e+00    0.1463653    0.1122627 -72.83 8.425715e-05    1.804    0.446
        25 -10.5471    115.2428    162.2348   1.1584198350e+02   2.5942511571e+01    0.2113705    0.1719887  85.07  0.000488596    1.333    0.250
        26  -9.0926     25.2708    162.3549   1.3829672612e+02   3.8786266440e+01    0.1270244   0.08053686 -51.52 0.0004771023    1.638    0.389
        27  -9.5744     12.7207    160.3252   1.4100719320e+02   4.0397799865e+01    0.3943394    0.1572071  17.96  0.001684596    4.205    0.762
        28 -10.5646    158.3401    204.5147   1.1377281581e+02   8.1606956673e+00    0.3345872    0.2215766  68.65  0.001483512    2.081    0.519
        29 -10.3233      9.8627    153.4555   1.4094134142e+02   4.2226806031e+01    0.2632426    0.1794605   6.32  0.001583703    2.233    0.552
        30 -12.9302    134.0782    145.8754   1.0764108833e+02   2.6100819799e+01     1.345832    0.3449588 -54.82  0.003106007    5.596    0.821
        31 -10.4590    174.7897    148.9192   9.8753277373e+01   1.6657589435e+01    0.2905161    0.2183246 -65.46 0.0007821076    1.527    0.345
        32 -12.3744     88.9860    147.3032   1.1965162554e+02   3.4206641665e+01    0.5002939    0.3081724  37.07  0.000442377    1.751    0.429
        33 -12.2513    145.5563    146.3484   1.0492797162e+02   2.3578585440e+01    0.5118701    0.3702116  68.31  0.001331154    1.666    0.400
        34 -11.2286      3.9673    146.5295   1.4160103973e+02   4.4273111198e+01    0.2177123    0.1903079 -37.21   0.00106001    1.441    0.306
        35 -12.6078    101.3533    139.2083   1.1465185730e+02   3.4043865350e+01    0.3038713    0.2878016 -23.50 0.0004617095    1.174    0.148
        36 -10.8676     89.1164    136.8874   1.1747956225e+02   3.6714383717e+01    0.2230451    0.1930308  84.39 0.0003760676    1.224    0.183
        37 -12.0655    105.9390    130.8065   1.1151903235e+02   3.5212279690e+01    0.4377152    0.3370757 -64.57   0.00120132    1.325    0.245
        38 -11.2550    106.0676    125.9406   1.1033835324e+02   3.6333556012e+01    0.3180214    0.2757195 -14.76 0.0007182034    1.354    0.261
        39 -10.3210    163.4582    204.1618   1.1260357615e+02   7.2578631657e+00    0.2466689    0.1956375  43.64 0.0004747598    1.185    0.156
        40 -12.2088    135.3358    122.3971   1.0170849700e+02   3.1229232378e+01    0.6679571    0.2279934 -48.51  0.002083906    2.940    0.660
        41 -11.7854      2.4882    126.9827   1.3969856493e+02   4.8853440216e+01    0.4480105   0.09455584 -70.49  0.001592115    3.704    0.730
        42 -11.3967    160.8330    127.7576   9.6871331863e+01   2.4382658164e+01    0.4210826    0.2972847 -70.58   0.00153387    1.794    0.442
        43 -11.5725    125.2756    127.0379   1.0545393431e+02   3.2296930046e+01    0.4534124    0.2867087  79.95  0.001602047    2.928    0.658
        44 -10.6710     85.0407    126.5251   1.1635907738e+02   3.9865583891e+01    0.2167037    0.1448109  40.32  0.001029657    1.599    0.375
        45 -10.6973    112.4087    118.9653   1.0689101498e+02   3.6734143666e+01    0.2813334    0.2282348  44.22 0.0001661821    1.274    0.215
        46 -11.0613     11.1473    116.8480   1.3592929783e+02   5.0586922071e+01    0.1893301      0.14753 -88.34  0.001144186    1.290    0.225
        47 -10.9987    168.3877    113.2230   9.1511164204e+01   2.5736653653e+01    0.4171696    0.2982042 -78.06  0.001101146    1.874    0.466
        48 -11.0716      2.4455    112.6816   1.3779423704e+02   5.2087535486e+01    0.2252262    0.1627115 -54.88 0.0006480279    1.165    0.142
        49 -10.7132    205.1413    110.5926   8.3479609413e+01   1.7716413844e+01     0.372857     0.282182  24.42  0.001228439    1.802    0.445
        50 -12.3348    118.2852    129.7975   1.0796237543e+02   3.3073158880e+01    0.4324859    0.3911887  37.06   0.00117754    1.166    0.143
        51 -11.1563     84.2777    107.4955   1.1204939264e+02   4.4401186861e+01    0.3451127    0.2786748  74.57  0.001193914    1.572    0.364
        52 -10.2237    153.9789    104.0014   9.2364764983e+01   3.0996492677e+01    0.2261492    0.2207559 -78.05  0.001200762    1.005    0.005
        53 -10.1936     67.7936     98.9209   1.1493551671e+02   4.8818057524e+01    0.2508969     0.188984  -9.89  0.001212332    1.606    0.377
        54 -10.7645     84.7891     76.9600   1.0339074488e+02   5.0710636281e+01    0.2255783    0.1933372  28.04 0.0004568784    1.186    0.157
        55 -10.0618    102.0467     72.5188   9.6792307740e+01   4.8385151008e+01    0.2178096    0.1369418  43.11 0.0009262121    1.588    0.370
        56 -11.8104    139.6070    200.6901   1.1721880043e+02   1.2514970216e+01     0.332195    0.2481387 -76.92  0.001482579    1.580    0.367
        57 -11.4025      1.6575    247.3676   1.4959975799e+02   2.2730233401e+01    0.1180442   0.09435195  82.45 0.0009385319    1.276    0.217
        58 -13.0910    182.4162     28.5030   6.6581983384e+01   3.6382838518e+01    0.5148435    0.4403637  75.45  0.001220325    1.048    0.045
        59 -10.1147     13.6400     59.9513   1.2362160711e+02   6.2473181983e+01    0.1641992    0.1174238 -47.18 0.0004466735    1.147    0.128
        60  -9.1804    114.4454     22.4211   7.6939384300e+01   5.2971363776e+01    0.1271591      0.11296  48.25  0.000112492    1.059    0.056
        61 -10.6267      7.6517    244.5267   1.4848469922e+02   2.2659621594e+01    0.1053962   0.07782982  87.27 0.0005805001    1.174    0.149
