#   1 NUMBER                 Running object number                                     
#   2 MAG_AUTO               Kron-like elliptical aperture magnitude                    [mag]
#   3 X_IMAGE                Object position along x                                    [pixel]
#   4 Y_IMAGE                Object position along y                                    [pixel]
#   5 X_WORLD                Barycenter position along world x axis                     [deg]
#   6 Y_WORLD                Barycenter position along world y axis                     [deg]
#   7 A_WORLD                Profile RMS along major axis (world units)                 [deg]
#   8 B_WORLD                Profile RMS along minor axis (world units)                 [deg]
#   9 THETA_WORLD            Position angle (CCW/world-x)                               [deg]
#  10 FWHM_WORLD             FWHM assuming a gaussian core                              [deg]
#  11 ELONGATION             A_IMAGE/B_IMAGE                                           
#  12 ELLIPTICITY            1 - B_IMAGE/A_IMAGE                                       
         1 -11.2482    110.7535     39.8550   1.6437309671e+01   5.2335744527e+01     1.258231    0.9173221 -39.29   0.00629877    1.372    0.271
         2 -12.0930    104.6749     12.9812   6.6793797646e+00   5.7298075465e+01    0.6017162    0.3789704 -18.47  0.002405162    1.777    0.437
         3 -12.6162    105.8134     20.0513   9.4897808954e+00   5.6230050495e+01    0.4439628    0.3338166 -73.51  0.000403876    1.501    0.334
         4 -12.2522    114.0251     24.8053   9.7214642349e+00   5.3593793043e+01     1.219879    0.2834145  53.24  0.003766349    3.729    0.732
         5 -12.1235     58.3301     29.1717   2.9028282171e+01   6.5900248430e+01    0.5266087    0.3460277 -13.71 0.0006717855    1.968    0.492
         6 -12.3100    164.4380     27.3938   2.6484446178e+00   4.0677417740e+01    0.5194139    0.3725256  80.92 0.0005960059    1.387    0.279
         7 -11.4533     20.3559     21.8974   4.7021426065e+01   7.3373291524e+01    0.5558034    0.3376213 -34.00  0.001582523    1.586    0.369
         8 -11.3339    134.3725     22.0218   4.9997181187e+00   4.8776831219e+01    0.5441782    0.4009533 -49.85  0.002451232    1.330    0.248
         9 -11.9987    127.7163     16.3805   3.9647972611e+00   5.1092379265e+01    0.5815781    0.5211334 -17.38  0.001398111    1.238    0.192
        10 -11.3148    135.8212     14.7171   2.1556446870e+00   4.9210608487e+01    0.4767054    0.3201086  70.07  0.001790484    1.407    0.289
        11 -11.4420     36.2724     18.2251   3.4324572306e+01   7.1753620649e+01    0.6681806    0.4307006 -35.63  0.002368904    1.517    0.341
        12 -12.2269     48.7396     12.7731   2.4236592208e+01   7.0293689969e+01    0.6713607     0.284682  49.23  0.002889347    2.261    0.558
        13 -11.0357      5.6333      9.4779   5.2052908559e+01   7.7334048405e+01    0.3821268    0.3306558  -9.66  0.002066576    1.084    0.077
        14 -10.6384     12.9347      8.5857   4.4918053631e+01   7.6745324635e+01    0.3613468    0.2574494 -54.97   0.00134965    1.640    0.390
        15 -12.0966     22.8325     10.8094   3.8517885289e+01   7.5072888140e+01    0.5732533    0.4191715  -0.49  0.003116306    1.425    0.298
        16 -10.7362     68.3616     19.9499   2.0099299339e+01   6.5186139278e+01    0.3795719     0.307158 -39.81  0.001728757    1.312    0.238
        17 -11.9982    164.9297     17.8710   3.5966812686e+02   4.1642252746e+01    0.5923544    0.2969382  45.22  0.002573229    2.584    0.613
        18 -11.2075     86.0032     14.3543   1.1655039461e+01   6.1774217315e+01      0.64198    0.4115442  15.55  0.002996694    2.078    0.519
        19 -10.8948     89.0307      8.2883   7.9198250177e+00   6.1673612814e+01    0.3428792    0.2778773 -36.01   0.00106756    1.307    0.235
        20 -10.5099    186.9693     14.9203   3.5675273816e+02   3.6765561530e+01    0.2266575    0.2003976  80.06 0.0008396304    1.210    0.173
        21 -11.0955    190.8758     12.0486   3.5566376639e+02   3.6177472129e+01    0.5795271    0.1550284 -30.01  0.002244997    3.051    0.672
        22 -11.5974    192.7484      7.9910   3.5444185193e+02   3.6165198702e+01    0.4438005    0.2237137 -28.28  0.002235851    1.881    0.468
        23 -11.4590    242.2997     15.0345   3.5317375725e+02   2.5291450076e+01    0.2191022    0.1998392 -63.35  0.000219151    1.246    0.197
        24 -11.9005    227.7818     14.7072   3.5389371228e+02   2.8097990807e+01    0.4620366    0.2096557 -72.43   0.00136942    2.395    0.583
        25 -10.8861    121.0458     11.6192   3.1862571572e+00   5.3282025701e+01    0.3782589    0.2343689 -85.65  0.001341242    1.783    0.439
        26 -10.4180    223.6147      2.4402   3.5128684171e+02   3.0158935012e+01    0.2063996     0.159178 -54.77 0.0005556445    1.005    0.005
        27 -11.7277    212.1864      9.3089   3.5352943961e+02   3.1821607657e+01     0.459405    0.2962088  -7.36 0.0009038928    2.177    0.541
        28 -10.7740    218.5588      3.3925   3.5175780658e+02   3.1088701071e+01     0.256281    0.1990634  72.96 0.0005904673    1.467    0.318
        29 -11.9641    168.3988      9.4280   3.5676508135e+02   4.1677112653e+01     0.593501     0.253823  69.77   0.00247763    2.215    0.549
        30 -11.7512     63.9767      9.0655   1.5641648371e+01   6.7518908567e+01    0.4413443    0.3118513 -43.64 0.0003699622    1.599    0.375
        31 -11.0118    154.0002      6.4875   3.5720282925e+02   4.5466006751e+01    0.4033496    0.2926371  -4.06  0.002205179    1.746    0.427
        32  -9.1090    145.1861      9.5883   3.5917365973e+02   4.7364452569e+01    0.1863409    0.1119594  60.98 0.0004864732    1.624    0.384
        33 -10.3092      1.8501      2.2033   5.1087020827e+01   7.9042720895e+01    0.2542266    0.1528866 -32.33  0.001161301    1.493    0.330
        34 -11.3083    184.9199      5.9572   3.5444159813e+02   3.8137215686e+01    0.4235173    0.1979404 -51.45   0.00141049    1.861    0.463
        35 -10.2499    122.4152      5.1742   4.5457610870e-01   5.3539735538e+01    0.2332539    0.1362811 -14.28 0.0008694173    2.004    0.501
        36 -10.8346    243.7634      3.8620   3.5070024436e+02   2.6149125261e+01    0.2462747    0.1146268 -63.73 0.0006592266    1.904    0.475
        37 -10.1004    196.2167     14.3720   3.5588179331e+02   3.4742543419e+01    0.2414747    0.1587448 -59.61  0.000654017    1.328    0.247
        38 -10.6297    148.8417      5.3182   3.5733801156e+02   4.6852779666e+01    0.3062335    0.1058639  71.19  0.001206695    2.606    0.616
        39 -10.5322    142.2179      2.5829   3.5709700740e+02   4.8751549939e+01    0.3069069    0.2208472  83.43  0.001219904    1.285    0.222
        40 -11.2361    137.7281      3.9892   3.5807963182e+02   4.9758187059e+01    0.3159343    0.2429709  79.19 0.0003451129    1.202    0.168
        41 -11.9238    133.5044      2.5017   3.5802990788e+02   5.0954731477e+01    0.6580333    0.2672884  75.33  0.002745344    2.293    0.564
        42  -9.1938     70.3604      5.3050   1.1363928001e+01   6.6454519558e+01    0.1461357   0.08938825  34.00  0.000703907    1.729    0.422
        43 -10.5695     41.5467      3.8096   2.1886128706e+01   7.2866108596e+01    0.3597681    0.2066927  26.85  0.001713059    1.977    0.494
        44 -10.5327    235.7582      4.4255   3.5117083384e+02   2.7594296368e+01    0.1394955    0.1004243  72.18 0.0008646224    1.628    0.386
        45  -9.9211    165.1497      3.7540   3.5533147692e+02   4.2997178038e+01    0.2324098    0.1607592  23.99 0.0009092829    2.052    0.513
        46 -11.0584    113.7266      2.2785   5.4683911819e-01   5.6002266354e+01     0.495648     0.261992  87.89  0.001742292    2.041    0.510
        47  -9.9512     28.9110      1.4490   2.7452053573e+01   7.5508521947e+01    0.1756728    0.1663871  32.42 0.0003791332    1.242    0.195
        48  -9.9086     75.2405      2.9784   8.6585425118e+00   6.5523025709e+01    0.3626297    0.1899098  75.58  0.001609317    2.186    0.543
        49 -10.2640    105.2936      1.8136   1.6768597384e+00   5.8183071967e+01    0.2547762    0.1735668 -84.29 0.0009850533    1.552    0.356
        50 -11.3337    206.1884      2.1170   3.5210101431e+02   3.3793628825e+01     0.453071    0.1966325 -85.81  0.002117255    2.422    0.587
        51 -11.7851     16.0480     14.2885   4.5968898975e+01   7.5339730711e+01     0.618556    0.3780788 -28.15  0.003329555    1.641    0.391
        52  -9.6965     77.9153      7.1847   1.0196925291e+01   6.4481993562e+01    0.1983798    0.1774308 -75.82 0.0005606902    1.243    0.196
        53  -9.4832    160.3019      1.3413   3.5499431954e+02   4.4387493028e+01    0.1277675   0.09441705  40.09 0.0007038254    1.674    0.403
        54  -9.7235    152.2223      1.3833   3.5571464202e+02   4.6364486890e+01     0.225652    0.1133337  73.84 0.0004052232    1.843    0.457
        55  -9.7710    123.6316      1.2769   3.5877514128e+02   5.3563781480e+01    0.2462069     0.107434  72.49  0.001053791    2.075    0.518
        56  -9.3770     82.1689      1.0000   5.8506112337e+00   6.4022018351e+01    0.2085845   0.07036795  67.17 0.0005406184    2.728    0.633
        57  -9.7365     37.6834    117.9736   6.5418522610e+01   4.7812566981e+01      0.30571    0.1059672 -62.60 0.0008789296    2.469    0.595
        58 -10.3096     58.5779    115.1200   5.7364653949e+01   4.6014438358e+01    0.2596222    0.2075255  65.53 0.0002488272    1.329    0.247
        59 -11.5341      3.5021    105.7172   7.6843724069e+01   5.3861498564e+01    0.4716955    0.4386734  14.00  0.002986493    1.252    0.201
        60 -11.2305      7.8833    114.8779   7.6022867063e+01   5.1160193507e+01    0.3091811    0.2232421 -55.55 0.0003542159    1.365    0.267
        61 -12.0254      2.7916    111.6009   7.7626304897e+01   5.2331264667e+01    0.4232407    0.3293586  54.71  0.001427696    1.285    0.222
        62  -9.9443     79.1161    114.8688   5.0229209917e+01   4.2956439866e+01    0.2670839    0.2189689 -46.15 0.0006839749    1.233    0.189
        63 -10.8088     35.2917    102.9539   6.3852615803e+01   5.2102538992e+01    0.5086244    0.2615266   5.20 0.0008143741    2.906    0.656
        64 -12.1071     25.5860    107.4674   6.8412941890e+01   5.1825245805e+01    0.9828135    0.5671769 -69.30  0.003189003    1.545    0.353
        65 -11.7066     22.2100    114.0790   7.0601206543e+01   5.0332416901e+01    0.5040485    0.3003137   1.20  0.001847738    2.210    0.547
        66 -11.3514     28.3406    112.7990   6.8121146894e+01   5.0137694847e+01    0.4023817    0.2808114  32.21  0.001243015    1.501    0.334
        67  -9.1183     67.3511    114.6513   5.4181896511e+01   4.4870622141e+01    0.1645109    0.1120913  69.63 0.0007037678    1.825    0.452
        68 -10.7554     12.7280    111.1857   7.3842343747e+01   5.1831912213e+01    0.5201069    0.2211401 -78.71  0.001622271    2.121    0.529
        69 -10.1631     16.1979    109.2369   7.2293309959e+01   5.2108953509e+01    0.3606332    0.1798415  46.65  0.001558491    2.078    0.519
        70  -9.1616     85.6186    112.7984   4.7613254643e+01   4.2374445746e+01    0.2163201    0.1440288 -69.15 0.0007948351    1.680    0.405
        71  -9.9153     48.7251    111.8740   6.0320066044e+01   4.8169980852e+01     0.275828    0.2077013  41.69 0.0007849767    1.361    0.265
        72 -12.0254     79.7906    107.8064   4.8354494728e+01   4.4625533643e+01    0.4718387    0.3454734  21.64 0.0007230651    1.595    0.373
        73  -8.9312    175.2284    108.6595   2.3732284436e+01   2.5454023786e+01    0.1408401    0.1029442 -58.16 0.0001489561    1.539    0.350
        74 -10.0527    105.8892    107.6571   4.0033241853e+01   3.9858564915e+01    0.2723044    0.2106633 -39.45 0.0008689829    1.324    0.245
        75  -9.5693     85.9076    103.4848   4.5222423034e+01   4.4627500455e+01    0.2495775    0.2112324 -29.70 0.0007216054    1.301    0.232
        76 -11.1383     50.5166    100.4243   5.7335538350e+01   5.0977261631e+01    0.7473457    0.3854087 -37.58  0.002827354    2.454    0.593
        77 -10.7093     17.0413    100.1113   7.0793735695e+01   5.4503505773e+01    0.3082396     0.173627 -67.04 0.0007271121    1.542    0.352
        78 -10.4149     91.7225    102.3480   4.3019888466e+01   4.3835649030e+01    0.4035342    0.3016898 -38.75   0.00189407    1.406    0.289
        79 -11.4172      9.3298     96.8570   7.3563629299e+01   5.5898989458e+01    0.4344193    0.3583435  36.98 0.0007787574    1.318    0.241
        80 -10.3619     30.5350     96.8057   6.4689783863e+01   5.4233604281e+01    0.4927804     0.386194 -61.48  0.002646223    1.165    0.142
        81 -10.2237    210.2950     98.0335   1.5411829780e+01   2.0454943749e+01    0.1914046    0.1847883 -41.74 0.0004019008    1.141    0.124
        82 -11.3816     78.8119     93.2870   4.4943888951e+01   4.8399265265e+01    0.7667763     0.397979 -49.59  0.003070874    1.853    0.460
        83 -10.3705     83.6551     93.3381   4.3264666233e+01   4.7508478922e+01    0.3839996    0.1553378  41.58  0.001307012    2.513    0.602
        84 -11.7076     68.0321     95.1228   4.9360970072e+01   4.9777584897e+01     0.556859    0.4004927  22.99  0.001405388    1.588    0.370
        85 -10.7908     18.7817     88.2668   6.8264186293e+01   5.7546717952e+01     0.641347    0.3377986 -63.30  0.002954357    1.631    0.387
        86 -11.1172     36.5823     90.9807   6.1006007777e+01   5.5157354691e+01    0.6510297    0.4931036  38.62  0.002972767    1.396    0.284
        87 -11.2316     27.7667     85.3168   6.3699987124e+01   5.7558375484e+01    0.5367133    0.4662993 -25.13  0.001215795    1.244    0.196
        88 -10.3056     43.0112     94.6592   5.9097095314e+01   5.3443792689e+01    0.2966888    0.2625916 -41.26  0.001069493    1.155    0.134
        89 -10.3801     43.5133     90.5287   5.7972268497e+01   5.4469188478e+01    0.2415843    0.2195158 -63.83 0.0002354833    1.024    0.024
        90 -10.9840     23.2830     94.1866   6.7289912232e+01   5.5598682996e+01    0.4230048    0.2676144 -44.63  0.001447396    1.599    0.375
        91  -9.1388    125.9563     93.9390   3.0700807774e+01   3.8752898857e+01     0.179921    0.1727727 -48.79 0.0003101362    1.011    0.010
        92 -11.3003     44.9390     84.0093   5.5803376380e+01   5.5984372022e+01    0.5054048    0.4206211 -84.62   0.00234487    1.271    0.213
        93 -10.6081     49.2559     90.1242   5.5485508162e+01   5.3838605604e+01    0.5110081    0.3442211 -89.70  0.002281986    1.867    0.464
        94  -9.9761     51.7878     86.6181   5.3561317673e+01   5.4396504518e+01    0.4579959    0.2573892  62.84  0.001307336    2.729    0.634
        95 -10.5209     98.1320     90.6263   3.7705704652e+01   4.5342991570e+01    0.2720676    0.2491307  63.23 0.0005993294    1.137    0.120
        96 -11.2286      2.5514     81.1587   7.4612592126e+01   6.0441373607e+01    0.5802548    0.2743537 -89.07  0.001862435    2.119    0.528
        97 -10.6141      1.8551     71.2386   7.3607615597e+01   6.3071503428e+01    0.4681873      0.19204 -70.14  0.002030301    2.000    0.500
        98 -10.0565     11.0101     90.0395   7.1967168821e+01   5.7618455349e+01    0.2269737    0.1632627 -76.71 0.0005034586    1.232    0.188
        99 -11.3720      6.1373     88.0976   7.3858949475e+01   5.8421978313e+01    0.6602863    0.3909517   3.47  0.003265735    2.028    0.507
       100  -9.9504     66.6674     88.2649   4.8042169077e+01   5.1718245643e+01    0.3259923     0.216548 -13.87 0.0008679004    2.370    0.578
       101  -9.1979    104.4168     86.7330   3.4606131885e+01   4.4920793597e+01    0.2149482    0.1453039 -37.08 0.0007475057    1.550    0.355
       102  -9.8389     90.8272     85.6496   3.8589539540e+01   4.7946066552e+01    0.3965276    0.2910941  57.56  0.001834815    1.515    0.340
       103 -10.4899    143.2309     84.1489   2.3717809263e+01   3.6882962476e+01    0.2399382    0.2222303 -46.47 0.0005563752    1.029    0.028
       104  -9.9908     67.3810     81.4521   4.5808200428e+01   5.3272606437e+01    0.3649395    0.2494674 -37.80  0.001666081    1.560    0.359
       105 -10.2109     81.3298     83.7789   4.1294325529e+01   5.0217755787e+01    0.5558738    0.3074885  26.98  0.002121157    2.376    0.579
       106 -12.2221     75.2530     78.6494   4.1930453995e+01   5.2550349176e+01     0.664236    0.4898118  56.49  0.001348641    1.530    0.346
       107  -9.6710     37.4029     85.5194   5.9455019328e+01   5.6502605356e+01    0.2725748    0.1439697  25.98 0.0008724369    2.034    0.508
       108 -10.4383    112.8145     83.0917   3.1039196934e+01   4.3902906141e+01    0.4734736    0.2850426  65.33  0.001851918    2.254    0.556
       109 -11.6912     60.7941     83.2893   4.8964411481e+01   5.3898439269e+01    0.3066714    0.2717329  60.64 0.0004265186    1.214    0.177
       110  -9.8333    119.4237     79.2257   2.8024086577e+01   4.3234015651e+01     0.473039    0.2417007 -62.01  0.001434979    3.266    0.694
       111  -9.6022    103.0306     79.5030   3.2782910133e+01   4.6787430925e+01    0.2442208      0.19716 -46.61 0.0005294362    1.211    0.174
       112 -10.7545     53.4482     76.2240   4.9989786491e+01   5.6771722873e+01    0.4262467    0.3271085 -63.20  0.002149217    1.293    0.226
       113 -10.8860     89.1759     77.2754   3.6519058273e+01   5.0169825728e+01    0.5595992    0.2784638  43.30  0.001945745    2.058    0.514
       114 -10.4230     94.4355     75.2350   3.4103765034e+01   4.9531130927e+01    0.5959617    0.3002341 -59.61  0.002085136    2.715    0.632
       115 -10.1723     58.1294     77.6651   4.8425744978e+01   5.5703731841e+01    0.2488705    0.2012423 -68.11 0.0005645626    1.278    0.217
       116  -9.0610     38.3247     77.6664   5.7143219754e+01   5.8429435000e+01    0.1498687    0.1081263  68.78 0.0007050993    1.711    0.415
       117 -10.9875    248.5156     76.1773   5.9917664561e+00   1.6855923448e+01    0.2129959    0.1310524 -73.21  0.001171083    2.327    0.570
       118 -10.9897     14.2060     74.4052   6.7962248576e+01   6.1542626455e+01    0.3723383    0.2737394 -79.98  0.001508772    1.296    0.229
       119  -9.7187     65.3334     74.8096   4.4579264052e+01   5.5213883342e+01    0.3721301    0.2146174  15.67  0.001375478    2.799    0.643
       120 -10.4176     50.8521     56.2843   4.4547841734e+01   6.1880042556e+01    0.9682729    0.3572877 -51.32  0.003520129    2.578    0.612
       121 -11.1976     27.6888     73.2249   6.1076908299e+01   6.0721004856e+01    0.4483541    0.3116715 -21.65 0.0002968636    1.673    0.402
       122 -10.8649     34.9720     71.3278   5.7056164361e+01   6.0431544450e+01    0.5559119    0.2441127  43.34  0.002169389    2.609    0.617
       123 -10.2717     41.2138     72.5895   5.4439881346e+01   5.9361833152e+01    0.3205089    0.2426016  -5.20  0.001074442    1.584    0.369
       124 -11.7674     40.5093     68.8830   5.3704122237e+01   6.0373716008e+01    0.4058321    0.3097908  20.41  0.001675617    1.424    0.298
       125 -10.8320     40.3254     56.5761   4.9839432742e+01   6.3358559225e+01    0.4320135    0.2171842  38.44  0.001199496    2.100    0.524
       126 -11.5536     43.1845     60.9719   4.9915322858e+01   6.1934662015e+01    0.4416685    0.2397729 -57.72  0.001018135    1.787    0.440
       127 -11.0720     46.4952     59.4475   4.7779183720e+01   6.1820897435e+01    0.4230056    0.2691242  53.35  0.001537859    1.979    0.495
       128  -9.6253    103.7177     74.4591   3.0940775118e+01   4.7703713870e+01     0.295576    0.1509045  52.69   0.00113559    2.096    0.523
       129 -10.1075     80.7483     71.5904   3.7593008687e+01   5.3115478195e+01    0.3993413     0.244739 -44.50  0.001666874    1.600    0.375
       130 -10.0114     77.9525     67.1666   3.7095210037e+01   5.4637358469e+01    0.2932493    0.2058146 -78.83   0.00124326    2.114    0.527
       131  -9.8635     46.5463     75.3889   5.2789879606e+01   5.7961199514e+01    0.3356099    0.1886782 -31.40  0.001345977    2.317    0.568
       132 -10.8010    122.4148     68.5120   2.3806824013e+01   4.4638702102e+01    0.4658132    0.2686168  48.36  0.001504973    1.778    0.438
       133  -9.9925     13.3606     67.4516   6.7026660737e+01   6.3403664122e+01    0.4078933    0.1380813  15.24  0.001508501    3.372    0.703
       134 -10.4284     97.0302     65.3587   2.9894413711e+01   5.1033937243e+01    0.2931226    0.2226594 -39.35 0.0004536771    1.313    0.239
       135 -11.2211     92.4094     62.5905   3.0386791297e+01   5.2599801331e+01     0.433656    0.3043301  67.88  0.000934319    1.776    0.437
       136 -13.4434      6.5037     61.8246   6.9572916781e+01   6.5267562007e+01    0.6813598     0.486936 -41.77  0.002909265    1.318    0.241
       137  -9.2682    201.6214     63.6791   8.1926702304e+00   2.7373086516e+01    0.1324483     0.102153  17.38 0.0001819325    1.823    0.452
       138 -10.2736    158.9906     62.6629   1.4213750771e+01   3.7020744675e+01    0.2774917    0.1963815  43.22 0.0006934764    1.624    0.384
       139  -9.4984    105.3944     63.2857   2.6629063317e+01   4.9567061704e+01    0.2111359    0.1395114 -49.89 0.0007884718    1.549    0.355
       140  -9.7175     57.8548     62.1215   4.3471485660e+01   5.9424147184e+01    0.2318851    0.2059818  87.55  0.001245601    1.315    0.240
       141  -9.8993    113.6820     60.8991   2.3483737390e+01   4.8096532369e+01    0.2671069    0.2350143 -53.48  0.001101852    1.130    0.115
       142 -11.8053     75.3291     54.7799   3.3475758596e+01   5.7761516368e+01    0.7776307    0.3575776 -47.98  0.003004198    2.225    0.551
       143  -9.3351     65.3848     61.2309   3.9915998794e+01   5.8311341990e+01     0.429947    0.1818846 -56.66  0.001478717    2.883    0.653
       144  -9.3177    150.6052     60.5543   1.5095197141e+01   3.9343890523e+01    0.1439897    0.1357448 -49.49 0.0001854589    1.042    0.040
       145 -11.4389     25.6832     57.2288   5.7827576064e+01   6.4934201729e+01    0.6453844    0.4984038  44.65  0.002351427    1.467    0.318
       146 -10.8946     31.8904     52.8428   5.3004542033e+01   6.5303741813e+01    0.4727869    0.2810153  13.15  0.002186894    2.019    0.505
       147 -10.5711    123.9526     57.1402   1.9594210547e+01   4.6321603325e+01    0.5252391    0.3480954   6.54  0.001676139    2.715    0.632
       148 -10.0807    118.2429     56.1870   2.0648835402e+01   4.7856680628e+01    0.5062824    0.3184677 -73.68  0.001988516    2.472    0.595
       149  -9.9564    126.9816     50.2022   1.6486855604e+01   4.6739783518e+01    0.3997374    0.2064701 -21.46  0.001480797    2.685    0.628
       150  -9.5085    113.3687    248.8141   6.1203303788e+01   9.4426475944e+00    0.1426229    0.1016358 -38.28  0.000948441    1.712    0.416
       151 -10.1653    122.7299     44.5636   1.5415246804e+01   4.8670545666e+01    0.3827059     0.300092 -72.83 0.0009186254    1.415    0.293
       152 -11.7088    116.6777     47.9988   1.8078880150e+01   4.9610590244e+01    0.6840077    0.4898815  15.52  0.001989543    2.009    0.502
       153 -11.3682    119.9798     40.5297   1.4539992835e+01   4.9960318999e+01    0.5347342    0.2426231  43.60 0.0007968978    2.604    0.616
       154 -11.5867    119.5216     36.9682   1.3302308669e+01   5.0593313204e+01    0.4082892    0.2878062 -35.52 0.0008363538    1.422    0.297
       155 -10.2647    106.4870     58.2222   2.4503206043e+01   5.0268240319e+01    0.2662466    0.2065667  54.68 0.0004943015    1.299    0.230
       156 -10.7879     88.1920     54.9804   2.8935193085e+01   5.5011719373e+01    0.6101266    0.2392117 -32.68  0.001940479    3.364    0.703
       157  -9.8381     88.0068     49.2847   2.6748486235e+01   5.6117187270e+01    0.3210119    0.2198306 -34.41  0.001098136    1.498    0.333
       158 -11.4044     72.8332     47.0012   3.1266435719e+01   5.9792156726e+01    0.7416452    0.4464545 -53.81   0.00325048    1.920    0.479
       159 -10.2759    237.9205     55.6477   2.4749175244e+00   2.1375054398e+01    0.1955241    0.1405394 -31.08 0.0003446058    1.243    0.195
       160 -10.0690    157.2810     54.4838   1.2036090567e+01   3.8710412252e+01    0.4492214    0.2910004 -64.57   0.00181959    1.771    0.435
       161 -10.6899    155.0612     48.7233   1.0624168319e+01   4.0108436992e+01    0.3289652     0.205915 -22.59 0.0009289006    1.832    0.454
       162  -9.2348     67.2195     55.0018   3.6787719806e+01   5.9305463710e+01    0.1960686    0.1172011 -45.57 0.0006390982    1.638    0.390
       163 -10.7321     60.5170     50.4897   3.7841911552e+01   6.1486776200e+01    0.5831546    0.2797813 -53.10   0.00230157    2.299    0.565
       164 -10.3594     61.6029     46.2177   3.5574429699e+01   6.2151468013e+01    0.4555674    0.3148795  16.67  0.002118131    1.860    0.462
       165 -10.4562    243.9473     51.0385   9.4624076125e-01   2.0870539687e+01    0.1816423    0.1401952 -45.91 0.0004520328    1.024    0.023
       166 -10.4840    144.9677     50.1660   1.2845651733e+01   4.2343173143e+01    0.3150131    0.2158393 -19.30 0.0003367739    1.739    0.425
       167 -10.1813    145.9739     43.7374   1.0562443327e+01   4.3050348353e+01    0.6282973    0.1551614 -42.07  0.001921381    3.652    0.726
       168 -10.4089     13.0891     46.6347   6.2029516817e+01   6.8611990038e+01    0.4106942    0.1587404 -43.46  0.001473062    2.389    0.581
       169  -9.1671    188.9679     49.2933   5.9729802105e+00   3.2130306085e+01    0.1515491    0.1196773  78.90 0.0004908122    1.345    0.257
       170  -8.7982     97.3426     49.7032   2.3961353778e+01   5.3923495086e+01       0.1518    0.1167985 -80.45 0.0007033207    1.666    0.400
       171 -10.3063     83.2981     46.5325   2.7220625467e+01   5.7656354674e+01    0.4335763    0.2758599 -11.23  0.001736631    2.517    0.603
       172 -12.4478     40.6014     44.4020   4.5036531496e+01   6.6051536876e+01     1.039782    0.3951213  33.38  0.002331617    2.738    0.635
       173 -10.6967     20.3390     45.8907   5.7310882359e+01   6.8170426946e+01    0.3572665    0.2362096 -40.16  0.001211558    1.403    0.287
       174 -11.1389     26.1213     42.6259   5.2606341996e+01   6.8322042418e+01     0.409198    0.3249838  44.05  0.001210794    1.455    0.313
       175  -9.3067     91.5362     47.9926   2.5079759282e+01   5.5556017921e+01    0.2221396    0.1442894 -38.31 0.0004801358    1.544    0.352
       176  -9.5176     51.9928     48.0278   4.0754583067e+01   6.3490091433e+01    0.2235525    0.1663759 -13.22 0.0006280066    1.618    0.382
       177  -9.3185      2.0339     48.5249   6.9432496480e+01   6.8826101995e+01    0.1800054    0.1277214   9.80  0.001020953    1.565    0.361
       178 -10.3869     23.4259     37.2644   5.2148535764e+01   6.9816355545e+01    0.5002639    0.1841009  37.10  0.001984276    2.931    0.659
       179  -9.5124    139.2649     43.7648   1.1774570192e+01   4.4701038241e+01    0.2369974    0.1587376  26.91  0.001041682    2.136    0.532
       180 -10.1461    156.0381     42.0586   8.3751570992e+00   4.0825099526e+01    0.2845314    0.2038936 -26.57 0.0009787113    1.468    0.319
       181  -9.9349     98.6939     41.4248   2.0255079937e+01   5.5002811174e+01    0.2702023    0.1984793  83.65 0.0008703666    1.702    0.413
       182 -10.0727     56.7754     41.6390   3.5734420919e+01   6.3944124667e+01    0.2506167    0.2113005  76.69 0.0005956078    1.546    0.353
       183  -9.4197     90.9906     41.2166   2.2462698007e+01   5.6841688507e+01    0.1969389    0.1890802  56.25 0.0003796583    1.034    0.032
       184  -9.7486     18.0548     40.5256   5.6864724178e+01   6.9629032209e+01    0.2323065    0.1576378 -45.02 0.0008959791    1.308    0.235
       185 -11.4158     79.0221     35.3751   2.3851609175e+01   6.0514867743e+01    0.7609903    0.5065208 -34.22  0.003387499    1.529    0.346
       186 -11.1644      4.1321     35.6603   6.4671004239e+01   7.1805987000e+01    0.6920264    0.2800223 -53.37  0.002619814    1.956    0.489
       187 -10.0994     11.4241     29.7751   5.7294962671e+01   7.2630578588e+01    0.4151457    0.2398331 -17.63  0.002059746    1.984    0.496
       188  -9.8220    249.9598     38.9926   3.5788789856e+02   2.1253842393e+01    0.1898826    0.1012899 -53.68 0.0003783416    1.605    0.377
       189 -10.6328     61.2329     36.0708   3.1150227839e+01   6.4136589246e+01    0.4886128    0.2839695 -26.88  0.001494287    2.031    0.508
       190  -9.2963    206.1960     37.1602   9.4054339234e-01   2.9963810324e+01    0.1752066    0.1240412 -58.38 0.0003246664    1.264    0.209
       191 -10.5044    153.2923     35.6764   6.7588241801e+00   4.2359550753e+01    0.2405966    0.2280207  82.92 0.0005889602    1.090    0.083
       192 -10.5994    177.6107     28.8253   1.5615614245e+00   3.7369080048e+01    0.2893398    0.2494683  44.66  0.001328047    1.396    0.284
       193 -10.7610    175.1355     34.0318   3.3508315923e+00   3.7310672869e+01    0.3049943    0.2132142 -62.83  0.000411311    1.382    0.277
       194 -10.7889    172.9633     30.8495   2.6742929160e+00   3.8217983069e+01    0.4345236    0.2511138  79.23   0.00210859    1.822    0.451
       195  -9.2507     94.1533     35.3948   1.9038252308e+01   5.7024165543e+01    0.1993442    0.1371853  71.20 0.0005574148    1.650    0.394
       196 -11.1982     50.6414    248.8642   7.4081226936e+01   1.6438742896e+01    0.3818367    0.1106669  39.38  0.001839732    2.303    0.566
       197 -11.5260    126.0997    240.4337   5.7741261851e+01   9.2288275046e+00    0.2514393    0.1814559  41.53  0.001663448    1.339    0.253
       198 -11.9057    107.5593     30.7820   1.3580664588e+01   5.4431575375e+01    0.8074117    0.4194735  35.54  0.003130155    2.632    0.620
       199 -11.1202     74.2811    238.7032   6.8434136528e+01   1.5669307896e+01    0.5413832    0.1989751  38.55  0.002660636    2.044    0.511
       200 -10.3590    240.0944     32.4514   3.5712980832e+02   2.3790973991e+01    0.2396579    0.1918509  34.71  0.001330909    1.821    0.451
       201  -9.8992     68.7124     32.7333   2.6441329393e+01   6.3184297697e+01    0.4228654    0.2305137  60.09  0.001773806    2.253    0.556
       202  -9.5064    216.8419     32.1335   3.5876908580e+02   2.8354209998e+01    0.1521121    0.1410538 -21.37 0.0003510673    1.290    0.225
       203  -9.8282     58.9957     20.4707   2.4101794172e+01   6.7123863011e+01    0.3617671    0.2477053  61.71  0.001572176    1.690    0.408
       204 -10.7558    131.5040    240.4963   5.6654026628e+01   8.5627276033e+00    0.2425248   0.09531284  30.05  0.001185858    2.080    0.519
       205 -11.5813     49.5488     29.5947   3.3405538788e+01   6.7495203620e+01    0.7125245    0.4001445  30.33  0.003231767    2.004    0.501
       206 -11.6098    160.2974     29.3086   3.7612636335e+00   4.1451674527e+01    0.5338989    0.2367309  59.93  0.001814562    2.216    0.549
       207  -9.3991     15.5909    233.2552   8.0630495443e+01   2.2666094647e+01    0.1406455   0.09733554 -73.06 0.0009499033    1.661    0.398
       208  -9.2704     36.2794     30.9376   4.1316120594e+01   6.9452982559e+01    0.1863338    0.1583369 -35.68 0.0005983484    1.123    0.110
       209  -9.9510     13.6274     22.2116   5.2229035777e+01   7.4043299227e+01    0.1993445    0.1661995  26.86  0.000562264    1.314    0.239
       210 -11.7865     26.6313     27.7629   4.5726663575e+01   7.1430824672e+01    0.5022078    0.4173023 -63.90   0.00218995    1.441    0.306
       211 -11.2139     67.7651    240.5649   6.9963498056e+01   1.6068835053e+01    0.2728073    0.1900173   6.45  0.001044792    1.797    0.444
       212 -10.9426    189.2699     27.2235   3.5992240464e+02   3.4874295252e+01    0.3831446    0.2850282  21.68  0.002088185    1.964    0.491
       213  -9.6276    135.7076     30.3387   7.7540905152e+00   4.7429557237e+01    0.2240847    0.1880128 -63.23 0.0006156685    1.165    0.142
       214 -11.9925    126.6588     28.1058   8.5410631917e+00   4.9993719925e+01    0.7758507    0.3977037  75.12  0.002718183    2.150    0.535
       215 -10.5647    229.8669     27.1907   3.5663495755e+02   2.6329914740e+01     0.258521    0.1644281  51.11  0.001044694    2.100    0.524
       216 -10.1984    250.4488     26.9697   3.5528999703e+02   2.2531496941e+01    0.1642699    0.1107964 -39.50 0.0004140718    1.154    0.133
       217 -11.1685    182.8960     25.5754   8.6674960907e-02   3.6523338439e+01    0.3534514    0.2037345 -53.12  0.001666036    1.581    0.368
       218 -10.3485    151.1023     27.1951   4.3157066432e+00   4.3970373729e+01    0.3733841    0.1654671  54.85  0.001551558    2.291    0.563
       219 -11.4716    148.2307     22.2665   3.0749931780e+00   4.5264072592e+01    0.5732157    0.2453732  64.53  0.002407774    2.194    0.544
       220  -9.8772    155.5503     24.5187   2.8529204834e+00   4.3188298184e+01    0.2241205    0.1722718 -82.90 0.0006771912    1.272    0.214
       221 -10.0864    155.2242     20.9054   1.7303106086e+00   4.3682224288e+01     0.318019    0.2283251  44.27   0.00166275    1.634    0.388
       222  -9.8047    146.6495     26.2993   4.6472245642e+00   4.5186166371e+01    0.2556755    0.1610767 -80.24 0.0008656398    1.788    0.441
       223 -10.5312    142.8163     25.1847   4.8279231600e+00   4.6278617990e+01    0.3121271    0.1873121  64.07  0.001017158    1.609    0.378
       224  -9.4205     97.8296     25.8323   1.3879893511e+01   5.7492137941e+01    0.1978112    0.1649766 -78.19 0.0005883015    1.333    0.250
       225 -10.1686     45.6225     24.7741   3.2852900458e+01   6.9038015755e+01    0.3002678    0.1811818 -29.17 0.0009711903    1.752    0.429
       226  -9.7330    246.5338    230.5259   3.4887090339e+01  -3.0886805218e+00    0.1044517   0.07237193  -4.67 6.993464e-05    1.002    0.002
       227  -8.8964    189.7232    229.6359   4.4072936833e+01   3.1090836917e+00    0.1173395   0.07201641  -6.35 0.0007008539    1.671    0.401
       228  -9.3291     75.5178    224.4553   6.6969105244e+01   1.8139573679e+01    0.1220023    0.1025054  38.40 8.687025e-05    1.029    0.028
       229 -10.2804    169.6584     23.0413   7.2718903907e-01   3.9928970704e+01    0.2943701    0.1826077  73.80 0.0009628822    1.602    0.376
       230 -11.1436    146.8448    237.9427   5.3290036964e+01   7.0829457156e+00    0.3309919    0.2589828  68.40  0.002125256    2.105    0.525
       231  -8.9846    164.4762    211.4238   4.6174876403e+01   8.9187805215e+00    0.1227893    0.1014918   9.40 0.0002075358    1.014    0.014
       232  -9.3718     79.6194    205.6099   6.4198178008e+01   2.1361226145e+01    0.2286385    0.1233866 -81.43  0.001067267    2.505    0.601
       233 -10.7543      9.5134     19.3707   5.4085991042e+01   7.5013751497e+01    0.3796189    0.2258074 -13.34  0.001256528    1.903    0.475
       234 -11.3014      5.5075    200.4650   8.1680907335e+01   3.0206302016e+01    0.4238954    0.1171087 -66.30  0.001737123    3.641    0.725
       235  -9.0825    135.4557    196.4906   5.0016333513e+01   1.5515637769e+01    0.1294919    0.1162592  20.14 0.0002089714    1.029    0.028
       236 -10.9273    178.7804     20.6132   3.5908032753e+02   3.8043159406e+01    0.5052211    0.2471228  47.90  0.002233457    2.621    0.619
       237  -9.7627     16.1620    190.3647   7.8655827612e+01   3.1564000915e+01    0.2463268    0.1279306  80.33  0.001263975    1.850    0.460
       238 -10.0081    216.5765     19.9263   3.5582878960e+02   2.9795136287e+01    0.1984742    0.1352063 -56.51 0.0003398076    1.224    0.183
       239 -12.5101      4.9210    183.5058   8.1168065495e+01   3.4049924186e+01    0.6379529    0.4321755  68.76  0.003885947    1.243    0.196
       240  -9.6141     46.5117     19.9306   2.9652622573e+01   6.9669492233e+01    0.2105819    0.1701891  36.94 0.0008138367    1.205    0.170
       241  -9.7158     74.8764     19.1330   1.7389458540e+01   6.3825357353e+01    0.2174256    0.1557537  22.26 0.0006640977    1.614    0.380
       242  -9.6066     28.3735    175.7752   7.4570999810e+01   3.3860944122e+01    0.1826262    0.1094211 -66.95  0.000728588    1.675    0.403
       243 -10.6546     15.8949    173.6062   7.7803092173e+01   3.5500625778e+01    0.2635328     0.168482  80.72  0.001452012    1.427    0.299
       244  -9.4025     39.3155    173.3114   7.1378878296e+01   3.3357581824e+01    0.1294184   0.09962099 -36.70 0.0007032598    1.637    0.389
       245 -12.2385      9.4529    166.7578   7.9174340879e+01   3.7676662292e+01    0.4660602    0.3463566  28.86   0.00212225    1.398    0.284
       246 -12.8057     12.7120    160.4402   7.7889106157e+01   3.8979131886e+01    0.6918472    0.4612495 -38.93  0.003702738    1.927    0.481
       247 -10.5362     18.4222    164.9990   7.6560855184e+01   3.7381661642e+01    0.3310643    0.2132021 -62.72  0.001791507    1.595    0.373
       248  -9.8618    205.0678    163.0966   3.0179642755e+01   1.0892450072e+01    0.2221489    0.1598893 -28.97 0.0007066224    1.216    0.178
       249 -10.0315    147.4185     15.8752   1.0356121158e+00   4.6169567706e+01    0.2899202    0.1536058  53.95  0.001333715    1.957    0.489
       250  -9.8546    218.4529     13.5138   3.5416665662e+02   3.0094101126e+01    0.1207309   0.09846431 -52.97 6.353435e-05    1.045    0.043
       251 -10.8885     28.2851    161.4648   7.3469524339e+01   3.7374197915e+01    0.4082097    0.2080861 -74.88  0.001921923    1.851    0.460
       252  -9.2273    214.9825    161.4826   2.8201902344e+01   9.6915268392e+00     0.162066    0.1175823  30.88 0.0003490989    1.477    0.323
       253 -10.7164      9.4059    155.3572   7.8534327409e+01   4.0503192497e+01    0.2672531    0.2009969  67.97    0.0012959    1.158    0.137
       254  -9.8528    104.5714    154.3328   5.0584598918e+01   2.9100511251e+01    0.2740241    0.1452296 -62.11  0.001127261    2.118    0.528
       255 -12.0744     16.8464    148.4790   7.5832214129e+01   4.1674001252e+01    0.9344986    0.3255051  85.36  0.003222685    3.474    0.712
       256 -11.1442     21.4426    150.4936   7.4587798026e+01   4.0772888155e+01    0.2448841    0.2252225 -76.10 0.0006232124    1.143    0.125
       257 -11.4367     24.0032    147.9923   7.3586004516e+01   4.1191972734e+01    0.3475268      0.27427  84.76 0.0008672189    1.144    0.126
       258 -11.0364      4.5033    153.2791   7.9851982901e+01   4.1376252919e+01    0.2687171    0.1721139  41.19  0.001124835    1.463    0.317
       259 -10.1759      4.6442     22.3215   5.9448617775e+01   7.4776804348e+01    0.3870869     0.223254  25.87   0.00209881    1.854    0.461
       260  -9.6227     55.5529    152.3114   6.4379758462e+01   3.6719856260e+01    0.1895608    0.1273926 -58.30 0.0004242703    1.494    0.331
       261  -9.6116    211.2538     15.9866   3.5522763598e+02   3.1325683801e+01    0.1703935    0.1317081 -45.77 0.0001951115    1.093    0.085
       262 -10.4886     45.3199    149.3340   6.7126517720e+01   3.8692271259e+01    0.4116792    0.2542454 -77.50  0.001982292    1.590    0.371
       263 -11.0265     48.9909    145.7208   6.5530150763e+01   3.9200351433e+01    0.4463807    0.3200518  27.14  0.002291221    1.461    0.315
       264 -12.2069      3.9219    142.4619   7.9411669556e+01   4.4164253543e+01    0.7881429     0.368219  55.99  0.003549166    2.005    0.501
       265 -12.2135     12.5044    136.8051   7.6290364880e+01   4.5037381387e+01    0.7054974    0.4727983 -73.88  0.003802248    1.352    0.261
       266 -10.1229    104.0899    147.2903   4.9406768694e+01   3.0818318440e+01    0.2594822    0.2105729 -68.15  0.001334321    1.315    0.239
       267 -10.6192     33.0932    144.0108   7.0342767461e+01   4.1370490782e+01    0.3154934    0.2378231 -87.16 0.0008558973    1.239    0.193
       268  -9.2288     79.4318    138.1914   5.4864585346e+01   3.6999239248e+01    0.1978731    0.1415858 -78.80 0.0004480959    1.548    0.354
       269 -10.7849     30.3520    132.4996   6.9944951736e+01   4.4667633105e+01    0.4116907    0.2446921 -43.15 0.0009165372    1.943    0.485
       270 -11.4019     24.1241    136.4414   7.2451394324e+01   4.4195674780e+01    0.5001203     0.402274   4.80  0.002808309    1.501    0.334
       271 -10.4136     20.8561    133.8989   7.3282070440e+01   4.5146835601e+01    0.3029982    0.2796749 -82.92  0.001287028    1.083    0.077
       272 -10.4080     40.6745    137.7615   6.7159754750e+01   4.2219957100e+01    0.3164915    0.2134229  50.50  0.001067778    1.458    0.314
       273  -9.4149    103.9260    130.5579   4.6048235465e+01   3.4805925558e+01    0.2135926    0.1478298  36.66 0.0003002558    1.462    0.316
       274  -8.7980     50.6931    129.3479   6.2620994306e+01   4.3281516617e+01    0.1572563    0.1033524  66.95 0.0007043015    1.702    0.413
       275 -11.1561     10.9339    125.4749   7.5877301618e+01   4.8136823656e+01    0.5860025    0.2628875 -51.74  0.002520937    2.285    0.562
       276  -9.5425     26.6831    127.2886   7.0590994343e+01   4.6397239279e+01     0.215717    0.1596686 -77.95 0.0003870493    1.231    0.187
       277  -9.7538     27.2463    124.0083   7.0001209323e+01   4.7223589045e+01    0.2130127    0.1910565  86.32 0.0002896694    1.015    0.015
       278  -9.7853     23.0137    126.5442   7.1782308798e+01   4.6919053250e+01    0.1856364    0.1378956  23.69 -3.538943e-05    1.473    0.321
       279  -9.6796      2.2430    125.6594   7.8882713072e+01   4.8639288699e+01    0.2590055    0.1414202  82.44  0.001247927    1.684    0.406
       280  -9.8285     26.0149    131.6932   7.1319382329e+01   4.5284297876e+01    0.2465336    0.2132386  84.02 0.0004779632    1.042    0.040
       281 -10.6929    104.7641    122.3497   4.3966835277e+01   3.6607985683e+01    0.3392258    0.2995247  54.98  0.001000425    1.167    0.143
       282  -9.6904     49.2401    122.7924   6.2059224589e+01   4.5198322262e+01    0.2884747    0.2072459  12.10  0.001393386    1.678    0.404
       283 -10.6191     43.8421    117.3071   6.3070561835e+01   4.7305851132e+01    0.5296571    0.2516785 -75.57  0.001485921    2.219    0.549
