#   1 NUMBER                 Running object number                                     
#   2 MAG_AUTO               Kron-like elliptical aperture magnitude                    [mag]
#   3 X_IMAGE                Object position along x                                    [pixel]
#   4 Y_IMAGE                Object position along y                                    [pixel]
#   5 X_WORLD                Barycenter position along world x axis                     [deg]
#   6 Y_WORLD                Barycenter position along world y axis                     [deg]
#   7 A_WORLD                Profile RMS along major axis (world units)                 [deg]
#   8 B_WORLD                Profile RMS along minor axis (world units)                 [deg]
#   9 THETA_WORLD            Position angle (CCW/world-x)                               [deg]
#  10 FWHM_WORLD             FWHM assuming a gaussian core                              [deg]
#  11 ELONGATION             A_IMAGE/B_IMAGE                                           
#  12 ELLIPTICITY            1 - B_IMAGE/A_IMAGE                                       
         1 -15.4678    112.8037    133.3925   8.6743104417e+01   3.2688157989e+01     4.507581     1.673033 -37.51   0.01230042    4.979    0.799
         2 -17.0713    170.4405    111.9213   6.7927346463e+01   2.5659855825e+01     9.298555     7.154771 -17.14   0.04688702    1.430    0.301
         3 -14.3324    132.1559    121.9186   7.9120332812e+01   3.1540063756e+01     3.863688    0.6103435 -47.26  0.008666702    6.378    0.843
         4 -11.3699     97.6220     12.3277   5.0230505806e+01   5.9662869803e+01    0.2845566     0.213734  10.54   0.00101866    1.517    0.341
         5 -10.7917     88.4684     13.5110   5.3221162506e+01   6.1762607399e+01    0.2691111    0.1049621  49.42  0.001032809    2.376    0.579
         6 -13.0745    247.1094    245.1427   7.9253113775e+01  -4.8556578386e+00     0.805208    0.4513274  -9.02  0.005858688    1.551    0.355
         7 -12.8106    237.7701    241.3011   8.0125150058e+01  -3.5026063230e+00    0.4288167    0.2757252  34.92  0.002483888    1.787    0.440
         8 -10.9304    100.2187    234.4842   1.0411682940e+02   1.4456427730e+01    0.1841694    0.1645906 -75.77  0.001132668    1.372    0.271
         9 -10.9409    237.2441    232.0039   7.8873729550e+01  -2.5030132616e+00    0.1952179    0.1527444  19.56  0.001568554    1.371    0.270
        10 -10.2747     73.0992    228.9029   1.0915912458e+02   1.8735030394e+01    0.1903276    0.1238865  53.53  0.001217737    1.317    0.241
        11  -9.3713    171.0673    225.7025   8.9249598546e+01   6.4151976812e+00    0.1568356    0.1224646  20.51 0.0003526116    1.021    0.020
        12 -11.3949    164.5110    226.2904   9.0556085045e+01   7.2106389438e+00    0.4002704    0.2692802  22.15   0.00259243    1.267    0.211
        13 -10.9094    160.5857    226.8170   9.1367834141e+01   7.6631333119e+00    0.2174067     0.185991  21.60 0.0009434848    1.098    0.089
        14 -12.4006    116.7474    226.7167   9.9993840236e+01   1.3575476890e+01    0.3325739    0.2690544  89.08  0.001760024    1.611    0.379
        15 -11.8996     86.4340    227.4875   1.0629148832e+02   1.7357721274e+01    0.3616932    0.1775263  23.82  0.001826897    2.264    0.558
        16 -12.0581     99.0194    226.1504   1.0356749928e+02   1.5991749945e+01    0.3657756    0.2120443  29.78  0.001243084    1.529    0.346
        17 -12.6693    125.4984    221.4680   9.7617960522e+01   1.3248532432e+01    0.4084237    0.3194232 -13.12  0.001458213    1.587    0.370
        18 -11.2893    109.0020    223.0981   1.0119280743e+02   1.5201303366e+01    0.2573529    0.1524917  28.78  0.001482844    1.517    0.341
        19 -10.4398    136.9715    219.5219   9.5052669933e+01   1.1982640600e+01    0.2953148    0.1323755  29.12  0.001143061    2.063    0.515
        20 -12.5359    132.0892    221.1039   9.6234713357e+01   1.2404662360e+01    0.3280922    0.2734464 -18.03  0.002253971    1.399    0.285
        21 -12.3558    131.7560    214.5840   9.5493271038e+01   1.3507288421e+01    0.3707332    0.2982147  10.69  0.001739316    1.293    0.227
        22 -11.4073     83.8185    220.4782   1.0621364423e+02   1.8918874309e+01    0.2416378    0.1561511  58.75  0.001198705    1.510    0.338
        23 -10.7902     74.9210    219.8159   1.0804456880e+02   2.0141151792e+01    0.2412622    0.1249882  47.26  0.001109926    1.594    0.373
        24 -11.0779    145.4544    218.0821   9.3166466636e+01   1.1029219364e+01      0.38906    0.1585685  41.32  0.001860632    2.177    0.541
        25 -11.0940     99.3441    216.3772   1.0251219045e+02   1.7645396969e+01    0.2447281     0.186117  52.26  0.001238249    1.209    0.173
        26 -11.2411     77.4228    214.3157   1.0702988618e+02   2.0847871177e+01    0.2612864    0.1321815  56.91   0.00134467    2.019    0.505
        27 -10.8643     86.2056    209.8214   1.0468671619e+02   2.0571109459e+01    0.2670568    0.1503124  59.09  0.001411058    1.902    0.474
        28 -15.7222    147.2766    187.9380   8.8436765362e+01   1.5747395331e+01     3.363055     1.960222  25.30   0.01690043    1.771    0.435
        29 -11.0813    195.3176    248.9182   8.8007398798e+01   4.9163589715e-01    0.2592426    0.1384431  14.94  0.001605393    1.802    0.445
        30 -11.5975    166.6149    248.5276   9.2958974420e+01   4.0055732846e+00    0.2551079    0.1826231   4.15  0.001833915    1.386    0.278
        31 -12.3444    185.9195    185.7603   8.0291261227e+01   1.0102287563e+01    0.4964353     0.295137  29.55  0.002715945    1.568    0.362
        32 -12.0522     74.2981    183.7647   1.0471094008e+02   2.7368212083e+01    0.3614891     0.230531  88.16   0.00136053    1.816    0.449
        33 -11.4113     65.9277    183.9820   1.0677825123e+02   2.8397978202e+01    0.3399632    0.1768996 -80.78  0.001628749    2.212    0.548
        34 -11.7134    187.6891    194.5957   8.1454639451e+01   8.5129573950e+00    0.5121492     0.189919  30.87  0.002173266    2.769    0.639
        35 -11.7109    180.9122    192.7512   8.2427712337e+01   9.7919557841e+00    0.4187376     0.357776 -38.48  0.002172722    1.370    0.270
        36 -11.9958    177.8500    198.8880   8.4011589515e+01   9.3179681840e+00    0.6109962    0.3407087  29.63  0.002899226    1.621    0.383
        37 -12.1834    173.2466    194.8813   8.4256650037e+01   1.0612074543e+01    0.6457271    0.3485084 -29.39   0.00300029    2.134    0.531
        38 -11.4903     59.6081    175.9716   1.0753168584e+02   3.0942052244e+01    0.3630605    0.2360176 -74.97  0.001844982    1.561    0.359
        39 -11.8193    142.1280    201.7116   9.1602462444e+01   1.4158019044e+01    0.3849761     0.197739  44.24  0.001926303    1.869    0.465
        40 -11.5879     94.4230    172.4026   9.8311474378e+01   2.6996780430e+01    0.2661325      0.26051  27.84  0.001001514    1.124    0.110
        41 -11.5319     80.3278    201.6511   1.0518037512e+02   2.2906545617e+01    0.2870922    0.1662342  59.11  0.001521842    1.779    0.438
        42 -10.8095    208.6053    169.7664   7.3259344398e+01   9.0200605489e+00    0.4421375    0.2409452  -1.47  0.001873903    3.075    0.675
        43 -10.9176    123.9972    205.9688   9.6019045633e+01   1.6073537704e+01    0.1813032    0.1549333  36.13 -0.003769674    1.020    0.020
        44 -12.8948    114.1344    198.2797   9.7171817759e+01   1.8887677435e+01    0.5523481     0.279366  42.27  0.002347623    1.733    0.423
        45 -11.9831     88.5682    168.3781   9.9223885898e+01   2.8738895031e+01    0.3324979     0.264228 -75.09   0.00113992    1.324    0.244
        46 -14.2386     95.4008    184.6087   9.9715639298e+01   2.4281245311e+01    0.9229887    0.7286472  77.08  0.004850508    1.386    0.279
        47 -10.9589     54.8554    167.8588   1.0791812529e+02   3.3360190546e+01    0.5331358    0.1831227 -72.58  0.002059917    3.053    0.672
        48 -10.9694     74.3532    167.4297   1.0276475265e+02   3.0961140369e+01    0.3395287    0.1860057 -73.50  0.001523787    1.990    0.498
        49 -12.1015     83.4136    182.4441   1.0233627949e+02   2.6422176395e+01    0.3806987     0.250279 -62.37  0.001625752    1.631    0.387
        50 -13.0654     77.8553    175.7708   1.0290402686e+02   2.8623434752e+01    0.5789483    0.4253772  64.64   0.00235024    1.347    0.258
        51 -12.9478     88.9885    198.4335   1.0286620645e+02   2.2392104254e+01     0.563724    0.3545259  84.65  0.002291329    2.094    0.522
        52 -12.5081     79.2781    162.4016   1.0080792335e+02   3.1422849680e+01    0.6946859    0.3681054 -82.35  0.002920568    2.533    0.605
        53 -12.3653     81.8562    153.5896   9.8843090825e+01   3.3090037453e+01    0.6253002     0.408778 -57.53  0.002543926    1.561    0.359
        54 -11.0890    216.2568    164.8651   7.1015773256e+01   8.5571397611e+00    0.3630528    0.1560829  33.11  0.001664636    2.485    0.598
        55  -9.9168     37.6786    163.1998   1.1201992342e+02   3.6373180447e+01    0.2959517    0.1039212 -71.24  0.001223995    2.640    0.621
        56 -10.0606    207.5415    163.1508   7.2180600101e+01   1.0167976114e+01    0.2522547    0.1669843  26.43  0.001270563    1.501    0.334
        57 -10.7504    229.0293    159.6439   6.7922849951e+01   7.3585146752e+00    0.3834605    0.2117826 -18.68  0.002007579    1.843    0.457
        58 -11.4446     69.7147    162.1198   1.0331386076e+02   3.2805433056e+01    0.3738193    0.2085085 -70.58  0.001786708    1.847    0.459
        59 -11.0071     61.8035    159.2854   1.0509478124e+02   3.4501844144e+01    0.4182365    0.1823469 -69.31  0.001783525    2.308    0.567
        60 -11.4948    219.3083    156.5927   6.8895082709e+01   9.2805219099e+00     0.296878    0.1933517 -39.20 0.0008556637    1.560    0.359
        61 -10.8554     49.5156    153.0629   1.0776531042e+02   3.7486760940e+01    0.5723055    0.2496159 -66.14  0.002517653    2.158    0.537
        62 -11.2583     67.4048    152.3854   1.0266178560e+02   3.5408236787e+01    0.4567006     0.259438 -76.42  0.002073434    1.877    0.467
        63 -11.5247     91.1635    150.1386   9.5760718056e+01   3.2483644873e+01    0.4096568    0.3051354 -69.33  0.001552978    1.394    0.283
        64 -12.8851     87.0454    188.7612   1.0221473748e+02   2.4602750788e+01    0.5096369    0.3451292 -80.25  0.002427143    1.704    0.413
        65 -10.6780     78.1060    145.5838   9.8646895238e+01   3.5536627881e+01    0.4323768    0.2497519 -54.77   0.00168436    1.752    0.429
        66 -10.7338     38.9757    144.0869   1.0980627668e+02   4.0853246612e+01    0.6633526    0.2207607 -64.24  0.002620105    2.644    0.622
        67  -9.9106    210.6898    145.4628   6.8081682970e+01   1.2343975536e+01      0.28891    0.1227348  41.27  0.001273203    2.472    0.595
        68 -11.6107     88.2746    141.4306   9.5075563424e+01   3.4982176378e+01    0.7448919    0.3379562 -53.16  0.002950714    2.198    0.545
        69 -11.6176     68.9948    136.7900   9.9896936412e+01   3.8985266206e+01    0.6728713     0.311537 -61.62  0.002812901    2.066    0.516
        70 -11.7802     83.6608    127.3989   9.3830848240e+01   3.9102321856e+01     1.208548    0.4079267 -51.76  0.004153424    2.874    0.652
        71 -12.8388     99.5284    165.7943   9.6059147463e+01   2.7657423132e+01    0.5634942    0.4778933  63.18  0.001980643    1.172    0.147
        72 -10.3943     22.8202    131.8602   1.1345328730e+02   4.5460998404e+01    0.4946571    0.1639249 -52.11  0.001839791    3.338    0.700
        73 -10.6950     96.2069    134.6923   9.1586869245e+01   3.5289065516e+01    0.3487282    0.2282024 -44.78  0.001380296    1.641    0.391
        74 -12.9828     99.4616    123.8001   8.8422141932e+01   3.7308377962e+01     1.184887    0.6106532 -46.47  0.004823287    2.003    0.501
        75 -11.8104     55.7303    141.6226   1.0455912469e+02   3.9541086664e+01    0.9591159     0.313255 -60.56  0.003590123    2.756    0.637
        76 -10.6877     81.0487    137.8785   9.6525652959e+01   3.6955271897e+01    0.4184989    0.2120636 -61.58   0.00177699    1.960    0.490
        77 -10.6412    222.2118    130.4173   6.3004901454e+01   1.2670731089e+01    0.2794062    0.1529804  38.38  0.001251729    2.009    0.502
        78 -10.9976     72.9470    127.3002   9.7079471673e+01   4.0773276878e+01    0.5841082    0.2688158 -57.39  0.002377258    2.062    0.515
        79 -10.6852     58.2173    122.2067   1.0085463168e+02   4.4112974936e+01     0.684276      0.26592 -78.14  0.002096033    3.991    0.749
        80 -10.0017     58.4000    115.7807   9.9671303633e+01   4.5731195434e+01    0.3260562    0.1872773 -44.17  0.001427974    1.963    0.490
        81 -10.8541     42.4115    120.1473   1.0573831851e+02   4.6547228498e+01    0.7631165    0.2852833 -85.60  0.002257847    4.495    0.778
        82  -9.3918     29.3094    123.6491   1.1052676117e+02   4.6972966792e+01    0.1477447   0.08799422  65.59 0.0007044235    1.716    0.417
        83 -10.3258     13.1387    121.4222   1.1559225820e+02   4.8871767529e+01    0.4792484    0.1238926 -54.24  0.001647075    3.859    0.741
        84 -10.2320     70.8478    117.3508   9.5865254280e+01   4.3578900758e+01    0.4545599    0.2671348 -44.85  0.001993894    1.861    0.463
        85 -12.4214    109.1767    110.5309   8.2535006426e+01   3.8614905934e+01     1.174535    0.5226477 -49.31  0.004316603    2.204    0.546
        86 -12.1977    109.2913     94.6535   7.8301168232e+01   4.2214570836e+01     1.022575    0.6559597 -37.09  0.004341853    1.676    0.403
        87 -11.1566     78.1307    109.4152   9.1825043102e+01   4.4438305177e+01    0.9409644    0.3540737 -63.31  0.003097025    3.033    0.670
        88 -11.8558     93.1223    107.6879   8.6632482918e+01   4.2295165699e+01     1.078073    0.5059051 -44.60  0.004071004    2.241    0.554
        89 -11.0371     14.1686    108.7537   1.1404276263e+02   5.2048010392e+01    0.5651472    0.2712001 -75.24  0.002656074    1.768    0.434
        90 -10.4683     66.2568    107.0618   9.5293440953e+01   4.6860556912e+01    0.5772341    0.2143467 -50.59  0.002056025    2.606    0.616
        91  -9.7546      2.3145    110.3191   1.1831870604e+02   5.2387434686e+01    0.1316264   0.08288765 -51.68  0.000508631    1.652    0.395
        92 -10.7057     22.0324    101.8874   1.1037701156e+02   5.3238245553e+01    0.5485784    0.2253808  74.97  0.001868827    3.708    0.730
        93 -10.2229     44.5448    101.2940   1.0189095065e+02   5.1193730088e+01    0.5389817    0.2395975  65.41  0.001656983    4.372    0.771
        94 -11.0454     81.9716     96.4560   8.7428491954e+01   4.6992091759e+01    0.6812825    0.2421343 -46.46  0.002247874    2.872    0.652
        95 -10.9880     95.5876     93.1615   8.2072987810e+01   4.5284981382e+01    0.7799361    0.4009924 -32.98   0.00272072    2.821    0.646
        96  -9.9459     62.9128     95.0644   9.3793885301e+01   5.0392056868e+01    0.3828646    0.1983195 -79.83  0.001335939    3.026    0.669
        97 -10.4094     64.5318     87.8268   9.1403070989e+01   5.1967288028e+01    0.6445491     0.381118 -17.82  0.002282891    3.383    0.704
        98 -10.0444     43.8508     92.8406   1.0050771768e+02   5.3463892447e+01    0.3250345    0.2069032 -34.30  0.001507206    1.907    0.476
        99 -10.3908     21.2699     92.5301   1.0936000572e+02   5.5734920789e+01    0.4558771    0.1159361 -48.65  0.001439626    4.094    0.756
       100  -9.8099     34.3142     88.9795   1.0352487519e+02   5.5494836651e+01    0.3366944    0.1617519 -85.15  0.001289555    2.640    0.621
       101 -10.1706     35.2007     82.8741   1.0193546763e+02   5.6981671043e+01     0.620281    0.2067935 -42.87   0.00198672    3.836    0.739
       102 -11.1091     87.4884     81.9720   8.1491833139e+01   4.9438450077e+01     0.868877    0.5679738 -20.85  0.003484497    2.347    0.574
       103 -10.8459      7.5014     84.3493   1.1384949342e+02   5.8774625279e+01    0.3648599    0.1472312 -46.22  0.001496536    2.512    0.602
       104 -12.8057     93.1239    159.4265   9.6726519817e+01   3.0055895302e+01     0.552802     0.482984 -78.46  0.002118119    1.176    0.150
       105  -9.4357     24.4803     80.9813   1.0612169740e+02   5.8470545922e+01    0.2005046    0.1049784  80.23 0.0008101612    2.546    0.607
       106 -10.9151    119.6678     78.0144   7.0353963236e+01   4.3563433196e+01    0.5176519    0.3480858 -24.33  0.001907499    1.841    0.457
       107 -11.6058    105.0136     79.3899   7.5029793346e+01   4.6484387293e+01    0.8363931    0.4859879 -32.95  0.003344407    2.010    0.503
       108 -13.3746    109.8338    185.3229   9.6407513513e+01   2.2014862706e+01    0.6897609    0.5186782  68.44  0.003595453    1.540    0.351
       109 -12.1132    128.9502     71.8966   6.5944416042e+01   4.2641967930e+01    0.8052934    0.5405664 -18.24  0.003380169    1.973    0.493
       110 -13.2377    105.4622    175.6538   9.6065266861e+01   2.4643327587e+01    0.6663685    0.5284163  56.09  0.003830543    1.245    0.197
       111 -12.3157    100.1438    206.6593   1.0128386593e+02   1.9301648372e+01    0.4136233    0.2269051  53.54   0.00169145    1.885    0.469
       112 -10.5944    116.1120     70.1775   6.8781891057e+01   4.5954301499e+01    0.4724578    0.2783186 -27.15  0.001861207    2.108    0.526
       113  -9.5071     81.6096     71.8032   8.0343630136e+01   5.2879432662e+01     0.333636    0.1443601 -53.40  0.001195833    2.389    0.581
       114 -10.8358     82.5875     66.0474   7.8039656321e+01   5.3972191173e+01    0.5738692    0.3585933 -17.32  0.002161647    2.742    0.635
       115 -10.6517    105.9854     68.6906   7.1214885870e+01   4.8531258418e+01    0.5214179    0.3196192 -26.77  0.002106027    2.050    0.512
       116 -10.7819     94.8202     66.8067   7.4082749986e+01   5.1331589207e+01    0.7860988    0.2288697 -40.67  0.002281427    3.620    0.724
       117 -11.5962    138.8778     64.1428   6.1025326237e+01   4.1702130935e+01    0.5579379     0.429855 -15.14  0.002367901    1.531    0.347
       118 -10.9379    122.1218     63.0844   6.4742926241e+01   4.5923849096e+01    0.5895394    0.4013254 -12.23  0.002373386    2.081    0.520
       119 -12.2671     88.4842    176.9900   1.0040832152e+02   2.6874502537e+01    0.3837031    0.2950621 -78.71   0.00153166    1.405    0.288
       120 -10.9755    110.8259     60.0954   6.6770346138e+01   4.9135213136e+01    0.5826252    0.3994037  -7.95   0.00239827    2.203    0.546
       121 -11.7921    147.6363     57.3456   5.6899459775e+01   4.0714682226e+01    0.4829062    0.3265487  10.34  0.001976544    2.340    0.573
       122 -10.3395     74.0899     52.1291   7.6066309013e+01   5.8572540905e+01    0.6769007    0.2873608 -28.42  0.001757661    5.527    0.819
       123  -9.9633    130.9245     63.0894   6.2534303013e+01   4.3816440240e+01    0.2851938    0.2135248 -27.63  0.001272549    1.410    0.291
       124 -10.9639    131.0395     55.4022   5.9856853534e+01   4.5142249020e+01    0.4435137    0.3172606  -1.28  0.001905244    1.975    0.494
       125 -12.2252    103.5368    194.4571   9.9070087993e+01   2.1143509618e+01    0.3954792    0.2445001  66.12  0.001766397    2.093    0.522
       126 -10.9983    119.6384     52.9651   6.1778319906e+01   4.8347449699e+01    0.4835067    0.3917311   4.40  0.002351445    1.522    0.343
       127 -11.7623     66.4843    194.2997   1.0765673360e+02   2.6148727995e+01    0.3447928    0.2039881  65.48  0.001837778    1.761    0.432
       128 -11.6672    139.9777     54.0926   5.7402944736e+01   4.3150444372e+01    0.4426248    0.3119045  -9.95  0.001963127    1.847    0.458
       129 -10.1050    105.8578     50.1078   6.4467531130e+01   5.2135655408e+01    0.3490303    0.2236871 -20.72  0.001475911    1.936    0.483
       130 -10.7581     91.8227     46.4827   6.7367468458e+01   5.5991091160e+01    0.6863831    0.1878486 -35.66  0.001940027    4.065    0.754
       131 -10.4705    130.0680     46.9071   5.7040625569e+01   4.6788670235e+01    0.4059998    0.2612094   2.38  0.001578979    2.566    0.610
       132  -9.2956     45.4779     49.4580   8.7671385667e+01   6.3919402640e+01     0.141674      0.12556 -33.50   0.00011435    1.061    0.057
       133 -10.5620    100.1982     55.8752   6.8381309351e+01   5.2364101816e+01    0.5406143    0.2706465 -31.51  0.002035409    2.290    0.563
       134 -11.9871     78.0165    192.8676   1.0480559967e+02   2.4973102605e+01    0.3210304    0.2331671  71.34  0.001394773    1.420    0.296
       135 -10.3704     43.6372    193.0972   1.1291588005e+02   2.9058536177e+01    0.2709963    0.1348834  85.30  0.001346167    2.211    0.548
       136 -11.5058    167.6163    204.1217   8.6805880847e+01   1.0019721298e+01    0.9624422    0.2285827  35.84  0.003423081    3.772    0.735
       137 -11.5786    173.4926    243.6346   9.1136106034e+01   3.7613877673e+00     0.197395    0.1724642  29.37  0.001561207    1.314    0.239
       138 -11.4536     54.7656    186.6923   1.0975094114e+02   2.9169035375e+01    0.4234314    0.2044941  71.13  0.001906027    2.517    0.603
       139 -11.7847    109.6926    205.5371   9.9058641902e+01   1.8184358903e+01    0.2743883    0.1844746  40.06  0.001166336    1.264    0.209
       140 -10.5686    113.2093     42.9703   5.9641232146e+01   5.1595512670e+01    0.4792096    0.3038059  -0.80  0.001854134    2.609    0.617
       141 -10.4586    122.9657     42.0218   5.6852860836e+01   4.9335072321e+01    0.4512763    0.2979878   3.16  0.001845911    2.327    0.570
       142 -10.6678     56.6964    205.5660   1.1086669998e+02   2.5034111394e+01    0.2140713    0.1245392  70.47  0.001188531    1.776    0.437
       143 -10.1767     83.6223     40.5993   6.7678418302e+01   5.8845493346e+01    0.3643857    0.2452881   5.44  0.001202974    2.291    0.563
       144  -9.9584    133.2905     40.8263   5.4110526825e+01   4.6914513402e+01    0.2957934    0.1793062  35.82   0.00122988    2.056    0.514
       145 -10.8318    106.1908     37.6962   5.9383011771e+01   5.4144150591e+01    0.3654573    0.2595772  -1.71  0.001219934    1.866    0.464
       146 -10.8569    206.9816    185.3663   7.6384188540e+01   7.0203229874e+00    0.3845335    0.1121753  39.27  0.001541068    3.327    0.699
       147  -9.4664    127.5000     31.9915   5.1982481537e+01   4.9655365115e+01     0.210046    0.1295272   5.86 0.0008106118    2.592    0.614
       148 -10.0018    112.0143     31.4826   5.5279666085e+01   5.3644608518e+01     0.285504    0.2123961  -0.42  0.001362731    1.656    0.396
       149 -10.1748    212.6990    183.5458   7.5071469345e+01   6.4467254677e+00    0.2933723    0.1462375  24.60  0.001466421    2.164    0.538
       150 -11.5461    198.4827    183.6291   7.7591975753e+01   8.5232751068e+00    0.2776391    0.2636482  53.89  0.001530717    1.496    0.332
       151 -12.0473    194.5229    179.2410   7.7533192119e+01   9.7764189571e+00    0.3919185    0.2875817   6.78  0.002131864    1.331    0.249
       152  -9.7691     40.8556     21.2014   7.7164705895e+01   7.0366463966e+01    0.1831843    0.1436253  -9.12 0.0003920328    1.306    0.235
       153  -9.2629     13.0178     21.2366   9.5427242910e+01   7.3739609259e+01    0.1523763    0.1032364  14.83 0.0008757145    1.603    0.376
       154 -10.0121     40.9306     13.9800   7.2878541482e+01   7.1590565532e+01    0.1985252    0.1734051  -4.14 0.0003007293    1.036    0.035
       155 -10.9784    167.9201    242.6801   9.2019811363e+01   4.5792085209e+00    0.1619418    0.1158417  26.54 0.0008258987    1.088    0.081
