#   1 NUMBER                 Running object number                                     
#   2 MAG_AUTO               Kron-like elliptical aperture magnitude                    [mag]
#   3 X_IMAGE                Object position along x                                    [pixel]
#   4 Y_IMAGE                Object position along y                                    [pixel]
#   5 X_WORLD                Barycenter position along world x axis                     [deg]
#   6 Y_WORLD                Barycenter position along world y axis                     [deg]
#   7 A_WORLD                Profile RMS along major axis (world units)                 [deg]
#   8 B_WORLD                Profile RMS along minor axis (world units)                 [deg]
#   9 THETA_WORLD            Position angle (CCW/world-x)                               [deg]
#  10 FWHM_WORLD             FWHM assuming a gaussian core                              [deg]
#  11 ELONGATION             A_IMAGE/B_IMAGE                                           
#  12 ELLIPTICITY            1 - B_IMAGE/A_IMAGE                                       
         1 -14.2001    206.3826     15.9685   5.9605835581e+01   3.0834601977e+01     2.578559     1.527103  27.98   0.01143627    2.773    0.639
         2 -11.0991      2.1045      5.5285   1.2991783966e+02   7.8327548928e+01    0.5797436    0.1697177 -69.66  0.002240967    3.496    0.714
         3 -11.6926      2.5323     15.2771   1.3319750497e+02   7.6161458960e+01    0.6307052    0.2482298 -80.17  0.002614935    3.096    0.677
         4 -10.1186    166.9842      2.0000   5.8932155785e+01   4.2347306706e+01    0.2377859   0.07390433  76.07 0.0005738743    2.953    0.661
         5 -12.0109    139.4344    248.4941   1.2271004473e+02   6.8637471086e+00    0.4058505    0.2962154  66.67  0.002632543    2.141    0.533
         6 -10.6550    192.2802    249.8538   1.1278960588e+02  -1.3372672002e-01    0.2311124   0.09860318  25.00  0.001266679    1.876    0.467
         7 -10.8134    162.7646    249.8905   1.1830634908e+02   3.6178190835e+00    0.2990612    0.1356204  43.85  0.001576036    2.293    0.564
         8 -12.1100    100.1006    238.4745   1.2979728222e+02   1.3557053671e+01    0.4980974    0.2287457  26.92   0.00191413    1.975    0.494
         9 -12.1252    100.9060    249.3554   1.3056295207e+02   1.1759204910e+01    0.6848258     0.226266  32.92  0.003258384    2.196    0.545
        10 -13.8747    105.6354    245.1752   1.2923727050e+02   1.1787971044e+01      1.62075    0.3531958  33.48  0.006254323    3.237    0.691
        11 -11.8818     90.5106    246.5132   1.3245984965e+02   1.3507572187e+01    0.4136957    0.2835653  57.46  0.001876657    1.439    0.305
        12 -12.8810     87.8588    243.0701   1.3274117868e+02   1.4385963289e+01    0.6025598    0.4482468  17.89 0.0007564182    1.474    0.322
        13 -14.8595     28.3649    244.3799   1.4492313104e+02   2.0878413804e+01      10.5587     2.449552  24.80     0.035536    6.022    0.834
        14 -10.6950    249.3736    230.7245   1.0036523873e+02  -4.8694553096e+00    0.1905651    0.1075984 -11.97 0.0008808802    1.507    0.336
        15 -11.6421     75.3732    228.8291   1.3430777110e+02   1.8344649814e+01    0.3209444    0.2198605  47.07  0.001410289    1.138    0.121
        16 -14.1948     45.4274    217.1141   1.4014696960e+02   2.4023618989e+01     1.344375    0.6152844  52.52  0.006770351    1.747    0.428
        17 -15.4372     54.5047    208.6629   1.3755257662e+02   2.4646796986e+01     10.04813     2.756024  57.42   0.03287296    4.878    0.795
        18 -11.7272    151.6159    228.7670   1.1794399266e+02   7.9732722073e+00    0.5395766    0.1666585  33.73  0.002288501    2.500    0.600
        19 -11.7794     62.9552    217.7874   1.3625190084e+02   2.1880894488e+01    0.4805135    0.1709484  41.25  0.002172525    2.002    0.501
        20 -10.5015    174.1179    220.1229   1.1220795618e+02   5.9960857496e+00    0.2013831    0.1413324  11.83  0.001255958    1.277    0.217
        21 -10.4738     26.6572    214.9144   1.4419620428e+02   2.6390920424e+01    0.2589013     0.120341  83.87  0.001410358    2.202    0.546
        22 -10.9524     71.0288    236.2702   1.3577624264e+02   1.7584846114e+01    0.3125673     0.121109  41.67  0.001617755    1.805    0.446
        23 -10.0689    228.4493    205.3242   9.9782371762e+01   3.8619314702e-01      0.20848    0.1740497 -19.59 0.0008049618    1.463    0.316
        24 -10.2158    193.2729    195.4769   1.0455495824e+02   6.6500512881e+00    0.6398965    0.3627761 -60.19  0.002167893    6.606    0.849
        25 -11.5828     64.3461    193.5889   1.3400961692e+02   2.6540986723e+01    0.3598194    0.2672663 -44.22   0.00171591    1.783    0.439
        26 -11.7714     69.7614    186.3285   1.3196239681e+02   2.7395763417e+01     0.281712    0.2606359  -6.90 0.0006712645    1.363    0.266
        27  -8.5396    181.5002    192.4491   1.0639134098e+02   8.9178246381e+00     0.131797    0.1071538  17.26 5.373023e-05    1.019    0.019
        28 -11.0961     79.3134    174.4495   1.2814815712e+02   2.8708648285e+01    0.2573521    0.2220775  46.13 0.0004105033    1.029    0.028
        29 -13.2622     66.5065    171.8336   1.3132619968e+02   3.1049134758e+01    0.5001428    0.2983595 -43.34   0.00172087    2.239    0.553
        30 -10.6566    104.3094    173.0243   1.2129168213e+02   2.5235325807e+01    0.6842889   0.09505728  41.43  0.001696142    5.425    0.816
        31 -12.7439     38.2317    226.4305   1.4219202774e+02   2.3045264446e+01    0.3021896     0.293341  34.04 0.0007413163    1.398    0.285
        32 -12.1310     86.1619    165.6508   1.2514184000e+02   2.9699952642e+01    0.9832958    0.5385128  51.06  0.004413813    1.784    0.439
        33 -12.8623     67.7220    144.5287   1.2759530602e+02   3.7426946523e+01     1.127742     0.645938  75.23  0.002806475    2.254    0.556
        34 -12.1982     57.3976    130.5748   1.2891642297e+02   4.2337342174e+01     2.080749    0.7177204 -83.90  0.004441726    8.435    0.881
        35  -9.2099    101.9927    146.0143   1.1751877522e+02   3.1698538547e+01    0.2344832    0.1818161 -14.61 0.0006295388    1.714    0.417
        36 -12.1247     87.8069    149.0650   1.2219869980e+02   3.3331708231e+01    0.2922739    0.2681821 -24.48 0.0005133479    1.273    0.215
        37 -11.1893     39.0282    146.6657   1.3671412666e+02   4.0341978611e+01    0.3483605    0.2263726  34.77  0.001164876    1.459    0.315
        38 -12.4755     27.9342    144.0845   1.3988788681e+02   4.2048229877e+01    0.5828409    0.3196265  37.81  0.002939145    1.661    0.398
        39 -10.5928     97.6253    132.7677   1.1631219928e+02   3.5623275750e+01    0.2874493    0.2473245  -3.78 0.0008424637    1.391    0.281
        40  -9.2701    107.2343    122.9510   1.1128368254e+02   3.6214119232e+01    0.2007691    0.1974229 -44.82 0.0002503739    1.069    0.065
        41  -9.6542    110.3131    135.7212   1.1310869320e+02   3.2611367322e+01    0.3665382     0.237467 -18.61  0.001295493    2.572    0.611
        42 -10.9196    167.9928    113.0447   9.2698827522e+01   2.5390157259e+01    0.3562605    0.3114958 -84.58 0.0009751164    1.434    0.302
        43  -9.7565     99.0464    149.9903   1.1907222749e+02   3.1272255537e+01    0.2570017    0.2375498  18.11 0.0006869877    1.153    0.133
        44  -9.6017    204.4812    110.9105   8.4959435005e+01   1.7941094792e+01    0.3921713    0.1757998  35.43  0.001467505    2.871    0.652
        45 -10.2745      1.5275     89.4756   1.4507950455e+02   5.7753080788e+01    0.2794271    0.1107047 -82.41  0.001203931    2.147    0.534
        46 -15.0128     10.2896    206.6345   1.4751032400e+02   2.9514593271e+01     3.819983     1.246817 -86.14   0.01335234    3.041    0.671
        47  -8.7637    108.9622     42.4888   8.5231247640e+01   5.3280583049e+01    0.2043024    0.1386816  86.83 0.0005636546    2.188    0.543
        48 -11.0522    248.5551    248.7464   1.0311633113e+02  -6.4761292691e+00    0.2636303    0.1348491  26.31  0.001849771    1.537    0.349
        49 -14.8424      5.4750    246.6594   1.4937096905e+02   2.2618669564e+01     16.87932    0.6285212 -83.70   0.03704736   20.654    0.952
        50 -11.8869     22.4616    230.0184   1.4563325792e+02   2.3967320377e+01    0.3795454    0.1186854  42.77  0.001615193    1.994    0.498
