#   1 NUMBER                 Running object number                                     
#   2 MAG_AUTO               Kron-like elliptical aperture magnitude                    [mag]
#   3 X_IMAGE                Object position along x                                    [pixel]
#   4 Y_IMAGE                Object position along y                                    [pixel]
#   5 X_WORLD                Barycenter position along world x axis                     [deg]
#   6 Y_WORLD                Barycenter position along world y axis                     [deg]
#   7 A_WORLD                Profile RMS along major axis (world units)                 [deg]
#   8 B_WORLD                Profile RMS along minor axis (world units)                 [deg]
#   9 THETA_WORLD            Position angle (CCW/world-x)                               [deg]
#  10 FWHM_WORLD             FWHM assuming a gaussian core                              [deg]
#  11 ELONGATION             A_IMAGE/B_IMAGE                                           
#  12 ELLIPTICITY            1 - B_IMAGE/A_IMAGE                                       
         1 -14.1730    247.5224     41.7325   5.9068988645e+01   2.0211039507e+01     1.488082    0.6743233 -37.36  0.007340681    2.309    0.567
         2 -11.5287    239.3589      2.2530   5.2383130633e+01   2.6750160754e+01    0.2808538    0.1179972 -53.68  0.001530088    2.029    0.507
         3 -12.1279    243.3673      3.6054   5.2342472312e+01   2.5787953708e+01    0.4490282    0.2694869 -16.20  0.002279387    3.822    0.738
         4 -14.7722    234.8696     28.8552   5.7758286028e+01   2.4550855787e+01     1.486346    0.6208652 -34.46  0.006982173    2.742    0.635
         5 -13.4542    247.0940     15.7279   5.4251367342e+01   2.3644036709e+01    0.9381972    0.4403188 -51.92  0.005308493    1.789    0.441
         6 -12.0043    250.2648     11.3832   5.3235569185e+01   2.3520592471e+01    0.9064731     0.100497 -40.16   0.00323771    5.067    0.803
         7 -13.1782    222.2997     19.1511   5.7000166798e+01   2.8436641040e+01    0.4937195     0.308884 -42.11  0.002961957    1.647    0.393
         8 -10.9272    155.9107     15.7566   6.4030978292e+01   4.3958509374e+01    0.2615701    0.1887634 -29.97  0.001568176    1.645    0.392
         9 -10.4840    142.5835     11.2422   6.4854563842e+01   4.7459731582e+01    0.1531397    0.1216095   3.89 0.0009496866    1.630    0.387
        10 -10.5891    155.4203      9.0248   6.2327212017e+01   4.4711750507e+01     0.164481    0.1248287 -26.68 0.0007800807    1.614    0.380
        11 -10.3436    148.0000      7.9568   6.3115407251e+01   4.6513521105e+01    0.1753891   0.07237098 -25.76 0.0008019353    2.939    0.660
        12 -10.7888      1.4690      7.3810   1.0772021388e+02   7.1900155884e+01    0.1951959   0.08154707 -38.61  0.001182949    2.078    0.519
        13 -11.8740    218.0354      5.1556   5.4586725458e+01   3.0923548507e+01    0.3406842    0.1886049 -37.01  0.001991326    1.987    0.497
        14 -12.7574    244.4539     23.5381   5.5899861830e+01   2.3228205969e+01     0.566761    0.3539099 -61.51  0.003539301    1.325    0.246
        15  -9.8714     50.7919      3.6085   8.4389774399e+01   6.6432491481e+01    0.1377005   0.09360791  44.34 0.0002446575    1.474    0.322
        16 -10.2650    158.8941      2.1318   6.0079738193e+01   4.4521462337e+01    0.1877236    0.1450475 -85.80 0.0008292978    1.232    0.188
        17 -10.9898    235.2165    229.2703   9.8598432438e+01  -9.7400187389e+00       0.3172     0.166983 -40.50  0.001475116    1.896    0.473
        18 -11.3991    193.6062    248.1981   1.0988072344e+02  -6.4331559515e+00     0.391249    0.2847138 -41.21  0.002319816    1.532    0.347
        19 -10.8101    158.3005    230.8356   1.1434539046e+02   2.5171178069e+00     0.257134    0.1275064 -57.72  0.001075546    2.572    0.611
        20 -10.5256    229.7650    228.5211   9.9478918277e+01  -8.8260691195e+00    0.2313075    0.1597767 -51.61  0.001051584    1.917    0.478
        21 -10.3017    211.6861    227.4700   1.0276078906e+02  -5.8808879431e+00    0.2249342    0.1149857 -40.16  0.001070383    1.978    0.495
        22  -9.9952    138.5002    228.5079   1.1824979777e+02   6.4460543573e+00    0.1396483    0.1262696  48.73 0.0001230804    1.007    0.007
        23 -11.2655    246.8089    226.1393   9.5928493161e+01  -1.0895606758e+01    0.3049539    0.2204101  47.81  0.001807668    1.907    0.476
        24 -11.5203    240.1184    221.3956   9.6273953044e+01  -9.2117070945e+00    0.3366685    0.2970889 -43.26   0.00220554    1.412    0.292
        25 -10.2510    223.1140    226.6880   1.0040788668e+02  -7.5316972611e+00    0.2128953    0.1700535 -39.65 0.0009133524    1.362    0.266
        26 -10.8130    198.8996    226.6467   1.0516095114e+02  -3.6664301760e+00    0.2533027     0.195486 -48.05  0.001312885    1.477    0.323
        27 -10.6078    205.9523    225.3077   1.0350749148e+02  -4.5914102008e+00    0.2819999    0.1780119 -49.06  0.001440763    1.834    0.455
        28 -11.4300    217.1581    222.8750   1.0086440424e+02  -5.9747685012e+00    0.4162797     0.270994 -50.83  0.001583303    1.883    0.469
        29 -11.0574    212.8745    210.0353   9.9322771469e+01  -3.0475273290e+00    0.8648025    0.1789401 -42.80  0.002539967    4.743    0.789
        30 -10.8701    219.4132    217.2069   9.9387923047e+01  -5.3705327111e+00    0.2927085    0.2112331 -48.05  0.001512422    1.580    0.367
        31 -11.8405    216.9667    212.0238   9.8896021777e+01  -4.0765497305e+00    0.5105116    0.3103568 -51.16  0.001975477    1.964    0.491
        32 -10.7065    228.3479    221.8347   9.8534537453e+01  -7.5364169711e+00    0.2343879    0.2105721  54.91  0.001480518    1.524    0.344
        33 -10.9775    186.0000    221.0267   1.0680904753e+02  -4.6629432702e-01    0.3597454   0.07800335 -45.95  0.001042038    4.850    0.794
        34 -12.0655    247.7922    216.8633   9.4062659209e+01  -9.5942921750e+00    0.5120561    0.2768807 -42.72  0.002445384    1.855    0.461
        35 -10.8490    193.1337    218.7844   1.0492744738e+02  -1.2846850296e+00    0.3045145     0.199039 -58.56  0.001463852    2.044    0.511
        36 -10.3526    210.9406    218.5261   1.0128665950e+02  -4.2293420523e+00    0.2171182    0.1688365 -33.18  0.001245223    1.266    0.210
        37 -10.5030    190.5520    225.7774   1.0670860008e+02  -2.1146517632e+00    0.2472789    0.1285973 -39.58  0.001131756    2.022    0.505
        38 -10.1065    170.5940    216.7905   1.0932145401e+02   3.0685431529e+00    0.1930494    0.1371941 -58.91 0.0009568962    1.670    0.401
        39 -10.1623    201.6410    221.2196   1.0363496032e+02  -3.1659572728e+00    0.1892542    0.1196327 -32.09 0.0009359038    1.638    0.389
        40 -11.1297    232.9784    212.7827   9.5993609343e+01  -6.7455112914e+00    0.3415027    0.2034864 -39.11  0.001784426    1.597    0.374
        41 -11.4671    240.4879    208.3575   9.3786075285e+01  -7.1494628991e+00    0.4579517    0.2696573 -56.98  0.002091213    2.748    0.636
        42 -10.5689    192.7926    209.7512   1.0333309918e+02   4.6210297783e-01    0.2760989    0.1937288 -53.23  0.001173114    1.634    0.388
        43 -11.1958    247.0027    206.5390   9.2278767326e+01  -7.8187988186e+00    0.4354666    0.2072272 -53.48   0.00173108    3.480    0.713
        44 -11.1229    243.2701    201.0680   9.1902686508e+01  -6.3497121247e+00    0.3680606     0.206623 -37.21  0.001889235    1.602    0.376
        45 -10.8139    229.3669    206.7849   9.5535511938e+01  -5.1631942551e+00    0.3662326    0.1414027 -43.65  0.001495893    2.544    0.607
        46 -10.3115    206.2617    207.9828   1.0024902873e+02  -1.5556811763e+00    0.1988828    0.1758896 -22.60  0.001169253    1.085    0.078
        47  -9.7984    182.7931    207.0437   1.0492792417e+02   2.7808215821e+00    0.1894073    0.1132348 -45.69 0.0008649951    1.725    0.420
        48 -11.1668    234.9916    203.0091   9.3771494362e+01  -5.4005565409e+00    0.3131891     0.243531 -57.02  0.001236323    1.677    0.404
        49 -11.0336    231.0000    194.0211   9.2766643094e+01  -3.1844431242e+00    0.3948998    0.1817572 -40.01  0.001742441    2.005    0.501
        50 -10.3130    197.5222    203.7352   1.0121493476e+02   7.6928145891e-01    0.2718163    0.1317153 -38.76  0.001137941    2.103    0.525
        51 -10.3891    187.3791    203.5857   1.0330150335e+02   2.6267466118e+00    0.2679386    0.1294235 -58.44 0.0009527231    3.200    0.687
        52 -10.9916    250.0999    200.7164   9.0633873720e+01  -7.3150982642e+00     0.425544    0.1654696 -41.44  0.001690625    2.333    0.571
        53 -11.9309    246.8001    193.5193   8.9828870499e+01  -5.6071183758e+00    0.4737665    0.3471777 -62.17  0.001938829    1.993    0.498
        54 -10.4925    243.6091    188.2162   8.9355586917e+01  -4.1928281593e+00    0.2012628    0.1542107 -30.97 0.0009245152    1.144    0.126
        55  -9.9258    223.5177    201.4950   9.5626676637e+01  -3.2875043437e+00    0.1349474    0.1214544 -12.96 0.0008102546    1.027    0.026
        56 -10.5828    231.4017    198.6414   9.3592459119e+01  -4.0692433939e+00    0.4693459    0.1952339 -50.68  0.001781742    3.123    0.680
        57 -10.4047    215.4851    197.5442   9.6408156333e+01  -1.2148368609e+00    0.2792824    0.1294961 -43.16  0.001030085    2.088    0.521
        58 -11.5218    224.2180    192.2795   9.3693019801e+01  -1.7378619148e+00    0.3946833    0.1821472 -43.59   0.00153682    2.069    0.517
        59 -10.2600    202.1428    197.1873   9.8999104399e+01   1.1994443899e+00    0.1905065    0.1725004 -69.70 0.0007931559    1.349    0.259
        60  -9.9300    176.3777    197.2551   1.0444638559e+02   5.9469726554e+00    0.2026901    0.1386363 -56.47 0.0007708904    1.651    0.394
        61  -9.7274    185.3197    190.3214   1.0115159919e+02   5.6795657822e+00    0.1509268    0.1139296  -4.04 0.0006296752    1.669    0.401
        62  -9.8049    219.5243    194.5081   9.5028669865e+01  -1.3474514592e+00    0.1370231    0.1257404 -17.31 0.0002664146    1.039    0.038
        63 -11.1641    237.0776    187.2263   9.0320912356e+01  -2.9664803415e+00    0.3339665    0.1838393 -37.55  0.001302259    1.642    0.391
        64 -10.7481    230.0777    187.0319   9.1557130489e+01  -1.7693529185e+00    0.2744312    0.1895194 -46.39 0.0009652616    1.449    0.310
        65  -9.9947    215.3633    187.1676   9.4373317199e+01   7.5420586172e-01    0.2034045    0.1246937 -51.09  0.000707261    1.775    0.437
        66 -11.7837    247.7282    178.3512   8.6700716898e+01  -3.1148871418e+00    0.6269118    0.2074441 -46.35   0.00231366    3.014    0.668
        67 -10.6471    223.8928    183.9229   9.2087358687e+01  -1.3540182704e-01     0.312486     0.184963 -51.58  0.001160148    1.869    0.465
        68 -11.1611    183.5365    182.7186   9.9998165571e+01   7.6015939979e+00     0.356812    0.1445288 -47.95   0.00128017    2.506    0.601
        69 -11.7702    241.3748    180.4974   8.8223719707e+01  -2.4663050964e+00    0.5302778    0.2294562 -47.73  0.002208067    2.368    0.578
        70 -10.9353    210.6049    182.4033   9.4340892658e+01   2.5305315287e+00    0.3552636    0.1277682 -38.98   0.00124799    2.790    0.642
        71 -10.8315    235.4965    180.8758   8.9341609402e+01  -1.5590775312e+00    0.2916957    0.2051609 -48.43  0.001076213    1.446    0.309
        72 -10.6703    230.8585    180.0150   9.0008092524e+01  -6.1365662208e-01    0.4662164    0.2106113 -26.91  0.001655299    3.269    0.694
        73  -9.8430    225.6423    179.1665   9.0797871379e+01   4.5023390820e-01    0.2058326    0.1186973 -32.69 0.0009427895    1.714    0.416
        74 -10.6635    204.5098    176.5724   9.4354435494e+01   4.8197645749e+00    0.3100115    0.1375836 -43.81   0.00120786    2.155    0.536
        75 -10.1411    197.6635    176.4838   9.5729035650e+01   6.1485117918e+00    0.2590199    0.1326829 -43.90  0.001064228    1.886    0.470
        76 -11.2496    182.1862    175.9968   9.8899244208e+01   9.2886244082e+00     0.364381     0.215729 -45.46  0.001294034    1.664    0.399
        77 -10.0742    210.5225    175.9831   9.3036974112e+01   3.8048357840e+00    0.2243995    0.1348928 -43.70     0.000784    1.581    0.367
        78 -10.2491    232.5704    174.6426   8.8610029018e+01   8.6622950189e-02    0.2636565    0.1221373 -37.87 0.0009765817    1.999    0.500
        79 -10.4693    223.5582    173.2817   8.9982498984e+01   1.9361038695e+00    0.2733426    0.1269438 -46.54  0.001122828    2.084    0.520
        80 -10.8828    218.7306    178.1703   9.1897606278e+01   1.8708560430e+00     0.430777    0.1808106 -38.53  0.001682793    2.299    0.565
        81 -10.2377    227.5744    171.2539   8.8823599772e+01   1.6013813955e+00    0.2636167    0.1244893 -46.41  0.001093863    2.028    0.507
        82 -11.4440    237.3319    169.1025   8.6637374437e+01   2.8946705319e-01    0.4043523    0.1712765 -46.78  0.001644859    2.269    0.559
        83 -10.6438    245.8625    169.0615   8.5163694196e+01  -1.1502913733e+00     0.333217    0.1670779 -48.44  0.001503607    1.970    0.492
        84 -10.4216    205.1865    169.2905   9.2692563380e+01   6.1561367043e+00    0.2832591    0.1876193 -65.37  0.001226737    2.091    0.522
        85 -10.8543    218.6269    167.8652   8.9783053001e+01   3.8857437439e+00    0.3574945    0.2347037 -40.41  0.001468277    1.408    0.290
        86  -9.8805    229.2355    165.9767   8.7432582960e+01   2.3044609464e+00    0.2085329     0.167707 -38.42 0.0008827064    1.122    0.109
        87 -10.5059    191.4915    165.4408   9.4670573623e+01   9.6587172679e+00    0.3263426    0.1441193 -44.57   0.00121673    2.185    0.542
        88 -10.4984    199.4707    164.5639   9.2835681723e+01   8.2426145995e+00    0.3159089    0.1408743 -43.91  0.001200139    2.138    0.532
        89 -10.5420    239.9364    164.1138   8.5168525520e+01   7.6063652292e-01    0.2108635    0.1778682 -59.10  0.001117393    1.312    0.238
        90 -10.6995    212.9382    163.0379   8.9847904657e+01   5.9151688167e+00    0.3152414     0.191005 -42.05  0.001446462    1.538    0.350
        91 -10.4370    246.5947    162.3135   8.3680068283e+01  -5.0769584798e-02    0.3167754    0.1774058 -51.61  0.001421501    1.861    0.463
        92 -10.9290    245.7410    157.4578   8.2835040874e+01   9.8076031879e-01     0.345772    0.2085271 -47.74  0.001365454    1.534    0.348
        93 -10.8151    241.7076    153.3519   8.2660276766e+01   2.4433090638e+00    0.3037691    0.2077079 -54.70  0.001077192    1.514    0.339
        94 -11.2031    243.9559    149.0085   8.1395633388e+01   2.8479015142e+00    0.3743596    0.2097601 -42.38   0.00131823    1.550    0.355
        95 -11.3676    205.3558    161.1616   9.0924129584e+01   7.7726706701e+00     0.458618    0.2839346 -43.96  0.001538055    1.524    0.344
        96 -10.1283    221.4816    161.8938   8.7994797878e+01   4.5164769067e+00    0.2225503    0.1310403 -43.11  0.001012796    1.559    0.358
        97  -9.8820    231.2758    159.3537   8.5691988180e+01   3.1932950681e+00    0.1421367    0.1045265 -14.28 0.0005153357    1.645    0.392
        98 -10.5343    226.5346    156.7880   8.5997226886e+01   4.5598720543e+00    0.3450539    0.1274721 -44.30  0.001194861    2.466    0.594
        99 -10.7507    237.6170    158.7108   8.4456150282e+01   2.1723684329e+00    0.2829274    0.1908837 -46.90  0.001049128    1.368    0.269
       100 -10.2236    196.7745    156.9881   9.1740094849e+01   1.0357895082e+01    0.2124579     0.119405 -43.68 0.0008861859    1.696    0.410
       101  -9.8459    216.2135    156.2445   8.7774699067e+01   6.6329024869e+00    0.2357536    0.1043468 -50.96 0.0008713517    2.420    0.587
       102 -10.0680    187.5270    155.4889   9.3328921850e+01   1.2582981361e+01     0.279669    0.1405583 -34.70  0.001031375    2.285    0.562
       103 -10.7485    250.3996    151.8527   8.0942080354e+01   1.2008791314e+00    0.7209979    0.1418108 -45.61  0.002013861    4.845    0.794
       104 -10.6968    233.2339    153.7299   8.4174629169e+01   3.9032995034e+00    0.3112032    0.1767523 -46.46  0.001124804    1.613    0.380
       105 -10.6141    205.4492    154.2827   8.9413645319e+01   9.1568237879e+00    0.2565979       0.2314 -36.42   0.00101744    1.056    0.053
       106 -11.0873    157.3914    152.7365   9.9451292185e+01   1.9572906061e+01    0.3123284    0.1495385 -51.46  0.001132878    2.139    0.533
       107 -10.1701    228.3064    151.5604   8.4577263052e+01   5.2347128706e+00    0.2579885    0.1184228 -42.05  0.001058618    1.961    0.490
       108  -9.3303    196.3244    150.3218   9.0358496183e+01   1.1842529209e+01    0.1531565    0.1200547  -3.29 0.0004612789    1.681    0.405
       109 -11.7902    235.1935    147.1405   8.2457623201e+01   4.7901372568e+00    0.4771638    0.2948549 -51.28  0.001610985    1.569    0.363
       110 -10.5961    223.6086    146.6945   8.4370587924e+01   7.0757380771e+00     0.294216    0.2110252 -49.94  0.001285194    1.316    0.240
       111 -10.3933    207.5569    145.0058   8.6964422352e+01   1.0617310859e+01    0.2364425    0.1380511 -42.22  0.001029329    1.604    0.377
       112  -9.7445    200.4912    145.4870   8.8445225788e+01   1.1979419688e+01    0.1508387    0.1413066 -55.82 0.0002695733    1.038    0.036
       113 -10.3444    247.3223    143.9908   7.9824450942e+01   3.1726892414e+00    0.2059689    0.1513472 -42.92 0.0008175164    1.172    0.147
       114 -11.2681    163.4633    143.9700   9.6025377739e+01   2.0250540307e+01    0.2453839    0.1526696 -47.44  0.000769141    1.577    0.366
       115 -11.2296    243.4975    140.0577   7.9617814035e+01   4.5864426385e+00    0.4661081    0.1840879 -42.57  0.001465822    2.192    0.544
       116 -11.0772    242.2219    133.8647   7.8529469699e+01   5.9684795127e+00    0.4415631    0.1820462 -41.38  0.001461089    2.128    0.530
       117 -12.7695    240.8779    125.2193   7.6925898044e+01   7.8201020088e+00    0.8727626    0.3212582 -47.47  0.003342263    2.464    0.594
       118 -11.7457    241.9341    117.6141   7.5168265989e+01   9.0098065764e+00     0.535915    0.1628644 -48.78  0.001817293    3.189    0.686
       119 -10.6462    230.0710    141.1361   8.2053866957e+01   6.9010328103e+00    0.3302248    0.1801466 -46.66  0.001419831    1.664    0.399
       120 -10.2241    250.5047    140.0616   7.8524698447e+01   3.3253931402e+00    0.3064426    0.1107145 -46.45  0.001185011    2.461    0.594
       121 -10.4773    248.6026    135.3450   7.7849063470e+01   4.5248085275e+00    0.2793238     0.142355 -44.57   0.00095738    1.682    0.405
       122 -11.3898    248.2986    129.7224   7.6737489496e+01   5.6046653572e+00    0.4538602    0.2858716 -54.87  0.001565019    1.537    0.349
       123 -11.0241    249.4161    123.7573   7.5343684556e+01   6.4796703613e+00    0.3361665    0.1847927 -47.81 0.0009712022    1.575    0.365
       124 -11.2838    247.8981    118.6419   7.4509426673e+01   7.6848962394e+00    0.3909573    0.1905963 -45.75  0.001313803    1.754    0.430
       125 -10.6675    224.0831    139.9190   8.2825268906e+01   8.3016451822e+00    0.3199003    0.1899938 -38.40 0.0009761886    1.584    0.369
       126 -10.6671    166.4716    140.4953   9.4525042223e+01   2.0368540687e+01    0.2893116    0.1453401 -55.63  0.001033662    2.283    0.562
       127 -10.3449    238.5034    140.0924   8.0428383119e+01   5.5016663852e+00    0.2182157    0.1229848 -43.09 0.0009047565    1.556    0.357
       128 -11.7037    234.8228    135.5360   8.0067515442e+01   7.0541366695e+00    0.5221168    0.2381053 -49.60  0.001570229    2.102    0.524
       129 -11.2657    218.9385    137.7269   8.3256001877e+01   9.7556179678e+00    0.3324932    0.1937766 -34.52  0.001464046    1.766    0.434
       130 -10.3919    208.3484    137.1992   8.5075847263e+01   1.2032060614e+01    0.2244196    0.1273867 -51.00 0.0009488304    1.738    0.424
       131  -9.7918    193.0000    136.9549   8.8006446244e+01   1.5339874857e+01     0.256162   0.08368971 -43.46 0.0007987307    2.917    0.657
       132 -10.1934    198.6261    136.2044   8.6715734776e+01   1.4287050719e+01    0.2198004    0.1376885 -35.33 0.0009498263    1.661    0.398
       133  -9.9734    187.6368    135.7979   8.8833278278e+01   1.6745935768e+01    0.2278239    0.1368713 -52.82 0.0009470952    1.699    0.411
       134 -10.7317    163.1343    135.3004   9.4059315894e+01   2.2253703437e+01    0.3152245    0.1806954 -33.38  0.001204915    2.081    0.519
       135  -9.9121    179.3172    132.6428   8.9840166247e+01   1.9244366284e+01    0.1636626    0.1213909 -80.24 0.0007044818    1.752    0.429
       136 -10.5451    142.7767    130.9686   9.7885883590e+01   2.7696840798e+01    0.2218859    0.1286544 -46.53 0.0008841723    1.701    0.412
       137 -10.2832    220.9298    128.9579   8.0979594813e+01   1.1062913325e+01    0.2349188    0.1679972 -69.73  0.001127342    1.664    0.399
       138 -10.4350    227.7236    125.3301   7.9041090836e+01   1.0381336438e+01    0.2756436    0.1532799 -50.17  0.001043488    1.680    0.405
       139 -10.6220    199.7362    126.1472   8.4191471547e+01   1.6098889446e+01    0.2486549    0.1777431 -60.15 0.0008359274    1.471    0.320
       140 -10.4273    225.3651    133.6040   8.1234370810e+01   9.2699687292e+00    0.2903879    0.1651857 -40.60  0.001060155    1.614    0.380
       141 -10.0932    235.1460    123.1858   7.7385247367e+01   9.3084411759e+00    0.2012166    0.1488921 -61.60 0.0006739022    1.358    0.264
       142  -9.9382    188.0000    123.0049   8.5754440005e+01   1.9329772251e+01    0.2567751   0.08442687 -42.85 0.0008000233    2.926    0.658
       143 -10.5410    212.7527    121.0512   8.0640470362e+01   1.4305401610e+01    0.4993878    0.1236964 -38.35   0.00132999    4.596    0.782
       144 -10.4560    179.5539    124.3071   8.7802725324e+01   2.0954101171e+01    0.3051091    0.1450019 -47.53  0.001137879    2.063    0.515
       145  -9.9040    194.0000    121.0150   8.4098516926e+01   1.8397928139e+01    0.2520866   0.08308271 -42.51 0.0007960909    2.899    0.655
       146 -10.5833    140.0000    118.0383   9.5352147934e+01   3.1194077903e+01    0.2639156   0.08861669 -45.36 0.0008038942    2.953    0.661
       147 -10.3195    230.5408    115.9825   7.6559972803e+01   1.1568488506e+01    0.2214676    0.1255905 -44.03 0.0007408546    1.573    0.364
       148 -10.0404    186.0000    115.0113   8.4241613865e+01   2.1408211613e+01    0.2573851   0.08442642 -42.32 0.0008038546    2.952    0.661
       149 -10.5446    247.5246    112.5228   7.3298413549e+01   8.8516677455e+00     0.276136    0.1166672 -42.74 0.0008924253    2.036    0.509
       150 -11.6576    241.6733    106.3216   7.2835279697e+01   1.1094611995e+01    0.2680659    0.1158384 -45.66  0.001136162    2.000    0.500
       151 -11.8613    248.0182    106.9764   7.2085167100e+01   9.7399881321e+00    0.3308794    0.1779421 -57.42  0.001194366    1.893    0.472
       152 -10.1502    160.5249    108.0232   8.7895471468e+01   2.8683422728e+01    0.2424204    0.1509597 -44.17 0.0009616953    1.595    0.373
       153  -9.9287    133.6594    108.6727   9.4526910022e+01   3.4611489587e+01    0.1596182    0.1248176   2.48 0.0007051474    1.735    0.424
       154 -10.0585    222.4601    104.9707   7.5418123580e+01   1.5283407909e+01    0.2251601    0.1285491 -43.98   0.00103097    1.596    0.374
       155  -9.8989    205.6262    104.8735   7.8179182926e+01   1.8966377928e+01    0.2198088    0.1245969 -51.67 0.0009468665    1.719    0.418
       156 -10.8013    229.2189    103.1017   7.3967331260e+01   1.4202022059e+01    0.2104879    0.1912084 -39.32  0.001238952    1.199    0.166
       157 -10.4312    149.6272    102.7828   8.9037746749e+01   3.2257697327e+01    0.2251171    0.1412494 -52.60 0.0009505054    1.681    0.405
       158 -10.9366    238.4726    102.0085   7.2380839801e+01   1.2500313245e+01    0.2165912    0.1195629 -44.96 0.0008147334    1.588    0.370
       159 -10.4158    166.8895    100.3503   8.4532880378e+01   2.8744757193e+01    0.2824618    0.1973989 -51.50  0.001299315    1.441    0.306
       160 -11.9296    248.7361     97.4214   7.0026216524e+01   1.1264841416e+01    0.4875301    0.1778111 -34.56   0.00172956    3.426    0.708
       161 -10.6618    247.5202     92.0644   6.9087360729e+01   1.2419215403e+01     0.288598    0.1414725 -46.78  0.000845055    1.739    0.425
       162 -11.9391    211.7635     93.9838   7.4642709060e+01   1.9609729153e+01    0.7715163     0.247491 -52.16  0.002346276    3.859    0.741
       163 -10.2366    242.0135     93.1879   7.0040493023e+01   1.3325944307e+01    0.2731156    0.1684283 -51.08 0.0008670347    1.409    0.290
       164  -9.9677    195.2808     97.6439   7.8297210917e+01   2.2663785060e+01    0.1556538    0.1083992 -71.02 0.0004841158    1.661    0.398
       165 -10.5067    236.5030     90.0648   7.0126051476e+01   1.4986556093e+01     0.361067    0.1621266 -35.48   0.00148775    2.433    0.589
       166 -11.7473    235.0206     95.0352   7.1386718739e+01   1.4432114659e+01    0.3721655     0.225013 -61.80  0.001720619    1.705    0.414
       167 -11.8374    231.1913     90.5793   7.0969382965e+01   1.6004959224e+01    0.3671879    0.2057884 -47.92 0.0009595982    1.585    0.369
       168  -9.8767    202.7612     97.9634   7.7059808023e+01   2.0901326619e+01    0.1982718    0.1177992 -42.05 0.0008834105    1.621    0.383
       169 -10.7731    188.8338     92.8866   7.8313033175e+01   2.5035809082e+01    0.3609158    0.2220343 -54.03  0.001258076    1.655    0.396
       170  -9.9448    164.4854     93.5027   8.3272703009e+01   3.0630738614e+01    0.1509403    0.1445732  89.20 -6.261965e-06    1.007    0.007
       171 -10.2159    157.6459     90.1979   8.3875025422e+01   3.2860652926e+01    0.2138967    0.1432794 -31.63 0.0009494821    1.691    0.409
       172 -11.2385    175.7270     87.8690   7.9534439128e+01   2.9030397823e+01    0.2983712    0.2292421 -49.73 0.0007194611    1.288    0.223
       173 -11.5361    237.8912     43.1809   6.0292673612e+01   2.2004591846e+01    0.2785206    0.1654335 -44.71 0.0009795499    1.578    0.366
       174 -12.2670    246.9772     86.9120   6.8102655431e+01   1.3395480795e+01    0.5371949    0.5116893 -72.80  0.003539446    1.226    0.184
       175 -14.4876    238.5548     77.1139   6.7138677410e+01   1.6729790479e+01     1.298178    0.8712119 -48.15  0.007189317    1.323    0.244
       176  -9.5173    242.3267    248.2964   1.0061884117e+02  -1.3529218369e+01    0.1235584   0.07799911   0.13  0.000702443    1.629    0.386
       177 -12.1511    249.3659     63.4318   6.3104280655e+01   1.6679023511e+01    0.7075207    0.3283698 -33.96  0.003187029    2.580    0.612
       178 -11.5852    249.8639     54.6613   6.1334567005e+01   1.7893354356e+01    0.6195626    0.1358309 -46.73  0.002233644    3.580    0.721
       179 -11.7596    226.1528     87.1580   7.0939954834e+01   1.7666133727e+01    0.3621787    0.2371448 -33.75  0.001758483    1.698    0.411
       180 -10.0607    151.0000     87.9940   8.4760356946e+01   3.4826492152e+01    0.2469483   0.08582719 -40.36 0.0008021811    2.941    0.660
       181 -10.0701    124.4974     88.0040   9.1233804731e+01   4.0809039958e+01    0.2147488    0.1279411 -63.97 0.0008105959    2.580    0.612
       182  -9.8116    197.5977     86.8016   7.5296769562e+01   2.4105267688e+01    0.2111987    0.1253728 -51.87 0.0009468785    1.652    0.395
       183 -10.1934    188.4675     87.0338   7.6944426469e+01   2.6185339855e+01    0.2249215    0.1402227 -42.82   0.00100387    1.580    0.367
       184 -10.0297    206.0000     84.9461   7.3478315683e+01   2.2507419301e+01    0.2332032   0.07751088 -39.88 0.0007982301    2.913    0.657
       185 -11.5173    225.1397     81.7016   6.9890792233e+01   1.8813975882e+01    0.2808346    0.1928298 -48.54 0.0007831912    1.323    0.244
       186  -9.8375    170.5102     83.4997   7.9435178011e+01   3.1053227596e+01    0.1486453    0.1393699  89.13 0.0008106075    1.003    0.003
       187 -10.5920    159.1618     81.4997   8.1225340449e+01   3.4096900008e+01    0.2827504    0.2094416 -40.77  0.001154732    1.393    0.282
       188  -9.9605    214.7938     80.0231   7.1000943611e+01   2.1371824480e+01    0.1895884    0.1042018 -42.50 0.0008646037    1.726    0.421
       189 -14.3011    242.0549     53.4825   6.1913260002e+01   1.9664074671e+01     1.250357    0.5447501 -50.60  0.005973633    1.998    0.499
       190  -9.9752    150.5110     78.9900   8.2409603207e+01   3.6576683852e+01    0.2263335    0.1466416 -39.76  0.001036188    1.600    0.375
       191 -10.3930    203.2487     66.6118   6.9629849850e+01   2.6194764185e+01    0.2673822    0.1486998 -51.31  0.001243129    1.745    0.427
       192 -10.0441    206.5134     78.0818   7.1803233508e+01   2.3567868738e+01    0.2839319    0.1241163 -44.81 0.0008441827    2.146    0.534
       193 -11.0694    206.0079     74.0155   7.0937657745e+01   2.4361915714e+01    0.3384974    0.2165357 -72.65  0.001485005    1.795    0.443
       194 -10.2565    201.1455     78.0035   7.2624365016e+01   2.4811783359e+01    0.2469105    0.1413458 -61.44  0.001071596    1.970    0.492
       195 -10.0559    189.0000     78.0097   7.4634374796e+01   2.7639539748e+01    0.2329294   0.08032548 -38.92 0.0007983019    2.914    0.657
       196 -10.0462    174.5013     77.9393   7.7228327242e+01   3.1081394867e+01    0.2226889    0.1425314 -41.48  0.001031978    1.587    0.370
       197 -10.4275    130.3683     77.8185   8.6804968740e+01   4.1403508559e+01    0.2095295    0.1395408 -27.12 0.0009501991    1.750    0.429
       198  -9.9013    166.5988     77.2240   7.8569238258e+01   3.3083277774e+01    0.2020884    0.1438181 -27.79 0.0009543108    1.668    0.400
       199  -9.7272    223.3288     76.2785   6.8955149571e+01   2.0112119685e+01    0.1240298     0.108824  29.21 0.0003552598    1.597    0.374
       200 -10.7228    157.4912     75.4566   7.9947118017e+01   3.5547577070e+01    0.2982647    0.1457047 -38.29  0.001202766    2.138    0.532
       201 -10.7204    163.2519     71.0770   7.7600679908e+01   3.4917900843e+01     0.349413    0.1983927 -35.53   0.00153827    1.905    0.475
       202 -10.2134    187.3400     68.5092   7.2577414924e+01   2.9608056133e+01    0.2390713    0.1304202 -39.11 0.0009476631    1.878    0.468
       203 -10.3876    193.6693     67.5094   7.1307953830e+01   2.8279230895e+01    0.2390657    0.1269139 -39.68  0.001064862    1.904    0.475
       204 -10.3617    182.4544     68.0442   7.3284962076e+01   3.0839917681e+01    0.2152493    0.1370318 -41.52  0.001030671    1.598    0.374
       205 -10.1662    138.6289     66.7889   8.1640189734e+01   4.1404965488e+01    0.2042103     0.131142 -47.93 0.0009512878    1.691    0.409
       206 -10.2202    146.0000     66.0091   7.9776440304e+01   3.9820472110e+01    0.2301737   0.08278091 -36.80 0.0008035649    2.950    0.661
       207 -12.3953    223.5555     66.4536   6.6784352833e+01   2.1645848171e+01    0.5530497    0.1911087 -33.02  0.001878943    3.937    0.746
       208 -10.7945    187.3884     62.2838   7.1037383681e+01   3.0580717833e+01    0.2509139    0.1370444 -33.74 0.0009597301    2.058    0.514
       209 -10.6191    157.9478     61.3453   7.6018069362e+01   3.7735083887e+01    0.3158253    0.2096993 -38.16  0.001357413    1.601    0.375
       210 -10.3367    153.1062     59.3375   7.6425386929e+01   3.9189728089e+01    0.2377855    0.1949453 -23.76 0.0009394545    1.421    0.296
       211  -9.7234    221.2973     59.6708   6.5602368306e+01   2.3192254357e+01     0.141654   0.08858997 -69.74 0.0004147683    1.637    0.389
       212  -9.7769    206.5264     58.9695   6.7397092744e+01   2.6626606375e+01      0.17304    0.1253859  -4.62 0.0008097386    2.524    0.604
       213 -10.2786    182.5078     57.9537   7.0752355321e+01   3.2397661998e+01     0.204366    0.1361121 -39.48 0.0008665699    1.576    0.365
       214 -12.2172    224.4512     53.5017   6.3891893584e+01   2.3419249994e+01    0.2414139    0.2006032 -67.44 0.0007139356    1.068    0.063
       215 -12.9096    226.4943     50.9909   6.3122220936e+01   2.3338666478e+01    0.4838923    0.1777702 -49.08  0.002041441    2.483    0.597
       216 -11.7056    192.3210     55.1161   6.8533255626e+01   3.0501764261e+01    0.2960911    0.1816539 -42.58  0.001160326    1.643    0.391
       217  -9.8349      9.7052     55.7116   1.2079534254e+02   6.3758000815e+01    0.1192293   0.06667879 -29.76 0.0001763865    1.549    0.354
       218 -10.9071    153.0879     52.3369   7.4487577135e+01   4.0224267308e+01    0.2308723    0.1964319 -18.14 0.0009195775    1.401    0.286
       219  -9.6411    178.6695     50.3226   6.9456553461e+01   3.4423387364e+01    0.1457957   0.09784628 -75.39 0.0005194203    1.698    0.411
       220 -10.4298    198.3158     48.3221   6.6070313308e+01   3.0081111184e+01    0.1279077    0.1030655  36.72 0.0005249235    1.662    0.398
       221 -10.4584    168.9956     44.0441   6.9414882389e+01   3.7589235420e+01      0.32389    0.1810219 -35.20  0.001554774    1.958    0.489
       222 -11.3879    168.6065     37.4992   6.7779948010e+01   3.8531146067e+01    0.3099702    0.1121917 -38.79   0.00125044    2.816    0.645
       223 -10.3951    192.0069     40.6244   6.5124867417e+01   3.2605236417e+01    0.2326211    0.1654316 -55.38 0.0009649282    1.383    0.277
       224  -9.9619    224.3718    248.2475   1.0392518061e+02  -1.1059552613e+01    0.1570699    0.1113764 -42.57 0.0008939018    1.656    0.396
       225 -11.6207    176.1397    246.1747   1.1307558176e+02  -3.2889421522e+00    0.4387336    0.2744438 -40.28  0.002215033    1.778    0.438
       226 -10.5466    241.9489    242.0466   9.9615381053e+01  -1.2592152966e+01    0.2815843    0.2127882 -62.62  0.001597135    2.546    0.607
       227 -10.2641    218.4037    248.1801   1.0504451594e+02  -1.0190639836e+01    0.1598433    0.1153383 -46.94 0.0009458927    1.744    0.427
       228 -12.7847    223.6652     35.3861   6.0178141712e+01   2.6113938798e+01    0.3527881    0.2151203 -44.06  0.001989119    1.600    0.375
       229  -9.8238    201.6561     35.3213   6.2656902917e+01   3.1062155596e+01     0.140819   0.08560056 -73.18 0.0007050021    1.728    0.421
       230  -9.7550    173.2583     34.6397   6.6333562996e+01   3.7786300297e+01    0.1354162   0.09124401 -68.39 0.0006441039    1.625    0.385
       231 -10.8889    170.2832     29.3528   6.5434380383e+01   3.9124392398e+01    0.1914507    0.1151311 -16.69 0.0007879599    2.473    0.596
       232  -9.9935    125.4997     30.0065   7.3542557270e+01   4.9444407154e+01    0.1847572    0.1310418 -27.52  0.001038522    1.606    0.377
       233 -10.4595    202.1165    242.4514   1.0724480565e+02  -6.8412590363e+00    0.2308295    0.1746024 -60.25  0.001279426    1.922    0.480
       234 -11.0550    166.4199     27.7130   6.5588380337e+01   4.0224320531e+01    0.2291882    0.1175775 -39.29  0.001109394    2.083    0.520
       235 -10.1868    136.6331     25.2385   6.9895863647e+01   4.7443346679e+01    0.1636918    0.1248714  -5.98 0.0004313731    1.662    0.398
       236 -11.5983    191.1504    235.8522   1.0832736465e+02  -3.9854345978e+00    0.5411772    0.3850121 -82.10  0.002502002    2.943    0.660
       237 -10.5552    171.8542     22.2772   6.3427686907e+01   3.9557032344e+01    0.3857696   0.07109835 -32.81  0.001249738    5.126    0.805
       238 -10.0753    232.5267    247.0090   1.0219301067e+02  -1.2022732773e+01    0.1739625    0.1108011 -35.80 0.0009561711    1.597    0.374
       239 -10.9761    140.5558     16.7190   6.6734896165e+01   4.7410683108e+01    0.2102002    0.1306318 -17.69  0.001131981    2.072    0.517
       240 -11.0608    230.3110    236.6223   1.0081288428e+02  -1.0166580724e+01    0.3103148    0.2218797 -57.73  0.001455489    2.246    0.555
       241 -10.0456    173.4649     39.9901   6.7659280647e+01   3.7060711736e+01    0.1901035    0.1327985 -36.69 0.0008489689    1.579    0.367
       242 -10.7871    206.3528    236.4289   1.0538350990e+02  -6.5253361921e+00    0.2712386    0.2333783 -58.88  0.001666143    1.572    0.364
       243 -11.3390    215.9964    233.4486   1.0297955085e+02  -7.5384818419e+00    0.3388851    0.2827541 -39.55  0.001842329    1.354    0.261
       244 -10.3363    170.5852    234.7786   1.1238994444e+02  -3.4493454422e-01    0.1759678    0.1327138 -60.18 0.0009515015    1.639    0.390
       245 -10.1753    240.5726    231.8133   9.8069979605e+01  -1.0890945018e+01    0.1657717    0.1104499 -44.89 0.0009461755    1.750    0.429
       246  -9.9934    225.5728    231.7672   1.0084824950e+02  -8.7180599330e+00     0.163241    0.1171346 -45.76 0.0006950357    1.634    0.388
       247 -10.1979    201.6421    231.8127   1.0551819309e+02  -5.0048035638e+00    0.1758453     0.122653 -49.31  0.000947764    1.688    0.408
