#   1 NUMBER                 Running object number                                     
#   2 MAG_AUTO               Kron-like elliptical aperture magnitude                    [mag]
#   3 X_IMAGE                Object position along x                                    [pixel]
#   4 Y_IMAGE                Object position along y                                    [pixel]
#   5 X_WORLD                Barycenter position along world x axis                     [deg]
#   6 Y_WORLD                Barycenter position along world y axis                     [deg]
#   7 A_WORLD                Profile RMS along major axis (world units)                 [deg]
#   8 B_WORLD                Profile RMS along minor axis (world units)                 [deg]
#   9 THETA_WORLD            Position angle (CCW/world-x)                               [deg]
#  10 FWHM_WORLD             FWHM assuming a gaussian core                              [deg]
#  11 ELONGATION             A_IMAGE/B_IMAGE                                           
#  12 ELLIPTICITY            1 - B_IMAGE/A_IMAGE                                       
         1 -14.1908    135.4621    123.2690   1.0937953739e+02   3.1057212323e+01     3.009312    0.4148145 -48.88  0.005807919    8.346    0.880
         2 -14.5055    153.3868     55.1595   8.5460898570e+01   4.0207472739e+01     1.407811     1.157762  54.26  0.003138081    1.202    0.168
         3 -14.7540    164.9411     40.4007   7.8393522120e+01   3.9454661621e+01     1.281655     1.070714  -9.76  0.003956659    1.343    0.256
         4 -14.6006    180.9189      7.1925   6.5559327224e+01   3.9183012225e+01     1.617302    0.8502934  62.95  0.006294354    1.712    0.416
         5 -11.4200     13.9484    242.0805   1.4997750412e+02   2.4334379265e+01    0.2912098   0.02806729 -75.92 0.0009744774    7.838    0.872
         6 -19.8472     71.9474    168.2210   1.3312061369e+02   3.2028950282e+01     17.89735     6.855346 -67.86   0.07515974    2.567    0.610
         7 -11.9450    116.1092    211.9303   1.2942373592e+02   1.6289278583e+01    0.2772486    0.1779937  71.60  0.001159752    1.726    0.421
         8 -11.5828    110.5630    212.0792   1.3052398092e+02   1.7156574122e+01    0.2434015    0.1697439  83.60  0.001423337    1.564    0.361
         9 -12.1944    109.2576    208.0513   1.3028893339e+02   1.8115512417e+01    0.2711205    0.2247637  34.23 0.0007439245    1.405    0.288
        10 -13.3329     11.7821    206.0479   1.4860453601e+02   3.1120630203e+01    0.3911706    0.2556946  35.51  0.002583633    1.866    0.464
        11 -10.7968      9.2305    202.2935   1.4885513653e+02   3.2092858636e+01    0.1489843    0.1075001  79.38 0.0004560468    1.056    0.053
        12 -11.8608    133.6737    249.2730   1.3051179053e+02   7.3343880883e+00     0.204627    0.1363423 -52.59  0.001344862    1.927    0.481
        13 -10.9780     10.1994    211.3323   1.4915487750e+02   3.0260437094e+01   0.09249506   0.06378125 -74.94 0.0003398274    1.499    0.333
        14 -10.6680    156.9352    202.1648   1.2000457004e+02   1.0999366567e+01    0.4485532      0.24056  66.30  0.001753623    3.326    0.699
        15 -12.7214    163.5556    203.2127   1.1887232065e+02   9.6278378337e+00    0.3929466    0.3219294 -19.95  0.001787943    1.523    0.343
        16 -12.6440    161.2427    197.9994   1.1848842293e+02   1.0938761723e+01    0.3530453    0.3049936 -59.18  0.001438224    1.324    0.245
        17 -11.9080    169.0142    202.5822   1.1770933702e+02   8.7472932488e+00    0.2224535    0.1848969 -77.71 0.0006338099    1.536    0.349
        18 -10.1538    136.1723    196.7976   1.2333860866e+02   1.5678688389e+01     0.290399    0.1737573  83.93  0.001205632    3.043    0.671
        19 -11.2481    154.6195    196.3020   1.1953307722e+02   1.2447234999e+01    0.3174605    0.2258389 -78.60  0.001648462    1.957    0.489
        20 -10.4256    131.6868    236.4735   1.2943750705e+02   9.5977612528e+00    0.1594984   0.09585355  45.34 0.0001554678    1.333    0.250
        21  -9.9587    135.0203    234.8668   1.2864577350e+02   9.3180374096e+00    0.1446504    0.1248596  61.93 0.0005323426    1.114    0.103
        22 -11.8677    155.2875    190.2497   1.1840453615e+02   1.3413825537e+01    0.2479151    0.1843813  45.07  0.001373269    1.206    0.171
        23 -10.9450     17.3105    233.6900   1.4906934906e+02   2.5447338769e+01     0.243373    0.0476479  58.01  0.000999989    4.164    0.760
        24 -11.4011     30.0827    183.8661   1.4370829288e+02   3.3751162552e+01    0.3448296    0.1623621  48.95  0.001714267    1.883    0.469
        25 -10.4924    120.6668    183.3490   1.2452725149e+02   2.1030581734e+01    0.2641052    0.1819114  72.79 0.0007705899    1.627    0.385
        26 -11.7005    117.1961    180.4240   1.2482295083e+02   2.2232958997e+01     0.676869    0.3161822  66.73  0.002175316    4.390    0.772
        27 -10.3789    108.6252    182.4179   1.2697580742e+02   2.3286110067e+01    0.2030969    0.1474175 -80.45  0.001113078    1.449    0.310
        28  -9.0680     25.6561    232.1384   1.4763834243e+02   2.4839732470e+01    0.1294495   0.07916738  87.73 0.0002828601    1.340    0.254
        29 -10.9701      4.4290    180.1262   1.4850008771e+02   3.6975402031e+01    0.1979908    0.1656442 -10.86 0.0009469283    2.146    0.534
        30 -12.1708    195.6978    174.3321   1.0742930010e+02   8.4632255102e+00    0.3855029    0.2983638 -83.55 0.0008940593    2.024    0.506
        31 -13.4814    195.6412    170.7969   1.0673749992e+02   9.0740210531e+00    0.7273145    0.4548909 -53.37  0.002952358    2.005    0.501
        32 -11.3382      9.8592    174.9634   1.4711026210e+02   3.7579205807e+01    0.1786092     0.127043  63.76 0.0008819263    1.230    0.187
        33 -12.9461    177.3340    171.5827   1.1052414024e+02   1.2565774501e+01    0.5240826    0.3368018 -61.42  0.002410256    2.109    0.526
        34 -13.2885    138.3041    170.9709   1.1864767957e+02   2.0325088710e+01    0.7008854    0.5855818  86.37  0.003902167    1.289    0.224
        35 -13.1322    143.7897    168.2820   1.1696177073e+02   1.9818381248e+01      0.62371    0.4004974 -84.90  0.002359779    2.562    0.610
        36 -11.3874    125.8173    172.1730   1.2159946293e+02   2.2402358798e+01    0.2830323    0.2460363 -66.54  0.001099734    1.187    0.157
        37 -12.3843    111.9619    168.8565   1.2413875049e+02   2.5575242963e+01    0.6268904    0.3551906  62.70  0.002571001    2.054    0.513
        38 -10.6727     24.0987    228.4086   1.4769702925e+02   2.5677113543e+01    0.1873039    0.1143054 -76.17  0.001050739    1.599    0.375
        39 -10.3334     25.5197    223.2408   1.4717622733e+02   2.6468158929e+01    0.2268765   0.09607835 -66.53  0.001324074    2.415    0.586
        40 -11.2103    201.1183    165.1144   1.0452567415e+02   8.9562953057e+00    0.3241528    0.2110244 -67.29  0.001244187    2.749    0.636
        41 -11.0737    122.8983    165.9766   1.2118316968e+02   2.4236589416e+01     0.269998    0.1623539  65.04 0.0007228756    2.008    0.502
        42 -11.0341     14.9971    164.1230   1.4527177340e+02   3.9438074806e+01    0.2564398    0.1919498  -2.44   0.00165178    2.408    0.585
        43  -9.6512      2.2192    165.0532   1.4800684517e+02   4.0313417675e+01    0.1386802    0.1031805  82.83 0.0003154162    1.045    0.043
        44 -10.5660    222.6863    162.1665   9.9915362758e+01   5.2060167767e+00     0.303992    0.1562154 -45.93 0.0009509114    2.253    0.556
        45 -11.5033    203.0047    172.4317   1.0565376124e+02   7.3580966025e+00    0.2519634     0.196073 -55.28  0.001024966    1.589    0.370
        46 -12.7132    129.8815    160.9249   1.1869203120e+02   2.4008210614e+01    0.4375239    0.4125381 -38.98   0.00161172    1.212    0.175
        47 -12.7952    163.7060    156.0681   1.1024191601e+02   1.8268269635e+01    0.3932416    0.3274831 -57.37  0.001244725    1.285    0.222
        48 -14.1840    143.4711    143.3407   1.1204777509e+02   2.5060939085e+01     1.001998     0.541822 -63.17   0.00383991    2.486    0.598
        49 -14.9097    133.3406    145.2372   1.1480745502e+02   2.6703664215e+01     2.266244    0.7711586 -56.51  0.006944182    3.752    0.734
        50 -11.9337    124.9997    247.1748   1.3180104013e+02   8.9854216286e+00     0.245581    0.1445448 -59.66  0.001521464    2.103    0.525
        51 -11.5432    174.1696    148.7027   1.0644526523e+02   1.7513447404e+01    0.3476264    0.2935948 -89.48  0.001445165    1.437    0.304
        52  -9.5544     19.6993    230.8005   1.4854298837e+02   2.5712466741e+01   0.08131309   0.07010534  63.72 0.0006661531    1.444    0.308
        53 -11.9463    219.2165    224.5244   1.1207802906e+02  -3.0679238378e+00    0.2714946    0.1736186 -43.72  0.001194099    2.032    0.508
        54 -11.7985      5.8095    137.0686   1.4510175150e+02   4.6146000874e+01    0.2603541    0.2309839 -79.29  0.001214115    1.255    0.203
        55 -10.0375     13.7802    137.2322   1.4320678172e+02   4.5499147577e+01    0.1463568    0.1153313 -63.50  0.000314945    1.304    0.233
        56 -12.3555    160.7400    128.0966   1.0463061700e+02   2.4551348402e+01    0.4347578     0.361942 -70.17  0.002165591    1.342    0.255
        57 -10.8707    110.2013    222.9051   1.3185383151e+02   1.5263303343e+01    0.1679935    0.1324945  68.98 0.0003672066    1.126    0.112
        58 -11.7934    139.9425    120.7211   1.0767201731e+02   3.0656893410e+01    0.3519425    0.2688952  65.92  0.001008506    1.452    0.311
        59 -11.5489     26.5004    117.4503   1.3762047304e+02   4.8970243389e+01     0.218222    0.1803688 -81.25 0.0007150082    1.047    0.044
        60 -10.7542    167.6210    112.6256   9.9234582023e+01   2.6120120288e+01    0.3251145    0.2290243 -80.54  0.001337668    2.101    0.524
        61 -10.6051     19.4748    223.1760   1.4819101931e+02   2.7118180389e+01   0.08365814   0.07365671  36.55 0.0003124339    1.731    0.422
        62 -10.8435    205.3354    110.2404   9.1061276146e+01   1.7756018230e+01    0.3078818    0.2109582  46.19 0.0008824447    1.510    0.338
        63 -10.2979     15.3321    220.1501   1.4872976642e+02   2.8100186630e+01    0.1646961    0.1117728 -66.41  0.001204791    1.779    0.438
        64 -11.1850      6.7038    102.0354   1.4116422239e+02   5.3993013285e+01    0.1856972    0.1696009 -40.13 0.0007139723    1.352    0.260
        65 -11.5652      7.0255    110.9974   1.4216133541e+02   5.1940789226e+01    0.1944279    0.1566322 -55.33 0.0007334976    1.301    0.232
        66 -12.8038    121.9168    222.9214   1.2965036883e+02   1.3398857197e+01    0.4685085    0.2853067  27.27  0.002425468    2.258    0.557
        67 -10.4672    144.8219     80.1936   9.5322995952e+01   3.7897540566e+01    0.2119775    0.1850774  11.48 0.0004731376    1.313    0.238
        68 -10.0577    153.7366    213.1147   1.2228041467e+02   9.7108354181e+00    0.2175475     0.132068  75.07 0.0009585723    2.931    0.659
        69 -11.5382    119.1876    243.5590   1.3244480411e+02   1.0434848820e+01    0.1556018    0.1201199  65.61 0.0009643341    1.167    0.143
        70 -12.8735    168.8651     32.2222   7.5081953426e+01   3.9522787779e+01    0.3964442    0.3766413  18.86 0.0008430249    1.138    0.122
        71 -10.9240     13.6112     59.9170   1.3156055928e+02   6.2898667560e+01    0.1753178    0.1714881  57.58 0.0004057578    1.301    0.231
        72 -10.4604    141.8381     33.0489   8.0344828025e+01   4.6335914390e+01    0.2179213    0.1921128 -74.86 0.0004283291    1.259    0.206
