#   1 NUMBER                 Running object number                                     
#   2 MAG_AUTO               Kron-like elliptical aperture magnitude                    [mag]
#   3 X_IMAGE                Object position along x                                    [pixel]
#   4 Y_IMAGE                Object position along y                                    [pixel]
#   5 X_WORLD                Barycenter position along world x axis                     [deg]
#   6 Y_WORLD                Barycenter position along world y axis                     [deg]
#   7 A_WORLD                Profile RMS along major axis (world units)                 [deg]
#   8 B_WORLD                Profile RMS along minor axis (world units)                 [deg]
#   9 THETA_WORLD            Position angle (CCW/world-x)                               [deg]
#  10 FWHM_WORLD             FWHM assuming a gaussian core                              [deg]
#  11 ELONGATION             A_IMAGE/B_IMAGE                                           
#  12 ELLIPTICITY            1 - B_IMAGE/A_IMAGE                                       
         1 -15.7264     66.5876    145.3087   1.0541323819e+02   3.7231871238e+01     1.791742     1.395902  -9.44  0.003545202    1.824    0.452
         2 -12.7667    170.2285     19.7838   4.4235640400e+01   4.0080388075e+01    0.4232937    0.2419593 -11.29  0.001656509    2.377    0.579
         3 -10.8128    202.7803     17.6504   3.9728102702e+01   3.2363036618e+01    0.1174879   0.09994172  21.61 0.0006841156    1.546    0.353
         4 -15.1553    135.8300    106.7038   7.7558936506e+01   3.4050422083e+01     3.506037     1.505973 -43.61   0.01237841    2.260    0.558
         5 -13.8615    204.5556     72.8104   5.3875528930e+01   2.4329060994e+01    0.6392524    0.3931154  41.96  0.002867951    1.946    0.486
         6  99.0000    192.2533     44.4766   4.8128248842e+01   3.1575336338e+01      1.36843    0.3818617 -31.23  0.004443178    3.574    0.720
         7 -17.6680    232.5992     93.8876   5.4903315992e+01   1.4575447239e+01     13.94369     4.846717 -40.97   0.05180911    2.473    0.596
         8 -12.2526    214.2305    147.6188   7.0617665333e+01   8.8400276846e+00    0.6224645    0.3641689  61.53  0.002565548    2.616    0.618
         9 -12.0606    180.8722    148.0997   7.7401036572e+01   1.5489870260e+01    0.3228377    0.2650718  81.09  0.001247461    1.630    0.387
        10 -12.5287    177.0662    142.1784   7.6846165578e+01   1.7489014578e+01    0.3959161    0.2844389 -33.92  0.001230683    1.388    0.280
        11 -12.8620    174.3471    138.5389   7.6577426681e+01   1.8814540449e+01    0.4305424     0.373345 -70.03  0.001588153    1.340    0.254
        12 -13.3093    176.7070    132.7478   7.4668748609e+01   1.9498618201e+01    0.6427631    0.4289164  44.99  0.002891244    1.547    0.354
        13 -11.5208    149.3553    148.7518   8.4666062360e+01   2.1870485599e+01    0.3779631    0.2455133 -65.00  0.001565974    1.997    0.499
        14 -11.5648    143.5515    146.5386   8.5560381145e+01   2.3543149579e+01     0.642626    0.2598937 -56.80  0.001984498    3.358    0.702
        15 -12.2523    196.8750    143.2042   7.2959907011e+01   1.3148680659e+01    0.4376096    0.3184326  77.11 0.0008543875    2.161    0.537
        16  -9.8911    100.6368    143.8917   9.5955520194e+01   3.2315722656e+01    0.1996917    0.1361595 -68.19 0.0003156938    1.559    0.358
        17 -12.0866    215.2581    142.0189   6.9155307986e+01   9.6568731812e+00    0.4126366    0.3147447 -61.67  0.001647625    1.677    0.404
        18 -16.7799    136.4923     30.5011   5.3328119551e+01   4.7200046000e+01      7.16965     4.335527 -24.69   0.03423252    1.782    0.439
        19 -13.3966    187.3300    137.6202   7.3591748913e+01   1.6236491372e+01    0.5714704     0.458533  20.67   0.00283262    1.389    0.280
        20 -11.9404    188.6355    129.8859   7.1459866168e+01   1.7491186108e+01    0.4507424    0.2175571 -48.37  0.001087742    2.191    0.544
        21 -13.9037    161.2786     81.4618   6.4284094567e+01   3.3240738935e+01    0.5306924    0.4442548 -21.53  0.001503687    1.276    0.216
        22 -14.5021    160.6939    128.4069   7.7179769216e+01   2.3895985582e+01      1.25643    0.8848286  88.94  0.005007535    2.356    0.576
        23 -13.4623    167.8046    114.0736   7.1900489523e+01   2.5314907695e+01      1.12995    0.6520142 -51.78  0.001070221    1.879    0.468
        24 -14.0814    160.2058    117.4654   7.4506443740e+01   2.6325353588e+01     1.098743     0.733336 -74.73  0.002666761    2.438    0.590
        25 -12.2679    191.8324    153.1792   7.6259535895e+01   1.2245702098e+01    0.4768927    0.2183278 -43.68  0.001549409    2.153    0.536
        26 -10.4676    193.7948    127.0655   6.9729562937e+01   1.6928669458e+01    0.2327975    0.1998042 -66.38  0.000519738    1.341    0.254
        27 -12.9087    184.7241    121.4633   7.0178645201e+01   2.0017706689e+01     0.690465    0.5267602 -12.81  0.001846506    1.563    0.360
        28 -11.3775    204.0562    122.8535   6.6715030595e+01   1.5523911161e+01    0.6314346    0.3024527  54.57  0.002438757    2.428    0.588
        29  -9.9816    148.0131    193.5199   9.3876903434e+01   1.2648929447e+01    0.1937301    0.1138074  60.15 0.0008059662    2.310    0.567
        30 -12.4023    199.7955    163.3965   7.6898773031e+01   8.7364796211e+00    0.5439569    0.3310736 -71.57  0.001693279    4.948    0.798
        31 -10.1402    178.2468    110.0393   6.8591219078e+01   2.3744995601e+01    0.1950186    0.1287854 -38.12  0.000295575    1.458    0.314
        32 -11.4117    188.4502    108.0715   6.6004164984e+01   2.1795758002e+01    0.4664727    0.2112418 -36.15  0.001498219    2.164    0.538
        33 -11.4822    191.5267    106.5144   6.4999881789e+01   2.1391548344e+01    0.3011456    0.2560377  72.21  0.001162446    1.333    0.250
        34 -10.8818    193.7701    103.9903   6.3916734554e+01   2.1355687148e+01    0.2935373    0.2040563 -34.18  0.001356392    1.390    0.281
        35 -13.9875    154.0469    100.2929   7.1305038933e+01   3.1292806806e+01    0.9162911    0.8384559  70.91    0.0047049    1.176    0.149
        36 -13.4246    165.1029     93.6311   6.6942150294e+01   3.0028710820e+01    0.7739434    0.5987985  33.63  0.001664799    1.437    0.304
        37 -11.9786    153.6383     89.0545   6.8198262878e+01   3.3626208260e+01    0.3157354    0.2690171 -35.89 0.0004765386    1.155    0.134
        38 -12.5557    189.3187    148.4566   7.5707281806e+01   1.3678396373e+01    0.4374009    0.3152854 -28.91  0.001677542    1.403    0.287
        39 -11.2976    174.6400    163.8378   8.2233596927e+01   1.3579304160e+01    0.2136362    0.1365619 -52.89 0.0009344257    1.755    0.430
        40 -12.1381    171.1509     90.1064   6.4667760912e+01   2.9264624716e+01    0.2924134    0.2628695  50.17 0.0003957904    1.146    0.127
        41 -12.0105    186.8850     98.8245   6.3883322354e+01   2.3912272289e+01    0.5902622    0.4097446 -31.60  0.002470281    1.446    0.308
        42 -11.0411    186.9099     90.5506   6.1662364200e+01   2.5437287042e+01    0.4652827     0.293581 -13.03  0.001817794    2.394    0.582
        43 -12.9762    197.5181     97.4272   6.1515951728e+01   2.1710158656e+01    0.4451172    0.3797381   3.88  0.002083176    1.384    0.277
        44 -13.7790     55.4779    151.6185   1.0936970393e+02   3.7117263435e+01    0.4503964    0.4067315 -48.44 0.0008211957    1.247    0.198
        45 -14.7284    187.5545     80.8970   5.8918214946e+01   2.7006187630e+01     2.032054    0.9110331  38.98  0.006833639    3.190    0.687
        46 -10.6601    201.7738     88.3674   5.8402858938e+01   2.2347153827e+01    0.3793242    0.2162827  68.30 0.0006653728    2.212    0.548
        47 -10.2235    202.1655    248.1931   9.1929392407e+01  -5.3053417884e+00     0.147687    0.1257135  34.31 0.0002848816    1.292    0.226
        48 -10.6001     87.8382     88.2015   8.6030942533e+01   4.7687530558e+01    0.2077009    0.1990198 -65.66 0.0004285611    1.138    0.122
        49 -12.8778    149.3524     91.5133   6.9911585268e+01   3.4148347026e+01     0.386419    0.3653436 -86.43 0.0006106953    1.130    0.115
        50 -11.7958    133.8476    146.6254   8.7960581286e+01   2.5471790282e+01    0.9287687    0.2795763 -54.91  0.002480611    4.380    0.772
        51 -11.3336    132.2994    138.7926   8.6578837885e+01   2.7574669125e+01    0.4070924     0.232695 -57.56  0.001204749    1.927    0.481
        52 -15.5259     26.6294    163.0912   1.1802520907e+02   3.7499583160e+01      2.48447     1.482114  41.51   0.00961789    1.753    0.429
        53 -11.1586    172.3385    149.8398   7.9649858069e+01   1.6900894482e+01    0.2409526     0.194033 -60.87 0.0008838272    1.422    0.297
        54 -12.4145    103.7843     51.8199   6.9017854183e+01   5.1673023914e+01    0.4113685    0.2872796 -24.39  0.002037525    1.465    0.317
        55 -10.7679    174.5424     48.0405   5.1881400006e+01   3.5449918663e+01    0.2123992    0.1917617  67.19 0.0004962453    1.084    0.077
        56  -9.8564    171.2175     43.2878   5.1036096418e+01   3.6944631210e+01    0.1301067    0.1089182  17.62 0.0002291595    1.435    0.303
        57  -9.7334    182.1819     41.6536   4.8822351613e+01   3.4441192970e+01    0.1397274   0.09370507 -51.78 0.0002572079    1.518    0.341
        58 -10.8508    165.7076     40.2829   5.1062192568e+01   3.8726922736e+01    0.3484423    0.2104865  76.74  0.001549317    1.872    0.466
        59 -11.0664    176.8318     35.4562   4.7851958372e+01   3.6585010949e+01    0.2112017    0.1755251 -30.34 0.0002287409    1.275    0.215
        60 -11.3620    167.7180     29.6256   4.7523354946e+01   3.9580003335e+01    0.5543196    0.3573024  17.75   0.00192831    2.319    0.569
        61  -9.8479    168.5063     25.9659   4.6311014945e+01   3.9815723696e+01    0.5349784    0.2792976  26.95  0.001975438    3.456    0.711
        62 -12.0303    184.6431    204.6707   8.8137297683e+01   4.0746090279e+00    0.2737928    0.1703488   6.34 0.0009266913    2.353    0.575
        63 -10.6114    198.6543     21.7030   4.1218462785e+01   3.2893553016e+01    0.2091887    0.1440996 -14.21    0.0010856    1.859    0.462
        64 -14.3448    192.9770    195.4428   8.4762389971e+01   4.2143216652e+00     1.152422    0.6372616 -63.02  0.004005075    4.471    0.776
        65  -9.8436     78.4804     22.4542   6.5166073512e+01   6.0983306019e+01    0.1322698    0.1126756  13.74 8.027228e-05    1.009    0.009
        66 -10.4672     39.3044     19.0092   7.8754689135e+01   6.7832944363e+01    0.1984723   0.07913329 -21.26 0.0007022885    4.101    0.756
