#   1 NUMBER                 Running object number                                     
#   2 MAG_AUTO               Kron-like elliptical aperture magnitude                    [mag]
#   3 X_IMAGE                Object position along x                                    [pixel]
#   4 Y_IMAGE                Object position along y                                    [pixel]
#   5 X_WORLD                Barycenter position along world x axis                     [deg]
#   6 Y_WORLD                Barycenter position along world y axis                     [deg]
#   7 A_WORLD                Profile RMS along major axis (world units)                 [deg]
#   8 B_WORLD                Profile RMS along minor axis (world units)                 [deg]
#   9 THETA_WORLD            Position angle (CCW/world-x)                               [deg]
#  10 FWHM_WORLD             FWHM assuming a gaussian core                              [deg]
#  11 ELONGATION             A_IMAGE/B_IMAGE                                           
#  12 ELLIPTICITY            1 - B_IMAGE/A_IMAGE                                       
         1 -19.6738    228.6611    105.4154   1.9598874301e+01   1.4281620552e+01     9.484523     4.709052 -38.80   0.04185539    1.665    0.399
         2 -16.6423    138.4484    131.0320   4.2944401669e+01   2.7648561919e+01     4.851429     2.297238 -57.46   0.01704094    2.518    0.603
         3 -10.4392     81.5894     10.2346   1.7058173622e+01   6.3635373739e+01    0.1647038     0.127301  -0.57 0.0003090131    1.448    0.310
         4 -15.7526    190.0249    155.6199   3.7048371822e+01   1.2477985306e+01      1.13563    0.9578844 -74.20   0.00628031    1.583    0.368
         5 -16.1504    223.2901    244.1723   4.6428201801e+01  -5.8497575103e+00     3.531674    0.9463972  31.42   0.01593759    3.355    0.702
         6 -15.8912    157.9841    106.8266   3.2292516574e+01   2.8726936078e+01     2.288312     1.630405 -36.12   0.01056481    1.423    0.297
         7 -10.6368    208.3000    211.4363   4.3960550669e+01   3.2436645094e-01    0.1427489    0.1058149  33.55 0.0003254852    1.422    0.297
         8 -11.9536    175.5349    164.7178   4.1807850095e+01   1.3329406348e+01    0.3037881    0.1724554 -52.14  0.001352628    1.975    0.494
         9 -12.2772    175.4860    173.4849   4.3533567908e+01   1.1664806832e+01     0.414113     0.342892 -42.67  0.002360963    1.235    0.190
        10 -13.2593    192.0097    193.8603   4.3987403643e+01   5.3862536647e+00    0.8730931    0.4607041 -61.38  0.003033566    5.125    0.805
        11 -12.3869    165.1855    157.0150   4.2439041011e+01   1.6738094964e+01    0.3164182    0.2359137 -68.32 0.0007607352    1.751    0.429
        12 -11.4058    168.2446    156.0202   4.1572200393e+01   1.6370523512e+01    0.2239954    0.1892969  -5.49 0.0003068824    1.284    0.221
        13 -11.1120    140.1822    160.6481   4.8903415568e+01   2.0629808276e+01    0.2374828    0.2008924 -66.33  0.000578678    1.291    0.225
        14 -11.9749    173.0118    150.7530   3.9451728946e+01   1.6535537131e+01    0.4414981    0.1985625 -45.94  0.001745191    2.173    0.540
        15 -12.7679    119.4115    151.4525   5.2302040392e+01   2.6613866504e+01    0.3800884    0.2584531 -82.02  0.001603655    2.015    0.504
        16 -13.1935    113.1987    151.0630   5.3879044117e+01   2.7856261220e+01    0.3394431    0.2782732 -70.32  0.001695192    1.268    0.211
        17 -13.0307     99.5469    151.3693   5.7688680937e+01   3.0226654715e+01    0.3214114     0.234798  51.47   0.00140037    1.358    0.264
        18 -12.7777    124.8214    147.9458   5.0172012719e+01   2.6424823447e+01    0.4712992    0.2222748 -57.42  0.001334425    2.310    0.567
        19 -15.0627     67.8386    143.5563   6.5643366292e+01   3.7372941958e+01      1.15287    0.7089211 -71.20  0.003404689    1.599    0.375
        20 -12.6532    177.3405    169.7769   4.2434479617e+01   1.2046264257e+01    0.4443354    0.3255081  21.39   0.00165698    1.454    0.312
        21 -12.2663     86.2115    146.0652   6.0542722538e+01   3.3843839030e+01     0.252407     0.215929  43.26 0.0003981162    1.173    0.148
        22 -13.4290    108.4479    144.9743   5.3962719876e+01   3.0219443455e+01    0.5485622    0.2348262  30.10  0.001797093    3.011    0.668
        23 -10.4933    103.6482    130.2663   5.2210475383e+01   3.4787646436e+01    0.1624516      0.11886  70.61 0.0004344153    1.622    0.383
        24 -14.7019     51.5262    115.3662   6.6089822335e+01   4.7212028483e+01    0.8160906    0.6076702 -63.13  0.001865335    1.235    0.191
        25 -15.6574     66.8727    116.9653   6.1016439135e+01   4.4613540605e+01     1.694929     1.544612 -22.29  0.002842618    1.276    0.217
        26 -14.4215     59.5940    114.7266   6.3093521355e+01   4.6285974793e+01     1.071141    0.4939826 -55.15  0.002642796    1.994    0.498
        27 -15.4338    176.1061     86.3344   2.3184476397e+01   2.8614660694e+01     2.035794     1.377806 -10.77  0.008469415    2.365    0.577
        28 -13.8605    115.0124    121.8453   4.6977660943e+01   3.4642672644e+01    0.8294987    0.4153141 -49.41  0.003140751    1.955    0.489
        29 -15.4209     25.7058    116.6229   7.5599879421e+01   4.9704997389e+01     1.088729     1.019675  68.87  0.003746819    1.125    0.111
        30 -14.5943      8.6475    120.3399   8.2041739865e+01   5.0036771536e+01    0.9971944    0.6502412  88.64  0.005311225    1.345    0.256
        31 -10.8062    108.1304    118.6725   4.8186304615e+01   3.6808401947e+01    0.2805839    0.1788494 -48.62  0.001181823    1.548    0.354
        32 -10.9468     96.9152    113.5329   5.0313947983e+01   4.0294651400e+01    0.2335762    0.1572392  40.09  0.000702605    1.531    0.347
        33 -12.6876    209.5782    188.2074   3.9718886645e+01   3.6867182218e+00     0.687933    0.2920871 -47.98  0.002935911    2.928    0.658
        34 -12.6123    124.8341     90.1760   3.5686602577e+01   3.9880752472e+01    0.2859558    0.2728387 -74.58  0.001135659    1.008    0.008
        35 -12.5772    213.7762    185.5033   3.8481925512e+01   3.5007732947e+00    0.3750707    0.2691059   1.85  0.001006636    1.419    0.295
        36 -11.6222    200.6944    182.4015   4.0276094803e+01   5.9684578686e+00    0.2109821     0.195292 -88.33 0.0007614768    1.570    0.363
        37 -12.6931    134.2217     77.5871   2.9452604246e+01   4.0295237247e+01    0.6161723    0.5466273 -33.38  0.003138546    1.196    0.164
        38 -10.9050    142.8418     79.8946   2.8124606165e+01   3.7756930331e+01    0.2282562    0.2156717  -1.28 0.0004947966    1.229    0.186
        39 -11.4465    228.2939    171.6568   3.3434303800e+01   3.5509414613e+00    0.2366509    0.1622896 -46.83  0.001036037    1.648    0.393
        40 -12.1657    170.3619     74.7561   2.1029022620e+01   3.2069211773e+01       0.3168    0.2323059 -23.80 0.0004594823    1.606    0.377
        41 -12.2552    169.6895     71.6608   2.0271907254e+01   3.2778116377e+01    0.3870666    0.2620201  37.26  0.001734348    1.936    0.483
        42 -12.9803    230.2507    167.6700   3.2356087465e+01   3.8847555709e+00     0.411661    0.2980787 -43.61  0.001631926    1.452    0.311
        43 -12.9497    169.7890     62.6122   1.7655335975e+01   3.4301879218e+01    0.3627774    0.2393735 -80.08  0.001323403    1.840    0.457
        44 -14.5134    176.9381     58.9838   1.5463060405e+01   3.3154229481e+01    0.8489378    0.7002589  25.98  0.001676985    1.633    0.388
        45 -11.8995    185.0159    170.2577   4.0978244612e+01   1.0640300692e+01    0.3067586    0.2221824 -69.25 0.0006256166    2.167    0.539
        46 -12.9639    144.0987     58.0518   2.1030963980e+01   4.1465539197e+01    0.7130133    0.4074787 -13.26  0.002442477    3.376    0.704
        47 -13.5746    212.3807    166.5437   3.5137799492e+01   6.7919804688e+00    0.7400126    0.5077292  84.91  0.002833212    4.740    0.789
        48 -11.3574    156.8259     48.1635   1.5504302746e+01   3.9845537214e+01      0.18766    0.1767441  23.34 0.0003393485    1.285    0.222
        49 -10.5294    150.4809     54.9161   1.8770401709e+01   4.0379948893e+01    0.2121683    0.1443789 -38.04 0.0003105309    1.453    0.312
        50 -11.9872    144.4707    169.1721   4.9534278685e+01   1.7999915880e+01    0.2535027    0.1968943  38.19 0.0002815662    1.253    0.202
        51 -12.8248    155.1407     25.1435   8.4629796798e+00   4.3449785650e+01     0.373765    0.2692718  -1.51   0.00184135    1.975    0.494
        52 -12.7272    110.9779    167.7120   5.7542021855e+01   2.4270493274e+01    0.3656101    0.2737135  61.19  0.001251022    1.426    0.299
