#   1 NUMBER                 Running object number                                     
#   2 MAG_AUTO               Kron-like elliptical aperture magnitude                    [mag]
#   3 X_IMAGE                Object position along x                                    [pixel]
#   4 Y_IMAGE                Object position along y                                    [pixel]
#   5 X_WORLD                Barycenter position along world x axis                     [deg]
#   6 Y_WORLD                Barycenter position along world y axis                     [deg]
#   7 A_WORLD                Profile RMS along major axis (world units)                 [deg]
#   8 B_WORLD                Profile RMS along minor axis (world units)                 [deg]
#   9 THETA_WORLD            Position angle (CCW/world-x)                               [deg]
#  10 FWHM_WORLD             FWHM assuming a gaussian core                              [deg]
#  11 ELONGATION             A_IMAGE/B_IMAGE                                           
#  12 ELLIPTICITY            1 - B_IMAGE/A_IMAGE                                       
         1 -14.9461    171.7537     68.3432   7.5704770289e+01   3.3100234288e+01     7.863492     2.873374 -44.02   0.01684496    3.193    0.687
         2 -14.4515    247.2671     46.4319   5.8195318638e+01   1.8074063042e+01     2.304291     1.028318  60.36  0.008498346    2.358    0.576
         3 -13.4470    205.3946      8.5859   5.2560114348e+01   3.1970058340e+01     2.090763     1.316779  10.79  0.006355013    2.136    0.532
         4 -14.5865    232.8508      6.0049   4.9467577792e+01   2.5593119339e+01     1.347552     1.289941 -47.66  0.009081501    1.087    0.080
         5 -14.1411    249.0087      3.3714   4.7673011754e+01   2.2220107416e+01    0.7997649    0.5667697  -5.25  0.004032231    1.710    0.415
         6 -15.7549    211.9353     67.8346   6.8355209560e+01   2.3352125407e+01     11.41773     3.604355 -45.15   0.03132078    4.104    0.756
         7 -16.2058    243.3679     24.3361   5.3135814986e+01   2.1391058277e+01     8.416039    0.6964164  59.78   0.02420606    5.941    0.832
         8 -11.8527    133.5526     18.3419   6.6417074654e+01   4.9773761913e+01    0.8563933    0.6458288  16.52  0.004019373    1.399    0.285
         9 -15.2586    240.9588     81.9228   6.7762511912e+01   1.4946526672e+01     5.512123     3.807647  18.27   0.02813805    1.706    0.414
        10  -9.6830    115.8164     12.4189   6.8006619906e+01   5.4879814412e+01    0.3305579    0.2306292  57.52  0.001231539    1.375    0.273
        11 -11.2720    120.3003      8.8882   6.5453891158e+01   5.4120420119e+01    0.5093673    0.4046812  44.29  0.001427439    1.123    0.110
        12  -9.4497    129.0431      9.3894   6.3790056772e+01   5.1850724300e+01    0.3665422    0.1914154  -9.26  0.001456965    2.231    0.552
        13 -11.0415    188.9216      5.5527   5.3396941113e+01   3.6446149597e+01    0.3826413    0.2338483 -28.21 0.0007714938    1.661    0.398
        14 -10.3966    182.9807      4.2607   5.3666982947e+01   3.8104583953e+01    0.4656294    0.2898033  74.07  0.001391402    1.528    0.345
        15  -9.7880    171.8811      2.4498   5.4406850943e+01   4.1175674662e+01    0.2851538    0.2093186 -31.61  0.001088304    1.429    0.300
        16  -9.0655    135.4863      2.2576   5.9716107209e+01   5.0815807922e+01    0.2531142    0.1841748  19.17 0.0008854082    1.451    0.311
        17  -9.0075     93.1813      2.3498   6.9335015006e+01   6.1268531709e+01     0.254836    0.1039915 -17.20   0.00100533    2.625    0.619
        18 -10.3692    235.2938    174.0653   8.9441157772e+01   3.5096301278e+00    0.3246474    0.2269119  38.26  0.001167653    1.463    0.316
        19 -10.7618    230.5643    167.5114   8.8973685182e+01   5.1502397756e+00    0.4415827    0.2390781 -45.83  0.002009167    2.836    0.647
        20  -8.7982    250.5687    174.2603   8.6890276911e+01   1.0337644007e+00    0.1684212    0.1007614 -11.77 0.0004700969    1.555    0.357
        21  -9.3561    200.6385    173.6477   9.5765829076e+01   9.5257672402e+00    0.2191177    0.1443028   8.49  0.001119955    1.659    0.397
        22 -10.2431    243.9887    172.4926   8.7641993034e+01   2.2913563545e+00     0.324252    0.1733815  24.01  0.001664075    1.807    0.447
        23 -10.1946    226.6372    172.3720   9.0640085624e+01   5.1750814125e+00    0.4175047    0.1374212  40.87  0.001672129    2.781    0.640
        24 -10.9103    213.6133    167.3328   9.2032498505e+01   8.1282945197e+00    0.5944439    0.3442692  60.43  0.002358833    3.634    0.725
        25 -10.7752    244.6672    165.8170   8.6201863093e+01   3.0097162183e+00    0.3517781    0.2913038  53.56 0.0008237209    1.817    0.450
        26 -13.5701    192.4983     71.7607   7.2719181945e+01   2.7452440416e+01     2.180575     1.269562  25.12  0.008526654    2.359    0.576
        27 -11.9561    239.8253    243.6404   1.0053583159e+02  -4.8086204319e+00     0.221858    0.1570796  21.19 0.0004582858    1.135    0.119
        28  -9.8993    134.1050    148.2274   1.0532410806e+02   2.6303412345e+01    0.4836264    0.2244045 -55.53  0.001884503    2.677    0.626
        29  -9.6364    133.2705    142.4069   1.0435901763e+02   2.7627363799e+01    0.5037947    0.2141777 -58.27  0.001696503    3.557    0.719
        30  -9.4946    152.1100    149.6938   1.0133228371e+02   2.2629157438e+01    0.2201935    0.2015959 -63.86 0.0005962373    1.304    0.233
        31  -8.5126    219.2545    149.3773   8.7242510351e+01   9.6801775785e+00    0.1727095    0.1250441  47.02  0.000257807    1.550    0.355
        32  -8.4162    173.6548    149.7042   9.6481026506e+01   1.8437096498e+01     0.150701    0.1053157  11.20 0.0007032789    1.670    0.401
        33 -10.0525    222.7010    177.4269   9.2335777453e+01   5.1712983822e+00    0.3041398    0.1723654 -39.09  0.001557178    2.101    0.524
        34 -10.5883    179.1139    145.8443   9.4469414810e+01   1.8027335452e+01    0.3897192    0.2659129 -27.76  0.001230911    1.541    0.351
        35 -11.1939    176.2144    142.2769   9.4312103432e+01   1.9226346975e+01    0.5007113    0.3065379  24.20  0.002216106    1.842    0.457
        36 -10.3680    174.3067    137.9845   9.3768173464e+01   2.0369257575e+01    0.3307661    0.2617719 -72.06  0.001096323    1.930    0.482
        37  -8.0611     99.9999    147.2217   1.1371718212e+02   3.2377855172e+01    0.1587119    0.1074304  37.91            0    1.418    0.295
        38 -10.5359    198.5506    144.6031   9.0168655405e+01   1.4379487993e+01    0.3165015    0.2605203 -68.76  0.001638975    1.911    0.477
        39  -8.9404    222.7535    145.3296   8.5725120023e+01   9.6117670560e+00    0.1893165    0.1633142  43.65  0.001108794    1.372    0.271
        40 -10.1157    191.9050    143.9865   9.1376778707e+01   1.5794185448e+01    0.3153861    0.2203408  52.09 0.0006814771    1.636    0.389
        41 -11.6129    188.6499    138.7715   9.0880359621e+01   1.7312263880e+01    0.4922778    0.4073477  25.94  0.002554706    1.107    0.096
        42 -11.3174    157.7118    140.8644   9.8160469089e+01   2.3194887168e+01    0.7145097    0.4666927  73.45  0.002338349    3.098    0.677
        43  -9.8599    149.3971    140.0062   9.9929576388e+01   2.5005384870e+01    0.4389705    0.2860202  89.66  0.001471096    4.194    0.762
        44  -9.1909    145.5179    136.0051   9.9988986380e+01   2.6550831280e+01    0.2653793    0.1961803  79.48  0.000808758    2.138    0.532
        45 -11.4189    166.7858    136.3824   9.5081922474e+01   2.2193925178e+01    0.6779864    0.2916034 -47.93   0.00190052    2.819    0.645
        46 -11.7885    211.0041    136.6287   8.5956838755e+01   1.3166671678e+01    0.5986074    0.3639713  30.89  0.002857332    1.627    0.385
        47 -10.3721    200.6829    135.6996   8.7739492877e+01   1.5377133662e+01    0.2719007     0.220266 -78.08  0.001340548    2.072    0.517
        48 -11.6956    159.8410    128.9869   9.4971571309e+01   2.4999622122e+01    0.5431295    0.3880956 -23.37   0.00258509    1.549    0.355
        49  -9.7847    219.1700    135.3231   8.4145043675e+01   1.1759634887e+01     0.226778    0.1590045  24.14 0.0007058212    1.384    0.277
        50 -10.9164    190.0957    131.8543   8.8987381276e+01   1.8175758435e+01    0.3514819    0.3234197  -4.16   0.00180329    1.078    0.073
        51 -10.4500    219.9947    130.4858   8.2887832705e+01   1.2316411089e+01    0.2699806    0.2222625 -53.46  0.001464841    1.648    0.393
        52 -10.6211    222.8615    128.3688   8.1885697497e+01   1.2063847182e+01    0.3614607    0.2523768  62.28  0.001765129    2.047    0.512
        53 -10.9410    135.0473    124.0259   9.9886781114e+01   3.1037800438e+01     1.061412    0.3215556 -50.69  0.003101753    4.078    0.755
        54  -9.6131    131.7137    119.5662   9.9697756384e+01   3.2621186557e+01    0.3765271    0.2572402 -66.07  0.001569009    2.004    0.501
        55 -10.6644    152.9792    127.5680   9.6263362013e+01   2.6691786635e+01    0.3529818    0.2603678 -40.84   0.00172604    1.415    0.293
        56 -11.3207    173.7252    127.1429   9.1373962026e+01   2.2426035793e+01    0.4646863    0.3574261  42.72   0.00234353    1.270    0.212
        57 -10.8044    225.4115    122.0640   7.9965932621e+01   1.2483243133e+01      0.36801    0.3430727 -41.13  0.001252089    1.318    0.241
        58  -8.6016     71.6870    239.3497   1.3024512311e+02   1.8909713890e+01    0.1140367   0.06009929  59.79 0.0007046197    1.722    0.419
        59  -8.0826      3.7443    236.6130   1.4176208675e+02   2.6253755497e+01   0.07947416   0.06509138 -68.79 0.0006964847    1.678    0.404
        60 -10.2040    210.9688    123.5141   8.2906343974e+01   1.5196663326e+01    0.2895752    0.1890999 -10.65  0.001314498    1.693    0.409
        61 -10.0645    140.7000    121.1735   9.7769800364e+01   3.0479713708e+01    0.4397324    0.2776288  85.84   0.00129679    4.965    0.799
        62 -11.5489    167.1402    113.9678   8.9598365736e+01   2.6242675342e+01    0.5217143    0.5128117  51.65  0.001283636    1.153    0.133
        63 -10.4108    174.6884    114.9023   8.8143631512e+01   2.4413822692e+01    0.3902877    0.3263059 -80.57  0.001912013    1.701    0.412
        64 -10.2226    157.1369    113.0232   9.1692262262e+01   2.8608293183e+01    0.4613524    0.3057398 -67.80  0.001331151    2.598    0.615
        65  -9.9815    134.8091    104.6139   9.5112932801e+01   3.5066129706e+01     0.742458    0.3950304 -48.34  0.002965027    2.021    0.505
        66  -9.5629    135.0000    113.9927   9.7476718505e+01   3.3108113006e+01      0.32221    0.2175428 -38.40  0.001339594    1.524    0.344
        67  -9.8291    135.0000    109.5061   9.6340250564e+01   3.4027571893e+01    0.4716885    0.2031858 -36.45  0.001652271    2.625    0.619
        68 -10.0739    126.7345    111.5021   9.9051192924e+01   3.5297878298e+01    0.2870703    0.2416601 -65.46 0.0008772641    1.381    0.276
        69 -10.1769    152.1194    220.9566   1.1311362864e+02   1.0641630721e+01     0.197178    0.1699241  30.69 0.0003222922    1.102    0.092
        70  -8.8539    141.4322    104.7300   9.3415510473e+01   3.3632053391e+01    0.2057021    0.1465649 -27.58 0.0004961296    1.513    0.339
        71 -10.9308     37.8658    214.7279   1.3489686341e+02   2.6775120107e+01    0.3129217    0.1842962  23.29  0.001969743    2.172    0.540
        72 -10.5841    124.7594    102.4701   9.7263963150e+01   3.7589926594e+01    0.4629917    0.3878097  55.67  0.001912153    1.301    0.232
        73 -10.1710    147.7144    100.4866   9.0672993451e+01   3.3093177380e+01    0.3507027    0.3252924 -69.05  0.000588106    1.262    0.208
        74 -11.0802    157.7930     94.0120   8.6410275780e+01   3.2036425770e+01    0.6877833    0.4599435  49.72  0.003071629    1.509    0.337
        75  -8.5655    157.4817     89.5152   8.5198390967e+01   3.2933310185e+01    0.2110707    0.1995981  10.66 2.796666e-05    1.003    0.003
        76  -9.9508    133.6876     96.0612   9.3080797569e+01   3.7036732659e+01    0.4612443    0.2636148 -52.94  0.001818181    2.096    0.523
        77 -12.3020      3.9331     91.8678   1.3376337304e+02   5.5362749460e+01    0.7511533     0.284769 -74.28  0.003646563    2.072    0.517
        78  -9.0137    173.8854     90.0912   8.1659683233e+01   2.8972088666e+01    0.2195741    0.2104761 -64.31  0.001167451    1.198    0.165
        79 -11.6239    173.0709     84.0689   8.0111593262e+01   3.0194443985e+01    0.6334195    0.5003296  15.55  0.001810629    1.378    0.274
        80  -8.3976    101.3696    162.4700   1.1584532040e+02   2.8945608405e+01    0.1278975    0.1215708  60.28 0.0001504732    1.042    0.040
        81 -12.0189    155.6823     83.9282   8.3987495983e+01   3.4368351873e+01    0.5442901    0.4089428  49.23 0.0008059793    1.333    0.250
        82 -10.4637    140.9886     90.1432   8.9466252016e+01   3.6599071618e+01    0.3877162    0.3663245  44.68  0.001554784    1.104    0.094
        83 -10.2680    194.0303    197.0466   1.0130406355e+02   7.3175914682e+00    0.4265327    0.2700409 -59.38  0.001979167    3.390    0.705
        84 -13.6897    247.8294     38.1033   5.6094871872e+01   1.8910791997e+01    0.5782238    0.4058579 -40.19  0.001085508    1.280    0.219
        85  -8.2226    140.2786     78.3158   8.6097796507e+01   3.9004642588e+01    0.1578933    0.1196846   7.12 0.0002365097    1.571    0.364
        86 -10.1167    214.0839    154.4036   8.9278876829e+01   9.9086675236e+00    0.2432893    0.2098045  15.24 0.0003654103    1.075    0.070
        87 -10.3151    152.1028     72.4562   8.1332559390e+01   3.7253154073e+01    0.4533643    0.3011913 -57.87  0.001875568    2.037    0.509
        88  -8.2324    140.2811     74.6774   8.4958237167e+01   3.9673572636e+01    0.1517374    0.1250782 -71.42 0.0003406799    1.590    0.371
        89  -9.3871    203.8070    152.6682   9.0880717405e+01   1.2099746112e+01    0.2295946     0.195001 -14.51 0.0006397067    1.156    0.135
        90 -11.4065     10.6149     67.4066   1.2814422128e+02   6.0694494831e+01    0.3555897    0.2127477  68.76  0.001925288    2.155    0.536
        91  -8.2353    116.6349     72.5386   9.0811023107e+01   4.5384317763e+01    0.1518016    0.1407415 -13.14 0.0001339797    1.038    0.037
        92 -13.4907     11.9085    188.2126   1.3851199731e+02   3.4066086118e+01    0.8250591    0.5949554  66.75  0.003786822    1.075    0.070
        93  -9.3416    154.1887     63.9784   7.8142265844e+01   3.8172095217e+01    0.3283154    0.2002139 -43.32  0.001041987    1.759    0.431
        94 -10.3294    192.2973    153.2583   9.3304881453e+01   1.4211149887e+01    0.2725537    0.2503157 -25.74 0.0009490377    1.237    0.191
        95  -8.8181     72.5425     58.1736   1.0088457640e+02   5.6526992661e+01    0.2059033    0.1303216 -45.74 0.0006342148    1.481    0.325
        96 -11.2430      6.3707     55.6447   1.2783541262e+02   6.3577622112e+01    0.2693208     0.138816 -53.71  0.001515799    1.493    0.330
        97  -8.6651     82.9289     51.5226   9.4623421306e+01   5.6119725562e+01    0.2249719     0.173195 -36.86 0.0005249194    1.236    0.191
        98  -8.9484    166.9404    158.9122   9.9848526534e+01   1.8122875977e+01    0.2140528     0.172359  15.50 0.0003952851    1.220    0.180
        99 -10.5899    106.9685     35.9721   8.0385412077e+01   5.3938285052e+01    0.2286164    0.2124599   2.83 0.0005599008    1.053    0.051
       100  -9.9258    160.3309     29.3505   6.5217940318e+01   4.1523738879e+01     0.438576    0.2277297 -33.39  0.001674084    1.942    0.485
       101  -9.1125    158.6377     25.1558   6.4069245830e+01   4.2458522323e+01    0.3270868    0.1546892 -14.05  0.001215514    2.594    0.614
       102  -9.7077    190.0302     28.4300   6.0203877068e+01   3.3852891976e+01     0.289018    0.1998222 -24.73 0.0006331388    1.471    0.320
       103  -9.8660    153.9199     24.2923   6.4617007227e+01   4.3800092295e+01    0.3778353    0.2071969 -25.20  0.000958831    1.882    0.469
       104  -9.1464    216.6401    190.3104   9.5853914212e+01   4.4896361598e+00    0.1135654     0.100904  57.06 0.0007041718    1.741    0.426
       105  -9.7615    211.1594    190.2422   9.6856140934e+01   5.4003393071e+00    0.2234406    0.1184419   8.07 0.0009482661    2.811    0.644
       106  -9.0062    159.7896     14.0980   6.0026487347e+01   4.3327088199e+01    0.2140997    0.1891206 -55.08 0.0004828988    1.229    0.187
       107  -8.7209    204.8056    190.2030   9.8044541362e+01   6.4626564714e+00    0.1845177    0.1445396  77.20 0.0009409788    2.778    0.640
       108 -11.1735     37.8191    185.3050   1.3302212337e+02   3.2281639881e+01    0.3506588    0.2589831  26.56   0.00239947    1.581    0.368
       109 -11.7268     68.5003    146.3273   1.2178446863e+02   3.7066630947e+01     1.817479    0.9502365 -49.62  0.008257898    2.070    0.517
       110 -13.4284     43.1658    168.2163   1.3048025034e+02   3.5215690834e+01     1.355489     0.808255  17.76  0.001817861    2.262    0.558
       111 -12.7016     49.7443    164.3331   1.2858051552e+02   3.5340449303e+01    0.7739418    0.5429848  85.20  0.002781409    1.356    0.263
       112  -9.7546    108.7413     22.2433   7.4097326988e+01   5.5447360919e+01    0.2476947    0.1742844 -23.74 0.0006731468    1.437    0.304
       113 -12.3644     55.0872    159.6446   1.2681226704e+02   3.5752110518e+01    0.6503071    0.4347836  87.72  0.001787869    1.504    0.335
       114  -8.5785    100.9832    175.9893   1.1790054291e+02   2.6271012161e+01    0.1718566    0.1525697  49.75  0.001090301    1.013    0.013
       115  -8.7209    159.7023    159.3062   1.0153055140e+02   1.9419632341e+01    0.1332967    0.1117737  72.32 0.0003153944    1.589    0.371
