#   1 NUMBER                 Running object number                                     
#   2 MAG_AUTO               Kron-like elliptical aperture magnitude                    [mag]
#   3 X_IMAGE                Object position along x                                    [pixel]
#   4 Y_IMAGE                Object position along y                                    [pixel]
#   5 X_WORLD                Barycenter position along world x axis                     [deg]
#   6 Y_WORLD                Barycenter position along world y axis                     [deg]
#   7 A_WORLD                Profile RMS along major axis (world units)                 [deg]
#   8 B_WORLD                Profile RMS along minor axis (world units)                 [deg]
#   9 THETA_WORLD            Position angle (CCW/world-x)                               [deg]
#  10 FWHM_WORLD             FWHM assuming a gaussian core                              [deg]
#  11 ELONGATION             A_IMAGE/B_IMAGE                                           
#  12 ELLIPTICITY            1 - B_IMAGE/A_IMAGE                                       
         1 -11.8292     42.6723     20.4965   8.5907871816e+01   6.6982114724e+01    0.5101267    0.2945099  28.82  0.001826961    1.834    0.455
         2 -12.3159    216.0230     14.7618   4.3411144150e+01   2.8915279812e+01    0.6246274    0.4630454 -19.03  0.003047256    1.539    0.350
         3 -13.1332    188.9386      7.9300   4.4473274112e+01   3.6475903667e+01    0.8589901    0.4070368 -58.63  0.003454696    2.597    0.615
         4 -10.6097     65.0409     11.0216   7.2336580394e+01   6.4967720915e+01    0.1933119     0.160148   2.30 0.0004469512    1.033    0.032
         5 -12.4451     44.1980      9.7572   8.0052251830e+01   6.8337422846e+01    0.3680835    0.1841312 -35.66  0.001586054    1.861    0.463
         6 -12.2493     40.9763      8.0053   8.0578089556e+01   6.9007075377e+01    0.2312028    0.1934282  -6.58 0.0003921158    1.164    0.141
         7 -11.7085     57.5802      7.6102   7.3448619199e+01   6.6612126808e+01    0.4245623    0.3922995  13.49  0.002968102    1.334    0.250
         8 -10.0296    109.4909      8.5082   5.7971969336e+01   5.6299105937e+01    0.1343815    0.1215708  29.41 0.0001795791    1.047    0.045
         9 -11.2882    165.4587      1.6091   4.5458877426e+01   4.3105462090e+01    0.3985507    0.1201535  69.25  0.001389683    2.976    0.664
        10 -11.0610    232.0332    223.5163   8.9944483105e+01  -5.7666971392e+00    0.1886327   0.09991725  37.12   0.00103997    1.612    0.380
        11 -10.1574    149.3118    223.6397   1.0515340407e+02   7.9612514650e+00    0.1265019   0.08953185  69.71 0.0007041938    1.746    0.427
        12 -11.6902    226.5681    220.4179   9.0371937265e+01  -4.5261652543e+00    0.2812382      0.16167 -16.40   0.00152386    2.012    0.503
        13 -11.3228    239.8205    215.9668   8.7295592107e+01  -6.0652251411e+00    0.2741697    0.1245806 -43.68  0.001255409    3.262    0.693
        14 -11.2614    222.2269    214.3890   9.0102917090e+01  -3.0533402369e+00    0.1759112    0.1052384  45.05 0.0008719548    1.695    0.410
        15 -10.5409    115.8627    209.4581   1.0976595259e+02   1.5983403910e+01    0.2719253    0.1454298 -76.71  0.001229987    2.782    0.641
        16  -9.9997     49.3220    202.6806   1.2207786282e+02   2.6806387700e+01    0.1257268   0.06893298  68.55 0.0006673664    1.670    0.401
        17 -10.6722     41.6245    200.9381   1.2339466394e+02   2.8059978331e+01     0.251467    0.1569181 -67.54  0.000879459    1.596    0.374
        18 -10.7631      2.9593    199.9714   1.3036126772e+02   3.2159983225e+01    0.2514144   0.07841027  55.28  0.001317435    2.588    0.614
        19  -9.9287    124.1108    205.9287   1.0764622077e+02   1.5277795472e+01    0.1812754    0.1456648  63.93            0    1.161    0.138
        20 -10.7454      8.9843    195.5127   1.2905162119e+02   3.2499400821e+01    0.4258979    0.1341875  74.10  0.001725192    4.061    0.754
        21 -11.0072     11.4281    189.2100   1.2822591248e+02   3.3544701249e+01    0.2395675    0.1556383  85.34 0.0008444776    1.156    0.135
        22 -11.0571      8.3245    188.3409   1.2874826553e+02   3.4000486242e+01    0.3118157    0.1312819 -69.04  0.001330947    2.051    0.513
        23 -12.4564    159.9182    191.7687   9.8133907472e+01   1.1530009813e+01    0.7043464    0.5054401  78.47  0.003207063    2.058    0.514
        24  -9.9337    215.2223    193.2559   8.7541466631e+01   1.0897955631e+00    0.1901004    0.1008929 -45.95 0.0005650449    2.395    0.582
        25 -10.3226    183.3116    182.5064   9.1674757278e+01   8.7419715726e+00    0.3588216    0.1236525 -36.32  0.001232833    3.549    0.718
        26 -10.1296    109.3259    186.0138   1.0790023621e+02   2.1646120282e+01     0.210916    0.1056462 -82.26 0.0007041093    4.232    0.764
        27  -9.6028    128.6864    177.6522   1.0236557091e+02   2.0007137756e+01    0.1360888    0.1113233  -7.23 0.0007046841    1.719    0.418
        28 -10.3490     38.5100    174.5371   1.2171548192e+02   3.3933710348e+01     0.121953   0.09496702  83.35 0.0001528303    1.019    0.018
        29 -11.4132     55.5613    167.8609   1.1731376899e+02   3.3427500458e+01    0.4659197    0.2338408  88.72  0.002124076    2.397    0.583
        30 -11.0229    120.7698    168.5292   1.0257174958e+02   2.3340888512e+01    0.2978152    0.1707936 -69.14  0.001286941    2.188    0.543
        31 -10.1149     79.3318    163.6602   1.1134901713e+02   3.1181303468e+01    0.1438521   0.09210838  74.13 0.0007051651    1.745    0.427
        32 -10.0372     92.3362    160.6475   1.0784486004e+02   2.9888011272e+01    0.1487904    0.0980114  75.85  0.000704481    1.792    0.442
        33 -11.0859     51.8375    159.0902   1.1710906432e+02   3.5852768982e+01    0.3432331    0.1531387 -79.67  0.001506275    2.403    0.584
        34 -10.9984     22.4076    159.6444   1.2377954657e+02   3.8825338270e+01    0.2513761    0.1801565  80.05  0.000907685    1.162    0.139
        35 -11.6333    106.3452    158.0564   1.0409166395e+02   2.8163388934e+01    0.5655825    0.3500491  71.95  0.002480442    2.176    0.540
        36 -10.8545    167.9343    157.4862   8.9853314017e+01   1.6435886984e+01    0.2793756    0.2145551 -64.45  0.001242505    1.597    0.374
        37 -10.6482    218.4760    156.4915   7.9401616630e+01   6.2653837408e+00    0.3074856    0.1342028 -36.17  0.001232516    2.247    0.555
        38 -10.7525    118.7085    156.8557   1.0094388880e+02   2.6245958769e+01    0.3888564     0.236172  48.06  0.001807333    1.614    0.381
        39  -9.8905     81.3444    154.6756   1.0951678489e+02   3.2930109366e+01    0.1456787   0.09570485  74.12 0.0005883398    1.738    0.425
        40 -10.3786     23.3384    153.7720   1.2302458105e+02   4.0048144540e+01    0.1884555    0.1192308  87.16 0.0005207337    1.346    0.257
        41 -10.3856    189.7377    150.4593   8.3697567906e+01   1.3220405369e+01    0.3500701    0.2007723 -56.46  0.001380561    2.457    0.593
        42 -10.1760    148.7634    145.1887   9.1492995833e+01   2.2912028073e+01    0.2531157    0.1674405  87.41 0.0009497567    2.767    0.639
        43 -10.0557     88.3206    144.6722   1.0612591180e+02   3.4181190359e+01    0.1469074    0.1021489  78.03 0.0004497562    1.687    0.407
        44 -10.8607    106.8142    145.2663   1.0161799498e+02   3.0975141685e+01    0.4592406    0.2484196  78.24  0.001317142    5.148    0.806
        45 -10.8122     82.9788    131.7462   1.0511888242e+02   3.8037126691e+01    0.2687675    0.1758772 -75.49  0.001287946    1.645    0.392
        46 -12.0683     99.8436    128.8344   1.0006798063e+02   3.5985430269e+01    0.8364906    0.4846754  77.50  0.002897976    3.522    0.716
        47  -9.6136      7.7078    126.6594   1.2402327216e+02   4.7443336295e+01    0.1191758   0.07000168 -54.19 0.0007026923    1.651    0.394
        48 -10.0434    117.3385    125.6604   9.4781255702e+01   3.3530650026e+01    0.1581903    0.1177899  85.53 0.0007050529    1.763    0.433
        49 -10.4080     58.8062    124.4150   1.1027524212e+02   4.3112225711e+01    0.2901578    0.1447257  86.47 0.0009571172    4.259    0.765
        50 -11.1049     43.5384    123.4039   1.1426113158e+02   4.5098600493e+01    0.5536966    0.2602701 -88.95  0.002115565    3.325    0.699
        51 -11.2083     27.0284    120.8897   1.1834342798e+02   4.7273235081e+01    0.5499423     0.231528  83.06  0.001846507    4.793    0.791
        52 -11.8842    193.3101    118.3107   7.5240102406e+01   1.8468778859e+01    0.5964813    0.4818947 -77.03  0.002104048    1.625    0.384
        53 -10.5175     70.0212    119.6626   1.0629422860e+02   4.2779733074e+01    0.3128825     0.203101  86.11  0.001453538    2.042    0.510
        54 -10.6847     15.2627    121.0166   1.2147322646e+02   4.8191556530e+01    0.2656966    0.1646818  33.00  0.001625286    1.942    0.485
        55 -11.7620     15.3589    110.8202   1.2016742652e+02   5.0537292361e+01    0.7383906    0.3505919  86.31  0.003421952    2.584    0.613
        56 -10.5518    108.4152    112.8583   9.4092661750e+01   3.8146057186e+01    0.4945583    0.2142974 -62.24  0.001534017    3.530    0.717
        57 -11.0122     78.7366    112.5283   1.0234057280e+02   4.3220162394e+01    0.4829145    0.2650895 -84.25  0.001642698    3.747    0.733
        58 -12.4730    159.4595    110.1861   8.0433372421e+01   2.7915972863e+01    0.8940962    0.4383561 -55.20  0.003021892    2.741    0.635
        59 -10.8805    122.9698    112.8960   9.0200483619e+01   3.5302405111e+01    0.4404756    0.2460595  64.53  0.001548698    2.912    0.657
        60 -10.3692     91.7540    111.4988   9.8397706156e+01   4.1405295222e+01    0.4879077    0.1892025 -59.26  0.001667359    2.874    0.652
        61 -10.9500    174.4640    111.0728   7.7299683932e+01   2.4244263405e+01    0.3728394    0.2902499 -44.62  0.001032072    1.283    0.221
        62 -12.9451    141.5151    103.3247   8.2881447343e+01   3.3426240988e+01    0.8041678    0.5679715 -48.13  0.003633023    1.414    0.293
        63 -12.1243    127.4535    100.6543   8.5750784921e+01   3.7063304872e+01    0.6418146    0.3013451 -53.90  0.002259381    2.484    0.597
        64 -11.9431    114.8397    102.3352   8.9610409214e+01   3.9284431374e+01    0.5465145    0.2252183  48.14  0.001920881    2.668    0.625
        65 -11.4119    107.7242     99.0374   9.0698266265e+01   4.1400736976e+01    0.6623274    0.4263794 -79.38  0.002516025    2.754    0.637
        66 -11.1869     82.2362    100.6542   9.8541411586e+01   4.5460552128e+01    0.2645014    0.2480044 -81.04 0.0006560915    1.115    0.103
        67 -10.8006     19.6320     97.5285   1.1699534816e+02   5.3298175658e+01    0.3167271    0.1034877 -72.37  0.001257972    2.864    0.651
        68 -10.5824     94.3967     97.2269   9.4053932170e+01   4.4237717214e+01    0.2159374    0.1338301 -59.66 0.0009494799    1.702    0.413
        69 -11.4468     62.6786     94.7093   1.0307814018e+02   4.9632634785e+01    0.4171171    0.2336148 -71.72  0.001170054    2.190    0.543
        70 -12.9156    170.2892     90.9671   7.2646023303e+01   2.9139113283e+01     0.488501    0.4189217 -89.52 0.0009498845    1.376    0.273
        71 -10.9197     34.2239     88.6990   1.1082434296e+02   5.4144648714e+01    0.4247741    0.1649871 -72.28  0.001607896    3.162    0.684
        72 -11.9050     42.4761     87.9827   1.0799270025e+02   5.3518102870e+01    0.6761257    0.3763385  -2.36   0.00269657    3.284    0.696
        73 -10.8199     45.4738     81.9472   1.0560920251e+02   5.4583601351e+01    0.3071198    0.2038222 -74.43  0.001012286    1.681    0.405
        74 -11.2271     86.8541     87.3089   9.3608420700e+01   4.7742081271e+01     0.407925    0.2627247  70.87  0.001651058    2.773    0.639
        75 -11.0074    104.6544     83.5364   8.7138401832e+01   4.5365540095e+01    0.4617943    0.3063798 -75.77  0.001828228    2.602    0.616
        76 -12.0941     44.6002    101.3188   1.1009509628e+02   5.0200954752e+01    0.6227252     0.349024  87.05  0.002662505    2.827    0.646
        77 -10.8297     23.8819     79.7767   1.1241685891e+02   5.7038946564e+01    0.3174651    0.1517266 -79.67  0.001381528    2.752    0.637
        78 -10.0118      2.0450     77.9186   1.1937484904e+02   5.8825314316e+01    0.1991198   0.09795776 -47.26   0.00113026    1.741    0.426
        79 -10.9783     62.4275     70.7155   9.6779046516e+01   5.5035899417e+01    0.2696919    0.1219825 -54.45  0.001138462    2.093    0.522
        80 -11.1204     81.7723     72.7237   9.0890059972e+01   5.1730493009e+01    0.4277185    0.2714462 -74.75  0.001682324    3.011    0.668
        81 -10.4956    115.6562     72.4544   8.0481711427e+01   4.5407401961e+01    0.3013293    0.1847625 -63.30  0.001149779    2.547    0.607
        82 -10.8564     51.8832     70.8718   1.0051071229e+02   5.6327704432e+01    0.2424702    0.1841008 -60.23   0.00083735    1.287    0.223
        83 -10.9996      8.2836     56.4702   1.1298640167e+02   6.3175423578e+01    0.4883531    0.3108609 -89.55  0.002811987    2.113    0.527
        84 -11.5623     20.8202     51.1521   1.0666118655e+02   6.3481215241e+01    0.6147311    0.1988171 -57.92  0.002687775    2.466    0.595
        85 -11.1271     39.6701     52.5869   9.9571234477e+01   6.1517626094e+01    0.3763196    0.1768137 -39.52 0.0008585629    1.859    0.462
        86 -13.6432     30.7173     59.8854   1.0521316295e+02   6.0853239107e+01     1.244546    0.6983675  30.89  0.005053541    2.138    0.532
        87 -10.3157    195.4272     68.1356   6.1122150951e+01   2.6875361127e+01    0.2586989    0.1918737  68.01  0.001216543    1.442    0.307
        88 -12.5918    237.2460     64.1075   5.3713519331e+01   1.7328902726e+01    0.5061172    0.2945441 -64.06  0.002166853    2.216    0.549
        89 -12.4064    231.9991     60.5071   5.3481833363e+01   1.9081313296e+01    0.5111214    0.3010455  74.05  0.002298674    2.000    0.500
        90 -10.1430    103.7909     62.4027   8.0557024077e+01   4.9779528899e+01    0.2035444    0.1366091  32.17 0.0006672104    1.613    0.380
        91 -10.6766     74.0640     59.9032   8.9286683996e+01   5.5579443249e+01     0.358183    0.2508873 -89.08  0.001492714    3.192    0.687
        92 -11.4241    223.2399     70.8388   5.7406174738e+01   1.9595987967e+01     0.305692    0.2719516 -64.46 0.0006850495    1.141    0.124
        93 -12.1397     19.3836     59.6019   1.0947044867e+02   6.1807917110e+01    0.4257113    0.2256406 -34.15  0.001866676    1.875    0.467
        94 -11.8612    149.1504     52.1896   6.5221799014e+01   4.1194664926e+01    0.3424673    0.2829542  46.05 0.0004428602    1.189    0.159
        95 -10.1070    105.9702     49.3194   7.5218617882e+01   5.1666141546e+01    0.2014454    0.1802605  24.14 0.0003842677    1.098    0.089
        96  -9.9865     65.1050     47.8965   8.8208068684e+01   5.9244187076e+01     0.186769    0.1720578 -35.31  0.000289947    1.194    0.163
        97 -10.7375    156.9952     45.0016   6.1167497493e+01   4.0298707580e+01    0.2833944    0.2060521  56.71 0.0004659748    1.342    0.255
        98 -11.6164      7.7320     43.3076   1.0989493788e+02   6.5940264766e+01    0.4823807    0.2499032  36.34  0.002746359    2.635    0.621
        99 -11.9030     71.5176     42.5433   8.3831899307e+01   5.9218776527e+01    0.5671999    0.2896898  51.08  0.002437056    2.795    0.642
       100 -12.2653     40.7789     38.1535   9.4097024206e+01   6.4197523436e+01    0.5039812    0.3256415   7.79  0.001939134    1.791    0.442
       101 -11.5225    139.4660     37.7850   6.2383069817e+01   4.5729540811e+01    0.3142165    0.2593002  33.93 0.0002505608    1.197    0.165
       102 -12.0060    120.2779     34.4785   6.5698384561e+01   5.0781796524e+01    0.2927469    0.2772371  52.40 0.0006027535    1.140    0.123
       103 -10.1525     49.7181     34.4113   8.8935300619e+01   6.3793362348e+01     0.277069    0.1571758  36.77  0.001470797    2.017    0.504
       104 -10.1829     72.3171     31.6450   7.9097954434e+01   6.0883737392e+01    0.1254079    0.1059926 -62.24 0.0007045818    1.746    0.427
       105 -10.2483    106.6884     30.0038   6.7532760023e+01   5.4445255895e+01     0.261882    0.2144238  -4.74  0.001245801    1.186    0.157
       106 -10.4146    101.7708     29.1125   6.8552153742e+01   5.5622662135e+01    0.3870965    0.2068713 -42.94  0.001698703    2.176    0.540
       107 -11.7832    220.2952    248.8933   9.5991479576e+01  -6.9045537011e+00    0.3153923    0.1926855  50.68  0.001873102    2.056    0.514
       108  -9.9835     46.5384     16.5069   8.2366504935e+01   6.7075386614e+01    0.2139895    0.1448332 -11.08 0.0008474255    1.343    0.255
       109 -11.0300    239.7246     20.6829   4.2617088952e+01   2.2542487255e+01    0.2596988    0.2109523 -89.49 0.0006476487    1.183    0.155
       110 -12.0777    201.8495     20.5319   4.6538970068e+01   3.1829459657e+01    0.3529498     0.209435 -75.61  0.001574379    2.003    0.501
       111  -9.8271    187.8647    248.3658   1.0151579166e+02  -1.8708423070e+00    0.1817356   0.08525002  33.11  0.000947198    1.864    0.464
       112  -9.8115     88.9996     18.4847   6.7805878622e+01   5.9621902990e+01    0.1720135    0.1235779  82.57 0.0008101497    2.555    0.609
       113 -12.4490     22.1417    239.3829   1.2919609339e+02   2.3020706484e+01    0.5254312    0.1822394  66.98   0.00279331    2.650    0.623
       114 -10.2224      8.3076    240.3435   1.3136895546e+02   2.4261597090e+01   0.08405145   0.06874481 -72.48 0.0003909894    1.693    0.409
       115  -9.9098      2.6733    240.3149   1.3221405703e+02   2.4810076288e+01    0.1075031   0.04653529  65.18 0.0005572714    1.670    0.401
       116 -10.9397     12.7811    227.5655   1.3009833157e+02   2.6061514021e+01    0.2014045    0.1128591  73.88 0.0005751365    1.322    0.244
       117  -9.9921    104.3804    225.1978   1.1385020001e+02   1.4939780491e+01    0.1578742    0.1063672 -83.24 0.0009476711    1.679    0.404
       118 -10.8568     95.4660    225.2866   1.1552085688e+02   1.6260136686e+01    0.2281058     0.113968  57.20  0.001202273    1.839    0.456
