#   1 NUMBER                 Running object number                                     
#   2 MAG_AUTO               Kron-like elliptical aperture magnitude                    [mag]
#   3 X_IMAGE                Object position along x                                    [pixel]
#   4 Y_IMAGE                Object position along y                                    [pixel]
#   5 X_WORLD                Barycenter position along world x axis                     [deg]
#   6 Y_WORLD                Barycenter position along world y axis                     [deg]
#   7 A_WORLD                Profile RMS along major axis (world units)                 [deg]
#   8 B_WORLD                Profile RMS along minor axis (world units)                 [deg]
#   9 THETA_WORLD            Position angle (CCW/world-x)                               [deg]
#  10 FWHM_WORLD             FWHM assuming a gaussian core                              [deg]
#  11 ELONGATION             A_IMAGE/B_IMAGE                                           
#  12 ELLIPTICITY            1 - B_IMAGE/A_IMAGE                                       
         1 -14.8464    158.9576     43.7328   2.9025648655e+02   6.3185541352e+00   0.06114993   0.04354006 -56.55  0.003811631    1.376    0.273
         2 -14.7624    171.5683     11.2199   2.8990912300e+02   6.6161745358e+00   0.05798615   0.05130857 -20.20  0.004523117    1.191    0.160
         3 -12.8837    189.5208     13.8398   2.8971785836e+02   6.4779294945e+00    0.0256082   0.01609122 -85.31  0.002396695    2.135    0.532
         4 -10.8926     12.4895    243.2981   2.9317947573e+02   4.8982994276e+00  0.007917346  0.006105507 -44.81 0.0003301845    1.303    0.232
         5 -20.2432     80.6738    179.9920   2.9200306777e+02   5.2202684138e+00    0.8601708    0.3622667 -64.18   0.07039396    2.474    0.596
         6 -14.6182    165.9053    188.9441   2.9107385498e+02   4.6062262900e+00    0.0498823   0.02290107  36.20  0.004383654    2.107    0.525
         7 -10.2594     17.8163    222.3895   2.9298982259e+02   5.1074324635e+00  0.007737576  0.006274497   2.29 0.0003002844    1.358    0.264
         8 -11.2829    160.3807    247.5397   2.9149856822e+02   3.9648499943e+00   0.01804272   0.01182616   0.27  0.001241219    1.979    0.495
         9 -11.9903    123.3876    184.8395   2.9153944958e+02   4.9085733432e+00   0.01616818   0.01160926  54.17 0.0007259991    1.551    0.355
        10 -13.6519    206.8880    178.1064   2.9053410775e+02   4.4847303143e+00   0.03132514   0.02233578 -48.02  0.003094688    1.392    0.282
        11 -14.5492    175.1941    185.9505   2.9094818861e+02   4.5849069335e+00   0.05437437   0.02445088 -70.48  0.004324235    2.743    0.635
        12 -12.0983    199.8571    179.8009   2.9062567262e+02   4.5074977493e+00   0.01679922   0.01103641 -89.09  0.001524744    2.027    0.507
        13 -13.7110    195.6543    170.7238   2.9061811448e+02   4.6372104168e+00   0.03000279   0.02014314 -69.02  0.001958805    1.576    0.365
        14 -12.2294    194.0045    165.7386   2.9060636618e+02   4.7044928554e+00   0.01728318   0.01330162  21.96  0.001189426    1.332    0.249
        15 -11.5403    170.5031    185.4788   2.9099941635e+02   4.6185076655e+00   0.01294854   0.00975076  63.98 0.0008154181    1.552    0.356
        16 -12.0965    203.5698    171.3319   2.9053054955e+02   4.5826278071e+00   0.02136051    0.0138895  10.07  0.001941117    1.828    0.453
        17 -12.0793    127.0307    250.0431   2.9189867912e+02   4.1359175236e+00   0.01044455  0.009077149 -54.78 0.0006485081    1.136    0.119
        18 -10.7947    130.4364    212.3919   2.9162775048e+02   4.5490529134e+00   0.01503296  0.009135071  65.28  0.001346446    2.324    0.570
        19 -13.6626    178.0012    170.8022   2.9082231383e+02   4.7423954119e+00   0.02846435   0.01929444 -78.10  0.002899116    1.716    0.417
        20 -13.1824     11.7236    205.9729   2.9295953734e+02   5.3329221648e+00   0.03237169   0.01682163  21.27  0.002765536    2.107    0.525
        21 -11.9198    201.0011    164.6907   2.9051916513e+02   4.6744871641e+00   0.02121715    0.0137486  86.89  0.001666676    2.152    0.535
        22 -11.1910    222.3624    161.5054   2.9025308105e+02   4.5826524096e+00   0.01555945   0.01024072  79.62  0.001125688    2.131    0.531
        23 -12.7842    164.0824    157.9797   2.9090384052e+02   4.9735868153e+00   0.01873611   0.01005126  30.47 0.0008660601    1.832    0.454
        24 -11.6051     28.8788    156.8062   2.9245921681e+02   5.7969801986e+00   0.01505713   0.01079655 -55.93 0.0008534693    1.364    0.267
        25 -10.1567      3.5122    158.4662   2.9276281861e+02   5.9292164285e+00   0.00659146  0.006390442 -27.87 0.0001049041    1.030    0.029
        26 -14.7833    143.3754    143.5239   2.9105375597e+02   5.2643190252e+00   0.04999573   0.02825101 -78.56  0.004425177    2.329    0.571
        27 -14.6303    134.0621    146.4070   2.9117915064e+02   5.2870328072e+00   0.07114992   0.02448012 -70.84  0.004324595    4.736    0.789
        28 -14.3512    135.7216    130.3302   2.9106072931e+02   5.4621256033e+00   0.06203893   0.01762075 -66.34   0.00375531    4.595    0.782
        29 -11.3732     18.5467    148.4880   2.9252756934e+02   5.9544713952e+00    0.0157745  0.009722232  12.82  0.001464646    1.913    0.477
        30 -10.2578    151.1209    241.2662   2.9156677318e+02   4.0925930215e+00  0.008810701  0.008466205  37.38 0.0005519536    1.050    0.048
        31 -12.4213     17.2846    153.3656   2.9257216216e+02   5.9058201020e+00   0.02198974   0.01530044 -33.72  0.001538578    1.596    0.373
        32 -12.5707    174.2386    149.0138   2.9073121381e+02   5.0157555313e+00   0.01685071    0.0144638 -76.12  0.001346301    1.223    0.183
        33 -12.8040    154.9025    190.2396   2.9120884398e+02   4.6573580906e+00   0.01600834   0.01224265  30.05  0.001026954    1.305    0.233
        34 -13.3614    153.7450    185.6611   2.9119397626e+02   4.7170141736e+00   0.02183254   0.01554172  27.55  0.002353455    1.409    0.290
        35 -12.4595     27.3701    145.5910   2.9240767918e+02   5.9351693118e+00   0.01888056   0.01720678  -4.47  0.001036431    1.143    0.125
        36 -12.9362    152.3599    144.9932   2.9095904176e+02   5.1934624724e+00    0.0155934   0.01240192 -44.49   0.00143319    1.261    0.207
        37 -13.9507    156.0925    199.0075   2.9124915542e+02   4.5492781421e+00   0.04444696   0.02634823  88.21  0.003810632    2.635    0.620
        38 -12.6439    163.6909    202.7495   2.9118452785e+02   4.4606001376e+00   0.01822653    0.0140074  77.84 0.0009310212    1.564    0.361
        39 -12.8498    160.5638    128.1313   2.9076012805e+02   5.3382368893e+00    0.0187452   0.01531101 -72.00  0.001670129    1.277    0.217
        40 -13.0294    161.2616    197.7749   2.9118189833e+02   4.5324463394e+00   0.02489798   0.01542148 -86.77  0.002284729    2.231    0.552
        41 -11.6897    139.3922    201.2017   2.9145544987e+02   4.6242027762e+00   0.01834776   0.01313241 -51.29 0.0006940421    1.371    0.271
        42 -11.6055    136.5013    197.0340   2.9146315074e+02   4.6895277433e+00   0.01728046   0.01206918  71.14  0.001740801    1.839    0.456
        43 -10.8009    205.5111    110.1905   2.9013017772e+02   5.2742947166e+00   0.01204919  0.009332906  24.24 0.0006517528    1.310    0.236
        44 -10.3892     28.6082    240.0558   2.9297348131e+02   4.8395018008e+00  0.008573486  0.007819925 -77.25 0.0004163416    1.133    0.117
        45 -11.7095     24.6261    106.7869   2.9220051998e+02   6.3984091347e+00   0.02052161   0.01144525  12.76  0.001517622    2.245    0.555
        46 -11.7571     40.9750     93.2415   2.9192775635e+02   6.4566675816e+00   0.01868521   0.01322495 -26.99    0.0016319    1.646    0.392
        47 -12.2537     48.1449     92.7141   2.9184150101e+02   6.4198712196e+00   0.02066293   0.01378844  16.20  0.002114997    1.645    0.392
        48 -11.5684      4.6208     89.7091   2.9232693475e+02   6.7144042587e+00   0.02240359   0.01061846   7.15  0.001547649    3.906    0.744
        49 -11.3807     21.8571    238.2916   2.9304062896e+02   4.9001095400e+00  0.009477817  0.007956406 -23.89 0.0006860856    1.281    0.219
        50 -10.6391    142.7983     80.7669   2.9067259448e+02   5.9899062280e+00  0.009111783  0.007727349  67.49 0.0004947585    1.304    0.233
        51 -14.3762    148.3046     58.4212   2.9047063502e+02   6.2137773477e+00   0.05642587   0.03665338 -40.59  0.003349429    1.631    0.387
        52 -11.7642    150.7954     36.3736   2.9030527379e+02   6.4522300297e+00    0.0319907   0.01050664  43.49  0.002038924    3.403    0.706
        53 -13.8220    180.4640    193.4491   2.9093363482e+02   4.4669490666e+00   0.03355655   0.02263494  11.08  0.003420779    1.708    0.415
        54 -13.1707    162.7632     35.0823   2.9015888342e+02   6.3950669042e+00   0.02038391   0.01873926 -19.74 0.0008337144    1.123    0.109
        55 -10.6648     13.5206     59.9408   2.9204029650e+02   7.0038799569e+00  0.009702886  0.008995411  29.17 0.0004708018    1.083    0.076
        56 -12.2261    169.8290    195.2287   2.9106732700e+02   4.5103271120e+00   0.01653844   0.01107922  19.21   0.00109124    1.592    0.372
