#   1 NUMBER                 Running object number                                     
#   2 MAG_AUTO               Kron-like elliptical aperture magnitude                    [mag]
#   3 X_IMAGE                Object position along x                                    [pixel]
#   4 Y_IMAGE                Object position along y                                    [pixel]
#   5 X_WORLD                Barycenter position along world x axis                     [deg]
#   6 Y_WORLD                Barycenter position along world y axis                     [deg]
#   7 A_WORLD                Profile RMS along major axis (world units)                 [deg]
#   8 B_WORLD                Profile RMS along minor axis (world units)                 [deg]
#   9 THETA_WORLD            Position angle (CCW/world-x)                               [deg]
#  10 FWHM_WORLD             FWHM assuming a gaussian core                              [deg]
#  11 ELONGATION             A_IMAGE/B_IMAGE                                           
#  12 ELLIPTICITY            1 - B_IMAGE/A_IMAGE                                       
         1 -11.4211     82.0080     70.7094   6.3236721886e+01   5.3009483974e+01    0.6655094    0.2378502 -54.37   0.00211633    3.317    0.698
         2 -10.4440     40.9360     13.9883   5.7704510162e+01   7.0911572541e+01    0.1927595    0.1629237  -6.96 0.0003080931    1.030    0.029
         3 -10.2607     99.3544    225.0587   8.6285466954e+01   1.6819240851e+01    0.2003264    0.1398152  34.90 0.0006378121    1.257    0.205
         4 -10.9900    126.1242    220.4192   8.0287307048e+01   1.3647146198e+01    0.2002833    0.1737827  74.80 0.0006877361    1.361    0.265
         5 -10.1191     75.1675    219.3884   9.0766070868e+01   2.1116813253e+01    0.1827055   0.08023933  44.86 0.0009486233    1.727    0.421
         6 -10.2124    143.6206    216.8242   7.6263185815e+01   1.1514259015e+01    0.1469831    0.1213127 -71.47 0.0009483632    1.660    0.398
         7 -10.4504     76.8312    211.6487   8.9742424774e+01   2.2306176257e+01    0.1624002    0.1440285  60.64  0.001145537    1.150    0.130
         8 -11.3324    186.0077    204.3410   6.6023732512e+01   6.5956205282e+00     0.197628      0.18172  72.57   0.00108018    1.606    0.377
         9 -11.7062    164.7994    201.8689   6.9815564929e+01   1.0419051522e+01     0.397201    0.2946547 -76.93  0.002148767    2.408    0.585
        10 -12.2293    163.8150    194.7892   6.8900973095e+01   1.1693076452e+01    0.4767736    0.2931207  61.48    0.0022095    2.594    0.615
        11  -9.9448    149.3392    198.6510   7.2519131824e+01   1.3502564928e+01    0.1316057   0.09506969  63.51 0.0006982957    1.791    0.442
        12 -10.7845    124.7879    197.9913   7.7711583156e+01   1.7666817591e+01    0.2043179    0.1239763  52.94  0.001054169    1.631    0.387
        13 -11.6307    172.7404    195.8089   6.7249786088e+01   1.0027483055e+01    0.2068443    0.1866196 -77.28  0.001223862    1.587    0.370
        14 -10.0304    179.5789    190.8010   6.5047968903e+01   9.6369719793e+00    0.1612599     0.126468 -51.26  0.000931934    1.682    0.406
        15 -10.7212    172.8768    191.0992   6.6444026677e+01   1.0733006729e+01    0.1976666    0.1699115  49.97  0.001210603    1.319    0.242
        16 -10.4056    139.1477    189.3080   7.3290252765e+01   1.6824577308e+01    0.2412828    0.1747796  85.07  0.001231803    2.150    0.535
        17 -10.1010    129.6427    188.3365   7.5253595996e+01   1.8613228550e+01    0.1409047   0.09527668  63.73  8.20846e-05    1.807    0.447
        18 -11.8954     95.4636    184.5727   8.2618131289e+01   2.4878840485e+01    0.6774211    0.4031102  77.76  0.003161219    2.368    0.578
        19 -10.8281      7.6141    187.8032   1.0321462552e+02   3.4728402922e+01    0.1611221   0.08270185  79.15 0.0006740481    1.659    0.397
        20 -11.4852    204.4039    185.3006   5.9311113321e+01   6.2635945497e+00    0.3351889    0.1915104 -48.58  0.001649207    2.540    0.606
        21 -12.0646    177.5450    198.0256   6.6652667886e+01   8.8902394624e+00    0.2968432    0.2033353  46.86   0.00168977    1.500    0.333
        22 -10.0715    165.5032    186.4961   6.7183913799e+01   1.2741835448e+01     0.134131    0.1150944  34.11 0.0008097184    1.069    0.065
        23 -10.5870    109.7822    185.9552   7.9446451932e+01   2.2348342059e+01    0.2195704    0.1445505  74.43  0.001087503    2.006    0.502
        24 -10.7829    174.6503    183.6180   6.4802456542e+01   1.1606997799e+01    0.2475895    0.1925397  72.89  0.001267788    2.023    0.506
        25 -10.2970    211.5013    183.4869   5.7684545167e+01   5.3447024186e+00    0.1287858      0.10498  12.76 0.0003232291    1.011    0.011
        26 -10.5244    197.7825    182.7667   6.0095062364e+01   7.7364926705e+00     0.165424    0.1505359  44.77 0.0007352646    1.358    0.263
        27 -10.2161     74.2550    183.2784   8.7510782473e+01   2.8246041613e+01    0.1935032    0.1029189 -85.96 0.0008932199    2.389    0.581
        28 -10.9478     24.6113    181.6740   9.9104346158e+01   3.4450231736e+01    0.2230751    0.1759558 -50.45  0.001105184    1.693    0.409
        29 -10.4809    244.4744    180.9823   5.1616859390e+01   5.1175556342e-01    0.1507837   0.09683349 -47.54 0.0008098611    2.543    0.607
        30 -10.6691    148.0161    180.0163   6.9838919565e+01   1.6934655779e+01    0.2148142    0.1612157  65.99  0.001133527    1.696    0.410
        31  -9.9689    138.3236    179.6497   7.1941118778e+01   1.8716668250e+01    0.1395193    0.1020049  68.09 0.0007048594    1.751    0.429
        32 -10.2384    192.6402    178.3066   6.0266765225e+01   9.2823601839e+00    0.1238607    0.1045631  67.81 0.0007040125    1.731    0.422
        33 -10.9621     78.0973    175.8800   8.5730856853e+01   2.9265590964e+01    0.3100435    0.1578849  62.97  0.001363609    2.326    0.570
        34 -10.6056    183.6841    175.3494   6.1484966121e+01   1.1321481515e+01    0.1959402    0.1639926  71.95  0.001104602    1.740    0.425
        35  -9.7924    159.6695    175.3169   6.6479488256e+01   1.5667868718e+01     0.134657    0.1056893  67.89 0.0006703824    1.684    0.406
        36 -11.0731    177.3492    170.5832   6.1879887268e+01   1.3238933393e+01    0.3123443    0.2417686 -55.77  0.001712493    1.698    0.411
        37 -10.5110    135.0117    171.5185   7.1340838354e+01   2.0837058593e+01    0.2539327    0.1827832  68.35  0.001267894    1.778    0.437
        38 -10.8872    206.8062    169.5414   5.5928926660e+01   8.1123275191e+00    0.2397245    0.1725985 -50.01  0.001304636    1.896    0.473
        39 -11.1847    121.7465    168.6803   7.3998773560e+01   2.3758124099e+01    0.4329714     0.296924 -80.90  0.002083486    2.054    0.513
        40 -10.8050    248.4658    168.9849   4.8746347176e+01   1.3703658146e+00    0.1541223   0.09579614 -47.07 0.0007379563    2.468    0.595
        41 -10.4466    168.4212    169.1319   6.3472419086e+01   1.5130290227e+01    0.2516339    0.1816109  72.83  0.001190701    2.272    0.560
        42 -10.2527    150.0102    169.5069   6.7562610654e+01   1.8477739324e+01    0.1993248    0.1112565  58.42 0.0008096756    2.466    0.595
        43 -10.1227     55.3266    169.6414   9.0714761879e+01   3.3670366893e+01      0.14358   0.08019074  63.60 0.0007043659    1.782    0.439
        44 -11.2744    139.7171    165.1248   6.9123536285e+01   2.1208194827e+01    0.3895035    0.2635054  71.50   0.00176251    2.219    0.549
        45 -12.5993    214.4939    164.2575   5.3498816040e+01   7.5382645681e+00    0.4008732    0.2870167  59.44  0.002134113    2.051    0.512
        46 -10.6942     80.4753    164.2812   8.3657577247e+01   3.1438407154e+01    0.3748574    0.1925358  74.90  0.001421716    3.208    0.688
        47 -11.8672    205.9144    161.9256   5.4598732818e+01   9.3980765422e+00    0.3245651    0.2565726 -72.97  0.001473332    2.253    0.556
        48 -10.7092    178.1814    160.4532   5.9745053361e+01   1.4776952938e+01    0.3128689     0.249927 -78.44  0.001612398    1.972    0.493
        49 -10.8835     93.2191    160.1339   7.9767682015e+01   3.0386791071e+01    0.2903164    0.1548204  57.56  0.001244663    2.111    0.526
        50  -9.3863    144.4622    159.5262   6.6981941248e+01   2.1397358329e+01    0.1436685    0.1301498  41.28  0.000330508    1.034    0.033
        51  -9.9965    128.4826    158.9585   7.0679951448e+01   2.4510038985e+01    0.1918946    0.1272223 -84.17  0.000809117    2.478    0.597
        52 -11.4687    197.1803    157.2335   5.5301213467e+01   1.1719134852e+01    0.3400885    0.2563238 -59.10  0.001775254    1.939    0.484
        53 -11.2854    189.1810    157.2047   5.6858802093e+01   1.3228047829e+01     0.348363    0.2374065 -48.93   0.00149482    1.795    0.443
        54 -12.3095    189.6814    149.3969   5.5140362512e+01   1.4415001986e+01     0.460604     0.320866 -45.69  0.001582579    1.634    0.388
        55 -10.5095    106.2149    158.1242   7.6099029423e+01   2.8664995467e+01     0.298187    0.1634306  58.42  0.001249362    2.171    0.539
        56 -11.9025    204.9035    154.1994   5.3218596740e+01   1.0755213440e+01    0.3311381     0.236716 -37.53  0.001807422    1.480    0.324
        57 -10.1158    157.9380    155.9779   6.3213874307e+01   1.9473434815e+01    0.2207501    0.1779402  78.85 0.0009175177    1.698    0.411
        58 -10.5444    119.9585    155.4730   7.2153738410e+01   2.6795351306e+01    0.2930288    0.1759364  81.76  0.001038202    3.521    0.716
        59 -10.7940     82.0006    154.4705   8.1872441174e+01   3.3405796433e+01    0.2692984    0.1886828  85.31  0.001120045    1.609    0.378
        60 -10.8820     49.7393    154.6612   9.0590588191e+01   3.7735300631e+01     0.361645    0.1518573  58.81  0.001470173    2.696    0.629
        61 -10.1005    144.8318    154.5873   6.5942987742e+01   2.2284248604e+01    0.2139287    0.1259817  51.07  0.000896887    1.737    0.424
        62 -11.1574    133.3604    152.5298   6.8286290373e+01   2.4901112713e+01    0.3835204    0.2609705  85.54  0.001624004    2.474    0.596
        63 -11.4641     68.6728    153.2374   8.5293787371e+01   3.5626855651e+01    0.4630981    0.2255381  57.05   0.00197809    2.251    0.556
        64 -12.9935    248.5609    149.8663   4.4983359328e+01   3.7630201018e+00    0.3905932    0.2942955 -27.83  0.002469965    1.270    0.212
        65 -11.0605    168.0699    157.0640   6.1204275833e+01   1.7307063274e+01    0.3080089    0.2420601 -70.21  0.001437715    1.814    0.449
        66 -10.0288    162.6656    150.3512   6.1017023561e+01   1.9584016191e+01    0.2178964     0.176092  80.22 0.0009819643    1.717    0.417
        67 -11.4905    200.3191    148.3494   5.2855977290e+01   1.2531019837e+01    0.3014413     0.239791 -50.03  0.001318588    1.547    0.354
        68 -10.1397    142.6178    148.7981   6.5313436135e+01   2.3856944278e+01    0.2005872    0.1404349 -60.29 0.0009468677    1.730    0.422
        69 -10.9223     39.4968    147.2492   9.2599296202e+01   4.0618667644e+01    0.3994616    0.1517821  59.37  0.001526946    3.149    0.682
        70 -11.4562    107.6513    145.0540   7.3423661213e+01   3.1271381840e+01    0.6030276    0.3366828  70.06  0.002145677    3.232    0.691
        71 -11.4235     56.1182    145.2744   8.7721971650e+01   3.9147937990e+01    0.5113172    0.2551641  68.43  0.002119714    2.575    0.612
        72 -10.2737    175.9518    145.9977   5.7225667237e+01   1.7713132423e+01    0.2192755    0.1826631  87.21  0.001130102    1.708    0.414
        73 -11.8788    149.1433    144.0572   6.2786682367e+01   2.3493593149e+01     0.595203    0.3975708 -77.01  0.002429417    2.650    0.623
        74 -10.1708     13.3145    145.6672   9.9620258619e+01   4.3422017335e+01    0.1330499    0.0712549  62.64 0.0005138597    1.684    0.406
        75 -11.8089    247.5026    144.1068   4.3971060822e+01   4.6843442410e+00    0.1863676    0.1756832 -36.69  0.000966766    1.385    0.278
        76 -10.6942    165.8775    143.6067   5.8881520235e+01   2.0182116831e+01    0.2833196    0.1983527 -60.54  0.001319506    1.908    0.476
        77 -11.5911    125.1616    142.7831   6.8409846129e+01   2.8503801784e+01    0.4833622    0.3134438 -86.70  0.001908504    2.724    0.633
        78 -10.8792     88.0207    143.5440   7.8498702772e+01   3.4962052654e+01    0.2814133    0.1978735 -88.77  0.001288534    1.670    0.401
        79 -10.5549    182.2348    141.1705   5.4871794461e+01   1.7289363914e+01    0.2598782    0.2002318 -56.84  0.001112331    1.639    0.390
        80 -10.4196    239.3149    140.6790   4.4512072017e+01   6.5262816612e+00    0.1190185   0.09995822 -55.64 0.0007040295    1.657    0.397
        81 -11.2618    190.2505    139.6817   5.2929676555e+01   1.5923108227e+01    0.3148861     0.231185  -0.24  0.001575174    1.591    0.371
        82 -10.4852    172.4610    137.8260   5.6181930824e+01   1.9886788820e+01    0.3503901    0.2348576 -68.33  0.001465097    2.523    0.604
        83  -9.7436    235.3501    138.6772   4.4711571626e+01   7.4948595646e+00    0.1225693    0.1026595 -62.51 0.0007048614    1.749    0.428
        84 -10.5264    197.9228    137.0995   5.0869819061e+01   1.4810573381e+01    0.4016933    0.1733445 -40.55  0.001613357    2.377    0.579
        85 -11.2003     22.9523    137.0007   9.6274398812e+01   4.4646854690e+01    0.4209128    0.1703349  75.22  0.001685671    3.020    0.669
        86 -11.4866    249.3434    135.4114   4.1894914483e+01   5.5208718382e+00    0.2591312    0.1390678 -31.52  0.001349855    1.655    0.396
        87 -10.2217    162.5156    135.9714   5.7948839768e+01   2.2301615047e+01    0.2218755    0.1467942 -42.69   0.00102957    1.592    0.372
        88 -10.1629    188.0094    135.0293   5.2336560911e+01   1.7166485602e+01    0.2186925    0.1807528 -73.00  0.001085256    1.686    0.407
        89  -9.2423    225.3076    138.6944   4.6343884361e+01   9.3016787619e+00    0.1220976    0.1056401 -62.23 0.0003869142    1.608    0.378
        90 -10.6734    179.5120    133.3823   5.3691454656e+01   1.9214579912e+01    0.3394307    0.2339156 -55.80  0.001199848    1.848    0.459
        91 -11.4036    132.0435    130.7723   6.4095560875e+01   2.9686855362e+01    0.5669615    0.3183104 -66.12  0.002091018    2.796    0.642
        92 -10.5332    112.9809    133.0126   6.9616569764e+01   3.2966514604e+01    0.2502394    0.1808271  74.78  0.001141705    1.767    0.434
        93 -10.8276    143.2205    131.0161   6.1352315821e+01   2.7322123356e+01    0.4157919    0.2704037 -60.28  0.001811435    1.921    0.479
        94 -11.6777     83.4110    130.8963   7.7584950152e+01   3.8661857393e+01    0.4732828    0.2949823 -81.83  0.002085311    2.023    0.506
        95 -11.5564    247.2747    129.5537   4.0958797061e+01   6.6537371195e+00    0.2539714    0.1860407 -73.97  0.001291775    2.667    0.625
        96  -9.9508    204.7957    130.0019   4.7994024728e+01   1.4576807224e+01    0.2225388    0.1578246 -59.02  0.001064372    1.993    0.498
        97 -10.1976    192.9702    129.7723   5.0164138394e+01   1.7032397116e+01    0.2604474    0.1813333 -47.75  0.001255775    1.622    0.383
        98 -10.9614    168.7688    129.2030   5.5015468417e+01   2.2245813566e+01    0.3423056    0.2364977 -62.18  0.001524929    1.989    0.497
        99 -10.9738    152.9381    128.5286   5.8448004391e+01   2.5764705359e+01    0.4888249    0.2458709 -53.46  0.001847919    2.477    0.596
       100 -10.6476     73.1530    128.9176   8.0283097669e+01   4.0721122448e+01    0.3520771    0.2138513  85.09  0.001506625    2.223    0.550
       101 -10.0976    212.0542    129.0589   4.6482942270e+01   1.3275478394e+01    0.2122618    0.1716582 -66.81  0.001125494    1.749    0.428
       102 -10.6961     12.6974    128.7284   9.8553594422e+01   4.7433721381e+01    0.2716952    0.1141714  75.40  0.001183476    2.558    0.609
       103  -9.7794    220.6264    130.3209   4.5295387569e+01   1.1412882434e+01    0.1322202    0.1082578 -70.88 0.0007031054    1.809    0.447
       104 -11.4949     99.0890    127.3119   7.2318735148e+01   3.6832384413e+01    0.5794646    0.3607818 -84.74  0.002310159    2.489    0.598
       105 -11.3375    117.9892    125.1731   6.6554096887e+01   3.3735711172e+01    0.4806406     0.292191  69.94  0.001800653    2.656    0.624
       106 -11.3753     59.2258    123.3810   8.3624488307e+01   4.4016183812e+01    0.6220298    0.3078034  84.42  0.002154087    3.593    0.722
       107 -10.7135    180.2863    124.3884   5.1438330675e+01   2.0644933513e+01    0.3391526    0.2520006 -53.79  0.001653191    1.584    0.369
       108 -11.8173     43.2794    120.9541   8.8294453142e+01   4.6536333734e+01    0.8763601    0.3637069 -89.24  0.002927455    3.924    0.745
       109 -10.3074    188.8016    123.4895   4.9511729234e+01   1.8975396513e+01    0.2902554    0.1841824 -51.27  0.001224055    1.894    0.472
       110 -11.4728     28.2041    121.5420   9.3142777472e+01   4.7899490649e+01    0.6803697    0.2513036  71.80  0.002054383    5.228    0.809
       111  -9.8559    203.4831    121.9806   4.6382759691e+01   1.6133702477e+01    0.1993662    0.1152779 -54.69  0.000809787    2.491    0.599
       112 -10.1799    194.9319    121.6177   4.7883601146e+01   1.7988047179e+01     0.293651     0.179518 -51.15   0.00117823    2.000    0.500
       113 -10.6094    158.7080    120.8413   5.5276461602e+01   2.6014828800e+01    0.3528441     0.248314 -62.07  0.001573386    1.835    0.455
       114 -10.3409    172.7471    120.6925   5.2131405563e+01   2.2952057887e+01     0.306316    0.2019652 -48.23  0.001171901    1.661    0.398
       115 -11.4778    141.6367    118.0499   5.8680828763e+01   3.0317759942e+01    0.6899531    0.3278837 -57.42   0.00232334    3.056    0.673
       116 -10.8718     70.9796    119.4670   7.9241639100e+01   4.3327321983e+01    0.3126889    0.1785201 -85.70  0.001257259    2.445    0.591
       117 -11.1011    130.6541    117.8629   6.1447971542e+01   3.2721471036e+01    0.4525146    0.3042272 -72.16  0.001869477    2.146    0.534
       118 -10.7976      2.9739    116.5678   1.0055759717e+02   5.0968637658e+01    0.4581842    0.1516373  78.41  0.001708769    3.607    0.723
       119 -10.4049    185.9983    115.5361   4.8147148543e+01   2.0954796200e+01    0.2886775    0.2014263 -51.31  0.001356049    1.641    0.391
       120 -11.5643    108.8858    112.7889   6.6232605173e+01   3.8317542873e+01    0.7286575    0.3537014 -62.24  0.002560614    2.778    0.640
       121  -9.4430    203.3426    115.6803   4.4916272063e+01   1.7180946375e+01    0.1421627    0.1136834 -71.84 0.0005414836    1.721    0.419
       122 -10.3617    192.9323    114.6270   4.6581661018e+01   1.9591998458e+01    0.2986081    0.2046922 -40.52  0.001427619    1.468    0.319
       123 -11.5040     78.5550    111.1662   7.5160617062e+01   4.4166307424e+01    0.6417209    0.3407853 -78.14  0.002327467    2.939    0.660
       124 -10.9483    122.1358    111.9362   6.2276231463e+01   3.5802148617e+01    0.3556325    0.2624311 -70.33  0.001423046    1.668    0.401
       125 -11.4539     92.2959    110.9141   7.0766717418e+01   4.1884714110e+01    0.7082723    0.3143834 -62.77  0.002487965    2.785    0.641
       126 -10.5298    174.7856    111.1103   4.9324551947e+01   2.4242498098e+01    0.3906792    0.1884063 -47.28  0.001478571    2.317    0.568
       127 -10.5703    159.3161    111.0275   5.2685909134e+01   2.7771355614e+01    0.3304297     0.188102 -47.07  0.001356866    1.874    0.466
       128 -11.3943     66.4375    109.7013   7.8814481523e+01   4.6371775065e+01    0.4622522    0.2389783 -75.07  0.001836631    2.401    0.584
       129 -11.1048     14.2454    109.7017   9.6359669156e+01   5.1901107996e+01    0.3925338    0.2032524  85.68  0.001941832    1.892    0.472
       130 -10.0936    182.6026    108.3700   4.7033466163e+01   2.2961277495e+01    0.2909776    0.1357031 -41.64  0.001120107    2.160    0.537
       131 -10.2824    133.2801    109.1556   5.8576624305e+01   3.3999225054e+01     0.294661    0.2064123  74.74   0.00119223    2.009    0.502
       132 -10.2727    189.4363    107.2548   4.5418611157e+01   2.1614050986e+01    0.3540826    0.1356176 -38.77    0.0012654    2.539    0.606
       133 -10.8912    139.7638    103.8155   5.5500324559e+01   3.3656844089e+01    0.4748358    0.2928485 -57.31  0.001933656    1.967    0.492
       134 -12.0854     45.3557    101.8795   8.4554750905e+01   5.1014923685e+01    0.7074218    0.3268721  67.20   0.00235867    4.070    0.754
       135 -11.6771     22.1896    100.7028   9.2595739732e+01   5.3517566510e+01    0.8946894    0.3742953  79.80   0.00326524    3.590    0.721
       136 -10.2193    166.4943    103.0117   4.8996577030e+01   2.7630489615e+01    0.2392085    0.1500305 -39.73  0.001035118    1.608    0.378
       137 -11.2523    128.5116    101.2655   5.7756818168e+01   3.6717415803e+01    0.5208586    0.2778073 -51.33  0.002024272    2.040    0.510
       138 -10.4247      6.4170    102.2204   9.8254280015e+01   5.4213871389e+01    0.1856629   0.09938659  87.04 0.0009550212    1.725    0.420
       139  -9.7696    175.5229    101.4957   4.6688723657e+01   2.5801531512e+01    0.1485416    0.1478132 -23.02 0.0008099031    1.040    0.038
       140 -11.6505    108.9428     97.9824   6.2429525250e+01   4.1638022942e+01    0.7501186    0.4833674 -78.82  0.002839836    2.599    0.615
       141 -10.6443     81.7410     98.8607   7.1287996443e+01   4.6586055976e+01    0.4379775    0.2071972 -65.80  0.001565031    2.734    0.634
       142 -10.8717     94.8135     95.8837   6.6243057502e+01   4.4921656144e+01    0.4496954    0.2039912 -57.05  0.001625909    2.457    0.593
       143 -11.7271     63.4280     94.5699   7.6603877944e+01   5.0497302287e+01    0.7486079    0.3174238 -69.05  0.002609126    3.051    0.672
       144 -10.2317    159.8665    100.5456   4.9804532257e+01   2.9642704335e+01    0.3246258     0.197643 -54.17  0.001321077    1.964    0.491
       145 -10.6767    138.7586     91.6242   5.2372627007e+01   3.6353496366e+01    0.4408123    0.2902103 -65.98  0.001765064    2.124    0.529
       146 -11.9822    124.6106     89.6880   5.5567151010e+01   4.0022800315e+01    0.6667796    0.3288852 -51.46  0.002449122    2.277    0.561
       147 -10.1795     58.0021     91.9973   7.7982937382e+01   5.1879230259e+01    0.2072601    0.1930343  89.79  0.001208462    1.069    0.064
       148 -10.1842     43.4889     92.4980   8.3472976772e+01   5.3541484047e+01    0.1364404    0.1240087 -71.94 -0.0001564429    1.001    0.001
       149 -11.1598     34.6740     87.6318   8.5892180312e+01   5.5654335675e+01    0.6953678    0.2182385 -69.58   0.00246393    3.121    0.680
       150 -11.3424      4.5699     90.4545   9.7743321496e+01   5.7161856282e+01    0.3533702    0.1301254  83.39  0.001354801    3.324    0.699
       151 -10.1244    151.1384     88.7346   4.8516606952e+01   3.3960361471e+01     0.312527     0.173902 -51.67  0.001201781    2.082    0.520
       152 -11.0835     86.3497     86.0361   6.6341191798e+01   4.8767644518e+01    0.3789507    0.2549178 -80.08  0.001409959    2.189    0.543
       153 -11.3721     48.5620     83.8970   7.9704104870e+01   5.5060521511e+01    0.5077326    0.2881237  84.67  0.001982505    2.967    0.663
       154 -11.5529    104.3831     81.6356   5.9121959723e+01   4.6177260613e+01    0.6429327    0.2798541 -50.90  0.002275492    2.474    0.596
       155 -10.8245    140.7914     82.4657   4.9163730940e+01   3.7661626851e+01     0.376156    0.2102575 -44.26  0.001502487    1.835    0.455
       156 -11.2596     24.3137     79.7310   8.8558180451e+01   5.8502086504e+01    0.4113227    0.2077007  87.31  0.001749604    2.612    0.617
       157 -10.4002    150.1469     79.7030   4.6085375995e+01   3.5888529513e+01    0.2895767    0.2091787 -48.33  0.001203043    1.448    0.309
       158 -10.6709    119.1740     79.7359   5.4096751144e+01   4.3313836630e+01       0.3171    0.1784444 -55.17  0.001213489    2.135    0.532
       159 -11.3173    150.0517    101.6330   5.2377886942e+01   3.1727985520e+01    0.5996547    0.2357447 -48.41  0.001955887    2.918    0.657
       160  -9.6580    174.6410     77.8222   4.0340148549e+01   3.0125810519e+01    0.2289091    0.1324919 -44.40 0.0009457474    1.759    0.431
       161  -9.6576    167.6467     77.3066   4.1575307534e+01   3.1954600448e+01    0.1608349    0.1202741 -75.37 0.0007042121    1.715    0.417
       162  -9.4288    211.6736     76.3148   3.3661323639e+01   2.1469555540e+01    0.1480976    0.1050881 -62.89 0.0007043508    1.669    0.401
       163 -10.0948    157.5670     75.7740   4.3235599484e+01   3.4745670853e+01    0.2252605    0.1427965 -46.95 0.0009504802    1.652    0.395
       164 -11.0377    127.8844     74.2203   4.9934362680e+01   4.2366125406e+01     0.542023    0.2163075 -45.18  0.001821656    2.631    0.620
       165  -9.5038    189.3509     75.6928   3.7053093235e+01   2.6851510389e+01    0.1561277     0.113603 -69.66 0.0005898393    1.711    0.415
       166 -10.5576    140.7606     74.7447   4.6797225815e+01   3.9126657590e+01     0.326543    0.2146348 -48.43  0.001247937    1.613    0.380
       167 -10.3846    248.5288     74.4708   2.8428727735e+01   1.3825204668e+01    0.1306047    0.1127486 -35.00  0.000244404    1.014    0.014
       168 -11.4090    162.3303    225.0760   7.3651274467e+01   7.3996327460e+00    0.3667155     0.210867  25.48  0.002049969    1.632    0.387
       169  -9.7163    165.0000     93.9502   4.6870348052e+01   2.9651041044e+01    0.2534477   0.08771473 -37.30 0.0007983223    2.914    0.657
       170  -9.8900    162.7722     71.0354   4.0702582555e+01   3.4249434322e+01    0.2100693    0.1273464 -35.26 0.0008783424    1.657    0.396
       171 -10.4648    158.5461     82.2917   4.4960040625e+01   3.3340300705e+01    0.3010519    0.1460359 -41.48  0.001129591    2.070    0.517
       172 -10.6622     94.6642     69.6834   5.8467331227e+01   5.0750129055e+01    0.5379027    0.2044242 -53.85  0.001649656    3.505    0.715
       173 -11.1160     51.2599     68.8949   7.4774812929e+01   5.8302380895e+01     0.570601    0.2536152 -72.34  0.001831171    4.064    0.754
       174  -9.5244    170.4966     70.5162   3.9006624949e+01   3.2377870846e+01    0.1510762    0.1491881 -84.33 0.0001436534    1.003    0.003
       175 -10.4631     16.6872     69.7229   8.9968865398e+01   6.1482562732e+01    0.2602576    0.1374447  83.10  0.001175843    2.450    0.592
       176 -10.5092    147.0419     67.1574   4.2904591170e+01   3.8916237961e+01    0.3597775    0.2205039 -40.42  0.001412887    1.648    0.393
       177 -10.1239    203.4947     66.4852   3.2262001849e+01   2.4829294872e+01    0.2669312    0.1139954 -41.67  0.001025484    2.218    0.549
       178 -10.6628    138.8318     65.5133   4.4304705792e+01   4.1283550667e+01    0.3296867    0.1940359 -51.25  0.001316097    1.939    0.484
       179 -10.2958    121.4818     65.0208   4.8643489068e+01   4.5655566240e+01    0.3607705    0.1424197 -44.25  0.001209935    2.646    0.622
       180 -10.2560    109.9756     63.0014   5.1277646132e+01   4.8749300821e+01    0.3604002    0.1904703 -53.29   0.00134587    2.336    0.572
       181 -10.2171    100.3173     59.8018   5.3164946493e+01   5.1544259388e+01    0.3130864    0.1306547 -47.91  0.001081324    2.642    0.621
       182 -10.6712     73.1064     58.3187   6.2397062385e+01   5.7291160442e+01    0.4859342    0.2323923 -57.41    0.0018152    2.653    0.623
       183 -10.2557     24.5286     58.5019   8.3998485036e+01   6.3577853688e+01    0.1288087    0.1138234 -59.99 0.0003987626    1.045    0.043
       184 -10.3362    130.5153     57.0228   4.3490313375e+01   4.4864010912e+01    0.2410212    0.1538868 -35.76  0.001036388    1.603    0.376
       185 -11.5822      7.5714     55.7144   9.1566607109e+01   6.5340439737e+01    0.4905803    0.1415002 -74.04  0.001839495    3.255    0.693
       186 -10.0897    139.5176     55.0289   4.0622887337e+01   4.2901270402e+01    0.2399217    0.1535457 -34.56  0.001027333    1.600    0.375
       187 -10.4280    118.9924     54.7956   4.5741467953e+01   4.8115278943e+01    0.2930945    0.1959911 -50.76  0.001283427    1.665    0.400
       188 -10.7284     63.3097     54.4865   6.5019753985e+01   5.9766492690e+01    0.2586112    0.1239473 -49.31 0.0009882135    2.006    0.501
       189 -10.7323     53.9299     53.2564   6.8666344528e+01   6.1465373168e+01    0.3506431    0.1881636 -69.00  0.001335003    3.043    0.671
       190 -10.6322     37.4051     64.1571   7.9493312271e+01   6.1047359677e+01    0.1952052    0.1223047 -74.59  0.000949915    1.773    0.436
       191 -10.5134     92.0896     49.2725   5.1954590145e+01   5.5334180961e+01    0.4445519    0.1904728 -49.97  0.001538327    2.911    0.656
       192 -10.6232     31.0170     50.8195   7.8737509196e+01   6.4772250861e+01    0.2401858    0.1645404 -75.35  0.001208293    1.666    0.400
       193 -11.0790     45.2591     49.1165   7.1218809168e+01   6.3544757348e+01    0.2477715    0.2003166 -22.18 0.0003730318    1.249    0.199
       194 -10.2588    122.5782     43.5494   4.0618572738e+01   4.9090340320e+01    0.4331748      0.15075 -32.19  0.001411565    2.995    0.666
       195 -10.0619    225.3005     44.6759   2.3736793137e+01   2.2653341288e+01    0.1447824   0.09063516 -57.33 0.0004309327    1.632    0.387
       196  -9.6279    113.5851     41.4913   4.2216958308e+01   5.1667892095e+01    0.1527077    0.1405542  23.81 6.310829e-05    1.094    0.086
       197 -10.5844     58.1748     42.0078   6.2465056967e+01   6.3157952521e+01    0.2232222    0.1650714 -74.13  0.001086114    2.036    0.509
       198 -10.1219    115.6042     71.8151   5.2594104196e+01   4.5729363022e+01    0.2282934    0.1446116 -51.41 0.0009557254    1.720    0.419
       199 -10.9481      4.9657     40.3713   8.9691094172e+01   6.9002830031e+01    0.4285569     0.157284 -77.81  0.001735718    3.117    0.679
       200 -10.7266     27.0000     31.0015   7.4026258863e+01   6.9469669322e+01    0.2132967   0.06484434 -55.47  0.000804821    2.959    0.662
       201 -10.4879     13.0000     30.0114   8.2040025145e+01   7.0844640634e+01      0.20792    0.0605996 -62.26 0.0008077317    2.979    0.664
       202 -10.0579     81.6647     27.3261   4.6216813125e+01   6.1295443484e+01    0.1402949    0.1143913 -75.02 0.0007051514    1.718    0.418
