#   1 NUMBER                 Running object number                                     
#   2 MAG_AUTO               Kron-like elliptical aperture magnitude                    [mag]
#   3 X_IMAGE                Object position along x                                    [pixel]
#   4 Y_IMAGE                Object position along y                                    [pixel]
#   5 X_WORLD                Barycenter position along world x axis                     [deg]
#   6 Y_WORLD                Barycenter position along world y axis                     [deg]
#   7 A_WORLD                Profile RMS along major axis (world units)                 [deg]
#   8 B_WORLD                Profile RMS along minor axis (world units)                 [deg]
#   9 THETA_WORLD            Position angle (CCW/world-x)                               [deg]
#  10 FWHM_WORLD             FWHM assuming a gaussian core                              [deg]
#  11 ELONGATION             A_IMAGE/B_IMAGE                                           
#  12 ELLIPTICITY            1 - B_IMAGE/A_IMAGE                                       
         1 -13.2399    193.3266     30.2985   6.9575074698e+01   3.3299253302e+01      1.31613     1.178274 -76.22  0.007594604    1.079    0.073
         2 -13.6196    207.5463     11.7629   6.3205320754e+01   3.1986501623e+01     1.480241     1.007543  44.62  0.008128528    1.779    0.438
         3 -12.5174      2.6551     11.5576   1.1712645305e+02   7.0650965428e+01     1.532718    0.1595355 -46.65   0.00523601    6.186    0.838
         4 -13.2938      3.2308    245.3852   1.5190376162e+02   2.3584708184e+01     2.181577    0.7847405 -74.93   0.01284866    2.315    0.568
         5 -11.2674    137.6334    249.7101   1.2928796465e+02   4.0637008802e+00    0.5881665    0.1051092  44.83  0.001844816    4.399    0.773
         6 -11.0754    125.1526    250.1984   1.3165687351e+02   6.0738614282e+00    0.4946996     0.144643  42.10   0.00195551    2.900    0.655
         7 -10.7267     98.5932    249.1300   1.3637331633e+02   1.0545171197e+01    0.3873425     0.230185  57.75  0.002273157    1.392    0.282
         8 -10.3919    100.8178    245.6497   1.3560507883e+02   1.0822028827e+01    0.2750109    0.1681249 -82.62  0.001554126    1.865    0.464
         9 -12.7156     34.0310    247.1934   1.4723511376e+02   1.9851172659e+01     1.392241    0.6384137  35.80  0.007682827    2.746    0.636
        10 -12.0302     56.3770    225.2330   1.4169650842e+02   2.1264170100e+01     1.043444    0.5853556 -47.87  0.005391305    2.863    0.651
        11 -13.5477      9.8177    206.9404   1.4858188494e+02   3.0365133510e+01     1.225689    0.7511687  88.29  0.005440223    1.228    0.185
        12 -15.1656     10.1169    153.8150   1.4408255087e+02   4.1770305307e+01     6.104765     1.829033 -78.44   0.02414779    3.303    0.697
        13 -13.5826     43.9534    222.4306   1.4370010310e+02   2.3426651808e+01     0.814748    0.5947289  80.13  0.002584082    1.047    0.045
        14 -11.0083     22.5724    245.1027   1.4892269157e+02   2.1568779209e+01    0.4466494    0.1532033  63.87  0.002212195    2.706    0.630
        15  -8.6650     91.8077    213.7288   1.3366521600e+02   1.8459801215e+01    0.2975002     0.160142  73.62  0.001333807    2.366    0.577
        16  -8.6732    152.5373    212.9893   1.2111210981e+02   7.9634907443e+00    0.1819384    0.1376744 -53.70 0.0003098493    1.470    0.320
        17 -10.3360     23.1994    236.8238   1.4830654952e+02   2.3050825291e+01    0.2569949    0.2047056 -41.17  0.001792991    2.414    0.586
        18 -14.2311     53.8404    211.6043   1.4088789587e+02   2.4397556620e+01     8.252584          nan  46.87   0.01931066    9.794    0.898
        19 -11.3422     63.7884    197.1833   1.3738551170e+02   2.6161618810e+01    0.3282693     0.246617 -44.87   0.00104902    1.828    0.453
        20  -8.9758     51.7153    197.4926   1.3987359726e+02   2.7690883738e+01    0.2269301    0.1411677  65.72  0.001298751    1.480    0.324
        21  -9.5494    191.9779    192.9616   1.0939834455e+02   4.1029531000e+00    0.3661964    0.1886011 -63.82  0.001153064    4.562    0.781
        22 -11.4707     69.4505    189.3896   1.3525790499e+02   2.7099164371e+01    0.2839116    0.2349287 -65.34 0.0006404707    1.272    0.214
        23 -10.6277     79.1140    176.9185   1.3143423965e+02   2.8522344626e+01    0.2470446    0.2175467 -59.50 0.0004037252    1.256    0.204
        24 -12.9241     66.1560    174.7422   1.3405383589e+02   3.0889722901e+01    0.5050592    0.2765617 -46.32  0.001665907    2.273    0.560
        25 -11.6718     86.5930    167.5805   1.2826578937e+02   2.9537387502e+01    0.6797293    0.5593698  67.16  0.003874168    1.172    0.147
        26  -9.5538    236.0000    160.0095   9.4019768037e+01   1.3894871796e+00    0.2360142   0.07611433 -38.84 0.0008015085    2.936    0.659
        27  -9.8201     98.9564    151.6035   1.2244024331e+02   3.1261646934e+01    0.2961058    0.2960115  54.77 0.0007640053    1.164    0.141
        28  -9.0399    101.9830    147.2834   1.2083741670e+02   3.1756132340e+01    0.2598725    0.1766588 -40.24  0.001211986    1.672    0.402
        29 -11.7206     87.5343    150.9118   1.2516441366e+02   3.3313717301e+01    0.2890481    0.2499192 -47.78 0.0006741593    1.241    0.194
        30 -12.3459     67.4302    143.9592   1.2900627984e+02   3.7934626229e+01    0.7337691    0.5053995  75.14   0.00303576    1.692    0.409
        31 -11.4292     57.1231    130.4338   1.2930953792e+02   4.2458477391e+01    0.9678034    0.3147553 -71.09  0.002461675    6.469    0.845
        32  -9.1957    229.4877    229.4926   1.0888793451e+02  -8.5858692503e+00    0.1249333    0.1066775  18.33 -2.682322e-05    1.058    0.055
        33  -9.5466    110.1201    136.9191   1.1659545079e+02   3.2723499889e+01    0.3932539    0.2592886 -16.49  0.001260887    2.845    0.648
        34 -10.2557     97.5111    134.1200   1.1927504773e+02   3.5633038195e+01     0.262159    0.2402057 -27.36 0.0006063196    1.238    0.192
        35  -8.2133    192.2335    144.0110   9.8911731611e+01   1.3640342242e+01    0.1944138    0.1273012 -41.63 0.0003692931    1.517    0.341
        36  -9.2318    107.1480    123.7699   1.1439615024e+02   3.6325437615e+01    0.2064197    0.1920975 -86.20 0.0003263084    1.091    0.084
        37 -12.3291     37.7457    231.0647   1.4547788350e+02   2.2470413805e+01    0.2908299    0.2343694  89.40  0.000743825    1.227    0.185
        38 -11.2535    106.9185    246.8004   1.3461618589e+02   9.6448972294e+00     0.341635    0.1913508  34.05  0.001734388    2.132    0.531
        39 -10.0023    168.0578    113.0427   9.6551269810e+01   2.5614691874e+01    0.3619152    0.2890416 -83.54 0.0007909599    1.520    0.342
        40  -9.2255    203.3968    111.7658   8.8906574174e+01   1.7486878652e+01    0.2186598    0.1459753 -28.78 0.0009451549    1.673    0.402
        41  -8.5862    157.2903     76.6444   8.9010665986e+01   3.5267668100e+01    0.1576651    0.1180963 -72.35 0.0004702736    1.681    0.405
        42  -9.7634    163.4340    248.6875   1.2432792089e+02  -1.8672245814e-01     0.206387    0.1256071 -56.01  0.001053066    2.094    0.523
        43 -11.0372    244.3726    248.7298   1.0950634838e+02  -1.3391829010e+01     0.296987    0.1711164  17.47  0.001694667    1.739    0.425
        44  -9.8786     81.7061    249.0846   1.3936625911e+02   1.3117679810e+01    0.1973137    0.1254471  79.23  0.001206778    1.490    0.329
