#   1 NUMBER                 Running object number                                     
#   2 MAG_AUTO               Kron-like elliptical aperture magnitude                    [mag]
#   3 X_IMAGE                Object position along x                                    [pixel]
#   4 Y_IMAGE                Object position along y                                    [pixel]
#   5 X_WORLD                Barycenter position along world x axis                     [deg]
#   6 Y_WORLD                Barycenter position along world y axis                     [deg]
#   7 A_WORLD                Profile RMS along major axis (world units)                 [deg]
#   8 B_WORLD                Profile RMS along minor axis (world units)                 [deg]
#   9 THETA_WORLD            Position angle (CCW/world-x)                               [deg]
#  10 FWHM_WORLD             FWHM assuming a gaussian core                              [deg]
#  11 ELONGATION             A_IMAGE/B_IMAGE                                           
#  12 ELLIPTICITY            1 - B_IMAGE/A_IMAGE                                       
         1 -16.0761    233.4627     95.5798   2.4692145864e+01   1.4383014680e+01     5.637945     3.224665 -33.24   0.02807437    1.527    0.345
         2 -15.4169    195.2393    107.1067   3.3563907856e+01   2.0512167873e+01     2.578686     1.474869 -50.30   0.01107798    1.977    0.494
         3 -11.0138     40.9077     13.8772   4.5637138817e+01   7.0692086232e+01    0.2148189    0.1827564  -0.11 0.0002672311    1.035    0.034
         4  -9.2355     97.6686     12.6425   2.3119863491e+01   5.9274741012e+01    0.1544286   0.09596328  28.96 0.0007043097    1.793    0.442
         5 -10.7899     52.2100    250.0466   8.7056570518e+01   1.7746526089e+01    0.2546045    0.1571408  33.63  0.001008942    1.506    0.336
         6 -10.2570     57.2715    247.0786   8.5941930180e+01   1.7650915804e+01    0.2196189    0.1649922  38.29 0.0008606804    1.268    0.211
         7  -9.9728     89.9843    235.7508   7.8769209342e+01   1.5448478369e+01    0.1594588   0.08049177  37.31 0.0008838616    1.575    0.365
         8  -9.6557    231.1217    233.8795   5.2073054125e+01  -4.0025041026e+00    0.1598534    0.1267782  15.50 0.0008727564    1.211    0.174
         9 -11.0325     87.5660    227.3591   7.8501740954e+01   1.7214740271e+01    0.2423581    0.1277911  34.92  0.001106493    1.622    0.383
        10 -11.0065    162.3432    225.1238   6.3155998051e+01   6.7072747876e+00    0.3522109    0.2202806  22.40    0.0020379    1.536    0.349
        11 -11.2808     98.4311    225.2582   7.6067634128e+01   1.6090201310e+01    0.3458406    0.1872074  34.69  0.001248152    1.581    0.367
        12 -11.0047    126.1989    220.6712   6.9821748990e+01   1.2843462604e+01    0.2651407    0.1942955  49.80 0.0007156543    1.257    0.205
        13  -9.9815    114.6901    221.4539   7.2294245196e+01   1.4417232794e+01    0.1921757    0.1141401 -57.58 0.0008079283    2.044    0.511
        14  -9.8204     74.5173    219.1434   8.0470418304e+01   2.0433708519e+01    0.2652944    0.1108439  47.96  0.001313447    1.950    0.487
        15 -10.4674     95.6701    217.3233   7.5830925339e+01   1.7888927210e+01    0.2178463    0.1552639  58.12 0.0007306006    1.299    0.230
        16  -9.4256    143.5989    216.7826   6.5750326822e+01   1.0836506606e+01    0.1486146    0.1230168 -69.61 0.0009464331    1.605    0.377
        17  -9.6496     99.9897    217.0032   7.4881929659e+01   1.7332236506e+01    0.1545746    0.1217794  45.04 0.0005504523    1.037    0.036
        18 -10.2707    170.3613    215.2451   6.0181258153e+01   6.9433449277e+00     0.237926    0.1930035  23.28 0.0009294607    1.025    0.024
        19  -9.4820    186.3149    214.6343   5.7025428677e+01   4.5973009324e+00    0.1124174   0.09480371  62.69 0.0007039157    1.769    0.435
        20  -9.1298    131.4929    214.0002   6.7879843296e+01   1.3161348154e+01    0.1598205    0.1039265 -22.41 0.0008085488    2.401    0.584
        21 -10.1113     76.8373    211.8368   7.9315340863e+01   2.1505512679e+01    0.1764469    0.1643897  38.44  0.001239904    1.247    0.198
        22 -10.3498    186.0023    204.0456   5.5404738209e+01   6.1643682529e+00    0.1817793    0.1547169  62.17  0.001137068    1.682    0.405
        23 -10.4565    165.2889    202.6106   5.9257980588e+01   9.6879958466e+00     0.397056    0.2550351 -63.60  0.001991813    2.585    0.613
        24 -11.3145    163.9599    194.7296   5.8263323203e+01   1.1187943826e+01    0.5318451    0.3553967  65.67  0.002559473    2.494    0.599
        25 -11.2043    172.8574    195.6135   5.6597747940e+01   9.5716014826e+00    0.2885303    0.2580668  50.49  0.001325557    1.317    0.241
        26 -10.7234    174.5577    199.5519   5.6906916390e+01   8.6714192031e+00    0.2186502    0.1876309  21.39  0.000518494    1.024    0.023
        27 -11.3889    177.3365    197.0250   5.5938132607e+01   8.6146995953e+00    0.2916832    0.2588095  36.29  0.001447548    1.198    0.165
        28 -10.7789    125.4525    197.1003   6.6874592326e+01   1.7111580243e+01     0.316018     0.200571  33.86  0.001678457    1.421    0.296
        29  -9.8827    113.0127    198.1523   6.9784238032e+01   1.8884792034e+01    0.2993543    0.1791035  67.03  0.001408846    2.300    0.565
        30  -9.4360    113.0017    194.2453   6.9261252545e+01   1.9637181855e+01    0.1762916    0.1519258  18.53 0.0004490578    1.281    0.220
        31  -9.3697    105.2044    197.7760   7.1487900803e+01   2.0162568985e+01    0.1669856    0.1504091   7.41 0.0006346971    1.328    0.247
        32  -9.9813     66.5938    194.0181   7.9890068263e+01   2.6421748473e+01    0.3028205    0.1603367  73.07  0.001438708    2.275    0.560
        33  -9.7712    172.7357    190.4200   5.5746253026e+01   1.0430562896e+01    0.2222079     0.164185 -51.68  0.001099289    1.694    0.410
        34  -9.7582    139.0081    189.0562   6.2672589835e+01   1.6368621888e+01    0.2120412    0.1586619  68.37  0.001083132    1.715    0.417
        35 -10.8823     98.1803    188.1644   7.1860696157e+01   2.3152441338e+01    0.3565766    0.1768592  44.49  0.001017986    1.761    0.432
        36 -11.5387     94.8731    183.3161   7.2003446539e+01   2.4660962344e+01    0.4970954    0.3362829 -82.52  0.002611403    1.754    0.430
        37 -10.8369     11.6754    187.3438   9.1896050227e+01   3.3859482539e+01    0.1952035     0.164086  75.25  0.000301484    1.133    0.117
        38 -10.2843    109.3747    184.8630   6.8786394954e+01   2.2072457568e+01    0.2883074    0.2225114  62.12  0.001578507    1.317    0.241
        39  -9.7626    120.0000    183.9926   6.6184366376e+01   2.0516174777e+01    0.2067254   0.07864204 -54.75 0.0008028419    2.945    0.660
        40 -10.0874    174.3878    183.2324   5.4154630084e+01   1.1334755402e+01     0.176059    0.1274397 -51.41 0.0008615762    1.705    0.414
        41 -10.4861     20.4285    181.2968   8.9583301626e+01   3.4360173156e+01    0.3459032    0.1537756  87.93  0.001723909    2.162    0.538
        42 -10.0422    147.9403    179.9777   5.9202768468e+01   1.6512771374e+01    0.2167868    0.1656331  69.27  0.001134548    1.731    0.422
        43 -12.0374      3.3384    177.6914   9.3315734151e+01   3.6624826895e+01    0.3832906    0.3047216 -79.58  0.002682662    1.291    0.225
        44 -10.2270    138.3241    178.8714   6.1164959429e+01   1.8400447616e+01    0.2573954    0.1303324 -59.06  0.001082939    2.590    0.614
        45 -10.8014     13.9649    178.3926   9.0912085214e+01   3.5581644218e+01    0.2267126    0.1517477 -80.24  0.001086304    1.381    0.276
        46 -10.7785     77.7015    175.6172   7.5190772901e+01   2.8854378399e+01     0.352523    0.1663184  60.05  0.001439601    2.595    0.615
        47  -9.8857    183.4753    175.0650   5.0821382420e+01   1.1111215283e+01    0.1967358    0.1300843 -38.36   0.00103136    1.594    0.373
        48  -9.8473    105.8234    175.2147   6.8217782019e+01   2.4641243782e+01    0.2398329    0.1338322  68.51 0.0009468623    2.823    0.646
        49  -9.2760    197.3156    182.6500   4.9536882424e+01   7.5430889732e+00     0.118457    0.1062647  84.37 0.0007047154    1.729    0.422
        50 -10.5405    177.3449    169.7132   5.1045460338e+01   1.3103379752e+01    0.3686858    0.2523259 -40.97  0.001939671    1.555    0.357
        51  -9.8238    134.9909    171.0681   6.0590253260e+01   2.0509847985e+01    0.2226458    0.1687885  71.99   0.00104464    1.688    0.408
        52 -10.6252    206.7316    169.1509   4.5220670734e+01   8.0218463866e+00    0.2798032    0.1475897 -38.52  0.001358599    1.930    0.482
        53 -11.0538    121.7944    168.1453   6.3211481653e+01   2.3431451054e+01    0.5690064    0.2998218 -60.06  0.002468958    2.237    0.553
        54  -9.1082    168.6228    169.3305   5.2789558543e+01   1.4750297452e+01    0.1389177    0.1099119  74.56 0.0003931801    1.849    0.459
        55 -10.6789    139.4974    164.7978   5.8412392594e+01   2.0945565785e+01    0.4175385    0.2949575 -89.90  0.001877944    2.301    0.565
        56  -9.8217     98.7654    165.5932   6.8493783821e+01   2.7863771176e+01    0.2086214    0.1162115  47.31 0.0009479884    1.687    0.407
        57 -10.4109     80.2822    164.1671   7.3022625415e+01   3.1046037977e+01    0.3779726    0.1929039  81.47  0.001330938    3.652    0.726
        58 -10.8956    146.3355    162.8273   5.6461308058e+01   2.0075120543e+01    0.2881772    0.2281169  63.29  0.000509501    1.477    0.323
        59 -10.9035    205.6782    161.4080   4.3877693834e+01   9.4055133089e+00    0.2744719    0.1961999 -56.81  0.001408114    2.051    0.512
        60 -10.0510    177.7961    160.3394   4.9107183199e+01   1.4652479470e+01    0.3156684    0.1913587 -56.46  0.001401478    2.320    0.569
        61 -10.4197     92.6855    159.3994   6.9084482416e+01   3.0226395947e+01    0.3747769    0.2564943  86.77  0.001662273    1.798    0.444
        62  -9.5447    128.5657    158.7791   5.9898433218e+01   2.4177555547e+01    0.1934662    0.1402298 -68.10 0.0008804363    1.665    0.399
        63 -10.8477    196.8677    156.9179   4.4616493611e+01   1.1707899928e+01    0.3394244    0.2163587 -48.83  0.001667151    1.886    0.470
        64 -11.4696    192.5406    129.3577   3.9424554311e+01   1.7226520708e+01    0.3905743    0.2704535 -39.76  0.001229023    1.421    0.296
        65 -12.0650    188.9961    122.1279   3.8408250131e+01   1.9227704858e+01    0.6614244    0.3274406 -31.27  0.002605621    2.124    0.529
        66 -12.4121    188.7933    135.9268   4.1655032472e+01   1.6833219413e+01    0.7583096    0.3397118 -45.89  0.002465134    2.438    0.590
        67 -10.7320    193.5744    134.7823   4.0467220185e+01   1.6077613332e+01     0.217776    0.1951334  26.44 0.0006243442    1.104    0.094
        68 -10.9076    188.5260    156.5074   4.6155059269e+01   1.3315748686e+01    0.4066706    0.2462353 -42.95  0.001432307    1.744    0.427
        69 -12.3316    188.7948    148.3084   4.4378698795e+01   1.4672233891e+01    0.6946841    0.3826915 -52.04  0.002958517    2.381    0.580
        70 -10.3517    167.9493    156.9736   5.0498567973e+01   1.7115409140e+01    0.3169451    0.2083719 -57.78  0.001474229    1.994    0.498
        71  -9.8865    142.5773    158.5303   5.6506480089e+01   2.1629687865e+01    0.2601567    0.1254856  49.87   0.00102534    2.219    0.549
        72 -10.2308    105.4750    157.3466   6.5429135983e+01   2.8577672469e+01    0.3560969    0.2462948  72.65  0.001234478    1.804    0.446
        73 -12.3107    205.1110    153.9634   4.2457359740e+01   1.0687552333e+01    0.4619916    0.3315873 -20.01  0.002513161    1.379    0.275
        74  -9.4513    157.5321    155.5568   5.2493782990e+01   1.9373600047e+01    0.2519137    0.1376002 -56.37  0.001028449    2.400    0.583
        75 -10.4462     49.6639    154.5071   7.9923649668e+01   3.7393329830e+01    0.4712762    0.2319329  76.53  0.001949036    2.641    0.621
        76  -9.7427    119.4851    154.6441   6.1375635748e+01   2.6710720305e+01    0.2884046    0.1979509  84.22  0.001221207    2.169    0.539
        77 -10.2096     81.6033    153.9019   7.1167086961e+01   3.3215926785e+01    0.3507652    0.2103351  76.23  0.001355029    2.245    0.555
        78 -10.6065     68.1354    153.5666   7.4772794174e+01   3.5244883526e+01    0.4001823    0.2207333  66.14  0.001461459    2.197    0.545
        79 -10.9432    133.6048    152.9702   5.7560161375e+01   2.4458024127e+01    0.4556673    0.3042461  80.34   0.00187137    2.568    0.611
        80 -11.8629    200.1999    147.8384   4.2079771552e+01   1.2588856447e+01    0.3780479    0.2297947 -44.06   0.00183101    1.760    0.432
        81  -9.8492     28.3187    148.9714   8.5171380004e+01   4.1002994849e+01    0.2206218   0.08038365  79.88 0.0007048727    4.359    0.771
        82  -9.4126    142.4357    148.2314   5.4477712943e+01   2.3748943110e+01    0.2033267    0.1423569 -61.14 0.0009475866    1.704    0.413
        83 -10.1998     39.2413    146.9971   8.1950619421e+01   4.0370150241e+01    0.4103569    0.1845296  74.34  0.001602965    2.977    0.664
        84 -11.4162    149.0771    143.1569   5.1836503638e+01   2.3475488261e+01    0.9049215    0.4186758 -52.46  0.003425437    2.522    0.603
        85  -9.4720    162.6616    150.3455   5.0278999216e+01   1.9377996091e+01     0.217253     0.176646  85.33 0.0007279878    1.724    0.420
        86 -10.6866     55.9380    145.1970   7.7021786068e+01   3.8861780887e+01    0.5397784    0.2631008  69.54   0.00208766    2.897    0.655
        87  -9.8245    175.7078    145.7397   4.6489447408e+01   1.7675309454e+01    0.2823073    0.1731635 -60.40  0.001170657    2.481    0.597
        88 -10.9284    107.0134    143.7532   6.2552375015e+01   3.1375415152e+01    0.6335278    0.3815497 -78.90   0.00252936    2.511    0.602
        89 -11.8407    166.1000    248.3085   6.5453411729e+01   2.9952529953e+00    0.2939364    0.1647508  28.45  0.001414879    1.446    0.309
        90 -10.3628      5.1629    243.5046   9.5271841030e+01   2.3712985996e+01    0.1599795    0.1466323  84.32 0.0008872016    1.480    0.324
        91 -11.0340    168.7251    128.5070   4.4082238957e+01   2.2324952832e+01    0.4520439    0.2861953 -50.07  0.002008573    1.729    0.422
        92 -10.9002    152.9275    127.8278   4.7472903529e+01   2.5792402084e+01    0.6373999    0.2798135 -50.77  0.002278997    2.611    0.617
        93 -11.7884     98.6512    124.5480   6.0964756635e+01   3.7343429745e+01     1.011534    0.4356404 -57.43  0.003720628    2.430    0.588
        94 -10.0972     72.7912    128.3365   6.9413288190e+01   4.0681435418e+01    0.3519822    0.1933705 -80.37  0.001407526    2.382    0.580
        95 -10.2008     12.4663    128.6346   8.7868769062e+01   4.7263409858e+01    0.3293186    0.1210256  69.93  0.001221171    3.497    0.714
        96 -11.3684    117.0262    122.8635   5.5401096097e+01   3.4260145026e+01    0.7635188    0.4528363 -58.37  0.003206755    1.854    0.461
        97 -10.7677     59.3443    123.6907   7.2741713420e+01   4.3719254805e+01     0.612322    0.3051461  82.55  0.002027324    3.841    0.740
        98 -12.4720    180.6586    121.0896   3.9809299233e+01   2.1178858626e+01     1.098054    0.3358634 -34.66  0.003305501    3.703    0.730
        99 -11.5073    185.9438    114.7665   3.7214389917e+01   2.1185805274e+01    0.5710817    0.2541219 -33.66  0.001994581    2.296    0.564
       100 -11.8417    182.8964    108.1289   3.6148407476e+01   2.3040693379e+01    0.5104663    0.2121141 -38.77  0.001734675    2.309    0.567
       101 -11.2044     43.2760    121.3419   7.7463070504e+01   4.6256836634e+01     0.847048    0.3724788  87.49  0.002814852    3.889    0.743
       102 -10.9026     29.3354    123.1213   8.2129811766e+01   4.7226541101e+01    0.4079123    0.1893125  78.08   0.00150123    2.795    0.642
       103 -10.4492    165.8320    143.2325   4.8057915704e+01   2.0106645283e+01    0.3672116    0.1964708 -52.54  0.001496047    2.264    0.558
       104  -9.7873    138.3913    144.2088   5.4612317502e+01   2.5372394727e+01    0.2082601    0.1417277 -60.07 0.0009034437    1.715    0.417
       105 -11.2799    158.7214    119.8422   4.4209937643e+01   2.6151760170e+01    0.5398628    0.2845369 -42.39  0.002192653    1.901    0.474
       106 -10.8958    172.5940    120.2696   4.1276819052e+01   2.3062375473e+01    0.3635419    0.2538209 -44.25  0.001283451    1.447    0.309
       107 -11.5953    141.6416    117.2208   4.7608387277e+01   3.0388557409e+01    0.8682528    0.3223011 -48.82  0.002847472    2.896    0.655
       108 -10.5557     70.8293    118.8664   6.8233425248e+01   4.3307707553e+01    0.4309981    0.1946134 -68.20    0.0016207    2.484    0.597
       109 -10.6915    130.5292    116.9994   5.0377433991e+01   3.2804759443e+01    0.5807018    0.3022378 -54.36  0.002230019    2.152    0.535
       110 -10.4236      2.8099    116.6348   8.9807783918e+01   5.0827527219e+01    0.4516867    0.1493732  73.99  0.001570202    4.094    0.756
       111 -10.9529    124.7039    141.8402   5.7533810748e+01   2.8532085777e+01    0.5883192    0.3167776 -66.75  0.002177253    2.791    0.642
       112 -11.5945    108.8559    111.7923   5.5042016029e+01   3.8402094898e+01    0.8876937     0.343913 -53.40  0.002995653    2.725    0.633
       113 -10.9353     79.0300    112.5003   6.4304854712e+01   4.3604350332e+01    0.5797662    0.3240272 -83.10  0.002069435    3.039    0.671
       114 -10.7759    167.4998    111.9487   4.0286133088e+01   2.5756544777e+01    0.4033812    0.1471722 -39.75  0.001357512    2.706    0.630
       115 -11.1062    122.3093    110.5140   5.0936392210e+01   3.5954689967e+01    0.5967342    0.2854012 -43.45  0.002245226    2.139    0.532
       116 -11.1894     92.3487    109.3759   5.9395347881e+01   4.2084769155e+01     1.005901    0.3109814 -54.84  0.003114603    3.288    0.696
       117 -11.2102    174.7277    109.9595   3.8255743968e+01   2.4521605523e+01    0.5114489    0.2611618 -43.82  0.002057416    1.958    0.489
       118 -11.2504    159.2600    110.1153   4.1629988092e+01   2.7951293587e+01    0.5157144    0.2400213 -38.20  0.001932113    2.181    0.542
       119 -10.4414     15.0014    111.6762   8.5419490349e+01   5.1253118525e+01     0.248843     0.190961  72.50  0.001514092    1.242    0.195
       120 -12.0996     13.3900    107.3980   8.5482981191e+01   5.2428185675e+01    0.5109378    0.3781132 -35.44  0.003043998    1.589    0.371
       121 -10.3585    133.3604    108.2581   4.7409780092e+01   3.4082605667e+01    0.3910057    0.2700739 -54.96  0.001742823    1.554    0.357
       122 -11.0331    139.7379    102.5055   4.4246785085e+01   3.3879934599e+01    0.5657787    0.2986511 -41.04    0.0022273    1.909    0.476
       123 -11.4149     45.3607    101.6664   7.3452575899e+01   5.0965635257e+01    0.7911797    0.3766776  70.12  0.002532604    4.377    0.772
       124 -10.3010     43.5656     92.9089   7.2379241596e+01   5.3358808913e+01    0.4045984    0.1324206 -54.28  0.001502728    2.580    0.612
       125 -11.2857     22.8168    101.6593   8.1487884248e+01   5.3157615999e+01    0.8775537    0.3434009  69.31  0.002646282    5.321    0.812
       126 -10.4529     20.6848     93.2063   8.1024651438e+01   5.5436408482e+01    0.4311258    0.1383726 -44.28  0.001531082    3.636    0.725
       127 -11.6342    166.8857    101.7789   3.7766301773e+01   2.7823979134e+01      0.60869    0.2654717 -36.61  0.002214928    2.310    0.567
       128 -11.6761    150.1754    100.1355   4.1065255165e+01   3.1986256030e+01     0.833404    0.2820799 -43.68   0.00264458    2.948    0.661
       129 -12.0696    177.0079     91.5384   3.2937000855e+01   2.7348077268e+01    0.5203529    0.2163325 -38.13  0.001896613    2.298    0.565
       130 -11.1771    128.6888    100.0823   4.6436994183e+01   3.6852584449e+01    0.5573944    0.3254381 -38.09  0.002279955    1.800    0.444
       131 -10.8854     66.2057    109.2326   6.7784297983e+01   4.6372758586e+01    0.5719201    0.2600528 -71.87  0.002048945    2.832    0.647
       132 -10.8535    159.9983     99.3600   3.8611139703e+01   2.9871278854e+01    0.4844408    0.2269467 -41.37  0.001824383    2.099    0.524
       133 -11.7163    108.4192     96.2455   5.1084094937e+01   4.2027051843e+01    0.9003435    0.4760554 -56.50  0.003454497    2.134    0.531
       134 -10.6323     81.8144     98.0548   5.9979552685e+01   4.6642815926e+01    0.6110739    0.2094533 -58.16  0.001932948    3.214    0.689
       135 -10.3112     87.8822    143.1109   6.7667979255e+01   3.4773336743e+01    0.3456804     0.206165 -75.45  0.001345026    2.009    0.502
       136 -10.6135     95.1437     94.4634   5.4679581628e+01   4.5070687520e+01    0.7869633    0.2471993 -45.35   0.00242496    3.232    0.691
       137 -11.1579     63.3037     95.0323   6.5624797921e+01   5.0299500553e+01    0.5318091    0.2946602 -78.50   0.00198374    2.583    0.613
       138 -10.3462    181.9495    140.9536   4.4150686845e+01   1.7306318503e+01    0.3268085     0.202064 -52.23  0.001287337    1.957    0.489
       139 -10.6563    165.0876     92.4968   3.5622764697e+01   2.9976483679e+01    0.4288923    0.2208679 -32.04  0.001653566    2.073    0.518
       140 -10.6297     68.8182    138.3361   7.2302819677e+01   3.8809808119e+01    0.5157081    0.2082066 -80.39  0.001413543    5.353    0.813
       141 -10.7575    138.7182     89.8421   4.0935660701e+01   3.6696863927e+01    0.5637363    0.2875141 -41.32  0.002177222    1.952    0.488
       142 -11.5505    125.0305     87.6081   4.3846355186e+01   4.0299225752e+01    0.9121276    0.4162302 -35.94  0.003207993    2.459    0.593
       143 -10.1051    157.9811     90.2452   3.6525829576e+01   3.2078125595e+01    0.2901837    0.2011361 -23.33   0.00127186    1.666    0.400
       144 -10.6183     34.6662     88.7558   7.4926662325e+01   5.5329961235e+01    0.6364703    0.2325175 -76.08   0.00211638    3.635    0.725
       145 -10.9832      4.3610     90.4616   8.6756132480e+01   5.7161678843e+01    0.3678353    0.1557843  84.14  0.001552041    2.688    0.628
       146 -12.8113    175.7716     99.8935   3.5425887169e+01   2.6134301584e+01    0.6459931     0.447488  -7.64   0.00279122    1.995    0.499
       147 -10.5466     86.3272     85.9922   5.5185090299e+01   4.8677062630e+01    0.4296064     0.265101 -74.55  0.001653343    2.531    0.605
       148 -10.5534     86.9701     80.5203   5.3343945507e+01   4.9802702249e+01    0.3686956    0.2221105  21.49  0.001452247    2.389    0.581
       149 -11.6906    179.5439     84.7979   3.0602373627e+01   2.7928067376e+01    0.3468741    0.2375551 -48.21  0.001272066    1.480    0.324
       150  -9.9713    164.1278     85.7547   3.3926857011e+01   3.1441857234e+01    0.2920168    0.2039605  -5.96  0.001222851    2.041    0.510
       151 -10.4892     48.3996     84.2585   6.8613277086e+01   5.4928800487e+01    0.4339283    0.2536581  78.00  0.001704837    2.942    0.660
       152 -10.1743     48.6091     77.8127   6.6928290566e+01   5.6467362378e+01    0.4145135    0.1790861 -31.49  0.001241776    4.713    0.788
       153  -9.5283    116.7471     83.5547   4.4933349653e+01   4.3002158909e+01    0.2842287    0.1860268 -32.81 0.0006627481    1.677    0.404
       154 -10.9990    104.4241     80.8198   4.7755507985e+01   4.6251667978e+01    0.8200644    0.2952921 -46.30  0.002705264    2.759    0.638
       155 -10.0329      7.6653     84.6554   8.4774894521e+01   5.8411176640e+01    0.1381282   0.07575775 -46.51 0.0007049755    1.766    0.434
       156 -10.1795    172.4305    137.6654   4.5397623637e+01   1.9825750953e+01    0.3684309    0.2598203 -64.93  0.001515056    2.011    0.503
       157 -10.2661    170.5199     81.9999   3.1554865950e+01   3.0573805802e+01    0.2403424    0.1481416 -34.48   0.00103471    1.603    0.376
       158 -10.5554    158.6623     81.1593   3.3754275005e+01   3.3596464486e+01     0.357005    0.2388614 -23.99  0.001316144    1.712    0.416
       159 -10.0876     74.4463     79.7208   5.7524463622e+01   5.2219052105e+01    0.4109422     0.146093 -58.07  0.001286611    3.381    0.704
       160 -10.6163     24.3713     80.0439   7.7330021917e+01   5.8410753198e+01    0.3459276     0.198326  81.12  0.001584877    2.285    0.562
       161 -10.4373    150.0868     78.7650   3.4931300251e+01   3.6120882029e+01    0.4011683    0.2289395 -39.72  0.001649012    1.728    0.421
       162 -10.1742    119.1870     78.2185   4.2579969351e+01   4.3555325162e+01    0.4372652    0.2280915 -44.06  0.001711771    1.913    0.477
       163 -10.5654     22.7115    137.1669   8.5642352029e+01   4.4361944966e+01    0.4805608    0.1866317  77.94  0.001755841    3.501    0.714
       164 -11.2074    174.9811     76.7205   2.9186309753e+01   3.0403041728e+01    0.3463115    0.2132056 -25.21  0.001475193    1.802    0.445
       165 -10.7886    140.9232     81.2928   3.7847810933e+01   3.7856837228e+01    0.4499348    0.2264493 -34.97  0.001697405    2.086    0.521
       166 -10.4116    128.2088     70.3957   3.7614534018e+01   4.2983939440e+01    0.3894422    0.2761992   5.96  0.001608682    2.121    0.529
       167  -9.9021    157.7058     74.6108   3.2009158163e+01   3.5004331231e+01    0.2885941    0.1941898 -22.88  0.001084738    1.712    0.416
       168 -10.6116    140.5701     73.4826   3.5518236463e+01   3.9417963042e+01    0.4404908    0.1513913 -37.46  0.001394989    2.911    0.657
       169 -10.9761     26.4046     72.2673   7.4879267413e+01   6.0141683431e+01    0.5679076    0.2322642 -26.22  0.001769146    5.225    0.809
       170 -10.8506     82.1052     71.8073   5.2303459415e+01   5.2647002624e+01    0.5031622    0.2587847 -57.24  0.001956274    2.255    0.556
       171 -10.2710    127.6112     74.8058   3.9197720669e+01   4.2279910767e+01    0.3667216    0.2489791 -52.63   0.00158773    1.592    0.372
       172  -9.6018    151.4984     71.9475   3.2533264069e+01   3.7009978064e+01    0.2423317    0.1516456 -35.95  0.001034739    1.595    0.373
       173  -9.9545    115.6335     71.0213   4.1256940999e+01   4.5808378715e+01    0.3674118    0.1461617 -40.67  0.001257754    2.509    0.601
       174 -10.3176    162.3634    134.6650   4.6909265396e+01   2.2463795354e+01    0.5664235    0.2688902 -56.01  0.001958104    3.126    0.680
       175 -10.6776     94.8461     68.4617   4.6801429840e+01   5.0863150150e+01    0.7473841    0.2073347 -45.91  0.002194779    3.608    0.723
       176  -9.9000    170.3951     69.8451   2.8049137331e+01   3.2681391774e+01    0.2214624    0.1456849 -19.81 0.0009498548    1.803    0.445
       177 -11.9051    197.8167    136.5158   4.0051019836e+01   1.4942474773e+01    0.4606583    0.2416889 -34.32  0.001933373    1.860    0.462
       178 -10.7647     50.9559     67.4289   6.3071842121e+01   5.8620163506e+01    0.6415737    0.2035981 -61.70  0.001963789    3.988    0.749
       179  -9.7133     16.4110     69.6437   7.8693199860e+01   6.1543707475e+01    0.2535824    0.1104551 -86.43 0.0009607733    3.216    0.689
       180  -9.5589    157.2878     68.3447   3.0186120567e+01   3.6198164838e+01    0.1557382    0.1210224  13.76 0.0002945728    1.651    0.394
       181 -12.2242    203.6862     65.5257   2.1341653692e+01   2.5304001332e+01    0.3893757    0.2287263 -20.55  0.001559271    1.966    0.491
       182 -10.6455    138.5916     64.4360   3.3078069737e+01   4.1542237917e+01    0.4398227    0.1492593 -35.98  0.001395422    2.955    0.662
       183 -10.0844    121.5262     64.5791   3.7446779676e+01   4.5669883670e+01    0.4662051    0.1512163 -38.30  0.001449906    3.088    0.676
       184  -9.9224     39.3200    135.6853   8.0619584207e+01   4.3119772972e+01    0.1425729   0.08832295  65.59 0.0003371947    1.655    0.396
       185 -10.4159      9.9953     74.1395   8.2270840320e+01   6.0853731999e+01    0.1880051    0.1605479 -68.55 0.0003659753    1.025    0.024
       186 -10.1430    109.9957     63.1911   4.0228946582e+01   4.8618920562e+01    0.3188544    0.1969126 -49.63  0.001018116    1.735    0.424
       187 -10.0956     17.8915     62.2342   7.6467207092e+01   6.3218357356e+01    0.2742714    0.1148538 -46.29  0.001231398    2.117    0.528
       188 -10.5108    179.6130    133.2010   4.2879441784e+01   1.9183478218e+01    0.3572244    0.2432573 -50.09  0.001298301    1.633    0.388
       189 -10.0325    138.5783    137.3037   5.3080521620e+01   2.6787238250e+01     0.282817    0.1465281 -52.34  0.001124825    2.106    0.525
       190 -10.1648    100.0944     57.4327   4.1192409744e+01   5.1934505383e+01    0.6238697    0.2062836 -40.98  0.002026804    2.994    0.666
       191 -10.8725     62.6168     69.8875   5.9047544395e+01   5.6385058556e+01    0.7492833   0.07546081 -49.71   0.00163078    7.035    0.858
       192 -11.0770      7.4576     56.3406   8.0169840370e+01   6.5258037043e+01    0.4105365    0.1543223 -80.42  0.001589603    3.208    0.688
       193 -10.5583    105.6244     70.0537   4.3902350721e+01   4.8243601092e+01    0.5080696      0.18506 -44.33  0.001687818    2.736    0.635
       194 -11.8129     45.3243     49.3515   5.9631278852e+01   6.3403681646e+01     0.417854    0.2161072 -42.04 0.0006528734    1.800    0.444
       195 -10.5111    112.6647    132.5706   5.8757439890e+01   3.2893592999e+01     0.352716    0.2387049 -69.69  0.001575374    1.775    0.437
       196 -10.0169    119.0016     54.7688   3.4687486524e+01   4.8043743460e+01     0.293502     0.191827 -50.17  0.001285478    1.677    0.404
       197  -9.9458    147.4857     64.0262   3.0917500628e+01   3.9393647578e+01    0.2217431    0.1537312 -22.28 0.0007780404    1.647    0.393
       198 -10.0773     54.0143     53.2998   5.7099768318e+01   6.1348504191e+01    0.3674036    0.1784989 -65.36  0.001287009    3.498    0.714
       199 -10.6040     73.1455     56.6239   5.0382479461e+01   5.7517540705e+01    0.8641593    0.2203331 -44.76  0.002592598    3.759    0.734
       200  -9.5961     31.3160     51.6628   6.7174611574e+01   6.4523929256e+01    0.1283732    0.1012261  75.34 0.0007047931    1.698    0.411
       201 -10.3428     91.9714     47.8406   4.0174220475e+01   5.5474920564e+01    0.6687451    0.1723069 -41.61  0.001968729    3.853    0.740
       202 -11.2867     83.3476    129.4762   6.6464954354e+01   3.8770143327e+01      0.95621    0.3299581 -63.03   0.00311204    3.300    0.697
       203  -9.2741    130.3063     46.3275   2.8791330881e+01   4.6640479771e+01     0.156379    0.1161526  22.15 0.0003244056    1.653    0.395
       204 -10.1718     82.0000     45.1570   4.2569949930e+01   5.8047125398e+01    0.4882256    0.1531402 -38.91  0.001602034    3.187    0.686
       205  -9.0159     23.6560     46.6937   6.9495186554e+01   6.6359997997e+01    0.1385326   0.08313276 -31.93 0.0007042482    1.691    0.409
       206 -10.1656    113.5097     42.3553   3.1522262379e+01   5.1436571617e+01    0.4676889    0.2685461  -9.03  0.001709301    2.870    0.652
       207 -10.6717    143.1462    130.2137   5.0362697628e+01   2.7346243891e+01    0.5176442    0.2502725 -47.66  0.001996655    2.140    0.533
       208 -10.2211    122.9616     41.3978   2.8731290738e+01   4.9249191279e+01    0.4096281    0.2286232  -4.65  0.001382913    3.394    0.705
       209 -11.0247    131.8594    129.5066   5.3013763781e+01   2.9811784596e+01    0.6884024    0.3183797 -53.03  0.002556587    2.382    0.580
       210 -10.5164      4.8497     40.5167   7.7906094279e+01   6.9034970543e+01    0.4009668    0.1561253 -78.32  0.001598084    3.281    0.695
       211 -10.2960    105.8749     38.4540   3.2088159414e+01   5.3882931384e+01    0.3904554    0.1873343 -27.61  0.001511374    2.311    0.567
       212  -9.4181     26.3860     36.7766   6.4628153413e+01   6.8262655215e+01    0.1912601   0.09925438 -46.15 0.0009513065    1.635    0.389
       213  -9.1121     44.4692     25.4434   4.9892415691e+01   6.8226732986e+01    0.1329033      0.11386 -11.52 0.0001025662    1.039    0.038
       214  -8.8103    118.6600     24.6905   2.3223856239e+01   5.2648885451e+01    0.1557342    0.1040499  31.74 0.0007044375    1.689    0.408
       215  -9.1725    110.5072     24.5095   2.5086704821e+01   5.4721854379e+01    0.1455283    0.1347261  38.45 0.0008103402    1.034    0.033
       216 -10.0392     12.8921     21.0409   6.6440157986e+01   7.2688494625e+01    0.1995444    0.1628066  -1.21 0.0007252022    1.249    0.199
       217  -9.5341     50.6534     15.6558   4.1659289677e+01   6.8830115062e+01    0.1411414   0.09328408   5.27 0.0007044621    1.798    0.444
       218 -10.2416      3.7047    249.1707   9.5677987049e+01   2.2890598663e+01    0.1800195   0.09020318  49.51 0.0008287273    1.347    0.258
