#   1 NUMBER                 Running object number                                     
#   2 MAG_AUTO               Kron-like elliptical aperture magnitude                    [mag]
#   3 X_IMAGE                Object position along x                                    [pixel]
#   4 Y_IMAGE                Object position along y                                    [pixel]
#   5 X_WORLD                Barycenter position along world x axis                     [deg]
#   6 Y_WORLD                Barycenter position along world y axis                     [deg]
#   7 A_WORLD                Profile RMS along major axis (world units)                 [deg]
#   8 B_WORLD                Profile RMS along minor axis (world units)                 [deg]
#   9 THETA_WORLD            Position angle (CCW/world-x)                               [deg]
#  10 FWHM_WORLD             FWHM assuming a gaussian core                              [deg]
#  11 ELONGATION             A_IMAGE/B_IMAGE                                           
#  12 ELLIPTICITY            1 - B_IMAGE/A_IMAGE                                       
         1 -12.3374    165.2401     73.0822   1.2397193001e+01   3.3476739551e+01     1.833184     1.475399  10.54  0.008446685    1.725    0.420
         2 -10.8737    177.9409     34.0532   3.5963303851e+02   3.6256397367e+01    0.8018069    0.4800624 -21.59 0.0005479825    2.002    0.501
         3 -11.1905    179.4470     29.9544   3.5833469001e+02   3.6412015998e+01    0.6210657     0.468715  16.37 0.0006396452    2.036    0.509
         4 -10.8205    219.0879     33.3664   3.5570426850e+02   2.7335183551e+01    0.7247851    0.2948802 -29.76  0.003366413    2.319    0.569
         5 -10.9600    211.6787     29.1928   3.5528370739e+02   2.9350400277e+01    0.5258052    0.4293198 -19.50  0.000988495    1.493    0.330
         6 -10.5751    204.4018     22.9970   3.5432853363e+02   3.1611429312e+01    0.3368623    0.2510337 -32.51  0.000757391    1.356    0.263
         7 -12.0323    220.3844     12.2703   3.5076662078e+02   2.9453464819e+01     1.523381    0.4741393 -59.35  0.006396512    3.055    0.673
         8 -10.4692    119.0223      9.7165   3.5920681478e+02   5.3911227969e+01    0.6909233    0.4078876  58.18  0.002824157    1.585    0.369
         9  -8.8270    100.1706     10.3147   2.7381200531e+00   5.8791954527e+01    0.2105017    0.1895972  11.09 0.0003469948    1.293    0.226
        10  -8.5074    144.0273      7.3319   3.5517992423e+02   4.7638025033e+01    0.4067577     0.205876  -4.37  0.001631391    3.312    0.698
        11 -12.8277    236.3291      4.4756   3.4829931491e+02   2.7142162017e+01     1.309428    0.8121067  84.76  0.007904306    1.673    0.402
        12  -8.7391    192.4888      3.1664   3.5014283537e+02   3.6329488301e+01    0.4296489    0.1739293 -52.17  0.002060566    2.009    0.502
        13  -9.0434    112.0014      2.1755   3.5722622724e+02   5.6429255137e+01    0.5287259    0.2380874 -81.48  0.002020346    2.807    0.644
        14  -8.1229    172.7231      3.2423   3.5143417438e+02   4.0904950878e+01    0.3270553    0.1125151 -50.03  0.001372279    2.467    0.595
        15  -8.2368     97.4798      2.5172   3.5972881723e+02   6.0199203786e+01    0.1377302    0.1209977  74.25 0.0008100843    1.007    0.007
        16  -9.3588     91.1843    184.2101   5.5553375314e+01   2.4056290275e+01     0.340723    0.2782703 -18.38  0.001000766    1.471    0.320
        17  -8.0750    207.5596    184.5105   2.9685392741e+01   6.6332248123e+00    0.1224644   0.09898606 -10.39 0.0006013647    1.007    0.007
        18  -9.4839    193.0988    194.9031   3.4067968051e+01   6.9790209137e+00    0.7714882    0.3860751 -57.97  0.002625821    6.087    0.836
        19  -7.2675     29.5316    178.4719   7.2239874186e+01   3.3112504452e+01    0.1335576    0.1213735  61.15 0.0001262783    1.072    0.067
        20  -9.3470    100.9814    176.0198   5.1730250402e+01   2.4443910581e+01    0.2033933    0.1884779  32.99            0    1.014    0.014
        21  -7.3234    194.2981    171.6265   2.9718963928e+01   1.0516389930e+01    0.1180676    0.1023014 -69.09 0.0007027946    1.745    0.427
        22 -11.6748     98.2254    154.0313   4.8827789065e+01   3.0044017709e+01    0.6134356    0.5480582  58.50  0.003285638    1.126    0.112
        23 -11.2108     97.6025    147.6363   4.7829323816e+01   3.1703287383e+01    0.7681007    0.4741585  83.78  0.002840878    2.808    0.644
        24 -11.8318     91.8227    158.9714   5.1539481126e+01   2.9890950321e+01     1.232367    0.4007296  42.95  0.004017718    2.960    0.662
        25 -11.1396     93.0182    149.4812   4.9527656986e+01   3.2021387369e+01    0.5414168    0.3739536  46.64  0.002519433    1.418    0.295
        26  -8.1482     15.2001    152.9526   7.4773112354e+01   4.0917143399e+01    0.3483789    0.1744864  14.45  0.001356613    2.273    0.560
        27 -10.1808     76.7487    160.1307   5.6177411457e+01   3.1920097701e+01     0.368343    0.2630244 -21.43  0.001682065    1.915    0.478
        28  -8.6166    133.6461    145.6317   3.7580287537e+01   2.5699963135e+01    0.5271124    0.1770996 -53.51   0.00164317    3.501    0.714
        29 -10.5838     68.0813    143.0008   5.6194487823e+01   3.7590987063e+01    0.5869805    0.3012197 -57.20  0.002391154    1.935    0.483
        30  -8.3342    249.6717    143.5221   1.5789221136e+01   6.9730161091e+00    0.2225247   0.08460214 -35.87  0.001103474    2.051    0.513
        31  -7.5665     14.8145    143.1413   7.4199034592e+01   4.3549110685e+01    0.1716458    0.1547828 -54.60 0.0003114993    1.230    0.187
        32  -9.1763     76.2636    140.8515   5.3163884376e+01   3.6915128591e+01     0.297855    0.1918731  18.43  0.001264723    1.845    0.458
        33  -7.5137     56.5131    140.9776   5.9725921399e+01   3.9743152238e+01    0.2162733    0.1449869 -68.63 0.0005814406    1.484    0.326
        34  -8.2570    153.6803    139.0634   3.1391809586e+01   2.3335060973e+01    0.2170421    0.1954641  51.80 0.0003734115    1.204    0.170
        35  -7.8548    167.0242    138.2873   2.8330928044e+01   2.0998125129e+01     0.186965    0.1794075   3.57 0.0003126769    1.058    0.054
        36 -10.3739      4.2120    137.6998   7.7434377217e+01   4.5746918273e+01    0.2469632    0.2329433  34.14  0.000431685    1.175    0.149
        37  -7.4225    193.4424    137.4229   2.3067222798e+01   1.6436978575e+01    0.1338681    0.1173216 -20.20 5.916753e-05    1.038    0.036
        38  -8.9490    136.0000    130.3896   3.3636866049e+01   2.8575684501e+01    0.4966422   0.08505388 -47.18  0.001142621    5.799    0.828
        39  -8.3180    160.5939    128.8151   2.7569346972e+01   2.4064752317e+01    0.2069381    0.1323315 -52.65 0.0005486453    1.669    0.401
        40  -7.5932     59.7140    129.3184   5.6721020590e+01   4.2436208293e+01    0.1593707    0.1111342  66.41 0.0002161346    1.591    0.371
        41  -7.4236    248.3231    126.3285   1.2683318910e+01   9.5504366864e+00    0.1174982   0.07986062  -9.06 0.0007049229    1.694    0.410
        42  -9.9985    244.5627    123.7430   1.2639629793e+01   1.0452684907e+01    0.3516693    0.1101867 -38.65   0.00154632    2.477    0.596
        43  -8.5722    238.4916    126.5091   1.3954444168e+01   1.0943703272e+01    0.1808486    0.1201819  66.01  0.001032225    2.431    0.589
        44  -7.5589     87.8059    126.1870   4.6524470436e+01   3.8774582094e+01    0.2023761    0.1808685 -17.92 0.0002277732    1.279    0.218
        45  -7.8810     64.6263    126.6928   5.4507036977e+01   4.2429467630e+01    0.1610046    0.1182446 -23.49 0.0007031459    1.770    0.435
        46  -8.0216     82.1268    121.2047   4.7319377433e+01   4.1047498800e+01    0.2190745    0.2065985 -13.34 0.0003144238    1.171    0.146
        47  -7.3362    110.3320    117.6788   3.7562508421e+01   3.6605561875e+01    0.1632129      0.12387  79.38 0.0007049412    1.698    0.411
        48  -8.8311    134.6771    112.3757   2.9599976099e+01   3.2755793597e+01    0.4444146    0.1962705 -42.99  0.001617029    2.257    0.557
        49  -8.7840    135.0567    106.2358   2.7912706840e+01   3.3987568507e+01    0.3753776     0.217545 -52.40  0.001000699    1.798    0.444
        50 -10.2633    238.3088    109.6209   1.0568110777e+01   1.3423090350e+01    0.5726736     0.277237 -58.60  0.002349461    3.761    0.734
        51  -7.5341    125.4250    112.2201   3.1955361420e+01   3.4748627511e+01    0.2064047    0.1481097 -58.20 0.0006359434    1.482    0.325
        52  -8.0851     31.5026    111.9959   6.4598038510e+01   5.0618443558e+01    0.2317386   0.08989703 -49.34 0.0008106298    2.658    0.624
        53 -10.8189    188.9096     98.7208   1.5061280750e+01   2.3979502540e+01     1.103084    0.2240872 -40.65  0.003240419    4.117    0.757
        54  -7.6670     57.7181    108.6738   5.3469959863e+01   4.8293383765e+01    0.1571355    0.1156455 -32.55   0.00039222    1.599    0.374
        55  -9.2910     57.7137    101.5340   5.1883876090e+01   5.0204762123e+01    0.3822585    0.2310078 -42.87  0.001597389    1.803    0.445
        56  -9.9121    140.8499    100.3952   2.4951540262e+01   3.3934765219e+01    0.6063461    0.4212829  16.82  0.002522968    2.229    0.551
        57  -8.6170    144.7162     95.3920   2.2699158629e+01   3.4081166534e+01    0.3502799    0.2642059  78.62  0.001636207    1.627    0.385
        58 -10.0466    145.8446     75.2412   1.6710462704e+01   3.7658563351e+01    0.5516078    0.3498422 -66.25  0.001852761    1.990    0.497
        59  -8.4611    151.1667     80.2137   1.7059312659e+01   3.5498847186e+01    0.2530847    0.1953048 -44.79 0.0003285337    1.237    0.192
        60  -9.8859    151.3416     88.6444   1.9394872824e+01   3.3890106957e+01    0.6381856    0.4443076 -64.90  0.001756962    1.677    0.404
        61  -9.4078    153.3269     85.6646   1.8156175677e+01   3.3995074859e+01    0.4812775     0.347246 -75.28  0.001594764    1.723    0.420
        62  -7.9839    110.4935     91.8543   3.0564949258e+01   4.2529926353e+01    0.2208102    0.2028127  54.81  0.001122043    1.083    0.076
        63  -8.4487    136.5267     88.2231   2.2585393559e+01   3.7374634728e+01    0.3964171    0.2538984 -64.68  0.001635156    1.978    0.494
        64  -7.7119    232.2728     85.9855   6.2944362050e+00   1.7826592726e+01    0.1727682    0.1264029 -39.39 0.0001737567    1.095    0.087
        65  -7.6658     60.2749     85.0198   4.6583722451e+01   5.4105204719e+01    0.2118026     0.190977 -57.62 0.0002017803    1.093    0.085
        66  -7.8870    206.7363     82.3375   8.5346070644e+00   2.3082874027e+01    0.1884423    0.1539839 -72.97 0.0006667456    1.314    0.239
        67  -8.4209    133.4076    248.1890   5.3597145570e+01   6.3491899879e+00    0.1331558    0.1175018 -76.29 0.0009480643    1.679    0.404
        68 -11.3616    182.9398     58.3559   5.6618659685e+00   3.1752239591e+01    0.6677024    0.6245171 -65.81  0.002117416    1.092    0.084
        69 -11.4332    178.4412     54.3153   5.1732875858e+00   3.3373007911e+01    0.7136648    0.5902741  61.01  0.001438212    1.321    0.243
        70  -9.5906    178.1553     79.6646   1.2014297900e+01   2.9461702024e+01    0.3165733    0.2224192  55.85  0.001625031    1.538    0.350
        71  -7.4668    232.9873     79.5134   4.8184979417e+00   1.8618514391e+01     0.159667     0.095557 -74.07 0.0007909623    2.404    0.584
        72  -8.8221    184.9734     77.5263   1.0397720747e+01   2.8327999061e+01    0.2571732    0.1889814 -21.90 0.0009730833    1.559    0.359
        73  -7.3150    236.0233     68.0104   2.0256836601e+00   1.9666205678e+01    0.1464103    0.1182521 -47.61 0.0005325369    1.036    0.035
        74  -8.5680    206.3515     64.7124   4.3684917416e+00   2.5785212299e+01    0.2947214    0.1624126 -62.13  0.001195067    2.054    0.513
        75  -8.8164    202.6478     61.3282   3.9715913958e+00   2.7036090327e+01    0.2875719    0.1332204 -58.06  0.001129621    2.492    0.599
        76  -8.8652    230.3488     61.1046   1.0460699130e+00   2.1620102100e+01    0.3008633    0.1828186 -24.90  0.001659713    1.754    0.430
        77 -12.1561    194.6389     56.2043   3.6263190260e+00   2.9473467103e+01      1.44232    0.9425112  68.84   0.00463478    1.648    0.393
        78 -10.8418    184.9504     46.0510   2.1145765135e+00   3.3049240542e+01    0.8831489    0.4642309  40.05  0.003643441    3.100    0.677
        79 -10.8146    183.9252     39.8710   5.6798775998e-01   3.4112452035e+01    0.6019003    0.3063561  73.79 0.0005215384    2.050    0.512
        80 -11.1547    185.6894     35.6744   3.5924754819e+02   3.4249247797e+01    0.4449432    0.3639201 -64.38  0.001112288    1.050    0.048
        81 -10.3215     35.5232    240.1126   7.4383730764e+01   1.9010263413e+01    0.3643802    0.2968302  24.34  0.002538169    1.274    0.215
        82 -10.2136     21.7155    235.1571   7.7251675161e+01   2.1311398785e+01    0.4876437    0.2309221  45.45  0.002735318    1.553    0.356
        83  -7.5722     23.6839     58.3486   5.7288873518e+01   6.5697116574e+01    0.1445391    0.1045001  63.62 9.528664e-05    1.727    0.421
        84 -10.4174    163.2529     63.1676   9.9316487293e+00   3.5572796203e+01    0.4244957     0.387264  18.98  0.001292455    1.357    0.263
        85  -8.7057    214.3377     51.8914   4.5550491774e-01   2.5942932178e+01     0.236539    0.1378011 -85.41  0.001210239    2.092    0.522
        86  -8.4879    226.9912     47.8147   3.5837539326e+02   2.3989521318e+01    0.2533436    0.1711277 -69.41  0.001542777    1.460    0.315
        87 -10.4131    159.6720     59.4260   9.4413581168e+00   3.7023590975e+01    0.4372095    0.3321216 -26.12  0.000861428    1.469    0.319
        88  -7.8990    205.0147     45.9508   3.5993220296e+02   2.8655198404e+01     0.216433     0.125155 -59.91 0.0006926162    1.652    0.395
        89  -8.6192    150.4070     45.2455   6.6636625432e+00   4.1451596839e+01    0.2778253    0.1420393 -28.68  0.001150563    2.147    0.534
        90  -8.2634    150.9693     49.5752   7.9244052043e+00   4.0672435010e+01    0.4118991     0.136749  63.30  0.001410759    2.987    0.665
        91  -9.7627    226.6908     41.7401   3.5703190990e+02   2.4812137561e+01    0.5867341    0.2329224 -86.98   0.00219467    4.596    0.782
        92  -8.4757    141.8560     41.6434   6.9382586253e+00   4.4126446791e+01    0.2619295    0.2001583 -47.49 0.0005055572    1.265    0.209
        93 -10.6880    203.0254     37.8457   3.5811693274e+02   3.0124281724e+01    0.3932081    0.2660682 -74.30   0.00076983    1.441    0.306
        94 -10.5824    196.7630     31.9115   3.5719001611e+02   3.2224768250e+01    0.2791195    0.2504874 -56.67   0.00052253    1.132    0.116
        95  -8.6415    234.4258     36.5284   3.5530331385e+02   2.3976433398e+01    0.3446424    0.1325151 -50.81  0.001684347    2.113    0.527
        96  -8.1316     15.7606    228.2142   7.8337018438e+01   2.3241510014e+01    0.1707587    0.1255667  39.18 0.0004253676    1.129    0.114
        97  -9.8073     26.1514    230.2905   7.6044629451e+01   2.1852704907e+01    0.2357146    0.1623673  50.78   0.00151049    1.141    0.123
        98  -8.0930     63.1636     38.2267   2.7810951411e+01   6.3930301027e+01    0.1911196    0.1689049  75.31 0.0003841716    1.311    0.237
        99  -9.2599    225.7166     32.3853   3.5499500776e+02   2.6137039076e+01    0.3487596    0.1197249 -45.88  0.001622195    2.168    0.539
       100  -8.0110     79.2426     36.8928   2.0749401954e+01   6.0589942969e+01     0.211331    0.1935066 -81.75 0.0006209113    1.194    0.163
       101 -11.0685    190.0196     51.1604   2.8701896766e+00   3.1200817635e+01     1.008836    0.5488457 -22.75  0.004055266    2.265    0.559
       102  -7.0796     95.7185     28.3034   1.1761126467e+01   5.7841003531e+01    0.1444551    0.1081262 -70.87 0.0003027698    1.553    0.356
       103  -8.0147    101.5285     26.8567   9.6527584632e+00   5.6551155503e+01    0.2165543    0.1841571 -79.05 0.0003551894    1.217    0.178
       104  -8.3819     85.5950     25.7706   1.3491733900e+01   6.0717787609e+01    0.2489799    0.2081574  78.64 0.0002691742    1.233    0.189
       105  -9.5665     69.8411    226.1764   6.5539643173e+01   1.7950674201e+01    0.2087372    0.1890528 -49.27  0.000403926    1.358    0.264
       106  -7.9984    127.7229     22.3123   2.6015303424e+00   5.0290675784e+01    0.2829446    0.1659724 -88.66   0.00125535    1.877    0.467
       107 -12.0099     40.0439    219.6499   7.2212789701e+01   2.2631277712e+01    0.7261622    0.6084728 -43.43  0.002041421    1.553    0.356
       108  -8.2109    143.7711     17.0616   3.5845953960e+02   4.6717675267e+01    0.3074795    0.1450887 -74.44  0.001190374    2.654    0.623
       109  -8.2744    250.1742     15.1072   3.4989779365e+02   2.3518187780e+01    0.1615455    0.1280201 -43.76 0.0006157234    1.194    0.162
       110  -7.2633    190.2699     15.6266   3.5351549368e+02   3.5556467563e+01    0.1416215    0.0728931 -55.57 0.0006995993    1.677    0.404
       111  -8.6014    133.0480     19.4196   7.2954893145e-01   4.9232148073e+01    0.4888193    0.2184286  89.10  0.001788106    2.873    0.652
       112 -12.1235     32.9720    212.4303   7.3514272599e+01   2.4897449683e+01     1.498652    0.6755083  40.24  0.003980448    1.709    0.415
       113  -7.9238     76.4734    225.0550   6.3868535217e+01   1.7372555253e+01    0.2054559    0.1414149  31.52 0.0005381143    1.204    0.169
       114  -8.3518    162.1729    217.8588   4.3740899268e+01   7.4735620510e+00    0.1900931    0.1612789 -20.92 0.0005965685    1.219    0.179
       115  -7.0904     77.6970    218.2725   6.2941782802e+01   1.8568527456e+01     0.132936   0.08235302  51.08 0.0002109242    1.536    0.349
       116  -7.4556    243.0315    210.2523   2.8259562709e+01  -1.0148357351e+00     0.130414   0.07884938  21.84 0.0008933363    1.596    0.373
       117 -12.5068     54.3062    195.2794   6.6752430530e+01   2.6393705938e+01     1.645458     1.488212  69.88  0.006948401    1.105    0.095
       118  -7.9803     14.8529    200.0218   7.7441998112e+01   2.9371398896e+01     0.174328    0.1445085  54.87 0.0002504224    1.034    0.033
