#   1 NUMBER                 Running object number                                     
#   2 MAG_AUTO               Kron-like elliptical aperture magnitude                    [mag]
#   3 X_IMAGE                Object position along x                                    [pixel]
#   4 Y_IMAGE                Object position along y                                    [pixel]
#   5 X_WORLD                Barycenter position along world x axis                     [deg]
#   6 Y_WORLD                Barycenter position along world y axis                     [deg]
#   7 A_WORLD                Profile RMS along major axis (world units)                 [deg]
#   8 B_WORLD                Profile RMS along minor axis (world units)                 [deg]
#   9 THETA_WORLD            Position angle (CCW/world-x)                               [deg]
#  10 FWHM_WORLD             FWHM assuming a gaussian core                              [deg]
#  11 ELONGATION             A_IMAGE/B_IMAGE                                           
#  12 ELLIPTICITY            1 - B_IMAGE/A_IMAGE                                       
         1 -15.3742    242.1321    101.1281   2.4740859912e+01   1.2319558988e+01     5.760286     3.173495 -43.54    0.0286564    1.574    0.365
         2 -14.3182    244.5925     57.7262   1.5680165417e+01   1.8816595128e+01     4.467688     2.024376 -62.87   0.02024011    2.455    0.593
         3  -8.6527    250.0315     16.7047   7.5513857694e+00   2.3168861185e+01    0.2359961    0.1646507 -52.09   0.00163698    1.323    0.244
         4 -10.0104    119.2672      9.7527   2.1478662183e+01   5.2837696896e+01    0.5639963    0.2989443  51.72  0.003034487    1.523    0.343
         5  -8.3470     97.0158      8.9665   2.5976626726e+01   5.7713154496e+01    0.1818531     0.150294  45.49 0.0002994676    1.037    0.035
         6  -8.3772    229.0110      5.4942   7.0742754207e+00   2.8647192162e+01    0.2008006    0.1371935  68.55  0.001133864    1.471    0.320
         7  -9.4887    234.6200      2.4150   6.1015184024e+00   2.7829361768e+01    0.5374951     0.167102  62.01  0.002531302    3.099    0.677
         8  -7.8979    213.1883      5.4016   8.3157232604e+00   3.1984404637e+01    0.2242568    0.1444526  87.76 0.0005797717    1.263    0.208
         9  -8.1187    216.4856      4.0585   7.7790432818e+00   3.1418553272e+01    0.1666642    0.1443776 -72.16 0.0004521807    1.228    0.186
        10  -8.8520    243.9874      3.6014   5.6707614414e+00   2.5834797172e+01    0.3127113    0.1367394  62.28  0.001543237    2.393    0.582
        11  -7.2031    135.2722    225.7340   7.2071317593e+01   7.3436379203e+00    0.1350822    0.1048239  64.49 0.0002008467    1.472    0.320
        12  -9.6812    248.2882    249.5243   5.2705719391e+01  -1.4070932344e+01    0.3609726    0.2252783  13.05  0.002223694    1.457    0.314
        13  -7.6655     37.9879    216.4765   9.2979202853e+01   2.4029023263e+01    0.1697098    0.1199459  39.50 0.0004802432    1.470    0.320
        14  -7.4410     43.7697    214.3900   9.1516921817e+01   2.3821202148e+01    0.1579964    0.1254746  24.04  0.000459068    1.592    0.372
        15  -7.5833     18.7888    212.0063   9.6681112557e+01   2.7157410486e+01    0.1640663   0.08443715 -77.28  0.000303591    1.666    0.400
        16  -8.9948    192.2516    194.1130   5.3505710564e+01   3.7369728177e+00    0.7790462    0.3796274 -63.16  0.002096412    5.961    0.832
        17  -7.9314    236.5041    197.6534   4.5406495663e+01  -4.2974854092e+00    0.2047499    0.1220071  35.07 0.0008863942    1.804    0.446
        18  -9.3988    125.0499    193.5356   6.9073638331e+01   1.6338199569e+01    0.2565459    0.2138672 -54.57  0.001306287    1.228    0.185
        19  -7.8542    131.0513    191.5247   6.7218091559e+01   1.5711205989e+01    0.2233068    0.1477259  36.18 0.0003402224    1.494    0.331
        20  -9.1892    223.3205    188.7935   4.6133679860e+01  -6.0785730273e-01    0.5149034     0.314473  51.62  0.001833456    2.183    0.542
        21 -10.4528    214.5020    181.2491   4.6318585088e+01   2.3271446691e+00    0.5974515    0.3139092 -33.56   0.00182794    1.902    0.474
        22  -8.8616    212.6546    173.7353   4.5128788201e+01   4.1266452195e+00    0.4521567    0.2372425 -36.18  0.001943298    1.837    0.455
        23  -8.5839     68.7800    179.1439   8.1104244254e+01   2.9155036321e+01    0.2107025    0.1924536  56.48 0.0003761488    1.119    0.106
        24  -9.7575    220.9342    176.2302   4.4042417560e+01   2.1744475167e+00    0.4854893    0.4303845 -42.27  0.002823018    1.148    0.129
        25  -9.7306    224.9057    171.8164   4.2385052764e+01   2.3307950201e+00    0.5810325    0.4847007  86.22  0.003137802    1.745    0.427
        26  -9.8166    230.5438    167.6058   4.0483906427e+01   2.1578408991e+00    0.4317068    0.2331549 -48.60  0.001617297    1.834    0.455
        27 -13.6751    193.0294    103.9278   3.3207654538e+01   2.2131288371e+01     3.130162     2.227566  54.48   0.01307942    1.451    0.311
        28  -8.9120     70.0179    145.3608   7.4949853043e+01   3.7605530963e+01    0.5307286    0.3001145  53.24  0.002206306    2.177    0.541
        29  -9.0743     65.3372    142.6726   7.5821532095e+01   3.8943478155e+01    0.3167936    0.2248408 -63.27    0.0011385    1.320    0.242
        30  -9.0066    209.9439    137.3005   3.7772712408e+01   1.1939946069e+01    0.3103253    0.2063068  47.17  0.001176078    1.637    0.389
        31 -10.3458    191.8029    155.8915   4.5532921374e+01   1.1774345794e+01    0.7859573    0.3979553 -42.10  0.003146481    1.882    0.469
        32  -9.4661    192.5128    129.4864   3.9364545235e+01   1.7161351396e+01    0.2960961    0.2300825  65.58  0.001264685    1.461    0.315
        33 -10.5092    194.7120    125.2038   3.7927572685e+01   1.7563204431e+01    0.6677275    0.3349987  44.65  0.002666122    2.156    0.536
        34 -10.1357    197.8161    133.2141   3.9173402783e+01   1.5268277524e+01    0.5125651    0.3350157 -54.81  0.002312871    1.586    0.369
        35  -9.3410    196.7946    129.2009   3.8448749600e+01   1.6304142800e+01    0.3144455    0.2806788 -58.40 0.0007644442    1.092    0.084
        36  -9.3611     25.0270    135.6918   8.6680246930e+01   4.5172306632e+01    0.2671241    0.2067145 -84.14  0.001555737    1.270    0.212
        37 -10.3843    134.6295    131.1134   5.3217839536e+01   2.9434408730e+01    0.6539183    0.3979456  41.28  0.002695929    1.671    0.401
        38  -9.7745    142.8414    133.1748   5.1592019525e+01   2.7205509426e+01    0.3275113    0.2799442 -52.15  0.001591477    1.167    0.143
        39  -9.6724    142.6568    128.7870   5.0554700363e+01   2.8248218399e+01     0.363038    0.2277297 -42.03  0.001334826    1.599    0.374
        40  -9.3531     60.3640    134.0993   7.5650501640e+01   4.1771720659e+01    0.2387784    0.2031855  -0.02 0.0009072965    1.350    0.259
        41 -11.5879      6.7321    128.7587   9.1096698356e+01   4.8218193340e+01    0.8634298     0.643634 -70.18  0.004340142    1.100    0.091
        42 -10.3373    161.2222    128.2624   4.5874756421e+01   2.4287798462e+01    0.4752861    0.4106243  75.75  0.002339121    1.294    0.227
        43 -10.2084     37.5224    124.8998   8.1033443535e+01   4.6683238194e+01    0.4112384    0.3319719  10.32 0.0009613148    1.438    0.304
        44 -11.3174     54.1478    124.6984   7.5693664039e+01   4.4892229739e+01    0.6747347    0.5242073 -47.56  0.002421548    1.161    0.139
        45 -11.7655     46.5706    123.1893   7.7815643789e+01   4.6148458606e+01    0.8553458    0.6599184 -25.18 0.0006644807    1.404    0.288
        46  -9.7304    167.7728    125.4853   4.3682430104e+01   2.3434954304e+01    0.3766893    0.2644744 -89.81  0.001519477    2.185    0.542
        47 -10.7027     65.5017    124.4209   7.2011345296e+01   4.3482725166e+01    0.5275924    0.4086429   2.49  0.002694741    1.531    0.347
        48  -9.1168    142.1289    122.5905   4.9129473954e+01   2.9759235605e+01    0.3294154    0.2451052 -73.62  0.001392298    1.731    0.422
        49 -10.9062    160.6516    121.6240   4.4360963544e+01   2.5857237798e+01     0.631047    0.4093292  53.61   0.00271336    1.618    0.382
        50  -9.2302    134.8608    112.9269   4.8505785190e+01   3.3482052345e+01    0.3637932    0.1707391 -50.38  0.001301733    2.263    0.558
        51  -7.2534     98.3347    113.2630   5.8984536575e+01   4.0835523847e+01    0.1529847    0.1186441  -4.67 0.0002627686    1.581    0.367
        52  -9.1374    218.3087    248.5474   5.8176054616e+01  -1.0034313827e+01    0.3063879    0.1720694 -22.27  0.001123609    1.893    0.472
        53  -8.4061    148.3310    110.6096   4.4482313862e+01   3.0982422181e+01    0.3098178    0.2364944  39.01 0.0008512642    1.359    0.264
        54 -10.5931    176.2917    107.1520   3.7284262272e+01   2.5302894943e+01     0.560087    0.3863518  63.07  0.001651173    1.578    0.366
        55 -10.3292    167.7911    106.7249   3.8982404555e+01   2.7338086277e+01    0.4570516    0.3372956  32.75  0.002108883    1.592    0.372
        56  -9.6626    157.9842    108.8232   4.1721727235e+01   2.9160572877e+01    0.4385203    0.2544989  49.87  0.001813461    1.732    0.423
        57  -7.3524    118.1806    133.3674   5.8245966368e+01   3.2288252725e+01    0.2099461    0.1470992  50.76 0.0002725519    1.526    0.345
        58  -8.4411    134.9558    104.4798   4.6220622361e+01   3.5265108698e+01    0.2473999    0.2061162 -45.34  0.001148497    1.209    0.173
        59  -9.7048    157.1019    102.0940   4.0170155024e+01   3.0729568990e+01    0.3078009    0.2853309 -16.92 0.0003640292    1.183    0.154
        60  -8.0872    141.9656    101.8874   4.3733190388e+01   3.4232526210e+01    0.2345579    0.2232133  89.55 0.0006397055    1.093    0.085
        61 -10.6332    173.3884     97.6952   3.5500690491e+01   2.7815146019e+01    0.4450839     0.352988 -37.67 0.0008849063    1.301    0.232
        62  -7.8904    126.8326     92.5318   4.5048062841e+01   3.9490683858e+01    0.2277376    0.1467879  44.16  0.001003733    1.522    0.343
        63  -8.3131    120.0005     89.1430   4.5933541776e+01   4.1640436197e+01    0.2178984    0.2069104  28.09  0.000284119    1.022    0.022
        64  -7.7490     79.0726    155.4725   7.4257514850e+01   3.3684333223e+01    0.2101371    0.1497632  34.21 0.0004201651    1.489    0.329
        65 -10.3686    182.6342     78.6284   2.8911086293e+01   2.9104389977e+01    0.6194658    0.4108489  71.11  0.002610144    1.602    0.376
        66 -10.2991    194.2195     76.1461   2.6323462081e+01   2.6832791723e+01    0.4745822    0.3438756 -51.16  0.001819731    1.329    0.248
        67 -11.0271    198.3815     74.0630   2.5161501492e+01   2.6222836081e+01     1.040257    0.3325241 -32.40  0.003131476    4.547    0.780
        68  -7.9929    161.1211     78.8268   3.3105386216e+01   3.4142738151e+01    0.2332248    0.2011523  87.79  0.001236727    1.207    0.172
        69  -9.5149    204.7857     75.0158   2.4397456758e+01   2.4614696500e+01    0.2339461    0.1939543 -23.71 0.0008394318    1.514    0.340
        70  -8.4119     91.6775     74.9989   5.0083694017e+01   5.0047645493e+01    0.2246167    0.1888419  30.65 0.0004611311    1.144    0.126
        71  -8.2909    181.4498     72.7573   2.7652272506e+01   3.0364823972e+01    0.1838516     0.141079 -27.24 0.0004521848    1.549    0.354
        72  -8.8094    189.4910     70.9519   2.5842885545e+01   2.8779224863e+01    0.4231831    0.2300664 -41.14  0.001619007    1.829    0.453
        73  -9.0774    192.4954     69.4846   2.5001888149e+01   2.8318429351e+01    0.3767655    0.2185856 -33.18  0.001734792    1.945    0.486
        74  -7.1542    159.9781     71.7846   3.1446270692e+01   3.5607050213e+01    0.1853206    0.1127017  56.21 0.0008340421    1.562    0.360
        75  -8.8517    181.6279     63.6245   2.5337326087e+01   3.1779516388e+01    0.3358209    0.2181523 -46.36  0.001449667    1.543    0.352
        76  -7.6692    172.4060     65.1487   2.7319677775e+01   3.3723152690e+01    0.1974472    0.1257188 -51.29 0.0008165028    1.634    0.388
        77  -7.6112      2.6894    249.6573   1.0219911286e+02   2.0669911472e+01    0.1000981   0.07813141 -60.32 0.0007045387    1.698    0.411
        78  -8.1450    187.7231     59.9337   2.3444459995e+01   3.0912592226e+01    0.1950495    0.1676676 -59.06 0.0005731198    1.142    0.124
        79 -10.2999    199.6491     49.7689   1.9311114671e+01   2.9633411425e+01    0.5537011    0.3918673 -10.72  0.002597473    2.363    0.577
        80  -9.2544    197.4837     58.5067   2.1638638409e+01   2.8864450865e+01    0.2178804    0.1362977 -24.78 0.0008209315    2.185    0.542
        81  -7.0818     89.7587     59.2769   4.5603062797e+01   5.3121300518e+01    0.1183274    0.1095992 -79.93            0    1.444    0.307
        82 -10.5856    210.7959     54.8628   1.8996372343e+01   2.6388552717e+01    0.4111558    0.3652359 -52.33  0.001963192    1.212    0.175
        83  -9.1201    184.1465     55.7666   2.2983837568e+01   3.2368303569e+01    0.3789186    0.1411402 -39.23  0.001490311    2.671    0.626
        84  -8.1360    141.3294     54.9129   3.0613392131e+01   4.2633117749e+01    0.1808508    0.1770473 -13.09 0.0003416954    1.125    0.111
        85  -8.4379    155.9598     48.9797   2.6018575032e+01   4.0013009645e+01    0.1715962    0.1503017  67.41 0.0007820618    1.029    0.028
        86  -9.0353    195.4303     45.9456   1.8995405698e+01   3.1130248151e+01    0.3155254    0.2311048  21.26  0.001303277    2.323    0.569
        87  -8.9040    196.3459     39.6222   1.7415481028e+01   3.1763392605e+01    0.2244776    0.2161691  25.61 0.0004693128    1.383    0.277
        88  -8.1363    191.6509     40.2909   1.8182969770e+01   3.2756317794e+01    0.1390796   0.08925404 -76.37 0.0007027708    1.668    0.400
        89  -8.2329    179.1637     35.4283   1.8730197825e+01   3.6281183681e+01    0.1797972    0.1788598 -22.37 0.0003758146    1.263    0.208
        90  -9.4715    139.5860    149.1515   5.6228997254e+01   2.4153118078e+01    0.3994009     0.279262 -31.72  0.001106242    1.628    0.386
        91  -8.5563    136.3665     34.8408   2.5759225815e+01   4.6424981788e+01    0.1789478    0.1287559  -8.84 0.0009527853    1.811    0.448
        92  -8.9419    133.6465    146.6369   5.7194591053e+01   2.5975609427e+01    0.5190631     0.187726 -50.14  0.001632696    2.766    0.638
        93  -8.1245    238.0700     19.6577   9.0036417232e+00   2.5197281951e+01    0.1946031    0.1173636 -82.17   0.00118614    1.440    0.306
        94  -7.4495     34.4246    161.5446   8.7709230174e+01   3.7817608683e+01    0.1365291    0.1159491 -76.46 6.222377e-06    1.010    0.010
        95  -8.0089    167.2530    245.6579   6.8157588105e+01  -1.8514620449e+00    0.1217901    0.1037066  70.47 0.0001528313    1.578    0.366
        96  -8.5382    110.6293    244.1431   8.0209063506e+01   7.6294825216e+00    0.2222598    0.1715003  37.14 0.0003562961    1.198    0.165
        97  -7.8443    239.5723    218.7864   4.8840823590e+01  -8.3114333118e+00    0.1931891    0.1443341  29.28 0.0006906429    1.411    0.291
        98  -8.7496     36.0013    240.2708   9.5416883803e+01   1.8985348299e+01    0.2003355    0.1541052 -82.36 0.0003264718    1.229    0.186
        99  -7.4807     95.8387    239.3664   8.2831064809e+01   1.0934096470e+01    0.2395827   0.09890681 -64.30 0.0009815888    2.746    0.636
       100  -7.2109    219.6509    230.7051   5.4807487826e+01  -7.4111208274e+00    0.1365589   0.08897254  -1.10 0.0007032326    1.677    0.404
       101  -7.3376    136.6523    230.2722   7.2466712048e+01   6.1701640909e+00    0.1430676    0.1019773  60.72 0.0002053604    1.625    0.385
