#   1 NUMBER                 Running object number                                     
#   2 MAG_AUTO               Kron-like elliptical aperture magnitude                    [mag]
#   3 X_IMAGE                Object position along x                                    [pixel]
#   4 Y_IMAGE                Object position along y                                    [pixel]
#   5 X_WORLD                Barycenter position along world x axis                     [deg]
#   6 Y_WORLD                Barycenter position along world y axis                     [deg]
#   7 A_WORLD                Profile RMS along major axis (world units)                 [deg]
#   8 B_WORLD                Profile RMS along minor axis (world units)                 [deg]
#   9 THETA_WORLD            Position angle (CCW/world-x)                               [deg]
#  10 FWHM_WORLD             FWHM assuming a gaussian core                              [deg]
#  11 ELONGATION             A_IMAGE/B_IMAGE                                           
#  12 ELLIPTICITY            1 - B_IMAGE/A_IMAGE                                       
         1 -13.4311    249.1224     16.5614   1.1131904965e+01   2.1036367994e+01    0.4084537    0.3026699 -67.39   0.00242691    1.158    0.136
         2 -16.8149    244.1665    157.0899   4.4009167926e+01   6.1624085360e-01     5.838173     3.033515 -22.11   0.02532471    2.260    0.557
         3 -15.9707    129.0857    104.9864   5.5798288726e+01   3.5704796176e+01     3.514704     2.372386  44.78    0.0158811    1.510    0.338
         4 -18.6436    231.8598     69.2680   2.5514245353e+01   1.7700437114e+01     7.707587     5.815101 -17.45   0.03920119    1.586    0.369
         5 -14.4558    150.9030     25.2768   2.6023467534e+01   4.4431003386e+01     1.461698    0.7208147 -10.53  0.005414247    3.195    0.687
         6 -15.5382    140.7063     40.3458   3.3118321244e+01   4.4983790525e+01     3.109863     1.449764  66.28   0.01152986    2.594    0.614
         7 -12.9431    192.7627     31.4674   2.1082681268e+01   3.2912107706e+01    0.7450064    0.4461422  15.78  0.002856872    3.203    0.688
         8 -15.2536    153.1605     46.6833   3.2526834417e+01   4.0965805485e+01     1.226858     1.188964   1.84   0.00568638    1.085    0.078
         9 -11.5484    200.4006     13.3635   1.5158528549e+01   3.3139975288e+01    0.3501571    0.2682838 -60.55 0.0009579178    1.264    0.209
        10 -14.7070    132.4436      7.3050   2.3369153259e+01   5.0922959112e+01     1.128691    0.6106516  66.42  0.005330146    1.762    0.432
        11 -14.2934      4.3372    151.6907   9.6373366090e+01   4.2333024547e+01     1.859955    0.4881661 -81.87  0.007038239    3.805    0.737
        12 -15.8347     56.7719    134.9167   8.1759990855e+01   4.1006302902e+01     2.166067     1.408107  15.89   0.00474501    2.328    0.570
        13 -11.8093    189.8746    131.5648   4.8423144934e+01   1.6408666308e+01    0.4251842    0.3444078  89.26  0.001294672    1.572    0.364
        14 -13.0415    184.9270    124.4882   4.7742802741e+01   1.8925866237e+01    0.8271292    0.4933523 -37.14  0.002600233    1.712    0.416
        15 -12.8153    188.7541    137.7322   5.0104037152e+01   1.5458046506e+01     0.698443    0.4058802 -67.44  0.002388242    3.294    0.696
        16 -11.3780    167.3600    134.7168   5.3996925108e+01   2.0847088511e+01    0.2991846    0.1902334  58.63  0.001261855    1.742    0.426
        17 -14.1863    178.9248    141.0284   5.2933422484e+01   1.6988575156e+01    0.7512851    0.6741436  59.17  0.003961973    1.138    0.122
        18 -11.8870    202.9831    133.2917   4.6203049661e+01   1.3144379979e+01    0.3975734    0.2838564 -56.98 0.0007155249    1.632    0.387
        19 -11.6860    224.6268    130.2315   4.1451511429e+01   8.9892608190e+00    0.5535662    0.2907524  59.99  0.002085097    2.446    0.591
        20 -11.3825    208.7731    211.3563   6.0978648372e+01  -1.3076710965e+00    0.1915935    0.1753705 -36.42   0.00125566    1.315    0.240
        21 -13.6465    161.3675    128.3671   5.3841133183e+01   2.3517214390e+01    0.6078307    0.5326044  50.67  0.001802662    1.130    0.115
        22 -13.7478    229.9813    105.9594   3.4788314864e+01   1.2049892080e+01     1.258874    0.4595774 -45.00  0.004388536    2.751    0.636
        23 -13.7470    171.3167    123.8859   5.0517409746e+01   2.2182830750e+01    0.6837316    0.5059978 -88.34  0.002964385    1.890    0.471
        24 -13.2381    166.1383    117.1405   4.9987519841e+01   2.4766495244e+01    0.8945363    0.6505088  19.87  0.003861014    1.858    0.462
        25 -10.4135    233.0078    116.2598   3.6743400364e+01   9.6206093130e+00    0.1828218    0.1796557  26.92            0    1.083    0.076
        26 -11.4512    210.1914    109.4426   3.9063203663e+01   1.5925811253e+01    0.4820351    0.2622262 -58.05  0.001786907    2.550    0.608
        27 -11.4261    205.7892    109.5753   3.9908313598e+01   1.6924540310e+01    0.5418228    0.2915497  41.59  0.002035576    2.065    0.516
        28 -12.2425    171.5475    173.5782   6.1412232520e+01   1.2140212042e+01    0.4494296    0.3375298 -50.61  0.001837723    1.448    0.309
        29 -11.1550     95.0159    122.9711   6.9279768492e+01   3.8198560678e+01    0.2232707    0.2082458 -75.09 0.0004939383    1.010    0.010
        30 -12.3342    190.2333    107.3202   4.2343345534e+01   2.1023879341e+01    0.6376497    0.3872983  58.49  0.001995349    1.765    0.433
        31 -14.5509    186.7226    173.1182   5.8170379460e+01   9.1573886108e+00     1.041614     0.615918 -63.79  0.004162429    2.816    0.645
        32 -15.1604     16.9108    146.7080   9.3101428796e+01   4.2422143745e+01    0.9027675    0.8321721  80.05   0.00361172    1.262    0.208
        33 -11.9354    168.9395    202.0046   6.7089262601e+01   7.4290639401e+00      0.49564     0.299601  70.60  0.002035429    2.942    0.660
        34 -11.0572    113.3459     86.8626   5.5029700164e+01   4.2879432796e+01    0.2145383    0.1841232 -41.06 0.0006087552    1.133    0.117
        35 -11.4988    165.0795    199.0412   6.7371847182e+01   8.6752038284e+00    0.3136114    0.2308496  71.47 0.0006797886    1.717    0.417
        36 -12.9651    178.0602    175.3869   6.0401971124e+01   1.0483579772e+01    0.4383391    0.3441519  77.16   0.00137157    1.658    0.397
        37 -11.4622    158.4633     72.7799   3.9461363485e+01   3.5318256373e+01    0.4103889     0.253805 -48.49  0.001002271    1.704    0.413
        38 -14.1857    130.5125     67.1113   4.4367205524e+01   4.3042261603e+01    0.9910938    0.4186892 -40.23  0.003002256    2.351    0.575
        39 -14.5763    138.6224     62.8375   4.0982584993e+01   4.1910172527e+01    0.8687143    0.6944227 -23.52  0.004332363    1.338    0.253
        40 -11.5562    178.4179     69.6433   3.4413594602e+01   3.0853277285e+01    0.6028464     0.401102  27.65  0.002069602    2.072    0.517
        41 -12.5069    167.6913     59.4057   3.3512919743e+01   3.5293671004e+01    0.5975511    0.4269504 -66.95  0.002705446    1.694    0.410
        42 -11.3409    169.1822     70.3462   3.6459104356e+01   3.3068943259e+01    0.5239718    0.2975881 -24.11  0.002035253    2.202    0.546
        43 -11.7274    172.9050     65.8622   3.4394673446e+01   3.2896095798e+01    0.4418395    0.2605274 -42.51 0.0007118565    1.699    0.411
        44 -14.7273    177.7930    168.6983   5.9130766998e+01   1.1801671221e+01    0.9795455    0.7531728 -61.32  0.004975333    1.543    0.352
        45 -11.6679    196.5743     62.9262   2.9246425136e+01   2.7354180413e+01     0.628285    0.4664664  -3.57  0.002271818    1.857    0.462
        46 -10.9176    198.1775     57.1359   2.7389882942e+01   2.7862098411e+01    0.3913552    0.2450205 -21.47 0.0009027514    1.950    0.487
        47 -11.0986    205.1510     64.9506   2.8390198434e+01   2.4869209296e+01    0.2725154     0.240966  50.80  0.000939608    1.199    0.166
        48 -10.3387    186.0101     64.7100   3.1584791269e+01   2.9750084234e+01    0.1993215    0.1824165  70.40 0.0002032861    1.072    0.067
        49 -12.2581    149.8826     64.8872   3.8983604833e+01   3.8831409116e+01    0.2421899    0.2133248  13.63 0.0007731596    1.269    0.212
        50 -10.9405    206.8397     57.7740   2.6204456511e+01   2.5576569620e+01    0.3731032    0.2572778  30.41  0.001609458    1.986    0.496
        51 -11.3541    214.9980     49.9004   2.2940661217e+01   2.4726158147e+01    0.3134005    0.2020739 -28.95 0.0006165463    1.657    0.397
        52 -11.1252    177.8026    209.1016   6.6510006158e+01   4.5894120427e+00    0.2006511    0.1666981  57.23 0.0005918375    1.262    0.208
        53 -14.1491    124.2923     38.9749   3.6484718441e+01   4.9089370021e+01    0.5825752    0.4496928  40.64  0.002419691    1.245    0.197
        54 -12.0458    206.1670    160.8202   5.1742179513e+01   7.4252448146e+00     0.254115    0.2394074  26.37 0.0002442231    1.043    0.041
        55 -12.7433    199.7147     49.4973   2.5051775284e+01   2.8628614595e+01     0.362812    0.2682467 -29.06  0.001447389    1.448    0.309
        56 -11.2133    206.7267     47.9812   2.3601159637e+01   2.7074957557e+01    0.3249796    0.2361043 -69.65  0.001062173    1.459    0.315
        57 -10.6012    203.4475     42.5777   2.2617881515e+01   2.8678730520e+01    0.2315912    0.1451406 -15.27 0.0006399608    2.164    0.538
        58 -10.9759    190.4652     40.0517   2.3836505140e+01   3.2351825333e+01     0.333862    0.2426724  52.83 0.0009929992    1.383    0.277
        59 -13.3706    172.5402    150.6744   5.6468273092e+01   1.6445614212e+01    0.5830255    0.3130392 -45.57  0.002117892    1.925    0.481
        60 -12.3554    169.4261     36.9882   2.6381990852e+01   3.8201943899e+01    0.3698578    0.3103244  15.39   0.00101835    1.420    0.296
        61 -10.7583    175.7255     37.4844   2.5452839356e+01   3.6509369095e+01    0.2348025    0.2167056 -82.62  0.001170207    1.061    0.058
        62 -13.0882    181.3383     34.6854   2.3713147528e+01   3.5435392930e+01    0.3772738    0.2809534 -11.16   0.00115746    1.672    0.402
        63 -12.3189    185.1257     28.4649   2.1333446279e+01   3.5261335071e+01    0.2984968    0.2501573  14.36  0.000536807    1.488    0.328
        64 -10.2619    202.9673     36.3696   2.1008085611e+01   2.9656506784e+01    0.1973113    0.1713237  77.44  0.000548146    1.091    0.083
        65 -13.6832    115.9749     30.0866   3.5356590858e+01   5.2213505110e+01    0.4138685    0.3609244  -9.06  0.001352176    1.162    0.139
        66 -10.3722    204.6156     29.1103   1.8841931490e+01   3.0191266891e+01     0.186216    0.1771533 -54.07 0.0007455825    1.131    0.116
        67 -12.4188    158.9872     43.0020   3.0182682760e+01   4.0034252113e+01    0.4126686    0.2921556 -32.97  0.001042612    1.471    0.320
        68 -12.7652    133.4685    144.6948   6.4118782553e+01   2.5957098051e+01     1.313968    0.3451103 -55.64  0.003194828    5.639    0.823
        69 -10.5717    207.6686     24.9991   1.7374293119e+01   2.9937899756e+01    0.2620203    0.1724371 -73.67 0.0008285689    1.603    0.376
        70 -10.8181    201.3991     19.8521   1.6770312450e+01   3.2143566069e+01    0.2982145    0.2057144 -12.77  0.001170246    1.895    0.472
        71 -10.5400    203.9710     16.4803   1.5571734465e+01   3.1886526256e+01    0.2592877    0.2017097  78.41 0.0003889213    1.170    0.145
        72 -13.6083     67.6673    144.2453   8.0442126021e+01   3.7382815391e+01     0.883983    0.5090894  63.30  0.004174162    2.019    0.505
        73 -10.6623    236.4415     19.1026   1.2839705570e+01   2.3647185450e+01    0.1956043    0.1549053  89.84 0.0004612578    1.152    0.132
        74 -10.1278    189.5100     14.9738   1.6912860252e+01   3.5730750745e+01    0.1938257    0.1355695 -32.51  0.000715457    1.525    0.344
        75 -13.5590     45.1731    138.3827   8.5257123563e+01   4.1560445443e+01    0.3890424    0.3494139  28.94 0.0009704317    1.406    0.289
        76  -9.7353     47.5401    172.4997   8.8892808462e+01   3.3468831613e+01     0.125567    0.1017311  87.43 5.015725e-05    1.029    0.028
