#   1 NUMBER                 Running object number                                     
#   2 MAG_AUTO               Kron-like elliptical aperture magnitude                    [mag]
#   3 X_IMAGE                Object position along x                                    [pixel]
#   4 Y_IMAGE                Object position along y                                    [pixel]
#   5 X_WORLD                Barycenter position along world x axis                     [deg]
#   6 Y_WORLD                Barycenter position along world y axis                     [deg]
#   7 A_WORLD                Profile RMS along major axis (world units)                 [deg]
#   8 B_WORLD                Profile RMS along minor axis (world units)                 [deg]
#   9 THETA_WORLD            Position angle (CCW/world-x)                               [deg]
#  10 FWHM_WORLD             FWHM assuming a gaussian core                              [deg]
#  11 ELONGATION             A_IMAGE/B_IMAGE                                           
#  12 ELLIPTICITY            1 - B_IMAGE/A_IMAGE                                       
         1 -13.4168     58.3999    132.4715   1.3605629538e+02   4.0772524830e+01      2.39778    0.7893519 -78.58  0.006419308    6.674    0.850
         2 -14.0448    185.6814     21.5283   7.2953388344e+01   3.5986802189e+01     2.143967     1.326656 -11.29  0.007199421    1.690    0.408
         3 -14.0607    192.5776     15.8440   7.0315066263e+01   3.4834479199e+01     1.836739     1.270627 -48.32  0.005020216    1.469    0.319
         4 -13.8961    198.4903      8.0012   6.7267388467e+01   3.4101250200e+01     1.626676    0.7090428  56.14  0.001416234    2.267    0.559
         5 -11.3541     40.2894      4.1427   1.0465293795e+02   7.1779772669e+01    0.3136258     0.166871 -36.82   0.00156058    1.675    0.403
         6  -9.0366    152.6897    212.9171   1.2543472772e+02   1.2911839118e+01      0.14631     0.127532  21.69 0.0003353424    1.112    0.101
         7 -11.8182    162.5956    248.4069   1.2788491006e+02   7.1754137619e+00    0.3094915    0.2357207  21.85  0.002494218    1.098    0.089
         8 -12.0829    139.4005    249.8530   1.3201044296e+02   9.8736975748e+00     0.551801    0.1453012  34.80  0.002601117    2.852    0.649
         9 -11.7352    139.3969    246.1736   1.3164906082e+02   1.0319967381e+01    0.3677049    0.2135877  63.58  0.002060593    3.280    0.695
        10 -13.2494     52.8980    229.5821   1.4580408993e+02   2.2598484983e+01    0.4676208    0.3193209 -67.64  0.001237786    1.751    0.429
        11 -15.7706     60.9267    216.2226   1.4349366486e+02   2.3915911373e+01      6.96657     1.634873  40.43   0.03290418    2.829    0.647
        12 -11.0950    193.1013    194.9141   1.1523309281e+02   9.4942761968e+00    0.6436147    0.3678227 -58.19   0.00250707    5.706    0.825
        13 -11.8935     74.8936    195.5644   1.3907937502e+02   2.5919663506e+01     0.375373    0.2333906 -49.80  0.001869635    1.988    0.497
        14 -11.8305     79.2078    188.5421   1.3749709911e+02   2.6681600912e+01    0.2612768    0.2276993 -29.97 0.0006419058    1.476    0.323
        15  -9.4451     66.1901    193.7376   1.4073829508e+02   2.7247829020e+01    0.1882977     0.132759 -39.91  0.001198015    1.973    0.493
        16  -9.1349    113.0064    193.4619   1.3086808367e+02   2.1429383378e+01    0.1675518   0.09853292  13.12 0.0008085324    2.580    0.612
        17  -9.8465    119.9174    188.1030   1.2873170325e+02   2.1376672529e+01    0.2775963    0.1699888  20.44  0.001013103    1.878    0.468
        18  -9.6798    125.7863    186.2107   1.2723361795e+02   2.0855339018e+01    0.3553238     0.157169  27.06  0.001556649    2.584    0.613
        19 -11.3477     87.0590    176.4797   1.3446256920e+02   2.7965894919e+01    0.2238004    0.2013894  38.30 0.0003641645    1.098    0.089
        20 -13.3926     75.0938    173.9048   1.3688555105e+02   2.9965040361e+01    0.4245319    0.2615267 -39.87  0.001677503    2.215    0.549
        21 -12.0509     51.2510    157.3903   1.4079269040e+02   3.6058946763e+01    0.9507132    0.4223467 -75.62  0.004201701    2.301    0.565
        22 -14.1624     50.0101    129.9380   1.3805170286e+02   4.2271829281e+01     1.200538    0.8808399  40.76  0.004007032    1.378    0.274
        23 -10.5505     46.4712    172.4920   1.4326283067e+02   3.3432241992e+01    0.3165313    0.1391703  49.80  0.001653375    2.034    0.508
        24 -14.1372     67.6492    144.3244   1.3516316874e+02   3.7030747792e+01     1.679216     1.026881  59.82    0.0036199    1.771    0.435
        25 -10.4849    104.0445    150.9637   1.2691674467e+02   3.0663512687e+01    0.2853434     0.267585 -13.58 0.0008609716    1.166    0.142
        26  -9.7506    106.4821    146.9947   1.2565716809e+02   3.1105939499e+01     0.310609    0.1963273 -33.27  0.001454332    2.007    0.502
        27 -12.2416     93.2329    150.4568   1.2951300172e+02   3.2343641143e+01     0.260308    0.2367628  -6.06 0.0005433814    1.264    0.209
        28 -10.2752    134.4793    148.0489   1.1909408024e+02   2.6367383629e+01    0.6006788    0.1642603 -53.00  0.001755879    5.183    0.807
        29  -8.6469    192.0226    143.9964   1.0590893602e+02   1.6865115284e+01    0.1615862    0.1373961   4.89 0.0003365614    1.005    0.005
        30 -11.6406     25.8102    139.6650   1.4558326095e+02   4.2312602437e+01    0.2507184    0.1839142  52.82 0.0008763623    1.283    0.221
        31 -10.1410    113.5773    136.2248   1.2193009528e+02   3.2204328426e+01    0.3206507      0.23713 -24.26 0.0009824734    1.642    0.391
        32 -10.4235    249.6210    249.0369   1.1397884038e+02  -3.3353488764e+00    0.1460672    0.0792622 -19.09  0.001078894    1.837    0.456
        33  -9.2778    118.5825    129.1435   1.1924033867e+02   3.2834183956e+01    0.1995093    0.1278839 -37.14 0.0006733823    1.690    0.408
        34 -13.3088     92.2273    167.3315   1.3214200695e+02   2.9060615909e+01     3.277553    0.4458122  42.49  0.001789165    6.007    0.834
        35 -10.8421    101.2867    133.5119   1.2459702650e+02   3.4739772060e+01    0.2795075    0.2236234 -26.64 0.0006852169    1.451    0.311
        36  -9.6563    109.4578    123.4985   1.2045340621e+02   3.5572175950e+01    0.2197344    0.2135256 -23.12 0.0005478477    1.030    0.029
        37 -11.6434     45.0280    114.3478   1.3741537325e+02   4.6437640248e+01    0.3466159    0.1702857 -72.54  0.001626778    1.909    0.476
        38 -12.2171     31.4884    114.7060   1.4155147428e+02   4.7600788194e+01    0.3637708    0.2825099  65.86  0.002269407    1.265    0.209
        39  -9.5049    135.0000    112.9795   1.1139673360e+02   3.3144914297e+01    0.2448174   0.08227701 -43.98 0.0008060134    2.967    0.663
        40  -9.8233    229.7172    229.9933   1.1436815696e+02   6.4628881202e-01    0.1446629    0.1047858   5.12 0.0004370082    1.137    0.121
        41 -10.7669    168.3890    113.3551   1.0366988138e+02   2.6422026200e+01    0.3897497    0.3128234 -74.83   0.00172588    1.923    0.480
        42  -9.6369    153.7914     75.2171   9.6261847935e+01   3.6315032791e+01    0.2177002    0.1756618   7.17 0.0005804837    1.326    0.246
        43 -14.0753     10.5884    206.8165   1.5250901049e+02   3.0209235909e+01     1.280477    0.6202526  18.42  0.006830388    2.807    0.644
        44 -10.5663    145.2082    244.2513   1.3044081245e+02   9.8318223926e+00    0.1409333    0.1012888  45.14 0.0006544268    1.349    0.259
        45 -11.9498    128.9620    244.0040   1.3326442622e+02   1.1876680108e+01    0.2524949    0.1473467  31.81   0.00136001    1.331    0.249
        46 -16.8629     10.2678    239.2777   1.5352961578e+02   2.4975873029e+01     17.47419     1.869196 -81.69   0.05968088   10.212    0.902
        47 -10.8054    184.6020    215.7895   1.1994723404e+02   8.1002469736e+00    0.1771135    0.1504373 -28.95  0.001322267    1.484    0.326
