#   1 NUMBER                 Running object number                                     
#   2 MAG_AUTO               Kron-like elliptical aperture magnitude                    [mag]
#   3 X_IMAGE                Object position along x                                    [pixel]
#   4 Y_IMAGE                Object position along y                                    [pixel]
#   5 X_WORLD                Barycenter position along world x axis                     [deg]
#   6 Y_WORLD                Barycenter position along world y axis                     [deg]
#   7 A_WORLD                Profile RMS along major axis (world units)                 [deg]
#   8 B_WORLD                Profile RMS along minor axis (world units)                 [deg]
#   9 THETA_WORLD            Position angle (CCW/world-x)                               [deg]
#  10 FWHM_WORLD             FWHM assuming a gaussian core                              [deg]
#  11 ELONGATION             A_IMAGE/B_IMAGE                                           
#  12 ELLIPTICITY            1 - B_IMAGE/A_IMAGE                                       
         1 -11.5631    172.0955     45.3957   3.5838729785e+02   3.7093769418e+01     0.970462    0.8310207  -6.73  0.004994049    1.592    0.372
         2 -11.7239    189.4904     15.9941   3.4912945566e+02   3.6954302328e+01    0.7822452    0.5486911 -39.40  0.004974744    1.329    0.248
         3 -11.7280    190.1682     12.5875   3.4824421398e+02   3.7177617632e+01    0.8242996     0.537838 -79.42  0.005131016    1.364    0.267
         4  -9.1490    208.1314     15.1976   3.4771558780e+02   3.3249921535e+01    0.2161358    0.1353583 -34.60 0.0008209448    1.503    0.335
         5  -8.1856     94.9055     20.4849   2.9722683969e+00   5.8785619969e+01     0.187486    0.1759278 -71.57 0.0003237569    1.095    0.087
         6  -9.8073    139.1872    245.5450   4.5575903103e+01   5.9232076281e+00    0.5709765    0.1761463 -53.05   0.00244512    3.830    0.739
         7 -17.9311     53.1487    231.7403   6.3747827935e+01   1.7963344687e+01     3.563334     3.558958  83.37   0.01082996    1.195    0.163
         8  -8.8529     17.2385    224.1421   7.2036645666e+01   2.2987180382e+01    0.1600126    0.1434421  73.53 0.0004415124    1.166    0.142
         9  -9.8182    136.0585    236.8128   4.5168561283e+01   7.7019843759e+00    0.2350512    0.1966115 -35.01 0.0009907115    1.309    0.236
        10  -9.1441    188.0336    176.7063   2.5422937571e+01   1.1612001383e+01    0.2916776     0.245804 -13.64 0.0009633474    1.043    0.041
        11  -8.2389      7.9592    175.8028   7.2279627441e+01   3.5226698310e+01    0.2107345    0.1430571  48.14 0.0004819816    1.306    0.235
        12  -8.4938     54.9292    172.4665   5.7811135269e+01   3.1568258391e+01    0.2102268    0.1905966 -88.30 0.0004415735    1.107    0.097
        13  -9.9798    141.4241    220.7353   4.1915877737e+01   9.8487137491e+00    0.2997831    0.2043272  49.24  0.001669322    1.915    0.478
        14  -7.9314    194.0110    171.5067   2.3408810884e+01   1.1694074691e+01    0.1740488    0.1205187  31.07  0.001026285    1.571    0.364
        15  -9.4442    142.9663    231.5728   4.3040785193e+01   7.7940778329e+00    0.2368171    0.1789994 -28.96 0.0008072363    1.330    0.248
        16  -7.2210    237.4831    204.4668   2.1932480733e+01   1.6515865388e+00     0.108368   0.08035103 -18.76 0.0001541527    1.046    0.044
        17  -7.8771    139.4802    167.4507   3.3830269930e+01   2.0521386861e+01    0.1404432     0.129153 -11.18 3.611437e-05    1.034    0.033
        18 -10.2284     96.2453    163.8306   4.4366524476e+01   2.8105300729e+01    0.7138636    0.3058878 -41.12  0.002497343    2.913    0.657
        19 -11.0135     28.8728    152.6228   6.3968974683e+01   3.9654800596e+01    0.7813041    0.3539737  53.36  0.002923807    2.296    0.564
        20  -8.9813     23.2968    166.3533   6.6997613880e+01   3.6461393324e+01    0.7954175    0.3482936  -4.30  0.002562502    4.323    0.769
        21  -9.0582     37.9348    161.4907   6.1894397586e+01   3.6355675716e+01    0.3319133    0.2259065   3.57  0.001169326    1.783    0.439
        22 -10.3946     38.0104    155.7633   6.1252237445e+01   3.7891394353e+01    0.9097194    0.4888722 -23.92   0.00339882    2.963    0.663
        23  -9.5503     27.0539    159.3905   6.5210708159e+01   3.7986550455e+01    0.4132924    0.3384771 -57.35  0.001177592    1.284    0.221
        24  -9.8511     23.5400    156.1587   6.6075602290e+01   3.9176130835e+01    0.3991679    0.3664818  70.95  0.001303756    1.011    0.011
        25  -9.4687     16.7122    160.8032   6.8668794433e+01   3.8495677640e+01    0.4017334    0.3158014  36.88  0.001935875    1.229    0.186
        26 -12.4248     24.0637    247.4987   7.1422478021e+01   1.7587838162e+01    0.2702419    0.2287149 -49.79 0.0009088762    1.531    0.347
        27  -8.1323    120.6381    156.4430   3.6402936979e+01   2.5973473785e+01    0.2524236     0.204688  56.89 0.0008500487    1.394    0.283
        28  -8.6011    133.6892    196.0336   4.0029785518e+01   1.5496067177e+01    0.2134169    0.1734132  34.29 0.0004951124    1.234    0.189
        29  -8.9168    102.3463    154.0865   4.0914292880e+01   2.9518641635e+01    0.2709749    0.2375223  25.68 0.0003700795    1.149    0.130
        30  -8.8770     33.2270    161.9010   6.3449862710e+01   3.6722970804e+01    0.3761531    0.2856565 -29.05  0.001410238    1.593    0.372
        31  -9.5907    192.0144    193.7927   2.7641940755e+01   8.2311630606e+00    0.3153974     0.169823 -49.18  0.001648457    2.093    0.522
        32  -7.9748    151.0169    152.9816   2.8406074484e+01   2.1677301014e+01    0.2042347    0.1931804 -27.14 0.0003288069    1.036    0.035
        33  -8.1545    137.9829    152.9516   3.1400441034e+01   2.3859407922e+01    0.2071402    0.1978853 -26.92 0.0003259876    1.018    0.018
        34  -8.9551     15.3083    151.1080   6.8405425418e+01   4.1229866753e+01    0.2223005    0.2015565 -18.72 0.0007566085    1.276    0.217
        35  -9.6980    106.0414    148.6485   3.8837721972e+01   3.0229781059e+01    0.5055218    0.3563428 -28.52  0.001632855    1.707    0.414
        36  -9.2312    133.7962    144.6636   3.0720856534e+01   2.6386550046e+01     1.014792    0.2585432 -55.98  0.002202115    7.415    0.865
        37 -10.5605     92.0367    147.6795   4.2718995684e+01   3.2761167836e+01    0.3611148    0.2968028 -28.03 0.0006456167    1.366    0.268
        38 -10.8064     33.5104    141.3366   6.1131182614e+01   4.2313464202e+01    0.6308733    0.3605995 -20.66  0.002483831    2.552    0.608
        39 -10.0052      2.2621    124.7392   7.1110292284e+01   4.9377332457e+01    0.7379327    0.1391892 -78.79  0.002038093    4.537    0.780
        40 -10.0388      3.9729    138.0941   7.1400024661e+01   4.5581946400e+01     0.309938    0.2567727 -81.22  0.001747703    1.118    0.105
        41  -9.9078    110.1846    189.6214   4.4738176054e+01   2.0102324932e+01    0.5747178    0.2770288 -33.53  0.002195808    2.930    0.659
        42 -10.0413     20.6647    140.8832   6.5662446888e+01   4.3618252408e+01    0.3482588    0.2326425  78.81  0.001673394    1.489    0.328
        43  -9.6031    148.4275    227.1220   4.1303098083e+01   7.9118105813e+00    0.2492276    0.1682693  10.89  0.001490359    1.358    0.264
        44  -8.1798    115.2872    134.3347   3.3306000105e+01   3.2041937823e+01    0.1541926    0.1176243 -19.58  0.000701659    1.627    0.385
        45 -10.6041      4.3879    131.3713   7.0786764729e+01   4.7416415785e+01    0.5776708    0.2529315 -68.05   0.00240134    2.036    0.509
        46  -9.9015    104.6148    133.5527   3.6147060164e+01   3.4142407015e+01    0.5805341     0.341805 -31.89  0.001082496    2.269    0.559
        47 -11.3542     21.6430    127.0543   6.3845948036e+01   4.7400343583e+01    0.6579732    0.4322011 -51.78  0.002215174    1.530    0.346
        48 -10.2385     34.6748    126.3125   5.8731307327e+01   4.6385210511e+01    0.3254869    0.2911451 -57.39  0.001755949    1.121    0.108
        49  -9.2631     28.9541    126.9559   6.1017883440e+01   4.6774506519e+01    0.2295388    0.2135635  74.98 0.0005605649    1.033    0.032
        50  -9.4104     40.0279    124.5284   5.6407337067e+01   4.6303396105e+01    0.3057106     0.207787  86.04  0.001380281    1.609    0.379
        51  -7.2712    111.3108    124.2589   3.2141431711e+01   3.5155347372e+01    0.1959165    0.1801504  68.61 0.0002229284    1.140    0.123
        52  -8.2165    107.4913    122.9737   3.2934966548e+01   3.6176482818e+01    0.2346289      0.21258  18.00 0.0004412019    1.200    0.167
        53 -10.7522     37.1415    118.9518   5.6650338362e+01   4.8179504873e+01    0.6179904    0.2509188  34.15  0.002302285    2.324    0.570
        54  -7.5396    119.2903    127.3314   3.0651792081e+01   3.2939867736e+01    0.1534443    0.1186758 -17.38 0.0007019172    1.627    0.385
        55  -8.9397     16.8949    187.9933   7.0353639127e+01   3.1439769541e+01    0.2352345    0.1644741  42.24 0.0005982716    1.259    0.206
        56 -10.7169     43.6117    115.4714   5.3478334014e+01   4.8401364446e+01    0.6258747     0.268365  36.78  0.002346781    2.240    0.554
        57  -9.9129      3.4132    111.8784   6.9618044219e+01   5.2896474401e+01    0.4001899    0.3599047  88.36  0.002332883    1.030    0.029
        58  -8.2288    167.5811    112.3717   1.6103430503e+01   2.6823407070e+01    0.3405849    0.2312817 -78.82  0.001273341    2.276    0.561
        59  -9.1171     10.8232    110.9374   6.6404996021e+01   5.2726553052e+01    0.2498902     0.204975   8.57 0.0009564523    1.344    0.256
        60  -8.9157     89.2086    109.2434   3.5261771170e+01   4.2940073778e+01     0.310808    0.1994898 -33.56  0.001059177    1.930    0.482
        61  -9.4355     44.7606    108.2072   5.1638056742e+01   5.0259818349e+01    0.3742565    0.2286502 -46.87  0.001620834    1.669    0.401
        62  -9.5603     61.1976    107.5922   4.4923731478e+01   4.8134826979e+01     0.460665    0.1859783 -54.11  0.001626852    2.329    0.571
        63 -10.0221     65.4955    105.8372   4.2862273823e+01   4.7926264280e+01     0.533181    0.3057012 -55.12  0.002217378    1.688    0.408
        64  -7.4379    219.5279    104.3711   6.2542272994e+00   1.9017557526e+01    0.1210325   0.09952752 -43.59 4.771434e-05    1.034    0.033
        65  -8.4003     97.9519    102.9522   3.0819806017e+01   4.2792277085e+01    0.2231727    0.2177935 -58.11  0.000291591    1.035    0.033
        66  -8.4688    139.4702     94.0547   1.7308351658e+01   3.6083059410e+01    0.2025888    0.1936761 -87.35 0.0002892686    1.054    0.051
        67  -9.4677     38.0674    185.2914   6.4099344811e+01   3.0156548832e+01     0.358145    0.2561914  63.72  0.001891155    1.353    0.261
        68  -9.1358    167.0453    222.8663   3.6921689026e+01   6.4612840243e+00    0.2418877    0.2019085 -44.75  0.000748215    1.455    0.313
        69  -8.1829    183.1100     73.0022   4.0190531049e+00   3.0637013872e+01    0.1913004    0.1643627 -54.15 0.0002992812    1.022    0.021
        70 -10.4652    159.0649     60.4193   4.3117015366e+00   3.7772336027e+01    0.4347998    0.3813797  77.78  0.001496156    1.163    0.140
        71  -8.0594    249.0931     55.1914   3.5337896801e+02   2.1201565786e+01     0.154857    0.1263974 -38.87 0.0004463908    1.251    0.201
        72  -7.6123    133.7105    248.2956   4.7036605152e+01   6.0770403728e+00    0.1311947     0.124452  68.73 0.0002068423    1.485    0.327
        73 -10.0097    176.9824     38.4114   3.5597087452e+02   3.6961740401e+01    0.3501941     0.291319 -33.80 0.0007406647    1.316    0.240
        74  -7.6615     71.8045     45.2094   2.0669194285e+01   6.0529536658e+01    0.1850999    0.1620821  20.72 0.0002649165    1.252    0.201
        75  -7.5399    102.5442     40.5463   9.1514190985e+00   5.4217637035e+01    0.1431919     0.130962  87.78 4.786766e-05    1.039    0.037
        76  -7.9545     94.2389     36.9175   9.9200005830e+00   5.6755728797e+01    0.2066613    0.1778951 -82.87 0.0006660241    1.201    0.168
        77  -8.5407     78.9397     34.6804   1.3589906845e+01   6.0685534820e+01     0.224437    0.2032353 -17.89  0.000271418    1.233    0.189
        78  -8.4056    209.5625     32.7563   3.5160175226e+02   3.0955365962e+01    0.1784863    0.1772349 -17.64 0.0006704768    1.415    0.293
        79  -9.1693    134.5945    243.4990   4.6289780449e+01   6.7572677799e+00    0.3807298    0.1702746 -49.38  0.001968283    2.472    0.595
        80  -8.8467    158.2908    223.9659   3.8833322068e+01   7.2914530690e+00    0.1681482    0.1402882 -13.06 0.0006144159    1.096    0.088
        81  -7.8997    151.5750    181.2808   3.3567896861e+01   1.5891563173e+01    0.2413869    0.1288152 -53.18   0.00109337    2.053    0.513
