#   1 NUMBER                 Running object number                                     
#   2 MAG_AUTO               Kron-like elliptical aperture magnitude                    [mag]
#   3 X_IMAGE                Object position along x                                    [pixel]
#   4 Y_IMAGE                Object position along y                                    [pixel]
#   5 X_WORLD                Barycenter position along world x axis                     [deg]
#   6 Y_WORLD                Barycenter position along world y axis                     [deg]
#   7 A_WORLD                Profile RMS along major axis (world units)                 [deg]
#   8 B_WORLD                Profile RMS along minor axis (world units)                 [deg]
#   9 THETA_WORLD            Position angle (CCW/world-x)                               [deg]
#  10 FWHM_WORLD             FWHM assuming a gaussian core                              [deg]
#  11 ELONGATION             A_IMAGE/B_IMAGE                                           
#  12 ELLIPTICITY            1 - B_IMAGE/A_IMAGE                                       
         1 -15.2914    109.4091    119.6568   1.1491727349e+02   3.6481095455e+01      2.88725    0.6761675 -48.04  0.008913994    4.240    0.764
         2 -15.2189     82.3692    120.0572   1.2196630672e+02   4.0513001500e+01     1.686014     0.710387 -43.27  0.006792766    2.991    0.666
         3 -14.7582    137.5983    111.2665   1.0599590310e+02   3.3038347193e+01     1.909697     1.544416  78.50  0.009749622    1.640    0.390
         4 -14.6860      5.6357     22.8100   1.2781726923e+02   6.9231823635e+01     1.501584    0.6200345 -61.44  0.006677673    1.758    0.431
         5 -13.2256     14.7005     24.1140   1.2376510273e+02   6.8483942645e+01    0.4376304    0.4050643 -33.26  0.001772544    1.239    0.193
         6 -12.3955     83.3458     22.4979   9.3011856621e+01   6.0381061918e+01    0.4488236    0.3824804 -29.51   0.00147715    1.188    0.158
         7 -11.6473     64.0011     17.5039   9.8149170099e+01   6.4490643309e+01     0.443018    0.2710047  40.59  0.001833255    1.863    0.463
         8 -12.6544    113.1334      7.6100   7.6854252044e+01   5.6071493794e+01    0.9218094    0.6229011 -49.04  0.004318132    1.955    0.489
         9 -12.0895     73.4491      1.5436   8.6180958685e+01   6.5237273863e+01    0.3490381    0.1840757  50.93 6.079644e-05    2.181    0.541
        10 -11.9579     75.3427     13.4295   9.1658841224e+01   6.3242918020e+01    0.3918194    0.2716056 -30.97 0.0008527694    1.335    0.251
        11 -12.4781    103.7032      3.6641   7.7505781067e+01   5.8691571191e+01    0.6982418    0.4695866 -22.76  0.003530199    1.441    0.306
        12 -13.5543     85.9072     11.8760   8.7070660001e+01   6.1478801184e+01     1.285989    0.5726957  42.59  0.003955957    2.231    0.552
        13 -13.3417     86.2043      3.6503   8.2805170429e+01   6.2482480601e+01     1.312973    0.4728856  42.79  0.005098474    2.648    0.622
        14 -12.5329     96.3924      3.3468   7.9447035875e+01   6.0360042015e+01    0.5923612     0.440261  32.21  0.002013529    1.235    0.190
        15 -12.2578    123.9879      9.9851   7.5238645599e+01   5.3190791297e+01    0.3177212    0.2794009   5.58 0.0003826725    1.056    0.053
        16 -11.6614    137.3597      5.4326   7.0373471456e+01   5.0276128274e+01    0.4362947     0.275303  68.81   0.00188332    1.727    0.421
        17 -11.3162     33.5887      3.7159   1.0554265700e+02   7.0873846464e+01    0.2563191    0.1885331 -20.49 0.0008391569    1.122    0.109
        18 -10.9837    143.7220      3.0530   6.8171793023e+01   4.8836775030e+01    0.2148446    0.1887877  14.52  0.001161427    1.077    0.071
        19 -11.2783    163.1173    187.5799   1.1502368934e+02   1.5289625387e+01    0.2331515    0.1597283 -16.51   0.00133102    1.991    0.498
        20 -11.2348    155.9863    182.5161   1.1562820830e+02   1.7223194705e+01    0.2124432    0.1816539 -78.86  0.001044956    1.583    0.368
        21 -13.8478    191.6907    175.3477   1.0756111085e+02   1.2093926960e+01     1.434029    0.6689903 -31.36  0.006829232    2.506    0.601
        22 -12.2305     47.9820    166.6332   1.3576145377e+02   3.5104738832e+01    0.2908371    0.1718478  60.23  0.001872785    1.514    0.340
        23 -11.5995     89.7550    168.1087   1.2718377238e+02   2.9847680188e+01    0.2649123    0.1573083 -67.85  0.001434019    1.803    0.445
        24 -12.3709     40.7479    157.6686   1.3651841743e+02   3.7554769028e+01    0.3010574    0.1195297  60.00  0.001477154    2.713    0.631
        25 -11.3629     34.2795    177.3354   1.3926998384e+02   3.4467769162e+01    0.2334431    0.1795342 -31.62  0.001681115    2.182    0.542
        26 -15.6862     95.1673    125.9231   1.1972084713e+02   3.7431357672e+01     1.447544     1.018614  37.55   0.00805669    1.445    0.308
        27 -14.7107     78.9289    143.5856   1.2644591502e+02   3.6054994411e+01     1.222787    0.8384293  82.84  0.007089144    1.624    0.384
        28 -13.6483     86.3196    135.0241   1.2343175239e+02   3.6815871720e+01    0.9148446    0.2943241  49.62  0.003281463    3.771    0.735
        29 -13.5207     73.7901     97.0599   1.1999151794e+02   4.6693890048e+01    0.7156706    0.2318302 -46.78  0.001594556    3.167    0.684
        30 -12.0964    141.4951    240.4682   1.2545463302e+02   1.1563953348e+01    0.2446235    0.1613632  77.01  0.001603781    2.463    0.594
        31 -13.5336    132.4472    104.3758   1.0559932212e+02   3.5395048291e+01    0.5591356    0.4426977 -28.22  0.001337751    1.326    0.246
        32 -11.6163     32.4362    102.6308   1.3282538858e+02   4.9854138243e+01      0.22653    0.1876382 -62.59 0.0008079694    1.154    0.134
        33 -14.3888     41.9800     93.0429   1.2867420343e+02   5.1161493791e+01    0.8495602    0.8040874  -9.89  0.005813681    1.285    0.222
        34 -14.0382     54.9899     94.7299   1.2508462807e+02   4.9475274575e+01    0.8839602    0.5061875 -28.87   0.00236342    2.674    0.626
        35 -10.5978    188.6535     94.1911   9.0028917043e+01   2.5009998928e+01    0.2715582    0.2152468  81.39 0.0009263973    1.858    0.462
        36 -13.3404     17.4161    100.8555   1.3677864902e+02   5.1366681714e+01    0.4060833    0.3626595  83.08  0.002086567    1.155    0.134
        37 -13.1376    245.1488    233.4549   1.0776741627e+02  -2.5455791166e+00    0.7420058    0.4741597  37.46  0.005357153    1.428    0.300
        38 -13.1569    140.9268    138.1294   1.1105901990e+02   2.7318934953e+01    0.7153122    0.5881454  -3.61  0.003808142    1.434    0.303
        39 -13.9488     80.0835    108.0383   1.2038513957e+02   4.3428657761e+01    0.8021207     0.338598 -62.50   0.00333946    2.452    0.592
        40 -11.5983     23.5767     88.7689   1.3355260332e+02   5.3621757215e+01    0.2806587    0.1829028  79.29  0.001701838    1.603    0.376
        41 -13.0738     88.7796     86.5451   1.1316476748e+02   4.6855333898e+01    0.3479573    0.3144967   6.58  0.001275526    1.219    0.180
        42 -10.3490    249.8065     86.5071   7.7449892375e+01   1.2408890062e+01       0.2105    0.1658511 -16.53   0.00117261    1.130    0.115
        43 -11.1611    128.8096     83.2812   1.0089452859e+02   4.0274011333e+01    0.2735493    0.2325459 -13.55 0.0003933363    1.215    0.177
        44 -12.0145     67.7150     81.6158   1.1847022612e+02   5.0916513633e+01    0.2389009     0.219336  84.00 0.0007044092    1.187    0.158
        45 -12.9276     58.8189     98.6287   1.2466112794e+02   4.8178094187e+01     0.467009    0.3134345 -74.39  0.001744097    1.451    0.311
        46 -10.8690     41.6135     78.4069   1.2620694318e+02   5.4496763532e+01    0.2568354    0.1792333 -27.96  0.001067398    1.733    0.423
        47 -14.1975    148.6840    133.4127   1.0834025646e+02   2.6729815336e+01     1.263246     1.084251  34.22  0.007264272    1.085    0.078
        48 -13.6113     95.8770     72.4846   1.0719440065e+02   4.8698050317e+01    0.7762242    0.4580432  28.02   0.00188119    2.028    0.507
        49 -13.5113     73.2364     74.2463   1.1488272161e+02   5.1815416392e+01    0.4500126    0.3894848 -70.92    0.0020197    1.220    0.180
        50 -13.9852    105.3870    101.4984   1.1202397270e+02   4.0950623972e+01    0.5925627    0.4249627 -50.27  0.002073301    1.359    0.264
        51 -10.6222    250.0532     74.4013   7.4309151913e+01   1.3811055608e+01    0.2231417    0.1692396  -6.71   0.00120733    1.194    0.163
        52 -13.4008    246.3368    223.8619   1.0615821901e+02  -1.9188784953e+00    0.7470862    0.4973966  -0.18   0.00543839    1.394    0.283
        53 -14.4686    140.2149    129.9031   1.0954479412e+02   2.8978912673e+01     2.110913     1.089908  29.93  0.008680061    2.353    0.575
        54 -12.1149     83.0413     68.4080   1.1007442329e+02   5.1648087523e+01    0.2654862     0.192131 -47.56 0.0003658378    1.261    0.207
        55  -9.9009     21.0351     66.6863   1.3099272091e+02   5.8755046730e+01      0.15394    0.1323824 -66.89 0.0002547979    1.083    0.076
        56 -15.5974     87.6110     98.5281   1.1631487753e+02   4.4426234750e+01     2.019113    0.6967682  45.50  0.007354754    3.289    0.696
        57 -11.1221     42.8467     65.6534   1.2311548772e+02   5.7254528779e+01    0.2683371    0.2322546  13.04  0.001739861    1.377    0.274
        58 -12.8390      9.3580    129.5644   1.4127456974e+02   4.5798206458e+01    0.4628516    0.3511955 -19.27  0.003353208    2.019    0.505
        59 -10.5154    214.6477     61.8913   7.6108625861e+01   2.3500457294e+01    0.3375469    0.1784209 -11.82  0.001319479    2.152    0.535
        60 -13.9323     12.1404    120.7934   1.3997388277e+02   4.7433681336e+01    0.9647059    0.5433281  20.23  0.006079719    2.312    0.567
        61 -11.5489      3.6397    141.9654   1.4329634209e+02   4.3682486727e+01    0.2997519    0.1762827  70.19  0.002100254    1.418    0.295
        62 -12.9169    125.6226     57.5863   9.3637208743e+01   4.5786980451e+01    0.3547711    0.3108248  11.97 0.0005631857    1.122    0.109
        63 -12.3949     68.5166     55.2897   1.1108037671e+02   5.6555951226e+01    0.3748682    0.3439462  54.22  0.001306866    1.320    0.243
        64 -10.8405    210.2975     54.5702   7.4651225509e+01   2.5515371947e+01    0.2771422    0.1889945  29.99  0.001110003    1.540    0.351
        65 -10.9332    132.7816     53.8648   9.0415844191e+01   4.4835063078e+01    0.3108305    0.2330008  38.38  0.001107006    1.326    0.246
        66 -12.8541     66.4852    119.6971   1.2605385144e+02   4.2639436616e+01    0.3356517    0.3073189  43.28  0.001559135    1.194    0.163
        67 -10.9866    145.4437     50.7056   8.6117808688e+01   4.2372458162e+01    0.2899299    0.2480612   8.66 0.0008140831    1.144    0.126
        68 -12.8135     42.4430     47.6743   1.1864172326e+02   6.1264517926e+01      0.34752    0.3072281  20.52 0.0005908677    1.337    0.252
        69 -12.5653     41.5173     42.9771   1.1761664571e+02   6.2366342630e+01    0.6714655    0.3827989 -11.00  0.003193405    2.632    0.620
        70 -12.2819      2.4636     46.7629   1.3440842764e+02   6.4166403401e+01    0.7825028    0.2527961 -62.83   0.00356386    2.047    0.511
        71 -10.2916    232.0568    237.3252   1.1035342943e+02  -1.0374927964e+00    0.1601051   0.09986192  29.41  0.000874051    1.103    0.094
        72 -12.9066    186.5748    232.2282   1.1702958938e+02   6.0338444756e+00    0.3437967    0.2017985  36.58  0.002305453    1.235    0.191
        73 -14.0585     38.2901    145.3241   1.3598164557e+02   4.0243269265e+01    0.6914483    0.4592839   8.39  0.004206599    2.425    0.588
        74 -11.5359    157.1160     43.7085   8.0978497971e+01   4.0538671898e+01     0.270428    0.2315786  10.18 0.0004248293    1.134    0.118
        75 -11.1863     95.3171     42.8821   9.7405842527e+01   5.4644208595e+01    0.2510736    0.2030222  25.76  0.000392144    1.271    0.213
        76 -10.9005    197.5930     40.9918   7.2509957286e+01   3.0442120923e+01    0.2671763    0.2137236  52.66 0.0001405806    1.250    0.200
        77 -10.8126     42.4798     36.4894   1.1512415287e+02   6.3639417623e+01    0.2397514   0.08805771 -45.14  0.001027194    2.201    0.546
        78 -11.7337     41.8043     32.9235   1.1417991445e+02   6.4446294581e+01    0.4224679    0.2367482  37.38  0.002018919    2.199    0.545
        79 -11.3393     82.2613     34.3705   9.8529690293e+01   5.8550138578e+01    0.3684383    0.2636125  -3.84  0.001398233    1.570    0.363
        80 -12.0269     79.1910     30.8991   9.8206450939e+01   5.9699351682e+01     0.436285    0.3369963 -48.53  0.001482561    1.469    0.319
        81  -9.9920    176.4447     33.4663   7.3594862513e+01   3.6894354349e+01    0.1544619    0.1437791  15.58 3.713345e-05    1.005    0.005
        82 -14.9027     55.1922    144.3346   1.3205044245e+02   3.8734711064e+01     1.495292    0.5613725  46.87   0.00719455    2.524    0.604
        83 -14.1332     48.4888    130.6835   1.3208988742e+02   4.2278185291e+01    0.7277585    0.4377027 -52.02  0.004266189    1.770    0.435
        84 -10.5480    242.1729     23.3400   6.1577485068e+01   2.1264362105e+01    0.2806512    0.1877809 -56.79  0.001407816    1.686    0.407
        85  -9.4826     57.6818    232.2797   1.3852181914e+02   2.3096840197e+01    0.1003487   0.05064673  59.18 0.0002756313    1.578    0.366
        86 -14.0473    174.3817    226.6135   1.1837641795e+02   8.4654387390e+00    0.4431173    0.4002908  -3.47  0.003611051    1.349    0.259
        87 -11.2228    139.8133    228.8118   1.2454173539e+02   1.3245225013e+01    0.1532814    0.1062082  54.96  0.001091223    1.371    0.270
        88 -12.9080    183.5063    196.7369   1.1261808698e+02   1.0669575910e+01    0.5459902    0.4437229  22.57     0.003386    1.089    0.082
        89 -14.8826    212.3532    209.9487   1.0957224176e+02   4.4875514187e+00     1.696256     1.172986  16.31   0.01142386    1.271    0.213
        90 -14.3849    198.0582    198.2143   1.1022851287e+02   8.0984682942e+00     2.304641    0.9228187  30.49    0.0102728    2.571    0.611
        91  -9.4589    123.7817    205.7528   1.2486617058e+02   1.8736446331e+01   0.09293857   0.07895079  20.52            0    1.371    0.271
        92 -12.3602    239.2883    200.6467   1.0357754520e+02   1.2375849892e+00    0.4723926    0.1829376 -24.66  0.002356391    2.872    0.652
        93 -10.4165     53.5186    201.5088   1.3732329670e+02   2.8320259963e+01    0.1032796   0.07807013  63.65 3.743658e-05    1.012    0.012
        94 -12.5483     70.1775    198.6041   1.3408977525e+02   2.6936400029e+01    0.3159163    0.2023983  36.14  0.002174892    1.543    0.352
        95 -12.3079    231.2269    192.6533   1.0355459757e+02   3.3189043275e+00    0.3656728    0.3127121  -2.07  0.002620457    1.314    0.239
        96 -13.2402    173.0731    190.3241   1.1355851064e+02   1.3246926698e+01    0.6652632    0.4385545  22.24  0.003885371    1.555    0.357
