#   1 NUMBER                 Running object number                                     
#   2 MAG_AUTO               Kron-like elliptical aperture magnitude                    [mag]
#   3 X_IMAGE                Object position along x                                    [pixel]
#   4 Y_IMAGE                Object position along y                                    [pixel]
#   5 X_WORLD                Barycenter position along world x axis                     [deg]
#   6 Y_WORLD                Barycenter position along world y axis                     [deg]
#   7 A_WORLD                Profile RMS along major axis (world units)                 [deg]
#   8 B_WORLD                Profile RMS along minor axis (world units)                 [deg]
#   9 THETA_WORLD            Position angle (CCW/world-x)                               [deg]
#  10 FWHM_WORLD             FWHM assuming a gaussian core                              [deg]
#  11 ELONGATION             A_IMAGE/B_IMAGE                                           
#  12 ELLIPTICITY            1 - B_IMAGE/A_IMAGE                                       
         1 -14.6834    161.8719     51.5470   7.4194148113e+01   3.8216956349e+01    0.9779285    0.8647402 -12.78  0.003587205    1.352    0.260
         2 -14.6176    175.3889     22.6477   6.4394236528e+01   3.8675369174e+01     0.839798     0.684735  86.89  0.004554084    1.101    0.092
         3 -12.1380    207.5074    220.9765   1.0415457106e+02  -3.9988627014e+00    0.1982526    0.1273847 -39.32  0.001033625    1.593    0.372
         4 -20.3049     76.2813    174.4721   1.2575238975e+02   2.9269936069e+01     17.11567     6.891486 -62.88    0.0661696    2.361    0.576
         5 -11.3284     21.4582    209.5053   1.4222331499e+02   2.7896955819e+01     0.298528   0.08953425 -68.94  0.001234915    2.708    0.631
         6 -13.1210    174.8218    209.4822   1.0879374859e+02   3.8316472917e+00    0.2581663    0.2043831 -42.97 0.0005981755    1.324    0.245
         7 -13.5253    133.4511    195.3830   1.1547987763e+02   1.4522894677e+01    0.4946886    0.2967478  61.04  0.001790165    2.059    0.514
         8 -10.8081    161.4875    236.5480   1.1618916455e+02   1.0724883989e+00    0.1344449    0.1189239  36.75 8.595147e-05    1.010    0.010
         9 -11.4906     23.5242    191.5211   1.4020608582e+02   3.1760107424e+01    0.2851498     0.165137 -50.60  0.001191087    2.020    0.505
        10 -11.6181    101.1731    244.9013   1.2975995294e+02   9.5529141575e+00    0.1954176    0.1780887 -66.11 0.0007057169    1.287    0.223
        11 -11.0663     15.2929    187.7476   1.4161372313e+02   3.3440340123e+01    0.1588465    0.1138957 -64.30 0.0005784663    1.347    0.258
        12 -13.4901    164.3672    186.1827   1.0666666226e+02   1.0617339682e+01    0.4251697    0.2629853 -67.47  0.001590284    2.309    0.567
        13 -13.5234    162.6437    180.9634   1.0601404232e+02   1.2090021891e+01    0.3537112    0.2677664  73.53     0.000826    1.711    0.416
        14 -12.8201    193.3932    170.2638   9.7069118655e+01   8.2215737574e+00     0.281159     0.273475 -15.10 0.0006217421    1.015    0.015
        15 -12.6288    188.1925    164.4529   9.6917909342e+01   1.0478845625e+01    0.3293201    0.2483672 -63.30  0.001400126    1.547    0.354
        16 -12.1228    129.6689    241.0951   1.2345823268e+02   5.6436863593e+00    0.2011358    0.1916666  51.60 0.0004911937    1.113    0.102
        17 -12.6776    187.4320    153.6804   9.4710505555e+01   1.2911358942e+01    0.4192685    0.2892601  38.62  0.001924021    1.536    0.349
        18 -12.0170    191.8254    151.9628   9.3404567781e+01   1.2352925926e+01    0.3770657      0.20454 -54.03  0.001371693    2.049    0.512
        19 -12.4413    127.7896    228.8458   1.2212443167e+02   8.3725284023e+00    0.6071842    0.3381883  28.63  0.002704159    2.150    0.535
        20 -11.6038    110.6762    241.5558   1.2742679298e+02   8.6916998310e+00    0.2191499    0.1788847  71.09 0.0007169247    1.168    0.144
        21 -12.6141    174.6021    149.1867   9.6477801781e+01   1.6600727895e+01    0.2877614    0.2244432  48.05 0.0006657778    1.314    0.239
        22 -12.7220     27.8312    144.9375   1.3378454194e+02   4.2420362547e+01    0.3895382    0.3223548  81.62  0.002460765    1.214    0.176
        23 -10.7838    116.8179    245.9934   1.2673408998e+02   6.8317170049e+00    0.1420168   0.09893859 -62.18 0.0003802133    1.606    0.377
        24 -11.3500      5.7022    223.9931   1.4625360632e+02   2.6365519689e+01    0.2875704     0.127555  74.40  0.001509642    2.113    0.527
        25 -13.2451    160.4318    127.7480   9.4631547623e+01   2.4404453542e+01    0.4544529    0.2776308 -57.86  0.001507657    1.849    0.459
        26 -10.8804    115.6895    239.3485   1.2611394281e+02   8.3079041233e+00    0.1740461    0.1142851  34.36 0.0006052796    1.539    0.350
        27 -13.0555    139.3013    215.9689   1.1764753477e+02   8.9942796407e+00    0.6645726    0.3264861 -65.16  0.002445494    2.897    0.655
        28 -12.5191    144.3196    214.0609   1.1622948778e+02   8.4855850425e+00    0.3239847     0.199046  39.00 0.0008653217    1.532    0.347
        29 -11.1027    231.1529    113.8365   7.7584225761e+01   1.1676921533e+01    0.2165604    0.1811137 -66.13 0.0008147475    1.174    0.148
        30 -11.0990     15.1490    217.5275   1.4406879510e+02   2.6796125112e+01    0.3648956     0.136507 -66.44  0.001494759    2.306    0.566
        31 -10.6450     16.4422    212.4632   1.4344084485e+02   2.7765471923e+01    0.2638381   0.09572398 -72.65 -1.128674e-05    2.278    0.561
        32 -13.7407     11.3057    206.6372   1.4399281645e+02   2.9559219473e+01    0.6103663    0.4584822 -55.71  0.004089619    1.621    0.383
        33 -11.1132    205.7560    110.3869   8.1083538843e+01   1.7763138717e+01    0.1978007    0.1397398  44.88 0.0004641806    1.565    0.361
        34 -12.1204     26.5061    106.1955   1.2779788165e+02   5.1655920221e+01     0.292786     0.205764  -4.06  0.001111902    1.763    0.433
        35 -12.4631     13.5489    200.1814   1.4304046772e+02   3.0779243149e+01    0.3311055    0.1048227 -64.08  0.001487524    2.596    0.615
        36 -13.6009    150.4301     65.0268   8.0225401948e+01   3.8880016110e+01    0.4017687    0.3718934  76.81 0.0008388697    1.066    0.062
        37 -11.3752     25.0181    213.6404   1.4186168532e+02   2.6600357035e+01    0.1868544    0.1299619  85.35 0.0004120476    1.157    0.136
        38 -14.6266    187.2878    244.0075   1.1212852013e+02  -4.5356551375e+00    0.5234988    0.3868419  52.26  0.001973659    1.554    0.356
        39 -13.2613    166.5577     42.8364   7.1005886619e+01   3.8304300501e+01    0.4016961    0.3719183  65.27 0.0008866947    1.080    0.074
