#   1 NUMBER                 Running object number                                     
#   2 MAG_AUTO               Kron-like elliptical aperture magnitude                    [mag]
#   3 X_IMAGE                Object position along x                                    [pixel]
#   4 Y_IMAGE                Object position along y                                    [pixel]
#   5 X_WORLD                Barycenter position along world x axis                     [deg]
#   6 Y_WORLD                Barycenter position along world y axis                     [deg]
#   7 A_WORLD                Profile RMS along major axis (world units)                 [deg]
#   8 B_WORLD                Profile RMS along minor axis (world units)                 [deg]
#   9 THETA_WORLD            Position angle (CCW/world-x)                               [deg]
#  10 FWHM_WORLD             FWHM assuming a gaussian core                              [deg]
#  11 ELONGATION             A_IMAGE/B_IMAGE                                           
#  12 ELLIPTICITY            1 - B_IMAGE/A_IMAGE                                       
         1 -19.5602    172.6740    144.8900   8.4386150556e+01   1.7857438785e+01     8.866327     8.039336 -46.51   0.04716607    1.144    0.126
         2 -11.8875    239.0301     16.1005   4.0423213226e+01   2.3264381271e+01    0.4313466     0.228643 -66.40  0.002064969    1.954    0.488
         3 -10.8609     22.8435     11.8856   9.0240638478e+01   7.0962892150e+01    0.1815667    0.1239467 -17.75 0.0004466008    1.199    0.166
         4 -11.2664     26.9000      7.0128   8.5706509961e+01   7.1260072876e+01    0.2261837    0.1517088  24.45 0.0004277921    1.544    0.353
         5 -11.0348    237.6632      4.4901   3.7832153135e+01   2.4862242182e+01    0.2145825    0.1115387 -30.52 0.0008991073    1.926    0.481
         6 -10.8585    107.9062      4.3246   5.5172755893e+01   5.7197642243e+01    0.2371092     0.181423   9.82 0.0004021516    1.325    0.245
         7 -10.7172      7.5205      4.9293   9.5222822274e+01   7.3379023977e+01     0.204768    0.1386691   8.05 0.0006346606    1.487    0.327
         8 -11.1805    245.7571      3.5944   3.7036358803e+01   2.3112660922e+01    0.1743631    0.1037123 -84.43 0.0004537043    1.601    0.375
         9 -11.0810    158.2350      2.2351   4.5365095602e+01   4.4941167016e+01    0.2367582    0.2155623  54.61 0.0003510474    1.077    0.072
        10 -10.9425    206.6632      1.9379   3.9797589031e+01   3.2580961051e+01    0.1850829    0.1618212 -66.49 0.0008586842    1.080    0.074
        11 -10.0374    114.9892      2.0321   5.2676981792e+01   5.5738667807e+01    0.2290027     0.133051  34.22  0.001054357    1.687    0.407
        12 -10.2042     39.9272      2.5018   7.6939797515e+01   7.0225517641e+01    0.1663112    0.1054415  33.37  0.001025597    1.576    0.366
        13 -12.3539    231.5758    237.2418   9.0552120327e+01  -7.6534665875e+00    0.3624751    0.2329374   9.38 0.0008949413    1.504    0.335
        14  -9.5458    234.4909    250.5150   9.2130479975e+01  -9.5409709299e+00    0.1149111   0.08437266  19.77 3.256194e-05    1.006    0.006
        15 -11.7154    220.0102    250.1662   9.4551736993e+01  -7.4051715051e+00    0.3148639     0.133095  39.45  0.001041184    1.911    0.477
        16 -13.4130    193.1879    248.8774   9.9076320638e+01  -3.1680300656e+00    0.3755461    0.2214238  35.82 0.0006902439    1.319    0.242
        17 -12.1030    135.5330    250.5369   1.0969519522e+02   5.7244971367e+00    0.3081029    0.1125518  45.84 6.344904e-05    2.132    0.531
        18 -10.2454    132.7092    246.3849   1.0974062783e+02   6.7954612843e+00    0.2095585    0.1665832  70.23 0.0006690583    1.330    0.248
        19 -11.0185    125.5983    249.0549   1.1132824183e+02   7.4944986387e+00    0.2387771    0.1990429 -51.24 0.0008995243    1.571    0.363
        20 -11.6839    121.8203    244.1889   1.1149054169e+02   8.8423134234e+00    0.4400194    0.1980629  49.89  0.002281675    1.832    0.454
        21 -12.0831    193.7876    237.2646   9.7285922612e+01  -1.7692188747e+00    0.2964741     0.244773   7.08 0.0004526578    1.225    0.184
        22 -11.7068    190.2510    230.8785   9.6973273745e+01  -3.2482244875e-01    0.3951136     0.240297  40.11  0.001778327    1.364    0.267
        23 -12.0921    125.7608    235.3935   1.0976684025e+02   9.6468620458e+00     0.374279    0.2565133  79.50  0.002204629    1.823    0.452
        24 -11.7062    104.3716    236.5079   1.1389995320e+02   1.2792472514e+01    0.4349982    0.2859204  78.61  0.002632855    1.696    0.410
        25 -10.4034    243.3489    236.7318   8.8455841282e+01  -9.3161950256e+00    0.1986078    0.1615227  38.23 0.0007201626    1.525    0.344
        26 -11.7213    118.3725    235.2307   1.1114141626e+02   1.0845619931e+01     0.284039    0.2524016  78.68 0.0008971488    1.196    0.164
        27 -11.1036     68.7949    236.4370   1.2039104134e+02   1.7889007456e+01    0.2014946    0.1542858  73.42 0.0003135277    1.097    0.088
        28 -11.0593     42.9939    235.6143   1.2485253395e+02   2.1291755870e+01    0.1848961    0.1301429  87.90  0.000345269    1.256    0.204
        29 -10.3950     33.6575    236.0366   1.2646360410e+02   2.2297480510e+01    0.2045672    0.1013081  62.09 0.0006412023    1.564    0.361
        30 -12.7714    155.9550    228.4981   1.0311878755e+02   5.7869142527e+00    0.8931844     0.517167 -14.49  0.003265301    5.240    0.809
        31 -10.8834    156.0459    222.8289   1.0229932985e+02   6.6769598093e+00    0.1901902    0.1789879  37.69 0.0004316733    1.132    0.116
        32 -12.9683    164.5924    230.8351   1.0179552941e+02   3.9710446548e+00    0.3191272    0.2787815  52.98 0.0005670484    1.188    0.158
        33 -12.7479    165.7331    224.1287   1.0060731577e+02   4.8093649351e+00    0.6523026    0.2973556  42.20  0.002188975    1.820    0.451
        34 -10.7953    215.6355    233.7860   9.2800294829e+01  -4.8049476336e+00    0.2899529    0.1951824   2.18  0.001758361    1.607    0.378
        35 -11.5893    201.2946    233.0569   9.5274707148e+01  -2.4268322263e+00    0.2338753    0.2087375  28.31 0.0004366312    1.195    0.163
        36 -14.8857    246.3561     92.2017   5.7934242840e+01   1.0982767563e+01     2.289326     1.372843   6.52  0.008526791    3.452    0.710
        37 -16.0270    192.2942    210.5700   9.3311561145e+01   2.2810085605e+00     4.036682     1.484008  39.21   0.01400439    2.383    0.580
        38 -15.9158    230.7317    168.7451   7.8040372703e+01   1.7943840723e+00     2.336619     1.448812 -22.85   0.01170584    1.630    0.387
        39 -16.1201    142.1722    188.6912   9.9849003871e+01   1.5250271865e+01     2.618674     1.687084 -53.41   0.01283119    1.718    0.418
        40 -15.5211    236.9898    142.9225   7.1314913203e+01   4.7117926933e+00     1.524342     0.990781  41.39   0.00490792    1.599    0.374
        41 -16.0116    117.7046    156.0379   9.9638565910e+01   2.6688522295e+01     2.533204     1.765227  30.23  0.007996902    1.652    0.395
        42 -16.2007    128.6938    137.3532   9.3060431982e+01   2.8781061520e+01     2.617851     1.941021 -37.55  0.009554693    1.475    0.322
        43 -15.6338    186.1628     97.9627   6.9643835001e+01   2.3947334207e+01     1.429744     1.211866  71.05  0.004494207    1.297    0.229
        44 -16.3432    212.5928    122.5784   7.0891724698e+01   1.3259391263e+01     2.469795     1.409847  64.04  0.009821091    2.426    0.588
        45 -15.8640    139.9981    156.0223   9.4289482912e+01   2.2390407645e+01     1.306835     1.070382  27.92    0.0067066    1.331    0.249
        46 -16.3812    208.3536    133.5149   7.4335172217e+01   1.2227580715e+01      2.85864     1.441012  55.05   0.01043307    2.304    0.566
        47 -17.0484    188.5681    173.7532   8.7216012705e+01   9.0734200061e+00     2.818949     1.433905 -31.67   0.01093302    2.302    0.566
        48 -10.6144    184.0665    248.6148   1.0067306908e+02  -1.7014326993e+00    0.2960114    0.1653301  50.10  0.000618892    1.815    0.449
        49  -9.8205     14.0000    175.9088   1.2624871808e+02   3.6271736044e+01    0.1889839   0.05278285 -76.23 0.0008017313    2.938    0.660
        50 -10.4848     68.8909    175.0016   1.1422467623e+02   3.0266779994e+01    0.1888983    0.1606961  83.06  0.001184264    1.018    0.018
        51  -9.8886     19.6829    175.3073   1.2502842391e+02   3.5878347341e+01    0.1237554    0.0678769  68.88  0.000263151    1.632    0.387
        52 -11.0115     55.3526    171.5991   1.1689096353e+02   3.2806703183e+01    0.3202893    0.1912752 -73.52 6.180709e-05    1.512    0.338
        53 -11.6025      2.8298    168.4508   1.2803630939e+02   3.8820650549e+01     0.234401    0.1520758  88.19 0.0003762831    1.160    0.138
        54 -10.5459     81.8322    230.0441   1.1746283108e+02   1.7244229011e+01    0.2032381    0.1578127  44.84 0.0009944319    1.291    0.226
        55 -10.1215     15.1620    223.8731   1.2891936688e+02   2.6506892183e+01    0.1693503    0.1008579  67.00 0.0006014402    1.232    0.188
        56 -10.7719     23.8082    167.6404   1.2352332210e+02   3.7168200046e+01      0.17025    0.1249367 -82.06   0.00112812    1.129    0.114
        57 -11.3324    247.7514    165.9738   7.4485544714e+01  -8.4021148067e-01    0.2054803    0.1806908  24.35 0.0003177762    1.195    0.163
        58 -10.7452     65.7035    165.6992   1.1377430608e+02   3.2804587431e+01    0.2421519    0.1919728 -72.52 0.0005579573    1.176    0.150
        59 -10.4654     38.7380    166.2717   1.2007676003e+02   3.5949479462e+01    0.2269731    0.1259768  50.06  0.001250735    1.726    0.421
        60 -10.1050      6.8230    224.1804   1.3032743895e+02   2.7269723281e+01    0.1267496    0.1022759  84.05 0.0003556461    1.293    0.226
        61 -10.6553     42.4622    162.4427   1.1881761832e+02   3.6408499037e+01    0.3422416    0.1133625 -75.05  0.001332854    3.027    0.670
        62 -11.3519     73.8449    219.9328   1.1803155732e+02   2.0245183424e+01    0.3223066    0.1995876 -55.18  0.001901448    2.008    0.502
        63 -10.6020     68.9011    158.8382   1.1207468052e+02   3.3951368662e+01    0.2732587    0.1610499 -54.04 0.0006647732    1.731    0.422
        64 -10.8661     56.9921    158.3297   1.1488964821e+02   3.5635427777e+01    0.2178385    0.1630842 -70.93 0.0002951632    1.206    0.171
        65  -9.6780     36.2891    159.3053   1.1991179643e+02   3.7793903802e+01    0.1164767   0.08624242 -51.76 0.0001838537    1.570    0.363
        66 -12.2914     14.5251    155.1253   1.2450941973e+02   4.0799154405e+01    0.4578905    0.2036677  75.15  0.001680144    2.427    0.588
        67 -10.3409     22.0002    156.4889   1.2292962837e+02   3.9836337658e+01    0.1594029    0.1121346  41.65 0.0009086201    1.560    0.359
        68 -12.0122    231.4601    219.6843   8.7646438925e+01  -5.5227884937e+00    0.4563537    0.2420391  30.89  0.001923844    1.636    0.389
        69  -9.9316     71.6646    152.9056   1.1052352859e+02   3.4952252208e+01     0.214691    0.1547436 -50.67 0.0006946502    1.491    0.329
        70 -11.0550    108.1548    219.7099   1.1132802518e+02   1.5186365344e+01    0.1993802    0.1747686 -74.51 0.0004825138    1.282    0.220
        71 -10.8746     76.1333    150.3161   1.0899663157e+02   3.4922102315e+01    0.2232764    0.1762251 -59.72 0.0003792112    1.241    0.194
        72 -10.9064     62.5347    148.7051   1.1219165982e+02   3.7179820540e+01    0.2232056    0.1901366 -84.27  0.000190746    1.018    0.018
        73 -11.6814     54.9797    146.2812   1.1375767461e+02   3.8707839224e+01     0.502502    0.1863436 -51.10  0.001997887    2.844    0.648
        74 -10.2523     72.8062    134.5946   1.0721444598e+02   3.9140629876e+01    0.2385187     0.161801  77.24 0.0009575348    1.747    0.428
        75 -13.2857     79.4518    144.4245   1.0717169308e+02   3.5825392809e+01    0.3830727    0.3495248 -67.15 0.0005392403    1.110    0.099
        76 -11.9509     73.7586    143.0403   1.0841841289e+02   3.6987445134e+01    0.5856273    0.2086713 -55.66  0.001340965    2.535    0.605
        77 -12.0992     70.5245    138.3345   1.0847708166e+02   3.8567091703e+01    0.4821006    0.3189641  73.26  0.001550209    1.768    0.434
        78 -11.1824     29.8628    143.4239   1.1970904733e+02   4.2105893709e+01    0.3021577     0.218815  67.94  0.001178571    1.333    0.250
        79 -10.0826     36.6322    141.0663   1.1772753985e+02   4.1991689179e+01    0.1779865    0.1321685 -76.38  0.000403154    1.118    0.105
        80 -10.4604     55.3558    136.8604   1.1227120075e+02   4.0901770979e+01    0.4102214   0.08603413 -59.82  0.001297116    3.625    0.724
        81 -10.8639     15.2732    137.4899   1.2268752380e+02   4.4753356906e+01    0.3333697   0.06363432 -68.00  0.001095067    3.461    0.711
        82 -10.5350     60.1484    142.7935   1.1192025377e+02   3.8889301767e+01    0.2061417    0.1608856  81.10 0.0007040611    1.238    0.192
        83 -12.3759     67.6984    119.6593   1.0584712925e+02   4.3440872271e+01    0.9122187     0.387336 -73.71  0.002989629    3.729    0.732
        84 -12.7670     77.8835    130.2686   1.0503230996e+02   3.9438165273e+01    0.6745692    0.4485856 -84.23  0.003215833    1.757    0.431
        85 -12.1883     80.8249    124.0755   1.0299115374e+02   4.0477704679e+01    0.4771078     0.316883  13.16  0.002141961    2.315    0.568
        86  -9.9058     47.7419    133.2520   1.1375631556e+02   4.2655854386e+01    0.1722736    0.1397819 -50.23 0.0005213721    1.317    0.241
        87 -12.5959     62.9536    128.7253   1.0887212796e+02   4.1894677257e+01    0.3344491    0.2712989  70.57 0.0004827058    1.275    0.215
        88 -10.2289      9.5015    129.4852   1.2332438956e+02   4.7030792307e+01    0.1208731    0.0928458 -81.60 -9.246833e-07    1.003    0.003
        89 -10.4171     47.2464    124.2276   1.1249218757e+02   4.4870003161e+01    0.3209815    0.1460271 -45.37  0.001377612    2.480    0.597
        90 -10.0739     19.2518    123.7610   1.2013354814e+02   4.7627461744e+01    0.1620135    0.1202437 -57.72   0.00103274    1.283    0.221
        91 -11.4580     12.5240    123.0439   1.2184849106e+02   4.8302411301e+01    0.2456626    0.1400177  76.94  0.001204598    1.830    0.454
        92 -11.8618     93.3961    105.7255   9.5183743848e+01   4.2766899007e+01     0.388253     0.279186 -53.01  0.001608078    1.307    0.235
        93 -12.6246     89.1718    109.3538   9.7318778955e+01   4.2639172735e+01    0.5749636    0.3913581 -37.75  0.002725895    1.583    0.368
        94 -10.5540     84.2394    108.2421   9.8512332900e+01   4.3707997782e+01    0.2518295     0.214913 -51.38 0.0007132576    1.092    0.084
        95 -11.8968     92.9985    114.7800   9.7491842000e+01   4.0716894093e+01    0.4827558    0.3456726 -72.54  0.001770134    1.562    0.360
        96 -12.1402     95.4262    110.2604   9.5712939891e+01   4.1357257885e+01    0.4703799      0.34899 -11.73  0.001679141    1.926    0.481
        97 -11.9854      6.2359    114.8948   1.2262747064e+02   5.0611031658e+01    0.3832279    0.2417903  64.50  0.002159709    1.706    0.414
        98 -10.5557     79.1816    116.0662   1.0177614077e+02   4.2643356497e+01    0.2122327    0.1771945 -44.05 -0.0006383859    1.212    0.175
        99  -9.7851     31.2624    114.9988   1.1559053123e+02   4.8677845352e+01    0.1707582   0.09275224 -68.32 0.0006646971    1.509    0.337
       100 -11.2462     48.9863    113.6107   1.1017429994e+02   4.7219322685e+01    0.2373397    0.1674679 -65.38 0.0002694904    1.214    0.176
       101 -10.1644    249.8462    114.4674   6.2694510607e+01   6.7379215677e+00    0.3020938    0.1684328 -20.86   0.00132046    2.011    0.503
       102 -12.1500     73.3214    109.4739   1.0206075897e+02   4.5084748742e+01    0.5030323    0.2625536 -50.40  0.001348494    1.743    0.426
       103 -11.0334     22.2194    112.4166   1.1781908256e+02   5.0053280120e+01    0.2254207    0.1152982  31.13  0.001195243    2.281    0.562
       104 -10.6109     24.1095    108.8903   1.1675515132e+02   5.0730977977e+01    0.2035076    0.1793402  32.51 0.0009259799    1.395    0.283
       105  -9.7143     46.2361    106.0591   1.0959848359e+02   4.9322946953e+01    0.1833426    0.1512574 -60.08 0.0005238361    1.051    0.049
       106 -10.4873    241.2088    104.3252   6.1604166187e+01   1.0141109829e+01    0.2535173     0.180293 -39.82 0.0004310599    1.285    0.222
       107 -11.7375     89.6902     87.2487   9.1350263587e+01   4.7607120946e+01    0.4714084    0.3043312 -24.38   0.00192283    2.009    0.502
       108 -10.7255     84.8788    100.1632   9.6334679905e+01   4.5491311901e+01    0.2676951    0.1976221 -50.69 0.0006179925    1.248    0.198
       109 -11.9759     85.9586     94.5346   9.4533870298e+01   4.6606126971e+01    0.6224532    0.2774989 -35.00   0.00211078    3.179    0.685
       110 -10.6808     69.4750    230.1354   1.1975142221e+02   1.8935750573e+01    0.2008496    0.1440495  44.83 0.0003321294    1.342    0.255
       111 -11.4136    102.5384     98.1578   9.0505781289e+01   4.2843814287e+01    0.2920819    0.2032024  20.33 0.0009421961    1.870    0.465
       112 -11.9076    104.0502     92.0590   8.8355352865e+01   4.3913062091e+01    0.3474244    0.2797725  -1.41 0.0007473214    1.535    0.348
       113  -9.6779     23.9736    218.9902   1.2713597811e+02   2.6517721247e+01    0.1319471   0.09460541  71.50 0.0003202996    1.018    0.018
       114 -12.3824     92.7513     93.1339   9.2059352281e+01   4.5759072559e+01    0.5274606    0.3955388 -15.67  0.002458642    1.695    0.410
       115 -11.4466     99.1358     91.9801   8.9798987648e+01   4.4860042383e+01    0.3046956    0.2898593  40.45  0.001051794    1.112    0.100
       116 -12.2017     72.9058     96.6690   9.9177316352e+01   4.8156275674e+01    0.4663995    0.3271087 -55.56  0.001631085    1.295    0.228
       117 -10.4555     46.8403     94.3620   1.0703211342e+02   5.2016634495e+01    0.2739631    0.1643564 -54.91   0.00134001    1.397    0.284
       118 -10.2121     14.1346     93.0727   1.1737379987e+02   5.5142577501e+01    0.1879423    0.1294492 -54.92 0.0004146448    1.224    0.183
       119 -11.4245     66.9294     90.6351   9.9578895213e+01   5.0401755066e+01    0.4613135    0.1794554 -53.25  0.001811018    2.245    0.555
       120 -11.4625    227.6991     90.6184   6.0308697687e+01   1.5352765873e+01    0.4487942    0.2838004  64.99  0.001765349    1.829    0.453
       121 -11.6843    148.9505    227.5145   1.0433351910e+02   7.1245921309e+00    0.3218831    0.2192489  58.83  0.001852072    1.528    0.346
       122 -11.4473    240.1399     85.9866   5.7305385826e+01   1.3308050485e+01    0.2922778    0.2485869 -25.17  0.000433322    1.154    0.133
       123 -11.1184    239.2302     81.6310   5.6363149681e+01   1.4193890858e+01    0.2457789    0.2139728 -31.60 0.0003565192    1.091    0.083
       124 -12.0380    106.8803     85.3760   8.5557431253e+01   4.4806525039e+01    0.4261397    0.2837083  33.90  0.001227551    1.642    0.391
       125 -11.3631    102.1342     83.1376   8.6300277167e+01   4.6213364313e+01    0.2467162    0.2182055  44.32  0.000400106    1.196    0.164
       126 -10.5673     52.1353     90.8620   1.0450681931e+02   5.2235786751e+01    0.1990994    0.1724549 -79.95 0.0004548811    1.218    0.179
       127 -12.0427    174.4995    231.2067   9.9972511136e+01   2.2531709641e+00    0.4118701    0.3547503  43.98  0.001900538    1.144    0.126
       128 -10.4442     13.6061     85.5580   1.1630858936e+02   5.6897812726e+01    0.2965642    0.1609402  49.73  0.001586067    2.397    0.583
       129 -10.9657     70.4348     82.0027   9.6108442841e+01   5.1854707797e+01    0.3454471    0.2635099 -49.71  0.001103024    1.181    0.153
       130 -11.3775     86.4298     81.3486   9.0660286056e+01   4.9461157972e+01    0.4026413    0.2858025  82.28  0.001205195    2.404    0.584
       131  -9.5874      2.5510     80.5440   1.1917953452e+02   5.8655749430e+01    0.1188592   0.09027069 -65.96 0.0001442821    1.015    0.014
       132 -10.0923    248.0590     78.1404   5.4323512487e+01   1.2793593693e+01    0.2004388    0.1843091  -2.54  0.000545872    1.222    0.182
       133 -10.2008     90.4960    217.5002   1.1455952132e+02   1.8314226546e+01    0.1671961    0.1119431 -56.06 0.0009544804    1.774    0.436
       134 -10.2603     92.3753     77.2108   8.7499975097e+01   4.9296684515e+01    0.2151566     0.177949 -47.18 0.0003497602    1.170    0.145
       135 -11.6062     88.9726     74.3847   8.7702431613e+01   5.0499406152e+01    0.3548979    0.2830198  -1.92  0.001828878    1.454    0.312
       136  -9.9689    231.0950     74.8762   5.5821412119e+01   1.7096944305e+01    0.2109423    0.1983683 -32.70 0.0005765207    1.074    0.069
       137 -10.1207     77.8481     74.1797   9.1309893571e+01   5.2421902149e+01    0.1994741    0.1887916 -57.27  0.000337177    1.145    0.126
       138 -10.8207    222.2038     70.3340   5.5935301724e+01   1.9897601059e+01    0.3467151    0.2104775  59.12  0.001467459    1.718    0.418
       139 -11.3676    191.0593     67.3165   6.0109650077e+01   2.8101763796e+01    0.5964408    0.2644738 -50.13  0.001661385    2.667    0.625
       140 -12.8810    194.2519     62.2989   5.8125829159e+01   2.8090237389e+01    0.7639997    0.4210472 -44.18  0.002907057    1.795    0.443
       141  -9.9770     97.4745    209.4737   1.1226369571e+02   1.8798320918e+01    0.2027574    0.1209475 -64.65 0.0007873059    1.801    0.445
       142  -9.6687    235.9658     68.0000   5.3426431520e+01   1.7030393113e+01    0.2223472   0.08136857  61.74 0.0008027863    2.945    0.660
       143 -10.5691    214.5799     66.5779   5.6075406243e+01   2.2328328487e+01    0.2520031    0.2346099  80.46 0.0007217404    1.095    0.087
       144 -10.0691    241.8729     64.7975   5.1875409734e+01   1.6164770930e+01    0.4721417    0.1705126 -51.24   0.00158084    3.375    0.704
       145 -11.1761    186.7756     65.1756   6.0252615191e+01   2.9543482374e+01    0.2952789    0.2659486  17.56 0.0005533646    1.244    0.196
       146 -10.9972    181.5343     61.5036   6.0121498817e+01   3.1480773565e+01    0.3498424     0.269502  69.47 0.0008854364    1.341    0.254
       147 -10.8629    185.7099     61.6534   5.9414319504e+01   3.0381508326e+01    0.3177032    0.2255569  22.81 0.0006607766    1.878    0.468
       148  -9.9366     97.3337    205.8105   1.1185548371e+02   1.9539620791e+01    0.1775816    0.1476791 -80.78 0.0005844866    1.228    0.186
       149 -10.8671     93.4941    214.4881   1.1363856859e+02   1.8438647651e+01    0.2264837    0.1403759  45.16 0.0006836207    1.404    0.288
       150 -10.8904     97.0082    213.2404   1.1279555563e+02   1.8141654726e+01    0.2661556    0.2038064  48.19 0.0007823294    1.176    0.150
       151 -10.5534     37.2336     61.1857   1.0218818998e+02   6.0434071589e+01     0.213879    0.1731384 -39.57 0.0004357908    1.038    0.037
       152  -9.6669    235.5055     60.4588   5.1603521896e+01   1.8259643420e+01    0.1422607    0.1268018 -55.80 9.729712e-05    1.022    0.022
       153  -9.9815    211.0711     60.5380   5.4977055164e+01   2.4123111846e+01    0.3142249    0.1499652  70.61  0.001180851    2.501    0.600
       154 -12.9318    137.8752     58.0018   6.8225973725e+01   4.3133219138e+01    0.6000693     0.463492  21.39  0.002862503    1.481    0.325
       155  -9.9476    177.1480     48.8184   5.7090060273e+01   3.4560178048e+01     0.238384    0.2087585  20.35    0.0011099    1.291    0.225
       156 -11.8768    177.3222     57.1574   5.9590802401e+01   3.3254681477e+01    0.3999028    0.3018402 -59.75 0.0003020939    1.455    0.313
       157 -10.9083    177.4095     52.7958   5.8253590107e+01   3.3900984994e+01    0.2724971    0.2167193  17.21 0.0003939649    1.537    0.349
       158 -11.1147     59.9145    216.3701   1.2036945481e+02   2.2799180963e+01    0.4079767    0.1953045  32.72   0.00207456    2.492    0.599
       159 -10.1627      9.6485     58.4310   1.1237225697e+02   6.3141153240e+01    0.2527952     0.115341 -59.27  0.001357192    1.633    0.388
       160  -9.6823     53.5009     58.0274   9.4911654957e+01   5.9269457315e+01    0.1940822    0.1160022 -48.12 0.0003606482    1.476    0.323
       161 -11.6782    186.0438     56.4795   5.7836795608e+01   3.1102503244e+01    0.3928832    0.2237196  45.30  0.001112586    1.886    0.470
       162 -11.0754     89.8941     56.1744   8.1241519954e+01   5.3918092795e+01    0.2892846    0.2751383  11.10    0.0017014    1.095    0.087
       163 -11.1009    210.6425     54.4120   5.3380610349e+01   2.5145799698e+01    0.2827845    0.2449974  70.30 0.0005965997    1.163    0.140
       164 -12.6250    200.3320     52.4376   5.4359236172e+01   2.8038136508e+01    0.5184013     0.330876  52.08  0.002388416    1.601    0.375
       165 -11.9787    115.8804     47.4120   7.0176349394e+01   5.0038719463e+01    0.5069358    0.3310488  24.91  0.001523974    1.823    0.451
       166 -11.5701    126.2903     49.2960   6.8098617657e+01   4.7333577454e+01    0.6272603    0.3422659  18.35 0.0001545309    3.672    0.728
       167 -10.0336     52.7632     70.4323   9.8997571139e+01   5.6754166687e+01    0.1690033    0.1265979   4.68 0.0004177805    1.578    0.366
       168 -11.0908    184.9648     51.4842   5.6546052339e+01   3.2134953176e+01    0.3673134    0.2477196 -48.12  0.001673203    1.515    0.340
       169 -10.7220     73.4346     51.1572   8.5069346759e+01   5.7724327803e+01    0.3692139    0.2239064 -52.07  0.001753223    1.899    0.473
       170 -12.1322     13.3667    216.3198   1.2883758789e+02   2.8110918411e+01    0.2116928    0.1531586  72.04 0.0005086028    1.051    0.049
       171 -12.4196     31.4037     51.8886   1.0175969844e+02   6.2919276797e+01    0.2727915    0.2399126 -84.74 0.0005084921    1.502    0.334
       172 -10.8335    237.3763    214.7051   8.5735685387e+01  -5.8213007095e+00    0.2855899    0.2622604 -44.86  0.001961958    1.649    0.393
       173 -11.0953    175.5673    224.9870   9.8845114082e+01   2.9961456771e+00    0.2901125    0.1934879  35.60   0.00108435    1.260    0.206
       174 -11.0037    171.6277     49.7034   5.8354084539e+01   3.5867209664e+01    0.3034765    0.2400734 -27.34  0.001070543    1.323    0.244
       175 -10.7733    249.1116     53.1624   4.8215687107e+01   1.6218235191e+01    0.2188442     0.171377 -41.60 0.0003664781    1.140    0.123
       176 -13.5530     18.2079     43.3391   1.0475816128e+02   6.5722584465e+01    0.3497051    0.3240744  -9.02  0.000684363    1.267    0.211
       177  -9.2741     79.2631    213.6411   1.1636855933e+02   2.0696556991e+01    0.1275561   0.07765449  72.06 0.0004957432    1.631    0.387
       178 -11.9334    104.9477    210.5971   1.1087877657e+02   1.7407367542e+01    0.5370553    0.2111308 -63.78  0.001559136    2.984    0.665
       179 -11.6301    107.2804    203.9959   1.0956724712e+02   1.8316068513e+01    0.3081313    0.2935126   1.61  0.002017252    1.389    0.280
       180 -11.3877     57.4677    205.0514   1.1985014234e+02   2.5363548816e+01     0.271011    0.1735303  55.88 0.0007119444    1.317    0.241
       181 -10.8069    100.9873     45.2497   7.3665850911e+01   5.3619483293e+01    0.2600782    0.2038029 -55.71  0.001332216    1.599    0.375
       182 -12.0456     18.4344     49.1567   1.0638391253e+02   6.4528930675e+01    0.2298239    0.1993139 -37.12 0.0002998146    1.125    0.111
       183 -10.5096    124.8788     43.2044   6.6263736058e+01   4.8605790712e+01    0.3517106     0.241877 -10.83  0.001139143    1.702    0.412
       184 -10.8830    124.0101     39.7263   6.5207896288e+01   4.9322165872e+01    0.2932396     0.245105   5.57  0.001242169    1.255    0.203
       185 -10.2917     30.4583    214.0139   1.2567123914e+02   2.6779823115e+01    0.1575413    0.0906316 -82.63 0.0003464289    1.518    0.341
       186 -10.7524     87.4026     44.2614   7.7601372690e+01   5.6478959720e+01    0.2538925    0.1620678  29.94  0.000597744    1.655    0.396
       187 -11.5616     66.3903     41.3234   8.3908200970e+01   6.0609703576e+01     0.438302    0.3686924  52.32  0.001468618    1.567    0.362
       188 -10.3573     36.0179     48.9701   9.8915473205e+01   6.3067529926e+01    0.1904554    0.1545884 -35.09 0.0003422599    1.005    0.005
       189 -10.8514    112.0409     55.4005   7.4150175983e+01   4.9562015754e+01    0.4358248    0.2737188  66.67  0.001436865    2.289    0.563
       190 -11.1595    148.8966     40.8407   5.9916981237e+01   4.3019261549e+01    0.2427814    0.2013796  -9.10 0.0003033114    1.322    0.244
       191 -10.7543    119.0000     49.9781   7.0261416536e+01   4.8917834018e+01    0.3389688    0.1865908 -40.28 0.0009181661    1.860    0.462
       192 -10.9790     88.9386    204.3495   1.1341220085e+02   2.1116951616e+01    0.2130344    0.1546964  86.99 0.0006198247    1.365    0.267
       193 -11.7797    176.6657     38.7487   5.4092513536e+01   3.6099603207e+01    0.4941592    0.2823152  37.01  0.002028373    2.169    0.539
       194 -11.3821    123.8374     52.1024   6.9732463396e+01   4.7456408913e+01    0.4077533    0.3237877   0.82 0.0006176255    1.415    0.293
       195 -12.0401    134.4503     38.0911   6.2109050946e+01   4.7028315954e+01    0.4685838    0.2516882 -37.52  0.001333746    1.921    0.479
       196 -12.3570     11.8733    201.9827   1.2832216347e+02   3.1056535841e+01    0.4561689    0.1776221  76.16  0.002310677    2.488    0.598
       197 -10.6160    165.2357     38.4635   5.5973161999e+01   3.9124996078e+01    0.3492353    0.2657122 -86.93  0.001698748    1.505    0.336
       198 -11.3112     68.2794    201.5912   1.1734714999e+02   2.4642196520e+01    0.4894874    0.2274427  82.09  0.002033432    3.198    0.687
       199 -11.5876     54.7902     37.3385   8.6860150924e+01   6.3011929103e+01    0.3831955    0.2532457 -56.22  0.001992902    2.053    0.513
       200  -9.7688     42.7460     38.9587   9.2514470170e+01   6.4258649971e+01    0.1730435    0.1382414 -29.88 0.0001837024    1.041    0.039
       201 -11.1909    155.7347     37.1895   5.7325017018e+01   4.1763560372e+01    0.2764857    0.2021532 -16.61 0.0006529714    1.532    0.347
       202 -10.3503     44.1049    209.0894   1.2278293850e+02   2.6197048395e+01    0.1710621    0.1345979  75.63 0.0004133394    1.057    0.054
       203  -9.6003    109.6670     37.2747   6.8071003470e+01   5.2973742159e+01    0.1358045    0.1149285 -78.59 0.0002870311    1.599    0.374
       204  -9.9174     92.1156    195.6936   1.1170383167e+02   2.2396807586e+01    0.2166342    0.1603932 -85.91 0.0006854912    1.354    0.262
       205 -11.2691    122.4652     34.3117   6.3577650958e+01   5.0445864419e+01    0.2616266    0.2474454  29.04 0.0006590515    1.030    0.029
       206 -10.5694    125.9682     30.5368   6.1315909926e+01   5.0106635841e+01    0.2286495    0.1888299  23.41 0.0003388072    1.217    0.179
       207 -11.3694    126.4658     27.4941   6.0060026409e+01   5.0369502917e+01    0.3245003     0.234938  50.70  0.001659886    1.281    0.219
       208 -10.4434    200.3909     32.6222   4.8793461710e+01   3.0739661864e+01    0.2547242    0.2102499  82.68 0.0006349095    1.164    0.141
       209 -10.3450     45.2560    202.1686   1.2200640858e+02   2.7458877940e+01    0.1911762    0.1525467  41.96  0.001158982    1.438    0.305
       210 -10.5702    140.0765     31.4048   5.8489943064e+01   4.6516393760e+01    0.2752086    0.2291417  15.40 0.0007186188    1.291    0.226
       211 -10.8400    141.4851     26.1359   5.6334341280e+01   4.6809972990e+01    0.4215528    0.2321925 -30.29  0.001260758    1.883    0.469
       212 -10.4683     99.2102     32.0509   6.9004077112e+01   5.5986024376e+01    0.2203718    0.1742433  18.43 0.0006933303    1.240    0.194
       213 -10.7039     85.0969     31.3842   7.3156667011e+01   5.8930369273e+01    0.2344487    0.1820285 -29.76 0.0002628173    1.276    0.216
       214 -10.3471    214.1099     31.4862   4.6775767949e+01   2.7414500547e+01    0.2084544    0.1319149  70.00 0.0006624582    1.541    0.351
       215 -10.1415    181.1001     30.8179   5.0983108828e+01   3.5966408611e+01    0.2615932    0.1825148  19.18 0.0006551166    1.936    0.484
       216 -10.2126    166.0422     30.8930   5.3409121948e+01   3.9896480353e+01    0.2528307     0.214537  17.23 0.0007193859    1.341    0.254
       217 -10.1138     36.3210    194.6268   1.2315792862e+02   3.0046347926e+01    0.2051077    0.1355107  72.90  0.001047183    1.244    0.196
       218 -10.6855    202.9324     28.3848   4.7293194996e+01   3.0619730231e+01    0.2446152    0.1876227 -52.72  0.001219763    1.265    0.209
       219 -11.2335      9.6144     28.6998   1.0396176658e+02   6.9136069337e+01    0.1986064    0.1839829   1.21            0    1.361    0.265
       220 -14.0597    243.7875    221.4783   8.5813553404e+01  -7.6317446505e+00    0.3994139    0.3021366  -0.75  0.001027291    1.148    0.129
       221 -11.2339    216.3451     25.5216   4.4956394415e+01   2.7596237506e+01    0.3391734    0.1855909 -65.61   0.00149264    2.075    0.518
       222 -12.8028    243.9126    190.8589   8.0167366845e+01  -3.7309774112e+00    0.6826293    0.3352615  46.83  0.002081937    2.314    0.568
       223 -10.1174    247.9843    185.7552   7.8468155738e+01  -3.6995543701e+00    0.1996841     0.145077   9.49 0.0007279295    1.271    0.213
       224 -10.3266     32.5804     25.1215   9.1465191910e+01   6.7825674108e+01    0.2806028    0.1544489  38.07  0.001539687    2.296    0.564
       225 -10.6193     53.0214    191.9500   1.1953075489e+02   2.8644655366e+01    0.2292718    0.1727907  53.37 0.0003520481    1.241    0.194
       226 -10.5089     89.1064     23.6567   6.8570415417e+01   5.9202245743e+01    0.2135095    0.1712455 -26.37 0.0003161878    1.268    0.212
       227 -11.4268     55.9734    188.7425   1.1859825347e+02   2.8958773814e+01     0.222157     0.181766  73.94 0.0003926617    1.040    0.038
       228 -10.3192     48.4206     21.6202   8.2748022572e+01   6.6447050890e+01    0.2375095    0.1410915  -5.58 0.0009036943    2.009    0.502
       229 -10.4506    209.2262     25.2807   4.5695293435e+01   2.9402765860e+01    0.2256377    0.1970952  58.88 0.0003545655    1.209    0.173
       230 -12.2107     66.7072    185.1406   1.1591424554e+02   2.8330886927e+01    0.2414634    0.2003432  72.72 0.0003060835    1.032    0.031
       231 -10.7577    154.2957    245.2525   1.0564647464e+02   3.5237078614e+00    0.2215152    0.1598675  46.28  0.001437949    1.131    0.116
       232 -10.2687     50.0690     15.2399   7.9011720551e+01   6.7135437045e+01    0.2040082    0.1525987 -20.44 0.0004773473    1.166    0.142
       233  -9.9855     12.3198     15.9463   9.7629927062e+01   7.1224069478e+01    0.1640824    0.1118103 -36.01 0.0004407422    1.126    0.112
       234 -10.3848    206.3040     13.3287   4.2828087932e+01   3.1502776371e+01    0.1352693     0.100077  38.61 0.0003726643    1.650    0.394
       235 -10.2434    162.7842     12.9720   4.8175561152e+01   4.2764579441e+01    0.2177384    0.1766311  37.47 0.0007873287    1.297    0.229
       236 -11.2974    237.5790    221.8952   8.6956705169e+01  -6.7429899857e+00    0.2272012    0.1809957  21.78 0.0004359353    1.121    0.108
       237 -10.9775    176.1815    244.7423   1.0157091422e+02   6.8489602346e-02    0.2659383    0.1803759  32.21 0.0009017953    1.228    0.186
       238 -10.6917    219.9388    226.0000   9.0765953778e+01  -4.5039594986e+00     0.192965    0.1349559  18.42 0.0004345738    1.253    0.202
       239  -9.5072     59.9696    186.4737   1.1751401227e+02   2.8935309088e+01     0.167043    0.1116694  46.11 -6.312597e-05    1.430    0.301
       240 -11.0575     97.0870    230.9255   1.1469146971e+02   1.4862383612e+01     0.284518    0.1781539  38.50  0.001059219    1.535    0.349
       241 -10.9007    185.5031    243.4861   9.9699523086e+01  -1.2597142390e+00     0.251681    0.1979368 -51.30   0.00168589    1.745    0.427
       242 -10.6603     51.4399    180.0258   1.1867848702e+02   3.1415128533e+01    0.2138082    0.1652204  53.19 0.0002932314    1.253    0.202
       243 -12.1797    183.0952    221.5976   9.6882728162e+01   2.2164855148e+00    0.5106642    0.2815779  46.48  0.001241149    1.667    0.400
       244 -12.6461    182.9165    238.1655   9.9413039169e+01  -1.2513329937e-01    0.3327601    0.2414042  28.29 0.0004235329    1.189    0.159
       245 -10.3076    175.0731     17.0361   4.7676169718e+01   3.9140450748e+01    0.2103331    0.1943738  84.76 0.0003580724    1.021    0.020
       246  -9.7586     48.0237    243.6973   1.2451388705e+02   1.9255945139e+01    0.1561188    0.1072973  60.28 0.0007394698    1.083    0.077
       247 -10.4083     34.7838    243.4475   1.2669776520e+02   2.0857598541e+01    0.2457266   0.09185584  36.93  0.001315419    2.688    0.628
       248 -10.0129    207.3778    240.6245   9.5336800062e+01  -4.3606388404e+00    0.1884123    0.1468145  26.99 0.0007007641    1.028    0.027
       249 -10.4379    112.1260    240.9586   1.1292730774e+02   1.0862653755e+01    0.1898758    0.1316326  63.32 0.0007838509    1.321    0.243
       250  -9.8623     41.8661    177.3911   1.2049156334e+02   3.3121763576e+01    0.1433194    0.1181282  23.96 0.0003892239    1.663    0.399
       251 -10.5561     56.8114    241.2402   1.2285410998e+02   1.8596867736e+01    0.1848718    0.1339638 -50.66 0.0003498613    2.158    0.537
       252  -9.9966    158.0872    239.8849   1.0425532983e+02   3.6950748730e+00    0.1780128    0.1462087  53.44  0.001197122    1.194    0.163
