#   1 NUMBER                 Running object number                                     
#   2 MAG_AUTO               Kron-like elliptical aperture magnitude                    [mag]
#   3 X_IMAGE                Object position along x                                    [pixel]
#   4 Y_IMAGE                Object position along y                                    [pixel]
#   5 X_WORLD                Barycenter position along world x axis                     [deg]
#   6 Y_WORLD                Barycenter position along world y axis                     [deg]
#   7 A_WORLD                Profile RMS along major axis (world units)                 [deg]
#   8 B_WORLD                Profile RMS along minor axis (world units)                 [deg]
#   9 THETA_WORLD            Position angle (CCW/world-x)                               [deg]
#  10 FWHM_WORLD             FWHM assuming a gaussian core                              [deg]
#  11 ELONGATION             A_IMAGE/B_IMAGE                                           
#  12 ELLIPTICITY            1 - B_IMAGE/A_IMAGE                                       
         1 -14.6012    194.6096     16.7002   6.9150532542e+01   3.3880612092e+01     2.882693     1.656543  29.00   0.01242231    2.363    0.577
         2 -10.5189     32.5072      6.5011   1.0525562370e+02   6.9636673974e+01    0.1188645   0.08956606 -13.23 -8.32058e-05    1.021    0.021
         3 -11.3852     94.9385    240.6764   1.3837714969e+02   1.5355596631e+01    0.2588683    0.1607627 -60.18  0.001738382    1.925    0.480
         4 -11.4918    248.3174    249.1848   1.1387223090e+02  -9.0455829738e+00    0.3191274    0.2198223  30.51  0.002345209    1.171    0.146
         5 -11.6053    128.5009    243.9982   1.3304433446e+02   9.9353895931e+00    0.2185712    0.1350863  46.01  0.001288046    1.268    0.211
         6 -11.9990    107.7987    248.6199   1.3697293400e+02   1.2317617457e+01    0.3864753    0.2159581  53.71  0.001540276    1.414    0.293
         7 -11.3592     98.2787    250.1465   1.3867106001e+02   1.3437844144e+01    0.3039146    0.2251772  61.67  0.001809594    1.062    0.058
         8 -11.7371    102.0747    247.3751   1.3780167377e+02   1.3319729927e+01    0.3622742    0.2256931  68.57   0.00187261    1.565    0.361
         9 -10.6407     74.1775    249.7843   1.4251575830e+02   1.6732055935e+01    0.3097985     0.194467 -53.11   0.00184072    2.320    0.569
        10 -10.7765     75.5885    243.8044   1.4183247741e+02   1.7483861551e+01    0.2282549    0.1281908  66.87  0.001240814    1.590    0.371
        11 -11.9448     80.9229    247.9679   1.4129871113e+02   1.6130670226e+01    0.5149615    0.2158961  54.42  0.002077598    1.917    0.478
        12 -11.9148     82.2674    243.2201   1.4069695521e+02   1.6692729274e+01     0.505135     0.230422  68.20  0.002665762    2.632    0.620
        13 -13.7887     32.8451    246.1095   1.4867338426e+02   2.2235864004e+01     1.546663    0.4590502  42.77  0.008745148    2.625    0.619
        14 -16.3199      9.8490    240.0615   1.5179555786e+02   2.5577737080e+01     16.76997     1.406235 -76.42   0.03765509   10.346    0.903
        15  -9.2766    152.6619    212.9795   1.2486334683e+02   1.0740224598e+01    0.1573981    0.1473171  53.16 0.0003377593    1.115    0.103
        16  -9.9081    229.8428    230.1364   1.1389019405e+02  -4.3970809752e+00    0.1638624     0.140527  30.84 0.0005857647    1.272    0.214
        17 -11.7049     33.2237    205.4512   1.4609742099e+02   2.9226008415e+01    0.3622116    0.1985375  68.74  0.001184582    1.551    0.355
        18 -11.9394     72.8172    195.9007   1.3795241718e+02   2.6259375177e+01    0.3900167    0.3374176 -63.94  0.001734787    1.375    0.273
        19 -11.8482     77.2661    188.7114   1.3628355665e+02   2.7051473105e+01    0.2771395     0.228549 -51.24 0.0006133753    1.521    0.343
        20 -10.8902    193.0699    195.1243   1.1444974120e+02   6.3218557484e+00    0.8169332    0.4121843 -61.24  0.002405495    7.263    0.862
        21  -9.9533    120.1756    188.2767   1.2757192762e+02   2.0541221003e+01    0.3227829    0.2020696  23.33  0.001322863    2.433    0.589
        22 -11.1993     85.5119    176.6029   1.3309248769e+02   2.8303229048e+01    0.2282611     0.202398 -86.35 0.0005140222    1.098    0.090
        23 -13.3480     73.3334    174.1531   1.3533781037e+02   3.0528635100e+01    0.4325995    0.2666947 -43.62  0.001899486    2.233    0.552
        24 -13.4387     50.3268    130.0380   1.3452034749e+02   4.2994579701e+01     1.043805    0.2968142  41.38  0.003312081    3.535    0.717
        25 -13.3925     57.9773    132.0251   1.3291458798e+02   4.1645972066e+01     1.914811    0.6254203 -72.95  0.005495818    5.660    0.823
        26 -13.9446     67.2724    144.2066   1.3254858665e+02   3.7754446127e+01     1.872772    0.9531928  78.31  0.007149868    3.636    0.725
        27 -12.6080     46.8294    148.9990   1.3798969811e+02   3.9196685846e+01    0.6346911    0.3102241 -80.91  0.003103287    2.137    0.532
        28 -10.3324    103.0417    151.0175   1.2526647972e+02   3.0922169670e+01    0.2812302     0.265248  36.76 0.0008343959    1.197    0.165
        29  -9.5683    105.4596    147.0622   1.2398925062e+02   3.1362428277e+01    0.2963577    0.2218804 -24.85  0.001141217    1.900    0.474
        30 -12.2230     92.1143    150.6382   1.2773545329e+02   3.2763964481e+01    0.2587467    0.2433412 -39.53 0.0005635023    1.262    0.208
        31 -10.0587    134.3560    147.7290   1.1746319388e+02   2.5984201185e+01    0.4724368    0.1346447 -51.43  0.001456287    3.886    0.743
        32 -11.5191     54.5998    144.8281   1.3563672866e+02   3.9210680455e+01    0.4369594    0.1111375 -59.94  0.001662759    3.185    0.686
        33  -8.8860    192.3355    144.1942   1.0436947760e+02   1.4739911340e+01    0.1909417    0.1314956 -44.25 0.0003691769    1.549    0.354
        34 -13.9602     10.8702    207.0079   1.5001420643e+02   3.1181945562e+01    0.9342598    0.6671206  45.24  0.003956669    1.527    0.345
        35 -10.0949    112.6672    136.4890   1.2022179824e+02   3.2377912863e+01    0.3147984    0.2473834 -19.34  0.001302562    1.720    0.418
        36 -11.2317     70.1061    134.9083   1.3036770182e+02   3.9438919478e+01    0.3100282    0.1914769  43.46  0.001408813    1.706    0.414
        37 -13.4923     50.7090    230.6987   1.4491746433e+02   2.2745716453e+01    0.7142856    0.3741814  78.93  0.002999177    1.841    0.457
        38 -10.7237    100.4704    133.7530   1.2263514901e+02   3.5088085229e+01    0.2680617    0.2233569 -31.68 0.0004501319    1.417    0.294
        39 -12.7453     32.5474    127.2685   1.3857164792e+02   4.5471204754e+01    0.3769754     0.281849 -65.40  0.002480103    1.160    0.138
        40  -9.4767    109.0088    123.6996   1.1839386595e+02   3.5799958415e+01    0.1874432    0.1775215  56.01 0.0003293004    1.088    0.081
        41 -15.5055     58.3966    216.6479   1.4254813213e+02   2.4264540740e+01     6.914203     1.203821  44.74   0.02789783    3.900    0.744
        42 -11.0928    168.3047    113.4632   1.0190698040e+02   2.5637291187e+01    0.4097337     0.330189 -76.92  0.001131432    1.600    0.375
        43 -12.1787     39.6601    113.0045   1.3459778212e+02   4.7963540637e+01    0.5561162    0.2073546  48.03  0.002354799    3.341    0.701
        44 -13.0548     91.6984    167.7744   1.3053043377e+02   2.9194955986e+01     2.683277    0.5663952  47.70  0.002190382    5.054    0.802
        45 -10.9227    162.5707    249.2129   1.2788998387e+02   3.9569205200e+00    0.2155308    0.1803984  41.57  0.001629145    1.091    0.084
        46  -8.9301    154.3247     76.2958   9.4546368272e+01   3.5769657505e+01    0.1578595    0.1185843  16.79  0.000337668    1.624    0.384
        47 -11.7799    140.4624    249.9694   1.3168053051e+02   7.2735798928e+00    0.4507051    0.1428156  43.50  0.002133234    2.418    0.586
        48 -11.0997     37.0166    231.2493   1.4717068639e+02   2.4224332120e+01    0.1891703    0.1339495  75.39  0.001185522    1.065    0.061
