#   1 NUMBER                 Running object number                                     
#   2 MAG_AUTO               Kron-like elliptical aperture magnitude                    [mag]
#   3 X_IMAGE                Object position along x                                    [pixel]
#   4 Y_IMAGE                Object position along y                                    [pixel]
#   5 X_WORLD                Barycenter position along world x axis                     [deg]
#   6 Y_WORLD                Barycenter position along world y axis                     [deg]
#   7 A_WORLD                Profile RMS along major axis (world units)                 [deg]
#   8 B_WORLD                Profile RMS along minor axis (world units)                 [deg]
#   9 THETA_WORLD            Position angle (CCW/world-x)                               [deg]
#  10 FWHM_WORLD             FWHM assuming a gaussian core                              [deg]
#  11 ELONGATION             A_IMAGE/B_IMAGE                                           
#  12 ELLIPTICITY            1 - B_IMAGE/A_IMAGE                                       
         1 -10.2077     24.4464     16.7702   1.1491658892e+02   7.4388868785e+01    0.3893041    0.2931364  29.82 0.0007297317    1.453    0.312
         2 -10.1450      9.3277     19.7810   1.2885514922e+02   7.4880480674e+01    0.4316286    0.2313963  -6.38 0.0005543551    2.002    0.501
         3  -9.9226     31.6546     10.8728   1.0568148211e+02   7.4667557843e+01    0.3927225    0.2225159 -27.93 0.0003901363    1.826    0.452
         4  -9.7851     63.9398     14.4446   8.8163886508e+01   6.8341907036e+01     0.452156    0.2966135  20.44 0.0008651716    1.739    0.425
         5  -8.8095     74.7516     13.7288   8.3038645235e+01   6.6016772479e+01    0.4036175    0.2338973  38.42   0.00120489    1.682    0.405
         6  -8.5294     80.1253     12.6652   8.0394726260e+01   6.4870803534e+01    0.3031246    0.2470158 -45.97  0.001039648    1.420    0.296
         7  -8.4506    134.3636     13.6324   6.7332180062e+01   5.0269571007e+01    0.3083635    0.1778209  37.68  0.001022501    2.017    0.504
         8  -8.9795     97.2048     11.8519   7.4564870410e+01   6.0635129461e+01    0.3872403    0.1995334  60.46 0.0009220132    1.748    0.428
         9  -7.6629    157.4739     10.9775   6.2994131901e+01   4.4103963201e+01    0.2214732   0.08950203 -47.60 0.0008099042    2.546    0.607
        10  -8.1436    106.0696     10.5336   7.1650551275e+01   5.8410559297e+01    0.2181142    0.2008725 -10.81 0.0005850052    1.183    0.155
        11 -10.6893     20.1549      8.8571   1.1400246825e+02   7.6410314999e+01    0.3214846    0.2200176   2.44 0.0003932193    1.459    0.315
        12  -8.4095      1.8753      8.3684   1.3133374250e+02   7.7718565170e+01    0.2666164    0.1722348 -80.11    0.0015276    1.758    0.431
        13  -8.3030    127.7828      8.0928   6.6196982272e+01   5.2660542597e+01    0.3016979    0.1514311  46.01  0.001002592    2.024    0.506
        14  -7.6578     39.4734      8.5029   9.8343422400e+01   7.3899309281e+01    0.1363994    0.1145953   0.61 0.0008095856    1.049    0.047
        15  -8.0916     83.8534      6.9589   7.5905785306e+01   6.4601191506e+01    0.2473438    0.1450684  23.70 0.0009195162    2.051    0.513
        16  -8.0151     76.2406      6.7169   7.8354306930e+01   6.6507581539e+01    0.3209265    0.1760932  71.03  0.001136621    2.279    0.561
        17  -7.6644    119.0016      6.7794   6.7197354272e+01   5.5230372797e+01     0.204151    0.1112318  69.05 0.0005165002    1.657    0.396
        18  -9.8559     49.0401      4.6560   8.9523741863e+01   7.2750960800e+01    0.2812216    0.2136211  16.08   0.00039538    1.258    0.205
        19  -8.9006    110.9992      4.4026   6.7671747215e+01   5.7657454491e+01    0.3278266    0.2119582 -28.95  0.001284762    1.665    0.400
        20  -7.7030     92.4742      5.0438   7.2319204502e+01   6.2579621994e+01    0.2099465    0.1447714 -15.64  0.001031559    1.596    0.374
        21  -8.3481     68.8052      3.9469   7.9473278875e+01   6.8580415569e+01    0.3482954    0.1855162  -7.48  0.001472058    2.391    0.582
        22  -8.8955     56.8399      4.3480   8.5100843049e+01   7.1203522229e+01    0.3448312    0.1944633  31.39   0.00153712    1.824    0.452
        23  -7.7547     13.0116      5.1752   1.1851066226e+02   7.7779244386e+01    0.2262564    0.1157758 -20.77   0.00108926    2.135    0.532
        24  -8.4577    125.2502      3.7830   6.4811917622e+01   5.3759629031e+01    0.2071391     0.187615 -76.15  0.000525945    1.118    0.106
        25  -7.7636    153.5246      3.4766   6.0836116670e+01   4.5897778750e+01    0.1443135    0.1295113  80.62 -1.013485e-05    1.046    0.044
        26  -8.1817    182.1696      2.1922   5.7654942338e+01   3.8296667876e+01    0.1989601    0.1741865  71.18 0.0004799697    1.183    0.154
        27  -8.0178    143.0811      2.0521   6.1565465811e+01   4.8922181762e+01    0.2182782    0.1901345 -89.17 0.0004285686    1.047    0.045
        28  -7.6900      2.9773      1.1884   1.2688781885e+02   7.9212602248e+01    0.1463718   0.08670349   6.00 0.0003459421    1.721    0.419
        29  -8.5440    232.0193    236.0290   1.0395965603e+02  -3.4369067108e+00    0.1692574    0.1153363   9.82 0.0003621154    1.005    0.005
        30 -10.8998    209.5977    247.8481   1.0944354490e+02  -2.0236987844e+00    0.5823516    0.2895656  29.87  0.003403346    1.529    0.346
        31  -8.0005    123.6792    250.5504   1.2606668240e+02   8.6477460227e+00    0.2311911   0.08903749  29.11  0.001122776    2.117    0.528
        32  -9.6991    188.7372    234.5092   1.1140214025e+02   2.1121103864e+00    0.2596386    0.1999238  29.70  0.001406557    1.304    0.233
        33  -8.6400    183.5304    236.0094   1.1258850029e+02   2.6160016334e+00    0.1504862    0.1074308 -24.65 0.0008433472    1.586    0.369
        34  -8.0694    162.0415    234.1777   1.1652418024e+02   5.7603991387e+00    0.1890639    0.1245359  18.79 0.0005404486    1.286    0.222
        35  -8.2487     92.5023    234.5062   1.3106540931e+02   1.5193950579e+01    0.2142032    0.1002147  23.73  0.001028168    2.257    0.557
        36  -7.5334    152.7064    232.6516   1.1820943322e+02   7.2643692584e+00    0.1202487   0.08040072   5.17 8.789534e-05    1.672    0.402
        37  -7.9368    204.4344    230.8026   1.0798378901e+02   5.0831659121e-01     0.142167   0.09198077 -10.67 0.0003886152    1.515    0.340
        38  -7.4627    123.3661    230.2949   1.2404819512e+02   1.1716612123e+01    0.1228676   0.08394779   9.52 0.0004431457    1.718    0.418
        39  -8.1953    195.0364    229.0406   1.0945546379e+02   1.9474041713e+00    0.1887989    0.1116378   7.72 0.0005527298    1.678    0.404
        40  -7.4909    158.3443    229.2840   1.1663671536e+02   6.9512401920e+00    0.1238348   0.07882106  10.95 0.0002389134    1.642    0.391
        41  -7.6949    100.6589    229.6805   1.2887358875e+02   1.4924617812e+01    0.1174655   0.08733673   4.93 0.0005351438    1.716    0.417
        42  -8.5582    237.3199    227.2757   1.0178025509e+02  -3.1516632377e+00    0.2475706    0.1742769 -30.88 0.0009532693    1.824    0.452
        43  -7.7474    174.8061    228.2100   1.1320795939e+02   4.7998496644e+00    0.1651483     0.111348  13.02 0.0004187302    1.316    0.240
        44  -7.7449    230.4602    226.9151   1.0286396628e+02  -2.3001051096e+00    0.1555827   0.09274769 -22.12   0.00103719    1.614    0.381
        45  -8.4901    187.0416    226.8796   1.1065325711e+02   3.2923043183e+00    0.1937701    0.1402517  15.66  0.001020729    1.065    0.061
        46  -7.7223     92.6764    227.6813   1.3042982641e+02   1.6326000895e+01    0.1146696   0.08867145   3.54 0.0007044721    1.672    0.402
        47  -8.9461    247.6366    225.7366   9.9881095980e+01  -4.1808010101e+00    0.3066594     0.167462  27.07  0.002066212    1.544    0.352
        48  -7.2906    142.2797    226.6712   1.1962116205e+02   9.6088486462e+00     0.116568   0.08403502  51.74 0.0005342553    1.600    0.375
        49  -7.8568     70.1053    226.1636   1.3526249027e+02   1.9469107705e+01    0.1734971    0.1449091  25.65 0.0007467444    1.295    0.228
        50  -7.7837    223.5175    224.9438   1.0374409600e+02  -1.2375785457e+00    0.1543362   0.09466431 -20.08   0.00101676    1.566    0.361
        51  -7.9969    206.6575    222.4577   1.0634739101e+02   1.2080673045e+00     0.192423    0.1143974  -7.53 0.0006708833    1.754    0.430
        52  -7.9423    216.5699    220.4076   1.0425964608e+02   1.5748033052e-01    0.2401578    0.1289045   4.12  0.001149015    2.049    0.512
        53  -8.0363    130.0597    220.7545   1.2150791117e+02   1.2291209025e+01    0.2091399    0.1299931  10.61  0.001082642    2.021    0.505
        54  -7.9460     51.8997    221.5010   1.3896456490e+02   2.2472118804e+01    0.1788906   0.09601263  32.51 0.0007624578    1.537    0.350
        55  -8.3492    182.5915    219.6673   1.1046846871e+02   4.8543584679e+00    0.2270415    0.1463249  23.57 0.0006857524    1.221    0.181
        56  -7.7837     40.3726    220.4040   1.4143883268e+02   2.3942912642e+01    0.2181617     0.105523  13.40 0.0009598759    3.430    0.708
        57  -8.3365    240.3796    218.8999   9.9984717683e+01  -2.6306528593e+00    0.1900119    0.1336508  31.67  0.001343974    1.618    0.382
        58  -8.4347    227.0840    218.6103   1.0215583134e+02  -9.7377245070e-01    0.2048637     0.133132 -11.10 0.0007372598    1.359    0.264
        59  -7.7108    173.6302    218.8454   1.1212158526e+02   6.2439849301e+00    0.1761492    0.1222763  18.46 0.0005524388    1.189    0.159
        60  -7.8695    203.6755    216.5733   1.0599416071e+02   2.3295389280e+00    0.1873048    0.1129388   7.06 0.0005015879    1.613    0.380
        61  -7.0590    105.6871    217.6553   1.2655424616e+02   1.6300023909e+01     0.121519    0.0924302  -0.48 0.0006937835    1.709    0.415
        62  -8.5358    193.9275    215.3155   1.0762756523e+02   3.8368313537e+00    0.2957442    0.1629142  15.17  0.001395675    1.815    0.449
        63  -7.4825    210.3455    215.2956   1.0457671023e+02   1.5868420765e+00    0.1246067    0.0727964   7.79 0.0007032619    1.670    0.401
        64  -7.1740    179.3486    215.2548   1.1045398328e+02   5.9208270702e+00    0.1265819   0.07853003  12.16 0.0002859049    1.594    0.373
        65  -8.1749    121.8803    213.6100   1.2244834388e+02   1.4676377632e+01    0.2050257    0.1341222  24.42 0.0006253099    1.399    0.285
        66  -8.9505    249.2922    211.9993   9.7455117306e+01  -2.9528319881e+00    0.2783504    0.1310661  29.86  0.001678417    1.865    0.464
        67  -8.1461    232.8581    211.6755   1.0007568019e+02  -9.1556354214e-01    0.1868875    0.1222953  -6.77 0.0005378578    1.285    0.222
        68  -8.0415    169.5171    212.0740   1.1196406976e+02   7.8149994774e+00     0.162381    0.1217624 -32.36 0.0004950635    1.540    0.351
        69  -7.7457    186.0683    210.4616   1.0839760766e+02   5.6119087378e+00    0.1880878   0.09980452  30.38 0.0006723101    1.541    0.351
        70  -7.2693    132.6896    209.6888   1.1953044684e+02   1.3736955739e+01    0.1276058   0.09205502   5.11 0.0006558535    1.626    0.385
        71  -8.2032    162.7814    208.0985   1.1277108884e+02   9.4224041215e+00    0.2419081    0.1412938  13.08 0.0008202041    1.987    0.497
        72  -7.1808     94.6954    208.6971   1.2813140545e+02   1.9471795459e+01     0.119796   0.09572131   0.91 0.0007009829    1.596    0.374
        73  -8.0599    148.1579    205.6705   1.1555242921e+02   1.2046297587e+01    0.2665954    0.1354078 -24.97  0.001090341    3.422    0.708
        74  -9.2816    124.1298    205.9500   1.2097760798e+02   1.5678167464e+01    0.2304898    0.1572816  27.63            0    1.272    0.214
        75  -7.8616    247.0697    204.7478   9.6619229337e+01  -1.9035148361e+00    0.1899105   0.09795567   9.55  0.001068493    1.972    0.493
        76  -7.9178    216.0767    205.3619   1.0194903089e+02   2.0381489718e+00    0.1980706    0.1164118  15.49  0.001152095    1.523    0.344
        77  -7.9924    117.5320    205.2121   1.2240324427e+02   1.6803980224e+01    0.2526878    0.1528096  33.65 0.0008270926    1.347    0.258
        78  -8.3015    237.0179    203.5228   9.8043811991e+01  -5.1143042857e-01     0.168375    0.1208693  -3.03  0.000415297    1.091    0.083
        79  -8.2025    229.4952    199.3307   9.8599168485e+01   9.6462964312e-01     0.320944    0.1572787  -1.41  0.001396953    2.953    0.661
        80  -7.3331    205.6997    204.6869   1.0372624753e+02   3.5685654394e+00      0.12571   0.07778642   4.81 0.0003448668    1.608    0.378
        81  -8.3660    250.4939    199.4862   9.5198054749e+01  -1.7411423277e+00    0.2238339   0.09255381 -28.56  0.001216885    2.189    0.543
        82  -7.7802    185.0052    199.9987   1.0694065515e+02   7.2533421226e+00    0.2166674    0.1329527   7.55  0.001131803    1.809    0.447
        83  -8.2473    243.9126    197.5927   9.5919628078e+01  -7.0757959159e-01    0.2921295    0.1233063 -14.16  0.001295378    3.207    0.688
        84  -8.4012    165.9587    197.3551   1.1043997330e+02   1.0608336049e+01    0.3400792    0.1813409  20.28  0.001055815    2.053    0.513
        85  -7.6683     99.6979    198.6783   1.2583106722e+02   2.0678227922e+01    0.1256832   0.09992677  -3.92 0.0003276595    1.631    0.387
        86  -7.2938    202.6834    194.7101   1.0261776777e+02   5.3444290379e+00    0.1290192   0.08150416   6.65 0.0003180057    1.595    0.373
        87  -7.8426      2.1584    194.1942   1.4901448613e+02   3.2699398922e+01    0.2280893   0.09133631  14.27   0.00102989    3.450    0.710
        88  -7.6819    193.4716    193.4451   1.0417038198e+02   6.9112780193e+00    0.1312281    0.1014744  11.26 0.0005091661    1.067    0.063
        89  -7.2453    124.5149    193.4848   1.1920043114e+02   1.7889433022e+01    0.1376086    0.1151543  29.72 -1.286121e-05    1.043    0.042
        90  -7.0899     90.3031    192.3068   1.2739824258e+02   2.3312273827e+01    0.1251689    0.1021578  -5.96 0.0002072758    1.601    0.375
        91  -7.9811    246.3091    190.0074   9.4226659373e+01  -1.3751218822e-01    0.1632258    0.1164422  -4.52 0.0005509916    1.077    0.071
        92  -7.9546    161.0379    190.4561   1.1038156540e+02   1.2520515871e+01    0.1962803    0.1036062  16.95 0.0008086591    2.521    0.603
        93  -7.9525     64.6980    189.6112   1.3356614894e+02   2.7340984040e+01      0.18383    0.1520147 -13.25 0.0006340445    1.668    0.401
        94  -7.5001    224.6338    189.1993   9.7679194364e+01   2.8919498436e+00    0.1677687   0.09523655 -17.68 0.0003918503    1.712    0.416
        95  -7.8623    186.4841    188.9944   1.0478893144e+02   8.6544634254e+00    0.1831837    0.1008288 -13.58 0.0006380465    2.548    0.608
        96  -7.7032    130.7246    183.3575   1.1620785305e+02   1.8801969537e+01    0.1956469    0.1167336  28.02 0.0004343335    1.572    0.364
        97  -7.5111    250.3026    182.3039   9.2236762174e+01   2.4691131592e-01    0.1197743   0.07131532   1.65 0.0002539981    1.594    0.373
        98  -7.6332    156.2175    181.1836   1.0989194006e+02   1.4911239060e+01    0.2293838    0.1372126   0.98 0.0009368508    2.744    0.636
        99  -7.2891    183.5325    180.4839   1.0388078990e+02   1.0444390599e+01    0.1362435    0.1114288  12.03 0.0005022145    1.040    0.038
       100  -7.7363    224.6885    179.6561   9.5949628259e+01   4.1260779121e+00    0.1314958   0.08023658   2.02 0.0007045979    1.704    0.413
       101  -7.6703     96.5676    178.4402   1.2408095244e+02   2.5287459461e+01    0.1398166    0.1210948  42.86 0.0001174179    1.010    0.010
       102  -7.8143     47.2339    175.5762   1.3689797991e+02   3.2539968599e+01    0.1733166    0.1221189  17.95  0.000937824    1.632    0.387
       103  -7.3860    205.6488    174.6784   9.8458120721e+01   7.7327367098e+00    0.1393603   0.08768318   5.47 0.0007048096    1.748    0.428
       104  -7.9662    148.6967    174.5931   1.1047394307e+02   1.7396706180e+01    0.2668146    0.1230989  33.04 0.0007669457    1.999    0.500
       105  -8.0686    184.0097    171.7860   1.0217362812e+02   1.1755270700e+01    0.2354147    0.1427367  11.14  0.001087354    2.031    0.508
       106  -7.7161    198.9989    167.4734   9.8349176948e+01   9.8996229771e+00    0.1903452    0.1009461  18.18  0.000807627    2.414    0.586
       107  -7.6285    168.5270    163.9594   1.0397788214e+02   1.5803984706e+01    0.1945685    0.1154855 -15.65   0.00062678    2.419    0.587
       108  -7.6019    122.6157    162.7489   1.1483456554e+02   2.4343457292e+01    0.1478978    0.1092201   8.58 0.0002891838    1.662    0.398
       109  -8.1130     21.3603    156.9386   1.4269878568e+02   3.9475104322e+01    0.2142495    0.1128312 -32.68 0.0009137844    3.249    0.692
       110  -8.0103    133.3042    147.9307   1.0925439066e+02   2.5524370574e+01    0.2071271    0.1969936 -18.76 0.0007936838    1.114    0.103
       111  -7.5589    119.9852    148.5240   1.1292450372e+02   2.7899060096e+01    0.2067034    0.1306129  12.35 0.0006050973    2.353    0.575
       112  -7.4386     50.9538    148.7998   1.3329058443e+02   3.8500137473e+01     0.183125    0.1049533  28.56 0.0007707714    1.725    0.420
       113  -9.3488     67.1962    144.5347   1.2775896699e+02   3.7497772111e+01    0.5675204    0.2796446  52.36  0.002326139    2.097    0.523
       114  -9.1612    222.8887    144.6291   8.9375732947e+01   9.2965631380e+00    0.2374361    0.1949878   0.20 0.0004166269    1.066    0.062
       115  -8.3053     13.9757    140.5111   1.4390813049e+02   4.4055880826e+01    0.1720798    0.1004511 -24.49 0.0008104125    2.589    0.614
       116  -7.8965     42.4994    140.0000   1.3496292334e+02   4.1656278920e+01    0.3007064   0.07607435  24.75 0.0009423797    3.997    0.750
       117  -7.0481    250.6651    138.3325   8.3751452668e+01   5.6915634377e+00    0.1151112   0.09118881 -49.78 0.0003961246    1.734    0.423
       118  -7.8411    139.8411    137.9838   1.0546501923e+02   2.6349725049e+01    0.2539948    0.1750625 -14.63  0.001074427    2.029    0.507
       119  -7.5853    108.2356    136.6110   1.1389756226e+02   3.2788323953e+01     0.221853    0.1426796  26.43 0.0006175307    1.695    0.410
       120  -7.0178    124.6729    135.6463   1.0901008421e+02   2.9874299790e+01    0.1605483    0.1213157  -5.66  0.000704676    1.770    0.435
       121  -8.2506      4.7971    134.1458   1.4639344402e+02   4.6229912614e+01    0.2334559     0.146642 -32.50   0.00123949    2.132    0.531
       122  -8.2739     68.4902    133.4873   1.2569793835e+02   4.0100746109e+01    0.1471874    0.1367181  65.79 0.0008104721    1.005    0.005
       123  -8.2979     24.3073    129.6261   1.3986603255e+02   4.6014539859e+01    0.3307894    0.1774155 -33.73   0.00144231    2.675    0.626
       124  -7.9548     41.6353    129.5737   1.3407508387e+02   4.4421903756e+01    0.2563465    0.1330673   1.01 0.0009553831    3.294    0.696
       125  -7.7291    143.6846    126.6333   1.0188792728e+02   2.7949911517e+01    0.1630582    0.1213199  -1.36 0.0001718565    1.773    0.436
       126  -9.5442     14.0014    120.1173   1.4258937330e+02   4.9207414357e+01    0.6253322    0.2338582 -36.28  0.002119252    4.544    0.780
       127  -7.5700     84.2467    121.6306   1.1835192241e+02   4.0687480481e+01    0.2155762     0.145717  22.48 0.0009400223    1.684    0.406
       128  -7.9874    118.5343    119.4897   1.0708858941e+02   3.4780795414e+01    0.2912383    0.1497852  29.42  0.001025609    2.371    0.578
       129  -7.8088    100.7616    118.5728   1.1230996868e+02   3.8504840320e+01    0.3015847    0.1527845  32.13  0.001118317    2.093    0.522
       130  -8.5010     13.3875    114.8387   1.4241357875e+02   5.0607851577e+01    0.1904389    0.1051704 -69.22 0.0005848882    1.621    0.383
       131  -7.5882    142.1917    111.5923   9.8538276114e+01   3.1444525420e+01    0.2311371    0.1462466  34.95 0.0008693853    1.655    0.396
       132  -8.3120    133.9912    107.7679   9.9721182396e+01   3.4094428563e+01    0.5556609    0.1857808 -41.19  0.001666187    3.224    0.690
       133  -8.9458      2.7541    109.2507   1.4583103202e+02   5.2613490163e+01    0.3616643     0.203365 -29.57  0.001804504    2.265    0.558
       134  -9.2897     13.7833    106.2244   1.4157748043e+02   5.2823702275e+01    0.3179969    0.2083937 -47.58  0.001563731    1.617    0.381
       135  -8.6281     17.3529    103.3251   1.3995357854e+02   5.3364287479e+01    0.2397918    0.1919501 -46.84 0.0007477498    1.327    0.247
       136  -7.6857    109.4953    106.0197   1.0646831626e+02   3.9791535326e+01    0.2251932    0.1367372 -26.81 0.0007876638    2.450    0.592
       137  -8.1069     66.5361    104.5278   1.2106217608e+02   4.7884495391e+01    0.1495976    0.1444398  89.79 7.060394e-05    1.007    0.007
       138  -7.3579    196.4399    103.5442   8.4570230442e+01   2.0836646119e+01    0.1448845     0.133656 -12.53 5.249171e-05    1.026    0.025
       139  -7.4426     93.5305    103.5039   1.1107274453e+02   4.3573971856e+01    0.1562637    0.1533846  57.08 0.0008098677    1.009    0.009
       140  -7.9880      3.1542    102.1620   1.4526948279e+02   5.4416506178e+01     0.185194    0.1346503  60.00 0.0009326987    1.318    0.241
       141  -8.6184    243.2926     97.2744   7.5926274996e+01   1.2461557271e+01    0.1773189    0.1158454  74.86 0.0009050563    2.389    0.581
       142  -9.9352      9.4194     96.3245   1.4242104203e+02   5.5645638462e+01    0.4445345     0.201381  -1.48  0.001905387    2.937    0.660
       143  -8.7439     44.4255     91.8112   1.2728030852e+02   5.4099029522e+01    0.4491949    0.2335327 -30.14  0.001698087    2.797    0.643
       144  -7.7426     56.8714     92.0689   1.2214283625e+02   5.2508498191e+01    0.2082627    0.1700446 -34.94 0.0004075499    1.324    0.245
       145  -7.7652     95.7739     90.8245   1.0686269193e+02   4.6222374395e+01    0.2634225    0.1743971  -7.45 0.0009354468    2.738    0.635
       146  -8.0277    110.6899     90.6012   1.0179370261e+02   4.3121457501e+01    0.3219983    0.1530547  38.57  0.001128592    2.181    0.541
       147  -8.3723     67.3065     86.1453   1.1639988215e+02   5.2523138259e+01    0.4433494    0.2095617  22.84  0.001557766    2.738    0.635
       148  -9.3621     35.8527     81.9969   1.2911465990e+02   5.7574677450e+01    0.6824682    0.2999093 -33.91  0.002423948    3.208    0.688
       149  -7.9891    126.3052     83.8523   9.4991414498e+01   4.1008318432e+01    0.3219851    0.2106267  22.58   0.00122485    2.162    0.537
       150  -7.7893     21.6951     83.6914   1.3580195203e+02   5.8265991086e+01    0.1437239   0.09032881 -43.91 0.0002001016    1.609    0.378
       151  -7.9927    181.1440     81.1966   8.1429872430e+01   2.8072244796e+01    0.2122524    0.1981944  12.91  0.000275836    1.131    0.116
       152  -8.5027     88.4267     79.2514   1.0604729843e+02   5.0452283873e+01    0.6896005    0.3086917  24.76  0.001851319    4.507    0.778
       153  -9.8796      8.0895     77.4678   1.4119088743e+02   6.0626186692e+01    0.4895239    0.2297391 -45.33  0.001719197    2.083    0.520
       154  -7.8413    184.3224     78.0539   7.9971050527e+01   2.7831279819e+01    0.2127052     0.186702 -36.53 0.0004534739    1.095    0.087
       155  -8.7507     48.5197     76.8986   1.2217387589e+02   5.7533895191e+01    0.3627457      0.28729 -25.13  0.001702226    1.395    0.283
       156  -7.4368    119.9882     76.4819   9.4484572414e+01   4.4066598994e+01    0.2373003    0.1363912  27.67 0.0008094575    2.550    0.608
       157  -7.6987     75.0056     74.5407   1.0985731052e+02   5.4119696552e+01    0.2318009    0.1521741  34.36 0.0005017422    1.551    0.355
       158  -9.8187    236.7138     70.7208   7.0557508857e+01   1.7322845574e+01    0.2427931    0.2221975  29.32  0.000511441    1.267    0.211
       159  -9.0650     61.8321     67.3828   1.1331666289e+02   5.8072315340e+01    0.7197083    0.1789497 -50.29  0.002106223    3.614    0.723
       160  -9.4168     65.4650     61.1634   1.0955021767e+02   5.8967208423e+01    0.4878223    0.3514485 -23.43  0.002256543    1.636    0.389
       161  -9.7324     25.3322     71.4339   1.3205855125e+02   6.1232558071e+01    0.7919555    0.4240575 -40.90  0.003196224    1.904    0.475
       162  -8.7862     43.8888     67.9517   1.2205045830e+02   6.0380575811e+01     0.347958    0.2279736 -10.60  0.001575146    1.978    0.494
       163  -8.0916     80.5729     68.1556   1.0546108250e+02   5.4590709486e+01    0.2625413    0.2217133  12.89 0.0004354788    1.306    0.235
       164  -8.5666     84.4121     63.8406   1.0238719806e+02   5.4802948580e+01    0.4643646    0.3007583   2.77  0.001679787    2.790    0.642
       165  -8.8911    241.1512     66.8242   6.9144206432e+01   1.6958669816e+01     0.201427     0.156892 -50.61  0.001218662    1.218    0.179
       166  -9.5599     17.8790     62.2879   1.3416098163e+02   6.4091136231e+01    0.5268655    0.2307886 -51.41  0.001743709    1.959    0.489
       167  -8.6887     51.3693     60.6121   1.1614378142e+02   6.1263895704e+01    0.4116459    0.3324038  78.33  0.001565644    1.561    0.359
       168  -7.6575    245.6447     61.3284   6.7395060954e+01   1.6786923970e+01    0.1373942   0.08176625 -55.95 0.0006015425    1.778    0.438
       169  -7.1792    122.5063     61.4988   8.8595398726e+01   4.6425425041e+01    0.1630887     0.152151  26.21 -8.621609e-05    1.110    0.099
       170  -8.8134     33.7631     60.3916   1.2522574210e+02   6.3367616508e+01    0.3378787    0.2246044  17.84  0.001261092    1.632    0.387
       171 -10.6739     39.0554     57.0841   1.2144593810e+02   6.3653903061e+01    0.2973863    0.2484221 -31.90 0.0003058153    1.166    0.143
       172  -7.9035    111.3078     58.6703   9.0896730666e+01   4.9766907115e+01    0.3286327    0.1803101  32.13   0.00115884    2.427    0.588
       173  -9.4278      2.1840     55.8404   1.4165747983e+02   6.6370686378e+01    0.6069381    0.2632156 -66.93   0.00285825    1.828    0.453
       174 -10.1457      9.8092     47.7960   1.3598898453e+02   6.8158697587e+01    0.7888296     0.264167 -38.74  0.002973276    2.883    0.653
       175  -8.0333     99.4170     54.8144   9.3342975051e+01   5.3384623195e+01    0.2209926    0.1522146 -25.82    0.0009427    1.671    0.401
       176  -9.1656     74.9546     50.5175   1.0118577191e+02   5.9594605755e+01    0.4331294    0.3118442  -0.73 0.0003859441    1.874    0.466
       177  -8.2502    118.4962     51.1753   8.5903849031e+01   4.9335784644e+01    0.3182424    0.2112359  73.98  0.001291555    1.891    0.471
       178 -10.3272     45.2390     49.0820   1.1539493245e+02   6.4844033921e+01    0.3291051    0.2590429  -6.59 0.0006948145    1.375    0.273
       179  -7.2807     91.3176     48.3229   9.3631150654e+01   5.6527913978e+01    0.1606196    0.1213174   9.95 0.0007043601    1.668    0.400
       180  -9.7322     24.3452     47.3156   1.2701137427e+02   6.7437567447e+01    0.6307251    0.2856253  -0.06  0.001516299    3.025    0.669
       181  -9.1908     30.3958     44.6846   1.2250964087e+02   6.7560199478e+01     0.410792    0.2214954 -11.92  0.001727143    2.532    0.605
       182  -8.1143    106.9298     48.0832   8.8155426510e+01   5.2824315065e+01    0.2275983    0.2167703  41.87  0.001184132    1.011    0.010
       183  -9.2615      2.3279     45.6646   1.4017308212e+02   6.8919398204e+01    0.3083236    0.2861801   2.46  0.001955228    1.250    0.200
       184  -9.0882      3.7556     39.8420   1.3829353777e+02   7.0323573257e+01    0.3889243    0.1411344 -72.40  0.001667645    2.291    0.563
       185  -7.6058     80.2447     44.5939   9.6402908141e+01   5.9705548738e+01    0.2186904    0.1391933  34.11 0.0009440796    1.638    0.390
       186  -9.7707     38.9755     41.8337   1.1627151039e+02   6.7312161649e+01      0.72695    0.3016101  17.22  0.002621244    3.252    0.692
       187  -8.2426     92.7937     42.3197   9.0519008015e+01   5.7300040096e+01    0.2979734    0.2055978  -0.02  0.001232077    2.082    0.520
       188  -9.6794     17.0267     39.4060   1.2941755471e+02   6.9867457527e+01    0.6356446    0.1461834 -44.61  0.002125103    3.632    0.725
       189 -10.1730     83.3671     39.9695   9.3061715241e+01   5.9897068479e+01    0.3632667    0.2594906  31.01 8.945936e-05    1.467    0.318
       190  -6.6805    145.5114     39.4823   7.5057486034e+01   4.3960749174e+01    0.1544993    0.1471443  68.28 0.0008101386    1.029    0.029
       191  -8.7010    106.4598     36.8664   8.3605104164e+01   5.4840041060e+01    0.4128651    0.2472023  30.38   0.00162427    2.120    0.528
       192  -8.4378     92.1536     36.8735   8.8318366647e+01   5.8402960287e+01    0.2792344    0.2144383  34.07 0.0006939798    1.312    0.238
       193  -9.5509     96.1003     33.2990   8.5311900223e+01   5.8025558109e+01    0.3066988    0.2561703  24.19  0.000264609    1.250    0.200
       194  -9.3875     54.6688     36.6007   1.0497671791e+02   6.6203568798e+01    0.3334205    0.2513401  13.34 0.0007076618    1.424    0.298
       195  -9.4263     38.1282     35.3793   1.1415253614e+02   6.8871588391e+01     0.332261    0.2508617   3.72  0.001006361    1.393    0.282
       196  -7.7505    122.8142     40.7883   8.0677910250e+01   4.9926199831e+01    0.2767247    0.1577004  25.30 0.0009512939    2.832    0.647
       197  -8.7621     67.8613     36.0339   9.7983266667e+01   6.3907246513e+01    0.3752536     0.185596  52.44  0.001436185    2.453    0.592
       198  -8.7297     81.6979     32.2087   9.0074843057e+01   6.1639647338e+01    0.4380227    0.2780579  13.61  0.001095162    2.348    0.574
       199  -9.2507      7.0870     33.7655   1.3474736332e+02   7.1701398159e+01    0.3477958    0.2120861 -36.35  0.001355701    1.485    0.327
       200  -7.5565    143.9553     34.0369   7.3385701591e+01   4.5147691317e+01    0.1876893    0.1644147  70.66  0.000351835    1.084    0.077
       201  -8.5762     20.4695     32.4587   1.2484941513e+02   7.1286601439e+01     0.261491    0.1259199  18.28  0.001211779    2.197    0.545
       202  -9.1406    127.9318     30.2039   7.5226644821e+01   5.0078329052e+01    0.2439161    0.2242629  -8.92 0.0002375611    1.193    0.161
       203  -8.3602    112.6215     29.9400   7.8848533794e+01   5.4263977041e+01    0.3577587    0.2035892  33.07  0.001388242    2.187    0.543
       204  -7.6417    105.0116     31.5137   8.1685963583e+01   5.6037425440e+01    0.2326457    0.1454109  56.95 0.0006281054    1.514    0.339
       205  -7.9383     88.6823     30.7369   8.6697151737e+01   6.0244640030e+01    0.3002978    0.1703463  42.17   0.00126129    1.721    0.419
       206  -9.0756      1.5971     29.6716   1.3777438219e+02   7.2834016339e+01    0.3229889    0.1402607 -70.31  0.001209317    1.917    0.478
       207  -7.7372    153.4545     27.0417   6.9196134186e+01   4.3431262446e+01    0.1981612    0.1272019  16.79 0.0007188313    2.290    0.563
       208  -7.6173    124.0000     26.9023   7.4764609869e+01   5.1595272509e+01    0.2356528   0.08886411 -27.19 0.0007081241    2.836    0.647
       209  -9.6357     71.8186     26.0144   9.1092873075e+01   6.4865694653e+01    0.4841436    0.2556629  41.81  0.001318343    1.821    0.451
       210  -8.8881     62.3476     26.8496   9.6029080762e+01   6.6678334285e+01    0.3296475    0.1850313  37.83 0.0009840138    1.749    0.428
       211  -8.7270     57.4119     25.2934   9.7756423838e+01   6.7898413692e+01      0.26804    0.2356856  23.89 0.0006669412    1.089    0.082
       212  -8.9629     48.2149     25.8419   1.0327941780e+02   6.9403886798e+01    0.4235705    0.1874186  28.29  0.001332279    2.643    0.622
       213  -8.7560    229.5309     22.2884   5.9439263650e+01   2.4805871951e+01    0.3223187    0.1899781 -25.21  0.001198573    1.668    0.400
       214  -9.5043     83.4012     22.0846   8.4301258082e+01   6.2822947191e+01    0.6155326    0.2586567  47.61  0.001756699    2.179    0.541
       215  -7.8150    249.6492    249.7167   1.0308151915e+02  -6.6770425965e+00     0.107929   0.05451563   7.85 0.0007017609    1.655    0.396
       216  -7.6735    130.6865     21.7122   7.1237254650e+01   5.0394901355e+01    0.1566742    0.1080996  37.99 0.0002653711    1.584    0.369
       217  -8.4474     92.5018     20.4127   8.0294599974e+01   6.0809736600e+01    0.3257786    0.2497703  11.45  0.001460504    1.481    0.325
       218  -8.5310    151.0123    249.4961   1.2053708322e+02   5.2042854633e+00    0.1838988   0.08532712  31.05 0.0005613574    1.572    0.364
       219  -7.4988    116.9092     19.8823   7.3396061724e+01   5.4416128582e+01    0.2065202    0.1721427 -75.46 0.0003950716    1.316    0.240
       220  -7.7351     45.5237     20.4862   1.0194778197e+02   7.0844470676e+01    0.1405984    0.1215197  -4.55 1.538801e-05    1.051    0.048
       221  -8.7142    234.1227    246.8781   1.0516335979e+02  -4.7503291700e+00    0.1534691    0.1092116  14.60 0.0004517031    1.193    0.161
       222  -7.9279     74.0053    247.7693   1.3592632583e+02   1.5323995345e+01    0.1616575    0.0709653  33.75 0.0008848686    1.663    0.399
       223  -7.6856    127.7201     17.0422   6.9913797413e+01   5.1757004044e+01    0.1964194    0.1912207  66.37 0.0003492387    1.064    0.060
       224  -7.3240    201.5603     16.5227   6.0163275371e+01   3.1952380641e+01    0.1374154    0.1183606 -62.03 0.0001237574    1.013    0.013
       225  -8.5750     50.4114     15.1142   9.5736882144e+01   7.0929941150e+01    0.2739404    0.2050103  22.50 0.0007527664    1.294    0.227
       226  -8.1818     31.9636    247.4915   1.4432543146e+02   1.9997383020e+01    0.1664404   0.08082808  33.51 0.0007551815    1.576    0.366
       227  -8.0982     18.2988    247.6715   1.4697020024e+02   2.1291869261e+01    0.1159723   0.04884869  53.26 0.0007028925    1.638    0.390
       228  -8.5393    146.6319     14.1137   6.5580827824e+01   4.6791784800e+01    0.2635989    0.1925087  64.32 0.0003068524    1.267    0.211
       229  -9.4810    243.6514    244.5237   1.0329335008e+02  -5.5676338891e+00    0.2688831    0.1236522 -18.99  0.001696769    2.108    0.526
       230  -7.5549    151.0015     12.9952   6.4551776923e+01   4.5691382338e+01    0.1774493    0.1585946  84.73 0.0003565356    1.020    0.020
       231  -8.7412     88.9104     12.9250   7.7567779339e+01   6.2657269387e+01     0.329755     0.170324  41.84   0.00120646    1.893    0.472
       232  -9.8427    200.3303    249.2352   1.1126243497e+02  -1.0544194899e+00    0.3282158    0.1806948  16.00  0.001191229    1.502    0.334
       233 -10.4153    192.9579    244.1404   1.1192113689e+02   4.2776298182e-01    0.3235321    0.2361371  18.08   0.00158641    1.063    0.059
       234  -9.8936    163.8591    245.0650   1.1752086498e+02   4.0832023965e+00    0.2573857    0.1748997  -3.68    0.0016834    1.658    0.397
       235  -9.8411    157.0246    245.0351   1.1884810316e+02   4.9925141767e+00    0.3139023    0.1872177  18.06  0.001915854    1.522    0.343
       236  -9.7313    176.4773    243.8621   1.1495382984e+02   2.5767726728e+00    0.3046835    0.1715114  -0.50  0.001451605    2.348    0.574
       237  -9.1985    224.8595    243.6083   1.0624244928e+02  -3.3794766793e+00    0.1743183    0.1328178 -11.38 0.0006362061    1.398    0.284
       238  -7.3024    112.3212    244.3247   1.2778367241e+02   1.1045115399e+01    0.1129449   0.08092772   7.97 0.0002590404    1.680    0.405
       239  -7.6629     42.4836    244.4281   1.4212273275e+02   1.9427384114e+01     0.113151   0.07903338  46.50 5.828304e-05    1.011    0.011
       240  -7.8569    233.9355    243.4763   1.0471507153e+02  -4.3994405639e+00    0.1562216   0.07786104  26.55 0.0004791265    1.537    0.349
       241  -7.8343     95.9673    243.5190   1.3109365230e+02   1.3288900997e+01    0.1538775   0.09010307  13.01  0.000610686    2.339    0.573
       242  -7.7249     25.9464    241.2220   1.4529566430e+02   2.1654454519e+01    0.1458113   0.06629726  34.25 0.0007942649    1.647    0.393
       243  -9.0235    170.4995    239.5153   1.1554559022e+02   3.9098619695e+00    0.2501864    0.1623128  10.82  0.001301491    1.458    0.314
       244  -9.9986    249.3402    235.1798   1.0103603049e+02  -5.2971292653e+00    0.3703809    0.2123096 -23.92  0.001504169    1.692    0.409
       245  -7.5967    121.5308    239.5073   1.2540894036e+02   1.0547195811e+01     0.121833   0.09066096  31.71 8.245226e-05    1.029    0.028
       246  -8.8600    242.3219    236.8465   1.0239686525e+02  -4.6871020261e+00    0.2280236    0.1349767 -13.77  0.001623914    1.477    0.323
       247  -8.1600    224.0128    238.4735   1.0565725989e+02  -2.7532266424e+00     0.161106   0.08148374  27.62 0.0005239151    1.530    0.347
       248  -8.4751    195.2866    236.5973   1.1047344234e+02   1.0072692800e+00    0.2501689    0.1565171   4.92  0.001025557    1.508    0.337
       249  -7.8927     79.9682    238.4882   1.3404552176e+02   1.6118434607e+01    0.1919339    0.0892884  33.67   0.00104065    1.614    0.380
       250  -7.8513    148.1764    237.6029   1.1972987930e+02   7.1930346222e+00    0.1723009   0.08916012  25.18 0.0006093259    1.638    0.390
       251  -7.5548    112.4722    237.4995   1.2710118173e+02   1.2073696480e+01    0.1216909   0.09228235  30.03 0.0008082746    1.095    0.087
