#   1 NUMBER                 Running object number                                     
#   2 MAG_AUTO               Kron-like elliptical aperture magnitude                    [mag]
#   3 X_IMAGE                Object position along x                                    [pixel]
#   4 Y_IMAGE                Object position along y                                    [pixel]
#   5 X_WORLD                Barycenter position along world x axis                     [deg]
#   6 Y_WORLD                Barycenter position along world y axis                     [deg]
#   7 A_WORLD                Profile RMS along major axis (world units)                 [deg]
#   8 B_WORLD                Profile RMS along minor axis (world units)                 [deg]
#   9 THETA_WORLD            Position angle (CCW/world-x)                               [deg]
#  10 FWHM_WORLD             FWHM assuming a gaussian core                              [deg]
#  11 ELONGATION             A_IMAGE/B_IMAGE                                           
#  12 ELLIPTICITY            1 - B_IMAGE/A_IMAGE                                       
         1 -11.2959    213.3489     37.8133   1.7353264543e+01   2.7267487122e+01    0.6527725    0.6430832 -76.78   0.00150974    1.175    0.149
         2  -9.8062    235.9948     10.6607   8.5958976200e+00   2.5262893570e+01    0.5109465    0.3944472 -24.90  0.003140914    1.587    0.370
         3  -9.8677    241.0441     16.5237   9.4617801890e+00   2.3448400715e+01    0.5467304    0.3542739  88.55  0.003126507    1.441    0.306
         4 -10.0760    243.6563     13.2209   8.5268325389e+00   2.3251906375e+01    0.8107086    0.3140867 -44.94   0.00378663    2.173    0.540
         5  -9.8380    119.5818      9.6968   2.4051530757e+01   5.3843208028e+01    0.5672208    0.3347667  33.99  0.002825869    1.733    0.423
         6  -7.4351     83.8323      8.6639   3.2788000590e+01   6.1705021528e+01    0.1633837    0.1114911  56.66 0.0002145117    1.572    0.364
         7  -8.4634     99.8053      2.8461   2.5945374213e+01   5.8920264194e+01    0.1997296    0.1510746  31.03 0.0005122772    1.182    0.154
         8  -8.2558    171.0055      1.5124   1.2894118558e+01   4.1943668135e+01    0.2104346    0.1164251  73.12   0.00102835    1.586    0.370
         9  -7.8607    118.6965    239.2223   8.0149114544e+01   9.3880923610e+00    0.1466375    0.1112948 -53.34 0.0002843163    1.623    0.384
        10 -10.1161     97.5391    248.1550   8.5109727518e+01   1.1088846003e+01    0.2207114    0.1973256 -83.54 0.0007234681    1.311    0.237
        11  -9.3689     71.8255    242.4612   8.9337670154e+01   1.5772726945e+01     0.438764    0.1419882 -64.15  0.002041646    3.255    0.693
        12 -12.9211      7.7004    160.8566   9.5561187225e+01   4.0061836506e+01     4.737236     1.301482 -80.75   0.01847289    3.412    0.707
        13  -9.8340    123.8886    229.1095   7.7908773797e+01   1.0342089347e+01    0.5340698    0.2660133 -66.15  0.002517758    2.654    0.623
        14  -8.0074    132.6528    231.3076   7.6434928639e+01   8.5046789482e+00    0.1337817   0.08697695  63.66 0.0007043516    1.702    0.413
        15  -8.0519    185.7415    229.2092   6.5615079815e+01  -1.2202095871e-01    0.2646903    0.1103483 -40.64  0.001187259    2.806    0.644
        16  -7.5329    147.6265    222.1574   7.2155830661e+01   7.5785041950e+00    0.1628782    0.1239702 -36.63 0.0002678373    1.618    0.382
        17  -8.2315    145.9698    218.3052   7.1933291493e+01   8.5532459196e+00    0.1878612     0.153453  41.98 0.0003646049    1.062    0.058
        18  -7.7832    152.5498    217.1357   7.0400652230e+01   7.6107379519e+00    0.2508448    0.1448482  24.15 0.0006373348    2.244    0.554
        19  -7.0260    235.4986    213.4802   5.3566069471e+01  -5.9749751975e+00    0.1249887    0.1048545   9.84 0.0001069887    1.060    0.057
        20 -12.8584     39.0719    240.3186   9.5027986038e+01   2.0342541736e+01     1.708676     0.745709  79.18  0.008995358    2.421    0.587
        21  -7.4322     99.3140    210.3572   8.0628588395e+01   1.7923563009e+01    0.1217932    0.1044643 -16.93 0.0007044106    1.744    0.427
        22 -13.3752     30.8926    247.6842   9.6855347337e+01   1.9946281315e+01     2.037776     0.868333  72.86   0.01139061    2.209    0.547
        23  -8.6024    124.2095    205.8053   7.4696737272e+01   1.4716056951e+01    0.1718431    0.1590626   9.75 0.0003196757    1.318    0.241
        24  -7.9317     78.9792    204.0013   8.4183680718e+01   2.2334469034e+01    0.1933472    0.1578832  72.50 0.0003565801    1.040    0.038
        25  -7.9606     72.8560    204.4132   8.5524206640e+01   2.3123711603e+01    0.2097286    0.1490388 -89.13 0.0005324937    1.335    0.251
        26  -9.5581    107.7635    231.8982   8.1452696555e+01   1.2424288606e+01    0.3961179    0.2511654 -86.77  0.002117974    1.976    0.494
        27 -12.9813     52.6443    229.0501   9.1796971016e+01   2.0821110201e+01     1.693669    0.8649266  86.30  0.004070196    2.030    0.507
        28  -7.3414     84.5200    200.4260   8.2577875266e+01   2.2275897603e+01    0.1298326    0.1130818  68.59 0.0001439016    1.055    0.053
        29 -14.7321     10.2300    209.3289   9.8298054811e+01   2.9453852798e+01     2.998914     1.322925 -82.60   0.01725679    1.890    0.471
        30  -9.6566    135.2973    185.8779   6.9095028872e+01   1.6807101141e+01    0.2595667    0.2437349 -61.38 0.0003707959    1.145    0.127
        31 -11.5996     50.3321    179.9371   8.7782076901e+01   3.1469690479e+01     1.092559     0.590978  71.80  0.005245699    1.999    0.500
        32  -8.0606    141.2294    183.4500   6.7326707135e+01   1.6202227114e+01    0.2646819    0.1349839  37.27 0.0008825856    1.934    0.483
        33  -9.7698     67.1284    176.5320   8.3532349889e+01   3.0084256004e+01    0.9716596    0.4342841  63.37  0.003770574    3.050    0.672
        34 -10.4617     78.5768    157.6476   7.8060683070e+01   3.2881477771e+01    0.9281394     0.648863  87.07  0.004721375    1.553    0.356
        35  -9.5946     66.3190    168.9759   8.2741869043e+01   3.1944717757e+01     0.392365    0.2778421 -33.29  0.001762597    2.088    0.521
        36  -9.7128     70.8458    164.5630   8.1032315288e+01   3.2356459552e+01    0.3127632    0.2817533 -19.74 0.0008911883    1.485    0.327
        37 -10.6912     68.0504    151.4979   7.9796465963e+01   3.5852325748e+01    0.5004812    0.3493833 -54.77  0.002268544    1.414    0.293
        38 -10.8908     69.9586    145.1260   7.8276617969e+01   3.7123467858e+01    0.9702995    0.5105347  64.60   0.00335546    2.665    0.625
        39 -13.4989     12.1046    246.3035   9.9849034275e+01   2.2223095475e+01     1.217929    0.3236522 -69.01   0.00575815    3.492    0.714
        40  -6.9424    108.7311    176.7240   7.3728582349e+01   2.3580126623e+01    0.1279278     0.113028 -16.23 0.0001745177    1.482    0.325
        41  -9.0066     78.4152    174.1573   8.0555402231e+01   2.9030927011e+01    0.2871332     0.240293 -20.36 0.0006069397    1.728    0.421
        42  -9.4573     33.9483    173.0270   9.0757642161e+01   3.4894349066e+01    0.4118657    0.1995964  68.43   0.00197605    2.254    0.556
        43  -7.3027    195.4694    183.4891   5.5590551774e+01   5.7250649272e+00    0.1393924    0.1310423  26.50 -1.106658e-05    1.082    0.076
        44  -7.8504    103.4843    172.4664   7.4287481418e+01   2.5442582034e+01    0.1419227    0.1309308  74.64 8.317431e-05    1.023    0.022
        45 -13.5500      3.3347    240.7951   1.0100839764e+02   2.4089966153e+01    0.4579127    0.4077009  50.75  0.003971839    1.594    0.373
        46  -8.8166     48.6529    162.4059   8.6166030993e+01   3.5717404809e+01    0.3400511    0.2091864  59.17  0.001358227    1.631    0.387
        47 -13.1387     10.9094    238.8651   9.9699962123e+01   2.3692107238e+01     0.391146    0.2454442  85.22  0.001026456    1.254    0.203
        48  -7.8230    222.1419    161.7989   4.5875325068e+01   4.4269790248e+00    0.1939561    0.1855955 -42.44 0.0005717571    1.201    0.167
        49 -13.3233      5.4125    249.1294   1.0102602402e+02   2.2397292237e+01    0.7779981    0.4691424  33.02  0.002514649    2.134    0.531
        50  -7.8868     43.9671    157.6663   8.6731004789e+01   3.7367974131e+01     0.170747    0.1482036  74.72 0.0004130792    1.108    0.097
        51  -8.4523     25.8065    149.4322   9.0248003216e+01   4.1145843388e+01     0.396821    0.2208799  32.38  0.002194962    2.043    0.510
        52  -9.1346     23.6944    153.5990   9.1200749554e+01   4.0367774871e+01    0.3573068    0.2147688  64.41 0.0009729931    1.664    0.399
        53  -7.9986     29.1930    156.6100   9.0194964627e+01   3.9153284989e+01    0.1762005    0.1324303  84.53  0.000525498    1.145    0.126
        54  -7.6405     60.4917    155.5163   8.2327820946e+01   3.5893833801e+01    0.1357293    0.1171846 -88.55 0.0001547119    1.008    0.008
        55  -7.2866     48.6300    155.1962   8.5267581844e+01   3.7421198938e+01    0.1727237    0.1050713 -61.62 0.0002247105    1.492    0.330
        56  -8.3407     85.6744    151.6613   7.5246545925e+01   3.3230912072e+01    0.2477401    0.2280737 -68.00  0.000712164    1.095    0.086
        57  -9.0093     88.4709    149.5180   7.4140893839e+01   3.3302615320e+01    0.3038953    0.2709041  82.64 0.0008827263    1.069    0.065
        58  -8.7367    133.8955    147.1878   6.1991184275e+01   2.5574700209e+01    0.4894791    0.2001834 -60.33  0.001478231    3.625    0.724
        59  -8.4134     54.4044    149.2390   8.2992154733e+01   3.8156205030e+01    0.1944562    0.1151129 -79.95 0.0009507755    1.668    0.401
        60  -7.3060     46.3209    149.3278   8.5082409959e+01   3.9080838735e+01    0.1304921   0.09221297 -42.98 0.0002082172    1.687    0.407
        61  -8.1837     36.9231    144.9057   8.6918471274e+01   4.1140442197e+01    0.2627853    0.1596378  69.11  0.001377086    1.787    0.440
        62  -8.1034     22.6955    157.6172   9.1840124793e+01   3.9529254640e+01    0.2219726    0.1511372 -30.06   0.00125907    2.272    0.560
        63  -8.9347    148.4054    140.9257   5.7031085482e+01   2.3963988898e+01    0.3616431    0.2681261 -29.87 0.0009314075    1.558    0.358
        64  -9.6520     88.6350    136.3899   7.1636931408e+01   3.6432185217e+01    0.2848276    0.2382974 -60.59 0.0004250741    1.132    0.117
        65 -10.6648     58.8003    132.7634   7.9251438109e+01   4.1588206976e+01    0.6994598    0.4357531 -87.92  0.003341157    1.879    0.468
        66  -7.6835    102.3438    136.3258   6.7885727886e+01   3.4125764107e+01     0.151637    0.1184065 -17.66 0.0007050762    1.740    0.425
        67  -9.6136     68.1489    134.5780   7.6962026383e+01   3.9925425098e+01    0.3164645    0.2505087  72.60  0.001739673    1.337    0.252
        68 -13.7570     44.6462    198.9971   9.0870332044e+01   2.7944615332e+01     5.255852     2.211041  65.25   0.02346349    2.680    0.627
        69  -8.7265     33.4256    132.0496   8.6150863987e+01   4.4545318968e+01     0.299139    0.1772201  63.72  0.001114505    1.941    0.485
        70  -7.3813    119.3536    132.7106   6.2535085827e+01   3.1803751319e+01    0.1587185    0.1189957  77.00 0.0007026346    1.675    0.403
        71  -8.7070     43.8729    130.2867   8.3017350225e+01   4.3914889500e+01    0.2948799    0.1392047  47.38   0.00134393    2.364    0.577
        72  -9.4328     69.3542    128.6573   7.5540362438e+01   4.1194170690e+01    0.2878893    0.1887964  22.75  0.001396035    1.916    0.478
        73  -8.7426     48.0155    124.4730   8.0912437207e+01   4.4862999851e+01      0.18387    0.1342262  30.14  0.001030305    1.588    0.370
        74  -7.7384    126.8947    125.6846   5.8900584528e+01   3.1913963336e+01    0.2096716    0.1981504  69.49 0.0005225707    1.070    0.065
        75  -8.4067     97.8794    124.5085   6.6563486656e+01   3.7726169532e+01    0.2664688    0.2230098 -20.12 0.0008546158    1.443    0.307
        76  -8.2777     15.3479    123.9760   9.0038703085e+01   4.7971331751e+01    0.2539046    0.1475958  49.07  0.001438135    1.925    0.481
        77  -7.3907     66.2721    120.3182   7.4825150616e+01   4.3628490271e+01    0.1394806    0.1000321 -36.74 0.0002284525    1.564    0.361
        78 -10.2652     54.9244    118.2735   7.7794196426e+01   4.5559649488e+01    0.2571669    0.2152982 -57.44 0.0002051944    1.085    0.078
        79  -7.2597    107.2732    117.9919   6.2397253212e+01   3.7558821034e+01    0.1871383    0.1301002 -51.96 0.0004174281    1.394    0.283
        80 -10.2463     96.9391    223.2759   8.2640276850e+01   1.5732248094e+01    0.7251101    0.3556244 -78.22  0.003274461    2.815    0.645
        81  -7.7719     45.5003    115.5298   8.0108184548e+01   4.7282316427e+01    0.1341953    0.1141686 -60.62 1.769245e-05    1.050    0.048
        82  -7.7669     39.5184    114.4658   8.1715515671e+01   4.8151478087e+01    0.1319442    0.1111765 -63.76 6.590653e-05    1.029    0.028
        83  -9.9880    102.4889    229.6595   8.2244399774e+01   1.3661644868e+01    0.5198174    0.1903661  35.23  0.002114513    2.901    0.655
        84  -8.0096     51.4859    111.0041   7.7449536980e+01   4.7700735382e+01    0.2111789    0.1183459 -61.67   0.00102128    1.556    0.357
        85  -7.3659    106.2170    106.9112   5.9929433541e+01   4.0314689992e+01     0.193881    0.1204068 -51.42  0.000274587    1.573    0.364
        86  -6.9831     22.6995    101.7304   8.4732705486e+01   5.2618673225e+01    0.1233078   0.07936079 -42.81 0.0002292239    1.526    0.345
        87  -7.5268     34.6462     96.6822   7.9999904842e+01   5.2795744472e+01    0.1370675   0.08311488 -36.87 0.0007046475    1.745    0.427
        88  -8.1557    199.9531     83.8577   3.1351078759e+01   2.3423304598e+01    0.2147524     0.209091 -80.44 0.0003602485    1.026    0.026
        89  -8.3555    126.5154     81.8371   4.7094856916e+01   4.1501196520e+01    0.2554016    0.2057747  45.25 0.0002686977    1.240    0.194
        90  -7.4851     95.0979     81.1555   5.6099201812e+01   4.8044398419e+01    0.1845725    0.1699245 -78.69 0.0002514194    1.260    0.207
        91  -7.3109    212.9152     80.7710   2.8354396960e+01   2.0841186558e+01    0.1792144    0.1211208  57.00 0.0003572002    1.523    0.344
        92  -7.7897    238.0026     75.4561   2.3337208170e+01   1.5943135162e+01    0.1972237    0.1359905  60.36 0.0004355349    1.551    0.355
        93  -8.8929     97.7664     68.7201   5.1366209485e+01   5.0047451885e+01    0.3023711    0.2318767 -13.58  0.001060638    1.461    0.315
        94  -8.2265    188.2892     62.9786   2.7768771714e+01   2.9814956351e+01    0.2097364     0.188218 -51.31 0.0004016673    1.103    0.094
        95  -7.6062    166.1757     62.8273   3.1885170437e+01   3.5421457895e+01    0.1970608    0.1747205  19.83            0    1.272    0.214
        96  -7.8841    143.8093     59.5297   3.5737335635e+01   4.1522342352e+01    0.2383092    0.2020619 -65.41 0.0008727947    1.338    0.252
        97 -10.2596    191.5726     54.9520   2.4997678365e+01   3.0238038386e+01    0.4209164    0.3339701  60.67  0.001227504    1.231    0.188
        98 -11.2844    202.9798     47.0920   2.1133162631e+01   2.8537350501e+01    0.8478729    0.7747906 -62.88   0.00459278    1.058    0.055
        99  -7.4462    132.0000    249.0063   7.8730591337e+01   5.6337756411e+00    0.1698449   0.07089812 -55.28 0.0008068884    2.973    0.664
       100  -6.9507     94.9875     52.7320   4.6795447021e+01   5.3498823443e+01    0.1648195    0.1195283  39.87 0.0002796471    1.366    0.268
       101  -8.0758    146.7583     46.4343   3.0876594499e+01   4.2838543163e+01    0.2331613    0.2002386 -26.93 0.0003425441    1.237    0.191
       102  -8.7329    221.6540     39.9686   1.6876590168e+01   2.4975499780e+01    0.2620511    0.1896882  85.24 0.0006696194    1.360    0.264
       103  -8.4176    183.7029     25.5136   1.8007539577e+01   3.6229345050e+01    0.2141978    0.2111043 -89.88 0.0004678111    1.133    0.117
       104  -7.1904    134.6837     22.6825   2.5504937766e+01   4.8896127213e+01    0.1471604    0.0967616  32.20 0.0002977385    1.652    0.395
       105  -8.1814     75.6085    248.2050   8.9127057238e+01   1.4222083281e+01    0.1403289    0.1017032 -64.52 0.0008534373    1.656    0.396
       106  -8.7636     80.1345    245.6074   8.8084560782e+01   1.4052851455e+01    0.2999538    0.1580359  77.82  0.001581291    2.276    0.561
       107  -7.6942     90.4980    246.5458   8.6261426091e+01   1.2403373546e+01    0.1217085   0.09153198  59.37 0.0001502699    1.036    0.035
       108  -7.3848    206.8005     12.5709   1.1767273727e+01   3.1939917464e+01    0.1782491     0.112881  89.92 0.0002870467    1.513    0.339
       109  -8.9300    122.1408    237.0446   7.9223581680e+01   9.2172501802e+00    0.1995579    0.1489792  47.93 0.0003063547    1.093    0.085
       110  -8.7365    245.6759    240.6845   5.6446367925e+01  -1.0939801335e+01     0.211096    0.1311494  50.38  0.001171355    2.530    0.605
       111  -7.4969    228.5088    239.4743   5.9266966634e+01  -8.3316419540e+00    0.1200249   0.09485281  17.46 8.333083e-05    1.039    0.038
