#   1 NUMBER                 Running object number                                     
#   2 MAG_AUTO               Kron-like elliptical aperture magnitude                    [mag]
#   3 X_IMAGE                Object position along x                                    [pixel]
#   4 Y_IMAGE                Object position along y                                    [pixel]
#   5 X_WORLD                Barycenter position along world x axis                     [deg]
#   6 Y_WORLD                Barycenter position along world y axis                     [deg]
#   7 A_WORLD                Profile RMS along major axis (world units)                 [deg]
#   8 B_WORLD                Profile RMS along minor axis (world units)                 [deg]
#   9 THETA_WORLD            Position angle (CCW/world-x)                               [deg]
#  10 FWHM_WORLD             FWHM assuming a gaussian core                              [deg]
#  11 ELONGATION             A_IMAGE/B_IMAGE                                           
#  12 ELLIPTICITY            1 - B_IMAGE/A_IMAGE                                       
         1 -10.6688     49.4583     14.1814   4.9103281693e+01   7.0549518383e+01    0.2738115     0.197888  21.47 0.0008832794    1.499    0.333
         2 -10.7542     34.9380     13.6794   5.7278980375e+01   7.3420142127e+01    0.2284627    0.1836361 -43.13 0.0006748233    1.350    0.259
         3 -10.7620     32.3543     10.1835   5.6577484440e+01   7.4443474331e+01    0.2030527    0.1266225 -35.87  0.001040295    1.599    0.375
         4 -11.6469    161.9689     11.5424   2.1737170234e+01   4.2382402123e+01     0.273023      0.16071 -43.85 0.0008038637    1.563    0.360
         5 -11.8695     56.1230      9.4698   4.2863235404e+01   6.9742448871e+01    0.4408318    0.3397392  29.13  0.002271626    1.281    0.219
         6 -10.5871     45.1180     12.0247   4.9975995613e+01   7.1752804854e+01    0.2121398    0.1907318  11.46 0.0007042124    1.035    0.033
         7 -10.8271     27.2630     11.3088   6.1094750883e+01   7.5102127449e+01    0.2524794    0.1722217 -48.25  0.001352067    1.624    0.384
         8 -12.1468    241.1042      9.8972   1.6050520762e+01   2.5093528462e+01    0.3051591      0.10418 -36.17  0.001540744    2.028    0.507
         9 -11.2352    153.5907     10.8712   2.2355456068e+01   4.4569766687e+01    0.3298037    0.1127913  58.35  0.001247604    2.752    0.637
        10  -9.6772     69.4988      9.5287   3.7741139752e+01   6.6602131522e+01    0.2128908    0.1336413  71.79 0.0002675164    1.773    0.436
        11 -13.1401    176.7663      5.5615   1.8646099863e+01   3.9289097164e+01    0.6712582     0.320808 -51.55  0.003163359    1.906    0.475
        12 -10.9212     98.5570      8.5688   2.9501508675e+01   5.9295673844e+01    0.2889006    0.2312756 -64.76 0.0008813298    1.346    0.257
        13 -10.4554     78.2219      8.3325   3.4326338093e+01   6.4573178152e+01    0.2213417     0.197362 -34.61 0.0002786538    1.205    0.170
        14 -10.3627      3.2691      8.6657   8.1641993443e+01   7.8449244483e+01    0.1968282    0.1898729  34.57 0.0008167599    1.263    0.208
        15 -11.7380    123.8841      6.7581   2.4410947633e+01   5.2727029793e+01    0.3819381     0.254267 -77.30  0.001447915    1.574    0.365
        16 -11.7283     86.1716      7.2166   3.1609071089e+01   6.2657271964e+01    0.4563619    0.2506642  50.21  0.002065862    1.678    0.404
        17  -9.6850    115.2458      8.9696   2.6626430830e+01   5.4828821585e+01    0.1753491    0.1206956 -23.93 0.0008052611    1.546    0.353
        18 -10.2399    203.4099      4.7935   1.6723962352e+01   3.3220168861e+01    0.1549664     0.113592 -12.80 0.0001560006    1.559    0.359
        19  -9.8843     23.3212      5.6563   5.9989042403e+01   7.6675852704e+01    0.1206851    0.1064959  89.13 0.0007050029    1.728    0.421
        20 -11.1260    134.7881      4.2034   2.2040564522e+01   5.0056229176e+01    0.2740362    0.1853804  69.17 0.0005991818    1.375    0.273
        21 -11.1300    131.4725      3.9648   2.2336775828e+01   5.0952120921e+01    0.2235258    0.1810812  55.79 0.0005027503    1.248    0.199
        22 -10.2451     60.2374      4.1469   3.7691415640e+01   6.9403899828e+01    0.2111468    0.1678446  30.38  0.000908059    1.221    0.181
        23 -11.0078    230.8012      2.2433   1.4770271858e+01   2.7756959984e+01    0.3171458    0.1723546  89.40   0.00131936    1.939    0.484
        24 -11.3731    114.0043      1.9515   2.3804585002e+01   5.5766316816e+01    0.4633775    0.2050482  73.86  0.001507289    2.080    0.519
        25 -11.1505     38.7310      2.7286   4.6807048277e+01   7.4312989318e+01    0.3404154    0.2386125  56.39  0.001478003    1.538    0.350
        26 -10.7050    143.2825      1.9528   2.0315476744e+01   4.8015890680e+01     0.184193    0.1751415 -77.54 0.0005690354    1.072    0.067
        27 -12.9646    101.3839    212.6165   8.3670251351e+01   1.8808770000e+01    0.4555816    0.2333964  38.86  0.002399081    1.624    0.384
        28 -10.5794     66.4286    250.3616   9.4567761475e+01   1.6520413877e+01    0.4125193    0.0991905  24.68  0.001493862    4.339    0.770
        29 -16.3943     23.6586    163.0764   9.9193015347e+01   3.8168823351e+01     11.95567          nan  36.21   0.02717276    8.199    0.878
        30 -12.6761    111.5840    189.2014   7.8337280397e+01   2.1723618762e+01    0.4325568    0.2496628 -73.23   0.00196776    2.835    0.647
        31 -14.1883     17.0152    227.8595   1.0396224084e+02   2.5137532377e+01     1.490292    0.5072491  78.20  0.006899586    3.483    0.713
        32 -11.0701    122.6934    190.9371   7.5959286671e+01   1.9804295788e+01    0.1752869    0.1655051  17.21  0.001148872    1.120    0.107
        33 -10.9792    136.5026    208.9673   7.5415928263e+01   1.4777686427e+01    0.1629824    0.1225756 -43.90  0.000474391    1.562    0.360
        34 -12.9515     89.0022    173.3362   8.1830567667e+01   2.8151922086e+01    0.6356261    0.2893824  54.65  0.002411611    2.994    0.666
        35 -13.3887    109.4507    209.8024   8.1506451532e+01   1.8256668921e+01    0.4742643    0.3222794  60.16  0.002681393    1.897    0.473
        36 -12.4465    117.2405    207.7448   7.9490822734e+01   1.7580122938e+01    0.2797641    0.2149951 -86.01  0.001352511    1.949    0.487
        37 -10.4587    108.3192    166.6736   7.5749403738e+01   2.6685401695e+01    0.1414535    0.1034165  62.43 0.0007046433    1.680    0.405
        38 -11.7807     98.0038    165.4958   7.8273540191e+01   2.8513975765e+01    0.3011667    0.1548262  44.28  0.001270822    1.868    0.465
        39 -12.7223     83.2184    164.7848   8.2197221910e+01   3.0838137335e+01     0.325367    0.2482085  69.06  0.001468831    1.481    0.325
        40 -12.9789    106.9777    196.9661   8.0482901121e+01   2.0908491404e+01    0.5081208    0.2098265 -54.87  0.002278595    2.771    0.639
        41 -12.3403     47.3739    159.1328   9.1847286359e+01   3.6739805270e+01    0.6379728    0.2430078  45.99  0.002550591    2.422    0.587
        42 -13.1456     52.5430    155.9852   8.9948604918e+01   3.6898013929e+01    0.5558012    0.4249318  68.91  0.003068994    1.310    0.237
        43 -12.2120     74.5355    159.4707   8.3900798936e+01   3.3256817855e+01    0.2414865    0.2347551 -47.47 0.0006574717    1.133    0.118
        44 -12.1344     71.5242    159.4751   8.4771843261e+01   3.3666469253e+01    0.2703215    0.2104495  67.71 0.0007979494    1.358    0.264
        45 -12.3490     63.0530    155.1462   8.6686180657e+01   3.5800568695e+01    0.4045565    0.2718902  54.01  0.001632383    1.472    0.321
        46 -11.6861     85.9020    153.1017   7.9664049192e+01   3.3085083532e+01    0.2338658    0.1833982  58.17  0.001232536    1.328    0.247
        47  -9.5824    130.6939    151.3276   6.7326790999e+01   2.6138331191e+01    0.1381622    0.1124175  73.02 0.0007036608    1.653    0.395
        48 -10.1696    113.3214    162.6351   7.3784791416e+01   2.6732798597e+01     0.144032    0.1063153  66.94 0.0002158714    1.785    0.440
        49 -10.9940     85.9468    148.6864   7.8926128613e+01   3.4093877181e+01    0.2119434    0.1798267  39.25 0.0006606869    1.101    0.092
        50 -12.0667     80.2837    146.5245   8.0242846654e+01   3.5451314727e+01    0.3709837    0.3493443  45.30  0.002152427    1.007    0.007
        51 -10.2918     94.2105    143.3739   7.5586025064e+01   3.4017038955e+01    0.2206514    0.1229081  43.42 0.0009521281    1.727    0.421
        52 -14.8011      5.6816    198.7950   1.0562985122e+02   3.1717589661e+01     2.369412    0.6507803 -76.53   0.01012164    3.614    0.723
        53 -10.9866      5.6971    139.4646   1.0325800680e+02   4.5297898511e+01    0.3018217    0.2252194 -68.97  0.001401325    1.345    0.257
        54 -15.7706     32.2459    236.9653   1.0103115487e+02   2.2147711889e+01     3.020291     1.473455  22.27   0.01730225    1.906    0.475
        55 -11.2828     61.4874    129.9827   8.3467012805e+01   4.2175440212e+01    0.2435985    0.1821083  76.01   0.00106818    1.483    0.326
        56 -11.9441     58.4001    129.7640   8.4472829841e+01   4.2644798422e+01    0.4024532    0.2187063 -71.62   0.00172405    1.962    0.490
        57 -12.0144     47.6263    135.1702   8.8908716819e+01   4.2616907945e+01     0.380038    0.2291905  10.10  0.001630867    2.100    0.524
        58  -9.8123     81.3161    132.3331   7.7426142644e+01   3.8676272274e+01    0.1509109    0.1141757 -20.80 0.0003805089    1.688    0.408
        59 -11.6340    107.5835    132.7630   6.9652139589e+01   3.4140284569e+01    0.4072153    0.2476537 -31.42  0.001709988    2.114    0.527
        60  -9.9147     46.3975    131.1828   8.8780221044e+01   4.3774575037e+01    0.1994141    0.1304136 -89.05 0.0005275962    1.655    0.396
        61 -10.0606     25.5018    129.4571   9.5825495912e+01   4.6348305310e+01    0.1379163    0.1232231  69.79 0.0002329158    1.025    0.024
        62 -11.1693     50.6498    124.5726   8.6324594858e+01   4.4959784711e+01    0.5138854    0.1526132 -74.13  0.001386372    4.976    0.799
        63 -10.0490     38.5116    125.4997   9.0766826393e+01   4.6113862737e+01    0.1437921    0.1278167  67.55 0.0008097449    1.065    0.061
        64  -9.8014      5.7117    121.6926   1.0220391032e+02   4.9809158339e+01    0.1322243   0.09125464 -48.82 0.0002660588    1.573    0.364
        65 -11.1128     69.6943    118.9514   7.8660404701e+01   4.3767219767e+01    0.2062749    0.1945482 -82.34 0.0005179867    1.060    0.057
        66 -10.5297     53.5195    117.4877   8.4120202646e+01   4.6420862170e+01    0.2398257    0.2316945  59.02 0.0006949088    1.033    0.032
        67 -11.0203     91.8739    116.2678   7.0722700679e+01   4.0746447676e+01    0.2673396    0.2143586 -44.98 0.0003112324    1.287    0.223
        68 -10.2901     21.7811    116.0055   9.5767061238e+01   5.0168502798e+01    0.3419504    0.2042574 -36.45  0.001506609    2.023    0.506
        69  -9.6283     13.6226    117.7352   9.9004716055e+01   5.0329563584e+01    0.1372357    0.0949095 -37.22 0.0006985962    1.675    0.403
        70 -11.0114    247.3198    112.6674   3.7999140976e+01   1.2373543185e+01    0.1152042    0.0795886 -49.09  0.000704895    1.696    0.410
        71 -11.6410     41.1435    114.6886   8.8245559374e+01   4.8645999551e+01    0.3225943    0.1839557  58.91  0.001392352    1.981    0.495
        72  -9.8404    153.2016    114.2109   5.3754559653e+01   2.9118817149e+01    0.1924973    0.1732509 -78.74 0.0006124343    1.345    0.256
        73 -10.7782     79.3923    111.7456   7.3794929985e+01   4.4002497475e+01    0.3686661    0.2370929 -61.00  0.001238754    1.615    0.381
        74 -10.4948      2.3469    112.5490   1.0284848727e+02   5.2365491353e+01    0.3725941     0.147129 -62.89  0.001579696    2.297    0.565
        75 -11.1634     62.3313    112.6715   8.0009329940e+01   4.6446181730e+01    0.2509665    0.1697765  65.35  0.001123335    1.758    0.431
        76  -9.8417     85.6865    105.9845   7.0294699967e+01   4.4304056134e+01    0.2078833    0.1934218 -66.25 0.0003994615    1.093    0.085
        77  -9.9736     66.4424    103.5192   7.6531051539e+01   4.8149527117e+01    0.1480022    0.1446374  89.87  0.000174842    1.006    0.006
        78 -12.8158    249.1108     99.7562   3.5124010464e+01   1.3699303067e+01       0.4276    0.2663877   2.39  0.002384363    2.170    0.539
        79 -12.0031     50.8858     97.4048   8.1221190768e+01   5.1970804482e+01    0.3255388    0.1685535 -47.78  0.001332603    1.976    0.494
        80 -10.4332    103.4137     97.2079   6.2254519116e+01   4.2925824208e+01    0.2190616    0.1474978 -59.34 0.0009491775    1.667    0.400
        81 -10.3417     63.3267     94.9987   7.5694580003e+01   5.0782041921e+01    0.3685528     0.180998 -64.78   0.00139997    2.244    0.554
        82 -10.6678     61.9668     90.4795   7.5094187406e+01   5.2129929335e+01    0.2654426     0.248583  50.29  0.001443702    1.078    0.072
        83 -10.6846      3.7441     96.3865   1.0107862041e+02   5.6535255600e+01    0.3292792    0.1246029  15.68  0.001335787    2.825    0.646
        84 -10.1299     89.9675     95.0027   6.5974323412e+01   4.6100744949e+01    0.1827286    0.1815168  63.21  0.000503885    1.002    0.002
        85 -11.4140    132.2327     92.7621   5.2979469131e+01   3.7682333511e+01    0.2855239    0.2670136  49.12 0.0005710231    1.082    0.075
        86 -12.8524    249.1698     86.4399   3.2311797335e+01   1.5314297689e+01    0.5835302    0.1491354 -27.41  0.002114292    3.799    0.737
        87 -10.5285    107.8356     89.2034   5.8610803164e+01   4.3747373145e+01    0.2709101    0.2568026  49.37 0.0009929755    1.052    0.050
        88  -9.9635     78.5039     88.4739   6.8175085792e+01   4.9798330626e+01    0.1506904    0.1494317  78.65 0.0001522226    1.006    0.006
        89  -9.7571      1.6210     87.4346   1.0122527593e+02   5.8996159850e+01    0.2755416    0.0972196  80.35 0.0009515553    3.340    0.701
        90 -12.4060    240.0976     83.1536   3.2542310780e+01   1.7210878126e+01    0.2277537    0.1923718  -6.76  0.001569098    1.234    0.190
        91 -13.2058     53.4191     78.2693   7.5408989377e+01   5.6492868056e+01    0.6300362    0.5567919  61.74  0.002267053    1.210    0.174
        92 -12.7123     46.9743     80.4758   7.8891863906e+01   5.6851950967e+01    0.4599347    0.2466036 -63.06  0.001737979    1.844    0.458
        93 -11.5832     37.4808     91.5050   8.5644218076e+01   5.5157050149e+01    0.3204356    0.1383044 -67.96   0.00123188    2.247    0.555
        94 -10.5633    216.0046     78.2562   3.4155424303e+01   2.2175204925e+01    0.1756892    0.1575342  -5.52 0.0003713716    1.179    0.152
        95 -10.3984     77.9819     78.2563   6.5297792535e+01   5.2289429901e+01    0.2064712    0.1992558  35.86  0.000277366    1.039    0.038
        96  -9.4092     72.5142     78.4848   6.7478493133e+01   5.3259757331e+01     0.150092    0.1483376 -25.68 0.0001791049    1.016    0.016
        97 -10.5249     91.3547     74.9009   5.9390133490e+01   5.0339102261e+01    0.2608763    0.2072116  54.66 0.0005017697    1.305    0.234
        98  -9.9280     76.7388     71.4167   6.3535710878e+01   5.4086161227e+01    0.2068952    0.1465828  29.59 0.0005593404    1.538    0.350
        99 -12.8335     40.5768     69.8530   7.9045013923e+01   6.0381644418e+01     1.020335    0.2359629  27.62  0.002889137    4.542    0.780
       100  -9.6330    192.0800     65.9696   3.4131011451e+01   2.8715563143e+01    0.1540897    0.1429338 -46.52 0.0003355751    1.039    0.037
       101  -9.6483    204.4829     65.5619   3.2432663363e+01   2.6154801514e+01    0.1320824    0.1150069 -41.99 0.0001899385    1.030    0.029
       102  -9.7734    141.6273     65.2260   4.2452415870e+01   4.0499710637e+01    0.2009025    0.1419082 -23.25 0.0003357821    1.567    0.362
       103  -9.8739     67.0242     64.9707   6.5232830813e+01   5.7388662190e+01    0.1792914    0.1699347 -43.94            0    1.047    0.045
       104 -10.2083      4.2299     64.6102   9.7269395735e+01   6.4881186740e+01    0.2149858    0.1605198 -16.98 0.0006726451    1.461    0.316
       105  -9.5913    125.7529     64.3686   4.5768758871e+01   4.4495159846e+01    0.1559109    0.1136485 -63.49 0.0006945882    1.622    0.383
       106 -12.9182    249.1521     57.0673   2.5976050812e+01   1.8761845226e+01    0.6397542    0.1974975 -34.89  0.002957339    2.293    0.564
       107 -10.9974     98.6705     61.1732   5.2162118637e+01   5.1526702208e+01    0.4260286     0.275428 -68.00  0.001263916    2.304    0.566
       108 -10.6709     43.4966     62.5679   7.5377183470e+01   6.1794558275e+01    0.3476274    0.2385184  60.36  0.001604761    1.864    0.464
       109 -10.9595    240.5174     61.9857   2.7799815261e+01   1.9698259544e+01    0.1875271   0.09743103 -30.50 0.0004408238    1.553    0.356
       110 -11.0254     34.7104     61.3918   7.9602436059e+01   6.3220853708e+01    0.3732541    0.2412338  -4.47  0.001378844    2.029    0.507
       111 -10.6758    117.4155     61.2978   4.6816922322e+01   4.7058137039e+01    0.2855215    0.1796809  42.35 0.0008038693    1.676    0.403
       112 -10.4995    231.6710     60.6809   2.8319702787e+01   2.1452977224e+01    0.1181311   0.09019136  10.27 0.0007047472    1.686    0.407
       113 -10.1616     56.8370     60.1625   6.8034737168e+01   6.0294810367e+01    0.2174712    0.2018397  70.62 0.0004331956    1.188    0.159
       114 -11.3538      4.4070     59.9325   9.6447125805e+01   6.6087012247e+01    0.3758568    0.2302911  21.11  0.001938235    1.767    0.434
       115  -9.8238     21.8841     57.8553   8.5777478129e+01   6.5449099302e+01    0.1861999    0.1591717  66.51  0.000380153    1.311    0.237
       116 -10.6508     96.4738     55.6328   5.0771502926e+01   5.3086145285e+01    0.2527124    0.2471274 -30.18 0.0002697917    1.040    0.038
       117 -10.5962     78.1622     56.0124   5.7346174447e+01   5.7099675168e+01    0.2579697    0.2163655  44.02 0.0005604294    1.183    0.154
       118 -11.1670     64.5204     56.1332   6.3024353964e+01   5.9811602203e+01    0.3458557    0.2195278  50.41   0.00141852    1.712    0.416
       119 -11.5363    235.7807     51.6827   2.5877583860e+01   2.1750066127e+01    0.2617939    0.1536507 -63.10 0.0009005773    1.954    0.488
       120 -10.1300     23.4987     50.5376   8.2712916918e+01   6.7122213740e+01    0.1382701    0.1270715 -41.92 0.0002060054    1.006    0.006
       121 -11.4652     94.0443     48.8550   4.8864145881e+01   5.4890524264e+01    0.2417158    0.2158542 -26.46            0    1.165    0.142
       122 -12.2022    248.8501     45.6991   2.3514512928e+01   2.0073226699e+01    0.4546244    0.2063418 -27.01  0.002411531    1.855    0.461
       123  -9.5392    185.5201     47.9995   3.0074799738e+01   3.2576852373e+01    0.1922422    0.1229796 -33.29 2.314208e-05    1.424    0.298
       124 -10.6335      7.0659     46.1194   9.2084683012e+01   6.9475860704e+01    0.2151974    0.1543221 -43.24 0.0004914193    1.278    0.217
       125 -10.8177    119.0537     42.8202   3.9628517692e+01   4.9690361766e+01    0.4265701     0.187955 -43.40  0.001595428    2.332    0.571
       126 -10.2087     20.7836     44.8366   8.2600249721e+01   6.8772043759e+01     0.208507    0.1680239 -36.22 0.0003607027    1.172    0.147
       127 -10.8730     38.8244     43.8855   7.1058339919e+01   6.6829192818e+01    0.2778141    0.2117804  36.05  0.001465524    1.355    0.262
       128 -10.0332    235.6802     42.6942   2.3821197697e+01   2.2781134719e+01    0.1110131   0.08891989  13.12 0.0003561944    1.635    0.388
       129  -9.5666     64.6600     42.3076   5.7113112074e+01   6.2620082922e+01     0.146633     0.118642  87.56 0.0005181982    1.685    0.406
       130  -9.7060     45.5221     42.4552   6.6660948644e+01   6.6111566130e+01     0.140943    0.1353392 -12.84 0.0001202165    1.024    0.023
       131 -10.0887     69.4869     39.4268   5.3704135272e+01   6.2152830082e+01    0.1444068      0.14074  39.62 9.690131e-05    1.048    0.046
       132 -11.0155     39.8625     36.3544   6.7095640501e+01   6.8308270883e+01    0.4073519    0.2331617  23.38  0.001808022    2.013    0.503
       133  -9.6404     13.2584     37.6510   8.5375154610e+01   7.1148449371e+01     0.129149     0.100362  71.34   0.00021025    1.601    0.376
       134 -11.0594     81.9632     35.9858   4.7316586956e+01   5.9939933330e+01    0.2181243    0.2097729  27.29 0.0003047688    1.023    0.023
       135  -9.4667    174.3027     34.6892   2.7581361766e+01   3.6855396183e+01    0.1460945   0.09253667 -58.75  0.000701739    1.608    0.378
       136  -9.2845    138.7000     34.2758   3.2534157696e+01   4.5822496871e+01    0.1477243    0.1050785 -66.20 0.0002316981    1.536    0.349
       137 -10.2706     51.5067     33.3952   5.9131993530e+01   6.6897913644e+01    0.2251028    0.2071838  23.70 0.0005140298    1.059    0.056
       138 -10.4493     48.4967     32.4693   6.0256001061e+01   6.7629958946e+01    0.2339739    0.1844775 -27.91 6.924859e-05    1.284    0.221
       139 -11.2613    154.0756     31.9818   2.9350728851e+01   4.2174817058e+01    0.2110138    0.1968555 -73.38 0.0003643831    1.010    0.010
       140 -10.0616     92.2048     31.2211   4.1807287701e+01   5.8198132518e+01    0.1978024    0.1700708 -72.92 0.0004005153    1.308    0.235
       141 -10.3268     58.6724     36.3168   5.7027538067e+01   6.4963327633e+01    0.1427586    0.1172164 -90.00 0.0006606614    1.677    0.404
       142 -10.1998      3.7153     31.5622   9.0696404978e+01   7.3223889235e+01    0.1637808    0.1195311  25.26 0.0009244113    1.502    0.334
       143  -9.8828    180.8355     30.1500   2.5510706179e+01   3.5826670817e+01     0.165242    0.1545625  18.53 0.0002454309    1.262    0.207
       144  -9.7566     42.0020     28.9575   6.2084564759e+01   6.9450121270e+01    0.1668601    0.1515832  17.11 0.0003627267    1.067    0.063
       145 -10.3827     17.6126     31.6459   7.9920150647e+01   7.2177292880e+01    0.2027205    0.1996879 -82.01 0.0002769278    1.167    0.143
       146 -10.5993    160.4021     27.0538   2.6902742838e+01   4.1159164599e+01    0.2121686    0.1873499  63.70 0.0004071819    1.178    0.151
       147 -10.6402    131.7627     26.0902   3.0723712931e+01   4.8639121018e+01    0.2425694    0.1617388  23.38  0.001088682    2.018    0.505
       148  -9.2378     46.6935     26.7319   5.8172222453e+01   6.9031706078e+01    0.1388281    0.1050618   5.46 0.0002118982    1.535    0.348
       149 -11.2110     86.9100     22.7243   3.9341551807e+01   6.0698301222e+01    0.5379548    0.2516173 -52.99  0.001901544    3.135    0.681
       150 -10.1058    110.3384     24.5716   3.4229810287e+01   5.4446304870e+01    0.2672945       0.1417  72.18  0.001034424    1.993    0.498
       151 -12.1743     96.3908     22.2045   3.6472715242e+01   5.8360012276e+01    0.3396744    0.2695977  77.88 0.0002372385    1.306    0.234
       152 -10.0581     72.9052     22.6583   4.3933748677e+01   6.4113626556e+01    0.2001217    0.1736621  53.23 0.0004652069    1.117    0.104
       153 -10.7113     37.9616     22.9695   6.1193982657e+01   7.1266988250e+01    0.2346221    0.2294356  19.54 0.0004997896    1.150    0.130
       154 -11.5319     35.2491     19.7997   6.1041078357e+01   7.2302364824e+01    0.2571226      0.20969   6.70 0.0005354702    1.238    0.192
       155  -9.6856      2.9772     23.7597   8.8774553014e+01   7.5106603082e+01    0.1523556    0.1050494   5.60 0.0002320944    1.514    0.339
       156 -10.9320    138.8005     22.1507   2.8153695380e+01   4.7249053930e+01    0.1937832    0.1627141  42.45  0.000412682    1.300    0.231
       157 -11.6723     20.7679     17.6872   7.0431844401e+01   7.4831604660e+01    0.4044651    0.2588997  18.04  0.002119962    1.637    0.389
       158  -9.5300    159.3027     20.7114   2.4981971106e+01   4.2132598805e+01     0.145088    0.0932285 -60.64 0.0001944847    1.564    0.361
       159 -10.1374     49.5804     19.8962   5.2626731777e+01   6.9647110092e+01     0.209447      0.17307  39.63 0.0004867376    1.171    0.146
       160 -10.5112     11.5219     18.2510   7.8705411750e+01   7.5722849080e+01    0.2636431    0.1588363 -32.11  0.001364387    1.622    0.384
       161 -10.0539    147.3861     18.2680   2.5598528666e+01   4.5434145441e+01    0.1932208    0.1207132 -38.01 0.0009302131    1.532    0.347
       162 -10.4171     65.8931     16.6411   4.3243126607e+01   6.6583409461e+01    0.2252821    0.1888576  -1.35 0.0005657857    1.267    0.211
       163 -11.4102    105.6945    247.8195   8.6290082113e+01   1.2591748466e+01    0.2900304    0.1341804  25.80   0.00160959    1.742    0.426
       164  -9.5134    212.4590     14.4587   1.8657615241e+01   3.0368675905e+01    0.1236192    0.1025246 -50.73 0.0001004982    1.008    0.008
       165 -10.5684    128.2010     14.3699   2.6805107932e+01   5.0862209544e+01    0.2032801    0.1272593  87.16 0.0004076909    1.661    0.398
       166 -10.3229     98.3381    246.3095   8.7664212700e+01   1.3656600294e+01    0.1108268   0.07719152   2.04    0.0007044    1.685    0.406
       167  -9.8289    180.7142    244.3536   7.1434114168e+01   4.3880331869e+00   0.09397671   0.07751238  36.87 0.0005805766    1.666    0.400
       168 -10.8270    116.0346     13.3262   2.8341376775e+01   5.4197826931e+01    0.2019719    0.1713577  76.40 0.0003845276    1.107    0.097
       169 -10.7467     77.6140    242.8239   9.1709462441e+01   1.6523061675e+01    0.1771458    0.1426519  69.37  0.001298972    1.445    0.308
       170 -10.6279    189.1689    241.8425   6.9616574035e+01   3.7366161304e+00    0.1565115    0.1161746  19.81 0.0005483804    1.203    0.169
       171 -11.5236     66.8343    239.1762   9.3740371385e+01   1.8292456188e+01    0.2822761    0.2201806  67.49   0.00204199    1.406    0.289
       172 -12.1569     72.3228    238.0933   9.2484693343e+01   1.7877381200e+01    0.3803221    0.2736491   5.94  0.001775502    1.630    0.386
       173 -12.3545     81.6367    237.2839   9.0420242065e+01   1.6975042749e+01    0.4898209    0.3273766  70.96  0.003114796    1.919    0.479
       174 -10.2603    200.0331     11.4918   1.8688653303e+01   3.3349697751e+01    0.1791629    0.1177385  83.28 0.0006725928    1.551    0.355
       175 -10.1387    174.4764    238.9719   7.1873931364e+01   5.7461296604e+00    0.1178777    0.1020919 -83.64 0.0008096213    2.498    0.600
       176  -9.8292     72.3149     10.3164   3.7264120498e+01   6.5827428434e+01     0.149268   0.09864539  30.71 0.0002897578    1.647    0.393
       177 -14.5329     21.6961    217.3764   1.0253747127e+02   2.6693353660e+01     1.534841    0.5535555  51.14  0.007674701    2.183    0.542
       178 -14.4799     94.2457    227.4784   8.6812347515e+01   1.7134782983e+01    0.8312499    0.7012638   8.63   0.00586855    1.246    0.197
       179 -12.5758    117.4916    225.4921   8.1556130227e+01   1.4602797647e+01    0.2964308    0.1981519 -47.38  0.001868056    1.819    0.450
       180 -11.5255    102.7201    229.9041   8.5204372400e+01   1.5713765016e+01    0.2784979     0.191895  41.69  0.001360441    1.286    0.223
       181 -11.9359    110.3092    228.2819   8.3402101910e+01   1.5049334590e+01    0.2546023    0.1805226  56.82 0.0009975209    1.711    0.416
       182 -13.0205    123.9941    215.9997   7.9031845544e+01   1.5300094175e+01    0.3477722    0.2228617  26.29  0.002067689    1.290    0.225
       183 -13.0692     81.6353    218.1359   8.8760434402e+01   2.0268304026e+01     0.427436    0.3173161  66.92  0.002724896    1.542    0.351
       184 -11.6335     78.1101    212.8778   8.9087727351e+01   2.1650844319e+01    0.2405522    0.1564824  44.03   0.00105466    1.317    0.241
       185 -11.6484     74.1916    210.0166   8.9746158500e+01   2.2654738844e+01    0.3212766    0.1474115  40.20 0.0009541852    1.754    0.430
       186 -12.8613    108.3829    215.9084   8.2461291444e+01   1.7339413032e+01    0.4354793    0.2685583 -80.97  0.001992037    2.823    0.646
       187 -15.7833      6.2468    233.9963   1.0642917639e+02   2.4921686956e+01     2.098391    0.9178878  79.82   0.01223964    2.339    0.572
       188 -15.7979     22.0080    200.7084   1.0174379385e+02   2.9977322629e+01     6.162576          nan  37.04   0.01812724    5.600    0.821
       189 -15.7822     30.0435    188.7035   9.9082451424e+01   3.1777702874e+01     3.351391     1.189462  30.10   0.01512425    2.261    0.558
       190 -10.8458    148.1204    232.4377   7.6067189441e+01   9.7519147159e+00    0.1606445    0.1377837 -36.86 0.0007573679    1.481    0.325
       191 -11.7800    118.0154    190.6850   7.7017332401e+01   2.0524252002e+01    0.3417335    0.1935595  62.56  0.001398548    3.326    0.699
       192 -13.1080     93.6966    208.2680   8.4965912999e+01   2.0575094840e+01    0.3437028    0.2750527  59.92  0.001925588    1.371    0.270
