#   1 NUMBER                 Running object number                                     
#   2 MAG_AUTO               Kron-like elliptical aperture magnitude                    [mag]
#   3 X_IMAGE                Object position along x                                    [pixel]
#   4 Y_IMAGE                Object position along y                                    [pixel]
#   5 X_WORLD                Barycenter position along world x axis                     [deg]
#   6 Y_WORLD                Barycenter position along world y axis                     [deg]
#   7 A_WORLD                Profile RMS along major axis (world units)                 [deg]
#   8 B_WORLD                Profile RMS along minor axis (world units)                 [deg]
#   9 THETA_WORLD            Position angle (CCW/world-x)                               [deg]
#  10 FWHM_WORLD             FWHM assuming a gaussian core                              [deg]
#  11 ELONGATION             A_IMAGE/B_IMAGE                                           
#  12 ELLIPTICITY            1 - B_IMAGE/A_IMAGE                                       
         1 -14.3464    169.0677     51.9604   6.9729105751e+01   3.6329615377e+01     2.005271     1.287124  30.64    0.0064796    2.364    0.577
         2 -13.9154    183.4964     36.4836   6.3728738424e+01   3.5070625425e+01    0.8482902    0.6435575  79.49  0.002717423    1.166    0.142
         3 -13.6021    187.8123     30.1795   6.1690401665e+01   3.4867645100e+01    0.5811695     0.444562  74.41  0.001310849    1.143    0.125
         4 -14.4764    204.6822      6.4265   5.4708980135e+01   3.3782225109e+01    0.9440281    0.8431648  75.51  0.006138202    1.297    0.229
         5 -13.2056    190.0897     14.9267   5.7984036804e+01   3.6090052965e+01    0.4615229    0.3011761 -72.85  0.001786279    1.484    0.326
         6 -10.7179     72.7364      8.9803   7.7538529262e+01   6.1796195727e+01    0.1974054    0.1376451  42.74 0.0004649303    1.201    0.167
         7 -11.4417     63.2346      7.0207   7.9630973360e+01   6.3632976635e+01    0.2039899    0.1384226  40.20 0.0005869713    1.232    0.188
         8 -10.3611     15.7512    201.1892   1.4005698733e+02   2.9971112245e+01    0.1331013   0.09603974  33.75 0.0006819839    1.653    0.395
         9 -12.2632    248.9249    248.1232   9.7323376654e+01  -1.4367115795e+01    0.4474417    0.2127824 -33.07  0.002423986    1.912    0.477
        10 -11.1085    157.3035    199.6542   1.0702625328e+02   8.7869501055e+00    0.2715131    0.1853722 -62.84  0.001219264    1.720    0.419
        11 -12.4467    152.7023    193.2031   1.0685264112e+02   1.1075399759e+01    0.4559347    0.3199202  65.75  0.002037952    1.849    0.459
        12 -12.0162     76.4296    208.3276   1.2733157159e+02   2.0726890254e+01    0.4196586    0.3896676 -52.83  0.001683495    1.258    0.205
        13 -19.0574     28.1941    101.5885   1.2277733948e+02   5.2728684499e+01     16.02659      1.16898 -60.29   0.02975729   12.052    0.917
        14 -11.4520     20.0373    185.4553   1.3761659472e+02   3.3284320014e+01    0.1748746    0.1457838 -71.14 0.0004978674    1.161    0.139
        15 -12.7337     65.2903    210.1073   1.3010429131e+02   2.1918312155e+01    0.5447488    0.4011988  47.86  0.001872021    1.321    0.243
        16 -11.7597    150.7516    182.5665   1.0522090783e+02   1.3861821255e+01    0.3002535    0.2489396 -88.99 0.0003150089    1.447    0.309
        17  -9.6371    168.4485    177.2120   1.0005226714e+02   1.1616614154e+01     0.211137    0.1444832 -60.52 0.0007581157    1.654    0.396
        18  -9.9697     57.4922    177.2301   1.2755883322e+02   3.1032608290e+01    0.2740766    0.1340817  44.62 0.0006680781    2.109    0.526
        19 -11.5282    153.3165    212.5104   1.1026903288e+02   6.7469150046e+00    0.3178949    0.2246013  69.42  0.000988317    1.951    0.487
        20 -10.3147    165.6745    172.5608   9.9706644320e+01   1.3205035197e+01    0.2690088     0.217147  83.86 0.0009402095    1.581    0.367
        21 -12.3227     73.8977    213.3539   1.2856599059e+02   1.9916009661e+01    0.2661139    0.2246958  89.58 0.0004296728    1.075    0.070
        22 -10.6246    201.4134    169.1951   9.1331896417e+01   6.9404205522e+00    0.3528636    0.2467211 -63.98  0.001630664    1.786    0.440
        23 -11.4238    204.4623    165.5755   8.9959924963e+01   7.1071130622e+00     0.499029     0.328281 -50.81  0.001419297    1.502    0.334
        24 -11.5029    189.1166    154.9937   9.0782204190e+01   1.2348578816e+01    0.4906608    0.4076297 -71.24  0.001881068    1.364    0.267
        25 -11.5897    193.6983    166.4836   9.2325730032e+01   8.9910875359e+00    0.3413096    0.3024312 -42.25 0.0007494693    1.066    0.062
        26 -10.8907    190.4668    161.3323   9.1886690871e+01   1.0721414372e+01    0.3855299    0.3026871 -85.98  0.001211122    1.711    0.415
        27 -10.2961    230.3178    166.9570   8.5403869232e+01   2.1248100155e+00     0.234731    0.1009195 -57.73 0.0007042733    4.430    0.774
        28 -10.8533    161.1351    166.1559   9.9382577973e+01   1.5567008206e+01    0.3737868    0.2375392 -77.48 0.0009117714    2.722    0.633
        29 -10.5017      1.5249    163.1154   1.3966856702e+02   4.0247049496e+01    0.1775232    0.1129039 -71.51 0.0008690695    1.229    0.187
        30 -11.7630    133.8966    145.5541   1.0140047690e+02   2.5953455510e+01     1.348417    0.3273438 -54.46  0.002935973    6.092    0.836
        31 -13.2024     69.3734    218.5574   1.3022088385e+02   1.9362543971e+01    0.3484532    0.2555896  80.11  0.001091511    1.311    0.237
        32 -11.0455    113.1983    151.0496   1.0802665147e+02   2.8692850327e+01     0.308399    0.2179325 -74.47  0.001339359    1.702    0.413
        33 -10.6332    174.5800    149.1467   9.2581131892e+01   1.6621387892e+01    0.2801526    0.2249243  47.82  0.000643706    1.300    0.231
        34  -8.2376     10.5740    206.4948   1.4158309740e+02   2.9248160813e+01    0.5055768    0.2785511  26.12   0.00276783    2.368    0.578
        35 -10.8135    143.6972    145.7407   9.8992146765e+01   2.3888569008e+01    0.3296233    0.1936115 -68.46  0.001180491    2.501    0.600
        36 -12.4134    109.8088    139.4441   1.0635018265e+02   3.2165626106e+01    0.7280243    0.3942704 -31.28  0.002559729    2.731    0.634
        37 -10.6501    141.9916    138.7132   9.7771845621e+01   2.5881276568e+01    0.2186347    0.2142229  57.82 0.0004997053    1.047    0.045
        38 -11.6689    106.0465    130.8411   1.0538195667e+02   3.4940502681e+01    0.4382885    0.3395045 -62.86  0.001178487    1.339    0.253
        39 -11.4326    104.5482    125.5859   1.0453850132e+02   3.6464603422e+01    0.3076599    0.2554195 -28.93 0.0005026904    1.290    0.225
        40 -11.1773    135.7768    128.3480   9.6832179468e+01   2.9575420746e+01    0.4612094    0.1999419 -49.49  0.001617941    2.293    0.564
        41 -11.1161    116.4945    129.5740   1.0219942810e+02   3.3234019859e+01    0.3126357    0.2656854 -15.35 0.0006195872    1.369    0.269
        42 -10.9233    160.3274    127.3759   9.0671764068e+01   2.4488633385e+01    0.4364216    0.2724282 -62.41  0.001704749    1.939    0.484
        43 -10.5673    120.7075    123.8723   9.9659657548e+01   3.3717333201e+01     0.253758     0.191861 -30.22 0.0008922482    1.474    0.322
        44 -10.4589    111.4475    118.8191   1.0092138391e+02   3.6713990603e+01     0.259327    0.2144548  40.08 0.0003243134    1.246    0.197
        45 -10.8967    168.3141    113.2906   8.5447928952e+01   2.5708537407e+01    0.3550288    0.2705127 -81.18 0.0008252701    1.607    0.378
        46  -5.7631     61.9610    192.0513   1.2854312570e+02   2.6744780949e+01    0.3004976    0.2566069  29.46  0.001033549    1.388    0.279
        47 -10.6168    205.5459    110.1302   7.7490679219e+01   1.8101801757e+01    0.2962125     0.213689  45.69 0.0008689853    1.566    0.361
        48 -11.2550    118.8364    110.3550   9.6703502195e+01   3.7125148010e+01    0.6187168    0.2605718  57.65  0.001754654    4.291    0.767
        49 -12.3664     67.1505    200.1852   1.2840392953e+02   2.4032649338e+01    0.3771248    0.2297715 -54.07 0.0005298396    1.677    0.404
        50  -9.5051      1.3685     91.8458   1.2989614485e+02   5.6797556517e+01     0.166778   0.08168908 -53.50 0.0001860032    1.514    0.340
        51 -12.7159    170.5577     69.9945   7.4065488874e+01   3.3232633183e+01    0.6012763    0.3607022 -83.15  0.001115802    2.641    0.621
        52 -17.9332     52.2939    242.1831   1.3628840391e+02   1.6460107603e+01     9.137511     8.388333 -68.15   0.06292199    1.367    0.268
        53 -10.1589    168.8860    234.7083   1.1067794049e+02  -3.9023928247e-01    0.2078095    0.1759423 -26.06 0.0002857428    1.246    0.198
        54 -12.5237     67.5017    196.1812   1.2778047539e+02   2.4957518314e+01     0.516072    0.2915894  67.68   0.00165475    2.164    0.538
        55 -10.7978     13.6300     59.8988   1.1796097461e+02   6.2484469039e+01    0.1864279     0.158886   3.35 0.0004352447    1.275    0.216
        56 -12.3110    204.7427     25.3947   5.8647605037e+01   3.1659936914e+01    0.3336174    0.1856888  63.09  0.001836544    1.666    0.400
        57 -11.8801     71.8651    229.9255   1.3100975158e+02   1.6426849102e+01    0.2461757    0.1881481  61.65 0.0004475501    1.162    0.139
        58 -11.7710    193.3213    195.3155   9.8329610989e+01   3.0847366491e+00     1.225376    0.5953429 -64.75  0.003064074    7.037    0.858
        59 -12.6631     59.4260    214.4729   1.3193574733e+02   2.1703008925e+01    0.2903295     0.232872  53.55  0.001724191    1.202    0.168
