#   1 NUMBER                 Running object number                                     
#   2 MAG_AUTO               Kron-like elliptical aperture magnitude                    [mag]
#   3 X_IMAGE                Object position along x                                    [pixel]
#   4 Y_IMAGE                Object position along y                                    [pixel]
#   5 X_WORLD                Barycenter position along world x axis                     [deg]
#   6 Y_WORLD                Barycenter position along world y axis                     [deg]
#   7 A_WORLD                Profile RMS along major axis (world units)                 [deg]
#   8 B_WORLD                Profile RMS along minor axis (world units)                 [deg]
#   9 THETA_WORLD            Position angle (CCW/world-x)                               [deg]
#  10 FWHM_WORLD             FWHM assuming a gaussian core                              [deg]
#  11 ELONGATION             A_IMAGE/B_IMAGE                                           
#  12 ELLIPTICITY            1 - B_IMAGE/A_IMAGE                                       
         1  -9.4565     67.5202     13.1682   8.3878544734e+01   6.4510167455e+01    0.3771494    0.2259602 -18.77  0.001920315    1.741    0.426
         2 -11.5817     67.1864     21.6794   8.7916827199e+01   6.3215087517e+01    0.6417901    0.4062577  28.67  0.003035579    1.789    0.441
         3 -12.3311     76.3451     31.7210   8.8869049953e+01   6.0015783123e+01    0.9462601    0.7204564  -7.15  0.005306355    1.449    0.310
         4 -11.8692    211.0687     31.8838   5.8858022110e+01   2.8101503496e+01    0.8522105     0.418222 -30.47  0.003471126    1.906    0.475
         5 -11.6528    136.4303     30.7903   7.1438783412e+01   4.7611372420e+01     1.105832    0.3778082 -24.45  0.003504447    3.334    0.700
         6 -12.8862    131.4104      3.9703   6.1818263784e+01   5.2077998215e+01     1.382603    0.5170736  56.61  0.005289928    2.364    0.577
         7 -13.7511    100.6261      6.4840   7.0077702459e+01   5.9033161308e+01    0.8557321    0.6278428 -39.91  0.001628418    1.498    0.332
         8 -12.5003     93.0789      8.1700   7.2995014857e+01   6.0430657791e+01    0.6968217    0.4264434  40.65  0.003526919    1.614    0.380
         9 -12.3234    112.3017      7.5943   6.7587464361e+01   5.6292228723e+01     1.111482    0.4250335  63.71   0.00400839    3.125    0.680
        10 -11.5282     25.5415      4.5513   9.8017116905e+01   7.1459771180e+01    0.5966649    0.2826121 -38.70  0.003298325    1.683    0.406
        11 -11.0823      9.4866     19.3470   1.1204213487e+02   7.0007308891e+01     0.339125    0.2915885  24.31  0.002266568    1.504    0.335
        12 -11.3775     18.5112      4.5262   1.0164057705e+02   7.2115088837e+01    0.4973965    0.3725124 -70.12  0.003245863    1.929    0.482
        13 -12.3524     28.8067     26.2285   1.0551755847e+02   6.7176734135e+01     1.026121    0.5181049 -34.95  0.005462414    1.961    0.490
        14 -10.9217     12.9510     24.1975   1.1197086285e+02   6.8824258114e+01    0.6831697    0.2117096 -38.10   0.00283479    3.594    0.722
        15 -12.0480     18.6560     13.3214   1.0537368189e+02   7.0509686737e+01    0.4961946    0.3377801  22.18  0.003346018    1.782    0.439
        16 -12.0874     13.3819      8.5947   1.0611981973e+02   7.1793658134e+01    0.4186291    0.3395167 -44.15 0.0006734062    1.116    0.104
        17 -12.4902      2.8970     17.6334   1.1468909517e+02   7.0723590192e+01    0.4052502    0.1839062 -50.98 0.0004487878    1.561    0.359
        18 -13.1595      4.2356      8.9398   1.1106208999e+02   7.2333336728e+01     0.687623    0.2963315 -61.37  0.000332921    1.992    0.498
        19 -10.6865     30.6804     13.7860   9.9760685426e+01   6.9331065595e+01    0.6407337     0.213276 -41.47  0.001927114    2.465    0.594
        20 -10.3238    160.4610     22.9735   6.3694253087e+01   4.2520962253e+01    0.7599436    0.5704454 -16.04  0.002807393    1.367    0.268
        21 -11.2173    147.1347     26.1475   6.7399673285e+01   4.5568810655e+01    0.7453598    0.3744954 -12.45   0.00229098    2.525    0.604
        22 -11.0916    153.1897     27.3659   6.6643967553e+01   4.3863590430e+01    0.7434003    0.2737788 -27.56   0.00218629    2.639    0.621
        23 -11.6246    117.0469     15.2575   6.9765212731e+01   5.4288413932e+01    0.4028005    0.3126236  85.10  0.000284655    1.719    0.418
        24 -10.8390     89.6430     21.6058   8.0185213748e+01   5.9270879836e+01    0.3844973    0.2412271  -8.22   0.00137345    1.959    0.490
        25 -12.3591     44.0824     14.1075   9.3813959124e+01   6.7759946228e+01    0.7259942    0.4726281  30.51  0.004363901    1.755    0.430
        26 -10.9003    210.8255     13.4338   5.3347489703e+01   3.0192583518e+01    0.5552533    0.3881994   8.76  0.002674504    1.704    0.413
        27 -11.0220    202.7979     18.7469   5.5919904952e+01   3.1747634376e+01    0.6288627    0.3966874  36.78  0.002847404    1.772    0.436
        28 -10.6671    198.4483     19.5345   5.6720345376e+01   3.2813776514e+01    0.5987078    0.3001494 -46.68  0.002404333    2.149    0.535
        29 -12.1637    246.8631     13.3236   4.9759415786e+01   2.1155721414e+01     0.542319    0.4706137  59.89  0.001111151    1.230    0.187
        30 -11.5629    220.7205     12.0631   5.1881176111e+01   2.7767169326e+01    0.8733845    0.4117151  72.32  0.003634658    2.176    0.540
        31 -11.7938    230.8256      9.4803   5.0158873900e+01   2.5460161035e+01    0.9732343    0.5214812 -85.38  0.004161942    2.310    0.567
        32 -11.7179    150.1451     16.0731   6.3030599606e+01   4.6018027252e+01    0.7703887    0.4103089  30.13  0.003023833    2.312    0.567
        33 -11.4893    129.4740     14.1182   6.6416610417e+01   5.1461296514e+01     1.502452    0.3248833  49.97  0.004474917    3.841    0.740
        34 -12.4473     64.7531     31.0123   9.2736247155e+01   6.1967915984e+01    0.6052625    0.5212896  37.40  0.003833213    1.344    0.256
        35 -10.4861    167.8317      3.1907   5.5405667242e+01   4.2662305739e+01    0.5278419    0.2795421 -67.35   0.00198504    2.776    0.640
        36 -10.4712    163.6521      5.6790   5.6910906636e+01   4.3545661599e+01    0.3693112    0.2226271 -37.92   0.00126687    1.712    0.416
        37 -10.6888    170.2345     14.0996   5.8910433007e+01   4.0937108032e+01    0.4957907    0.2481468 -45.27  0.001411504    2.219    0.549
        38 -11.3049    165.4477     11.7201   5.8812187248e+01   4.2463930579e+01    0.4983087    0.3127048 -64.91  0.001804146    2.076    0.518
        39  -9.5462    193.3059      6.6995   5.3281003767e+01   3.5496159391e+01    0.2091942    0.1246546  59.92 0.0004330139    1.590    0.371
        40 -10.0370    187.6515     14.3205   5.6473675893e+01   3.6248855650e+01    0.5374779    0.2185615  69.71  0.001960284    2.506    0.601
        41 -10.8789    188.0082      9.8314   5.4953826101e+01   3.6610178917e+01    0.5531114    0.4622105   2.36  0.002349666    1.280    0.219
        42 -11.6383     50.4995     10.0436   8.9114253427e+01   6.7582865210e+01    0.4104794    0.3294885  -1.94  0.001241471    1.209    0.173
        43 -11.8395     68.0990      4.3213   7.9257203923e+01   6.5671884433e+01    0.9339541    0.3936039  33.72  0.003928427    2.883    0.653
        44 -12.1050     55.3791      2.5050   8.3212082911e+01   6.7997136503e+01    0.4946055    0.3039413 -36.83  0.002128577    1.524    0.344
        45 -10.9811     60.1768      2.9369   8.1524372027e+01   6.7182063585e+01      0.30456    0.2380746 -22.03  0.001120776    1.111    0.100
        46 -10.2039    141.1346     10.5096   6.2577697685e+01   4.8948938877e+01    0.4318557    0.2362133 -57.00 0.0007548934    2.668    0.625
        47 -11.4375    200.2042      5.3923   5.2071291407e+01   3.3781179562e+01    0.6733882    0.3371172 -33.22   0.00214634    1.906    0.475
        48 -11.6362     82.4867      5.9206   7.5148341340e+01   6.2829567916e+01    0.6376987    0.2934402 -33.78  0.001837251    2.041    0.510
        49 -10.8770     77.4124      9.0618   7.8369819334e+01   6.3374207085e+01    0.3201952    0.2566405 -14.74 0.0008666925    1.102    0.092
        50  -9.7734     77.4674      4.4954   7.6075966661e+01   6.3963879590e+01    0.2301381    0.1475716  -2.54 0.0006020103    1.691    0.409
        51  -9.3088    151.4749      9.4888   6.0296261071e+01   4.6384876935e+01    0.1497557    0.1344794  31.81 0.0008090177    1.072    0.067
        52 -10.7706    157.6740      4.6653   5.7458184101e+01   4.5230971671e+01    0.4734175    0.2570596 -14.65  0.001698706    1.961    0.490
        53 -10.4762    154.3533      4.6969   5.7999263138e+01   4.6105149832e+01    0.2891386    0.2618405 -47.19 0.0009343238    1.187    0.158
        54 -11.1291    207.7229      3.1073   5.0564807417e+01   3.2006292813e+01    0.4593922    0.2907835 -45.76  0.001368144    1.583    0.368
        55  -9.5693    212.4188      3.5266   5.0216311422e+01   3.0738000902e+01    0.1978589    0.1340134  -5.26 0.0005028538    1.662    0.398
        56 -10.6147    176.9704      4.2097   5.4509555933e+01   4.0115441349e+01    0.6178787    0.2199238  73.86   0.00206037    3.089    0.676
        57 -11.9809    130.3388     19.7914   6.8525064655e+01   5.0561171645e+01     1.353528    0.3298482  55.70  0.004172311    3.584    0.721
        58 -11.9028    246.8772      2.6041   4.6943311467e+01   2.2186068486e+01    0.4853854    0.2366949  56.28 0.0007163527    2.133    0.531
        59 -12.7088    112.1216     22.4211   7.4043037946e+01   5.4466313635e+01    0.9909059    0.6254779 -34.97  0.004780584    1.549    0.354
        60 -10.5924     43.1038      3.2306   8.8885155921e+01   6.9644120769e+01    0.3567727    0.2582353  -4.32  0.002255265    1.379    0.275
        61 -10.5243    224.3904      1.9539   4.8630956859e+01   2.7797593239e+01    0.2939045    0.1926855  67.47  0.001482981    1.508    0.337
        62  -9.7291    229.7141      1.3759   4.8003721029e+01   2.6505283677e+01    0.1824552    0.1223783  64.25  0.000608399    1.492    0.330
        63  -9.7250    217.4414      1.3545   4.9093592924e+01   2.9633336737e+01    0.2376035    0.1292473  74.96   0.00106371    1.842    0.457
        64  -9.6695    191.6961      1.4572   5.1782210127e+01   3.6411992192e+01    0.2344687    0.1395091  78.78 0.0006067653    1.729    0.422
        65  -9.2827    183.4387      1.3837   5.2731180530e+01   3.8633928895e+01    0.1411612    0.1343057  73.58 7.846483e-05    1.025    0.025
        66 -11.4042    244.2288     96.7805   7.1844469287e+01   1.1802967934e+01    0.5817553    0.3851018  82.26  0.002524445    2.603    0.616
        67  -9.5807     73.9836    107.5643   1.1090293272e+02   4.4732468949e+01    0.1845811    0.1254464  39.65  0.001027137    1.601    0.375
        68 -10.2896     68.9843    105.3261   1.1181759632e+02   4.5892332591e+01    0.2311014    0.1593861 -43.48 0.0007738628    1.635    0.388
        69 -10.4952    230.3437    105.0499   7.6010938211e+01   1.3693021643e+01    0.3371643    0.2049263  46.84  0.001237472    1.621    0.383
        70 -10.8653    133.7017    102.8451   9.4694761854e+01   3.5468680139e+01    0.3819285    0.2248082 -49.55  0.001723181    1.732    0.423
        71 -11.0181     48.1862    102.4973   1.1695046892e+02   4.9003304033e+01    0.4234364    0.1883637 -42.05  0.001805361    3.272    0.694
        72 -10.4305     47.6839     98.4858   1.1643390391e+02   4.9937685820e+01    0.3823152    0.2342187  10.22  0.001952854    2.816    0.645
        73  -9.7193     75.8152    101.8056   1.0930679599e+02   4.5728740236e+01     0.185321    0.1449994  81.56  0.001076032    1.359    0.264
        74 -10.0034     28.4902    101.9818   1.2221654462e+02   5.1025178280e+01    0.1672099    0.1516108  79.24  0.001250809    1.190    0.159
        75 -11.2372      4.1491     99.7277   1.2844407408e+02   5.3312573959e+01    0.3282405    0.1781028 -70.46  0.002105842    1.424    0.298
        76 -11.7316    175.5238     97.2471   8.3981988706e+01   2.7347795672e+01    0.5544466    0.4314398  88.47   0.00219854    1.751    0.429
        77  -9.8110     34.4849     98.9452   1.2016347940e+02   5.1152303773e+01     0.181379   0.09810261 -71.51 0.0004270689    1.536    0.349
        78 -11.3863    158.3225     96.2941   8.7374317533e+01   3.1432746215e+01    0.4386858    0.3647178  79.39  0.002236857    1.432    0.302
        79  -9.6609     64.2172     97.8108   1.1170837062e+02   4.8152178619e+01     0.178326    0.1429333 -42.00  0.001083242    1.394    0.283
        80 -10.5745    226.9515     96.2294   7.4367051584e+01   1.5661137245e+01    0.3864219    0.1971364 -16.52  0.001542539    2.330    0.571
        81  -9.8321     80.4852    101.9966   1.0808611490e+02   4.5018257327e+01    0.2038587    0.1695687  48.74 0.0006138017    1.274    0.215
        82 -10.5995    193.6305     91.8399   7.9003871247e+01   2.4010906945e+01    0.4491419    0.2927469 -30.51  0.002071135    1.535    0.349
        83 -11.5125    200.3611     89.5800   7.7163500293e+01   2.2774995412e+01    0.5674621    0.2975458  60.60  0.001859569    2.165    0.538
        84 -10.2127    188.3924     93.9507   8.0559295363e+01   2.4903546307e+01    0.2883016    0.2149242  43.44 0.0008341541    1.316    0.240
        85  -9.8698    245.2878     93.0709   7.0776369948e+01   1.2056565913e+01    0.1933299    0.1698735 -19.34 0.0004661681    1.084    0.077
        86  -9.4829    104.2419     93.3912   9.9779570380e+01   4.3016968702e+01    0.2005696    0.1273507  55.55 0.0009515286    1.757    0.431
        87 -10.3345     32.9566     92.0000   1.1955380925e+02   5.2813772067e+01     0.290328    0.1708267  46.06  0.001715489    1.878    0.467
        88 -10.8820     36.3052     90.6594   1.1837646229e+02   5.2801244891e+01    0.4508876     0.216993  54.53   0.00225047    2.540    0.606
        89 -10.1198    220.7831     91.9206   7.4267608778e+01   1.7665241623e+01    0.2643869    0.1946123 -82.26  0.001217894    2.097    0.523
        90 -10.8259    213.3328     89.9884   7.5004910127e+01   1.9666207133e+01    0.4972382    0.2858772  15.62  0.001558246    2.755    0.637
        91 -11.9696      2.2896     83.9806   1.2733251958e+02   5.6787554248e+01    0.8771101    0.2868695 -82.21  0.003969007    2.837    0.648
        92 -12.1276      5.9475     79.8847   1.2577505075e+02   5.7458665689e+01    0.4301199     0.218349 -86.44  0.000413922    1.762    0.432
        93 -10.2069     87.9319     90.0507   1.0341238077e+02   4.6461727273e+01    0.2889279    0.1737065 -54.64  0.001070279    1.540    0.351
        94  -9.5219    187.0510     89.6771   7.9671137220e+01   2.5913376862e+01    0.2073994    0.1921048  43.62 0.0005546994    1.076    0.071
        95 -11.7122     57.5028     85.0702   1.1109404940e+02   5.1777722367e+01     0.794895    0.4854444   0.45   0.00351028    3.483    0.713
        96 -10.0996    229.4056     83.2814   7.0659592178e+01   1.6891825153e+01    0.2068768    0.1792432  -1.85  0.001137971    1.110    0.099
        97 -11.0333    223.4815     87.5422   7.2696149768e+01   1.7664615472e+01    0.2741874    0.2269297 -17.14  0.001127852    1.158    0.136
        98 -10.6681    221.5374     84.5121   7.2213199938e+01   1.8541150815e+01    0.2767513     0.211996 -24.62 0.0008743503    1.254    0.203
        99 -11.0101    154.1878     87.6581   8.5955965304e+01   3.3936091553e+01    0.4691192    0.2562058  57.43  0.001909023    2.016    0.504
       100 -10.6356     98.2887     77.2884   9.7213020116e+01   4.7421000148e+01    0.3385627    0.2552777  71.73  0.001141855    1.684    0.406
       101 -10.8561    106.1131     87.3604   9.7756569404e+01   4.3936074365e+01    0.2723135     0.247213 -13.28   0.00131889    1.258    0.205
       102 -11.0025    102.9331     80.7606   9.6867503671e+01   4.5875892204e+01     0.470459    0.2982396 -30.90  0.001698772    1.914    0.478
       103 -11.4954     17.6278     81.5040   1.2248654990e+02   5.6347769655e+01    0.2441296    0.2150167   1.65  0.000445282    1.535    0.349
       104 -10.9170     28.6789     76.9056   1.1834915729e+02   5.6499328790e+01    0.2159216    0.1765403  85.20 0.0007017831    1.228    0.186
       105 -12.4709     24.1120     82.7936   1.2072699174e+02   5.5579068056e+01     0.711957    0.3695176  87.37  0.003650269    2.276    0.561
       106 -11.0982     29.7229     82.1976   1.1893440564e+02   5.5249801666e+01    0.2930413    0.2462289 -67.55 0.0009365362    1.081    0.075
       107 -10.3651    242.1958     85.4098   6.9308058788e+01   1.3725391776e+01    0.2993473     0.260516 -35.20  0.001043831    1.182    0.154
       108 -11.4620    238.8661     82.6041   6.9074836896e+01   1.4834265933e+01    0.6689253    0.3345778 -24.68  0.002874048    1.916    0.478
       109  -9.8985     81.9244     86.8822   1.0435580020e+02   4.8072261527e+01    0.1981806    0.1673271 -40.22            0    1.237    0.191
       110  -9.9836     42.4915     86.9774   1.1593280304e+02   5.3011107153e+01    0.1952085    0.1012717 -63.88 0.0009503791    1.593    0.372
       111  -9.9211    205.4616     86.0051   7.5299125790e+01   2.2110084107e+01    0.2286536    0.1417406 -31.14  0.001023327    1.578    0.366
       112  -9.8160    165.8824     85.7531   8.2872534028e+01   3.1575268172e+01    0.2953737    0.1917805 -61.04  0.000884036    2.107    0.525
       113 -10.2016    118.9109     86.1548   9.4060797646e+01   4.1756174968e+01    0.4176106    0.1844839  40.06  0.001598574    2.514    0.602
       114 -10.8432    248.7288     84.0139   6.8033887450e+01   1.2474125926e+01    0.3100246     0.251548 -53.68  0.001138744    1.462    0.316
       115  -9.9092    186.5206     84.4832   7.8349713687e+01   2.6879962495e+01    0.2730857    0.2164384 -51.10  0.001116581    1.396    0.283
       116 -11.1357    189.1953     81.0391   7.6881892287e+01   2.6785040667e+01    0.5295737    0.4062981 -75.48  0.002474828    1.766    0.434
       117 -10.8224    188.5005     74.9919   7.5296354167e+01   2.7906265864e+01    0.3565942     0.211798 -54.55  0.001126327    2.194    0.544
       118 -10.1585    192.0219     72.9565   7.4063355907e+01   2.7353962610e+01    0.4253353    0.3639684  67.17  0.002193986    1.267    0.211
       119 -10.3419    140.4416     84.6078   8.8280838466e+01   3.7569958336e+01    0.2695694    0.2101377 -60.99  0.001265832    1.450    0.310
       120  -9.8366     74.3201     85.3424   1.0618974687e+02   4.9519815365e+01    0.1341856   0.09785944 -29.54 0.0007049874    1.721    0.419
       121 -11.4352    217.4034     81.9016   7.2186222525e+01   1.9880655412e+01    0.6025711     0.335047 -32.56  0.002117502    1.722    0.419
       122 -10.5764    219.8727     74.3653   6.9760141665e+01   2.0356463411e+01    0.3564728    0.2687554 -32.53   0.00107431    1.283    0.220
       123  -9.5934    223.2791     74.6500   6.9309664721e+01   1.9506087533e+01    0.2188435    0.1646786 -67.12 0.0004996487    1.743    0.426
       124  -9.5437    182.0204     83.4741   7.8940657527e+01   2.8124768512e+01    0.2192212    0.1484433  54.75 0.0004078793    1.495    0.331
       125 -10.4007     41.1562     81.7986   1.1537941688e+02   5.4285010305e+01    0.1711232    0.1243037 -48.77 0.0009794221    1.348    0.258
       126 -10.2925    160.6734     80.8937   8.2612757000e+01   3.3646565168e+01    0.4339131     0.213624  49.14  0.001708629    2.003    0.501
       127 -10.6683    135.3590     80.4821   8.8333497542e+01   3.9458194008e+01    0.3010365    0.1854274 -37.11 0.0009262277    1.631    0.387
       128 -11.9453     14.2833     88.5091   1.2442173907e+02   5.5058678461e+01    0.3352123    0.2873491 -46.13  0.002542198    1.377    0.274
       129 -10.5838    202.5296     78.0405   7.3632392217e+01   2.4009589802e+01    0.2871197    0.2213449  85.25  0.001165042    1.690    0.408
       130 -10.2194    176.8476     77.8120   7.8355148634e+01   3.0302436104e+01    0.2741852    0.2266493 -34.86  0.001130954    1.207    0.172
       131 -10.7362    175.3781     74.2029   7.7598951806e+01   3.1251684136e+01    0.4990801    0.2694744 -57.07  0.001551972    2.827    0.646
       132 -11.0140    167.7318     76.8271   7.9929508440e+01   3.2669546058e+01    0.6539255    0.3872237  74.76  0.002434771    2.686    0.628
       133 -11.4657     68.2351     76.0350   1.0578311679e+02   5.2378717672e+01    0.3674481    0.2745213 -54.01  0.001168605    1.180    0.152
       134 -10.2336    146.3990     86.7740   8.7486183396e+01   3.5849454523e+01    0.2098301    0.1417496 -27.74 0.0007678555    1.646    0.392
       135 -10.6256    234.1934     73.3722   6.7347189026e+01   1.7118091137e+01    0.3302023    0.2129354 -57.69 0.0009720694    2.057    0.514
       136 -10.7829    170.5164     70.4900   7.7478291694e+01   3.3049674294e+01    0.3746605    0.2032718  62.33  0.001107905    2.105    0.525
       137 -10.4936    138.4895     77.0529   8.6574545261e+01   3.9417253558e+01    0.2250082    0.1988997  45.76 0.0003552282    1.146    0.127
       138 -11.7418     82.0967     74.8157   1.0125843561e+02   5.0623290118e+01    0.2308492    0.2134783 -60.91 0.0002613223    1.033    0.032
       139 -11.1863    125.4512     75.0272   8.9218446399e+01   4.2615240886e+01    0.5058689    0.2259554  51.83  0.001927703    2.415    0.586
       140 -10.9493    233.5999     45.6567   5.9928355471e+01   2.0786112642e+01    0.6362577    0.2625142 -33.42  0.001819529    2.156    0.536
       141 -10.7017    215.7104     60.0319   6.6419165593e+01   2.3339899123e+01    0.5511125    0.2265998  63.62  0.001982561    2.710    0.631
       142 -11.1375    213.0129     55.6194   6.5564471615e+01   2.4605601738e+01    0.6931283    0.3454427 -57.91  0.002366392    3.249    0.692
       143 -11.2384    222.0738     56.0964   6.4374904810e+01   2.2292258271e+01    0.5725644    0.4050734 -52.69  0.002532823    1.579    0.367
       144 -11.1379    225.1561     45.3158   6.0912975245e+01   2.2901084510e+01    0.9196598    0.7489348 -40.03  0.003964883    1.200    0.167
       145 -10.5706    250.0338     73.7341   6.5260246620e+01   1.3484845544e+01    0.2448586    0.1940668  -8.18 0.0004280932    1.213    0.175
       146 -11.4332    250.2448     66.8949   6.3482755198e+01   1.4288156883e+01    0.7972123    0.2105311 -22.11  0.002267059    4.529    0.779
       147 -12.2302    246.2649     56.3214   6.1230809159e+01   1.6489750439e+01    0.8334711    0.5168355 -64.80  0.002086021    2.258    0.557
       148 -11.7487    234.7958     56.5415   6.2752777359e+01   1.9151686003e+01     0.595931    0.3702975  55.77  0.002095499    1.657    0.397
       149 -10.8346    238.1749     51.8247   6.1038918366e+01   1.8933865997e+01    0.3140018    0.2829354  63.77  0.001049623    1.194    0.162
       150 -10.7619     21.0064     72.0835   1.1995031872e+02   5.8158693616e+01    0.4745518    0.2210927 -31.38  0.002156034    3.592    0.722
       151 -10.3310     26.2665     65.1627   1.1693714127e+02   5.9262588452e+01     0.416485    0.1752223 -41.80  0.001959728    2.688    0.628
       152 -10.6625    214.8375     71.6166   6.9800598143e+01   2.1953452807e+01    0.4235359    0.2603974  26.65  0.001794193    2.025    0.506
       153 -12.0547     59.0998     69.6045   1.0705624925e+02   5.4953754760e+01    0.4166318    0.3934144 -30.16  0.001392405    1.175    0.149
       154 -11.2089     52.0026     72.0123   1.0992102650e+02   5.5277197819e+01    0.3056386    0.2079458 -58.66  0.001514264    1.242    0.195
       155 -11.0597    201.4961     60.1594   6.8697305589e+01   2.6876421676e+01    0.4847442    0.3152965 -51.06  0.002142443    1.757    0.431
       156  -9.9839    197.2386     56.4031   6.8289156230e+01   2.8486404734e+01    0.2099737    0.1485367  75.66 0.0009475874    1.670    0.401
       157 -10.6292    205.1660     65.3319   6.9594400128e+01   2.5221502776e+01    0.4017573    0.2873015 -63.33  0.001172365    1.790    0.441
       158 -10.0453    207.3423     61.2002   6.8052454663e+01   2.5261922928e+01    0.3442764    0.2073224 -33.56  0.001520615    1.595    0.373
       159  -9.7768    198.6968     70.3979   7.2142047268e+01   2.6089581701e+01    0.2149302    0.2085758  66.49 0.0009223038    1.099    0.090
       160 -10.9962    202.8688     71.8496   7.1837631187e+01   2.4845270027e+01    0.3936179    0.2463705 -43.87 0.0003739759    1.683    0.406
       161 -10.3811    206.7793     71.0482   7.0952966991e+01   2.4001075807e+01    0.3152453    0.2755365 -70.78 0.0008442524    1.338    0.253
       162 -10.9567    149.9183     71.9496   8.2363560115e+01   3.7742397246e+01      0.23508     0.232758 -81.74 0.0007363913    1.057    0.054
       163 -12.0814    126.0285     69.7865   8.7486910746e+01   4.3491372540e+01    0.6405343    0.3494426  57.10   0.00245818    2.130    0.531
       164 -11.4142    100.9650     66.7596   9.3380981179e+01   4.9076696976e+01    0.4543312    0.2537688 -43.32  0.002064525    1.680    0.405
       165  -9.5658     43.4720     78.4495   1.1401297856e+02   5.4788779929e+01    0.1236477    0.1029198 -66.04 9.407433e-05    1.012    0.012
       166 -11.1191     32.5969     70.1671   1.1582780441e+02   5.7638944346e+01    0.4150212    0.2809007 -24.60  0.002461262    1.988    0.497
       167 -10.1884     46.9753     68.1674   1.1066104784e+02   5.6669764738e+01    0.2727142    0.2168847 -45.51  0.001663603    1.206    0.171
       168 -11.0793     36.1019     56.1911   1.1151293013e+02   6.0347366607e+01    0.3841298    0.3054933  17.12  0.002552909    1.571    0.363
       169 -10.6036     42.5045     69.0006   1.1232447082e+02   5.6955372324e+01    0.3112328     0.236673  44.98  0.001526794    1.538    0.350
       170 -12.0606     36.2462     63.4947   1.1318880946e+02   5.8760772448e+01    0.5788649    0.3954576  48.92  0.002680347    1.765    0.433
       171 -10.1600     33.9813     60.0292   1.1318068981e+02   5.9718180225e+01    0.1941658    0.1621269 -42.34 0.0003285897    1.207    0.171
       172 -10.5431      6.9931     70.9864   1.2426780968e+02   5.9319870377e+01     0.227781    0.1456181   9.16  0.001398067    2.215    0.549
       173 -10.4143    226.2347     68.4670   6.7191017015e+01   1.9643289579e+01    0.4419744    0.1653035 -32.26   0.00162248    2.419    0.587
       174 -10.5300     76.7481     69.8352   1.0153517474e+02   5.2489955546e+01    0.4202803    0.1973574  31.60   0.00173011    2.726    0.633
       175 -10.6958    180.0166     68.8844   7.5116722941e+01   3.0962748354e+01    0.5710091    0.2236851  55.80  0.001989188    2.550    0.608
       176  -9.9499    158.8002     57.4919   7.5868973350e+01   3.8049850225e+01    0.4762933    0.2671477   8.36  0.001449437    4.023    0.751
       177 -11.0267    163.2751     67.8524   7.8180398057e+01   3.5255566885e+01    0.6396456     0.266538 -45.88  0.002189819    2.730    0.634
       178 -11.9182    159.7973     49.1807   7.2932672157e+01   3.9102077561e+01    0.9058636    0.4422436 -44.97  0.003320469    2.250    0.556
       179 -10.9985    165.6599     62.3388   7.5976242630e+01   3.5572584513e+01    0.5128444    0.2879736  48.55  0.002134804    1.761    0.432
       180 -11.6030    166.6927     55.6364   7.3642495100e+01   3.6374220637e+01    0.6478516    0.4876821 -41.80  0.003112085    1.353    0.261
       181 -11.7885    133.5956     67.9323   8.5004203229e+01   4.2188550775e+01    0.5557511    0.3383152  57.05   0.00243138    1.808    0.447
       182 -12.0514    151.8081     66.4137   8.0231780546e+01   3.8261938498e+01    0.5791351    0.2590243  48.97  0.002174431    2.212    0.548
       183 -11.2317    148.5914     64.7361   8.0432823364e+01   3.9313733676e+01     0.405373    0.2526715 -35.48   0.00127849    1.579    0.367
       184 -10.5383    145.4828     62.4728   8.0426838410e+01   4.0437319298e+01    0.3320882    0.2330657  70.14 0.0009154015    1.760    0.432
       185  -9.6197    189.9625     65.0655   7.2130703725e+01   2.9065223408e+01    0.2486921    0.1769958  23.26  0.001117706    1.650    0.394
       186 -10.9020     10.5066     62.7171   1.2183419911e+02   6.0899020593e+01    0.4443023    0.2061358 -83.15  0.002283415    2.222    0.550
       187 -10.5239      3.5355     57.7630   1.2341620482e+02   6.2356544483e+01    0.3130557    0.1731986  78.97  0.001796982    2.155    0.536
       188  -9.6316    234.2778     63.3829   6.4671488940e+01   1.8402407224e+01    0.2554601     0.169059 -10.81 0.0006040016    1.611    0.379
       189 -10.4483    185.3616     60.9865   7.1740036994e+01   3.0837435784e+01    0.3045448    0.2304847 -38.60 0.0006069069    1.323    0.244
       190 -10.3481     54.1095     62.9026   1.0697926911e+02   5.6998568624e+01    0.2682888    0.1946489 -84.60  0.001511799    1.690    0.408
       191 -10.5661     57.3043     60.3914   1.0522631007e+02   5.7145470026e+01    0.2923432    0.2354145 -88.72   0.00175986    1.488    0.328
       192 -11.5955    116.0618     68.4823   8.9705095476e+01   4.5814190817e+01    0.5452683    0.2704589 -49.64  0.002204279    2.107    0.525
       193 -11.2368     67.4080     61.8884   1.0228011276e+02   5.5505153848e+01    0.2830025    0.2328767 -39.76 0.0006647547    1.150    0.131
       194 -11.5499     16.3955     61.0000   1.1951139238e+02   6.0893262244e+01    0.4847692    0.2005225  26.45  0.002562594    2.939    0.660
       195 -12.3975     20.0659     57.6461   1.1756879630e+02   6.1361515518e+01    0.2954006    0.1877253 -70.31  0.001090087    1.306    0.235
       196 -10.7725    178.0653     60.1841   7.2851960429e+01   3.2804351691e+01    0.5959142    0.4268451   6.70  0.002193441    1.742    0.426
       197 -10.9474    171.4869     49.6074   7.0757983454e+01   3.6067732920e+01    0.6215321    0.1693598 -35.74  0.001873638    3.319    0.699
       198 -10.7243    174.0199     57.4824   7.2785587738e+01   3.4240487313e+01    0.4490672    0.2722177 -15.02  0.001505976    1.978    0.494
       199 -11.1396    175.3178     52.9264   7.1097861727e+01   3.4596891294e+01    0.3302051    0.2898886  -0.89 0.0007503207    1.180    0.153
       200 -10.6131    175.5414     49.4463   6.9943268977e+01   3.5050506814e+01    0.2773227    0.2433891  81.38 0.0004554656    1.261    0.207
       201  -9.9850     78.9702     60.7516   9.8206486611e+01   5.4038998280e+01     0.318792    0.1670348  50.73  0.001151957    2.373    0.579
       202 -10.4338    191.8380     58.3368   6.9787261096e+01   2.9584376184e+01    0.3226526     0.298683 -35.25   0.00172961    1.086    0.079
       203  -9.7211    138.4504     59.1810   8.1015951052e+01   4.2647741299e+01    0.2772533    0.1835457  38.83  0.001250068    1.605    0.377
       204 -10.6854     91.1220     57.8230   9.3490084185e+01   5.2616201395e+01    0.5671779    0.3940344  -0.84  0.002317754    2.209    0.547
       205  -9.7686     88.0000     56.0291   9.3869586446e+01   5.3509627205e+01    0.3582051    0.1775402 -36.74  0.001528032    2.061    0.515
       206 -11.4541     85.5478     52.2845   9.3397500705e+01   5.4659697817e+01    0.8973593    0.4005192 -39.34  0.003740631    2.149    0.535
       207 -10.8001    115.8129     50.3703   8.3802365042e+01   4.9221508547e+01    0.6283198     0.429053 -42.79  0.003049785    1.434    0.303
       208 -11.1459    123.0925     54.5392   8.3306206330e+01   4.6918077417e+01    0.5032239    0.3624689   2.37  0.001629075    1.856    0.461
       209 -10.7934    119.5264     53.5057   8.3892613239e+01   4.7873674228e+01    0.3286067    0.2073748 -33.25  0.001317309    1.552    0.356
       210 -10.7388     12.0034     56.3004   1.2017476381e+02   6.2189989031e+01    0.2592576    0.1854182  35.26   0.00134412    1.745    0.427
       211 -11.6958    150.5034     51.8185   7.5793319274e+01   4.0999693992e+01    0.7104986    0.4694481   4.13  0.002932671    2.141    0.533
       212 -11.5023    141.1850     51.0800   7.7653403482e+01   4.3370260957e+01    0.4721706    0.3707701  19.10  0.001248504    1.440    0.305
       213 -11.3963    146.1658     48.1505   7.5510350875e+01   4.2641122588e+01    0.3763977    0.3367988 -84.75 0.0006088315    1.296    0.228
       214 -10.1480    202.4412     53.0901   6.6455453390e+01   2.7620788435e+01    0.6688806    0.2217846 -33.93  0.002251708    2.729    0.634
       215 -10.1671    200.6002     45.2512   6.4386286292e+01   2.9145559637e+01    0.4077953     0.144964 -26.39  0.001085342    2.761    0.638
       216 -11.9149    206.0446     43.3517   6.2994213434e+01   2.7987776706e+01    0.6248969    0.5562693  30.21  0.003365906    1.153    0.132
       217 -11.8528    186.5947     46.7764   6.7127362508e+01   3.2570662119e+01    0.8209966    0.3938112 -32.69  0.001953174    1.994    0.498
       218 -11.3549    183.1822     49.6039   6.8610182741e+01   3.3058070154e+01    0.7244398      0.44252  13.75  0.002803833    2.401    0.583
       219 -10.2856    104.6870     53.7558   8.8095862243e+01   5.0878488909e+01    0.3375149    0.2244078 -28.60  0.001616746    1.569    0.363
       220 -11.2334     99.5364     54.0929   8.9716963284e+01   5.1805910080e+01    0.2960042    0.2739457  41.82 0.0007809736    1.163    0.140
       221 -10.7693     76.3250     52.5917   9.6485600954e+01   5.6097888297e+01    0.4014012     0.302842 -69.50  0.002174192    1.623    0.384
       222 -10.3498     71.2437     53.6995   9.8532564051e+01   5.6644624023e+01    0.2970476    0.1572667 -48.58  0.001247469    1.667    0.400
       223 -10.7853     60.7058     52.5034   1.0175800941e+02   5.8357203321e+01    0.4117959    0.2161225 -60.23  0.001938335    2.005    0.501
       224  -9.8063     55.2888     50.0371   1.0291042121e+02   5.9555980909e+01    0.2658992    0.1604548  40.68    0.0014319    1.946    0.486
       225 -11.5928     25.7981     52.8283   1.1444046674e+02   6.1961125928e+01    0.2613004    0.2023182 -26.15 0.0006264544    1.486    0.327
       226  -9.9100     29.2617     48.9965   1.1221279649e+02   6.2490258071e+01    0.1719237    0.1275571 -58.31  0.000421871    1.081    0.075
       227 -10.5786    134.5064     52.3804   7.9689248818e+01   4.4722580748e+01    0.4166312    0.2913018  22.34   0.00188213    1.772    0.436
       228 -11.2340     31.9877     43.0887   1.0956914286e+02   6.3489411864e+01    0.3271834    0.2893151  75.87  0.001486837    1.399    0.285
       229 -11.8173     42.5028     49.6373   1.0744235767e+02   6.1100105304e+01    0.5522868     0.237983  30.12  0.002294992    2.795    0.642
       230 -10.9660     38.4009     44.0547   1.0736405774e+02   6.2679455368e+01    0.3807221    0.2531142 -70.71  0.001829077    1.645    0.392
       231  -9.9647      7.0679     48.5612   1.2049951673e+02   6.4132483692e+01    0.1949248    0.1323613 -64.20 0.0007427263    1.104    0.094
       232 -10.1027    195.3967     47.4633   6.5881729664e+01   3.0195666066e+01    0.3260502    0.2426444  -9.68  0.001550814    1.449    0.310
       233 -10.0223     94.6811     48.0682   8.9087907746e+01   5.3841253043e+01    0.2731963     0.207367  32.21  0.001455467    1.440    0.305
       234  -9.9300    129.2547     47.0047   7.9109459486e+01   4.6829013882e+01    0.2371734    0.1957926   4.49  0.001208066    1.328    0.247
       235 -10.4425    153.0022     44.7500   7.2849975007e+01   4.1477892534e+01    0.4332849      0.22347 -21.50   0.00125298    2.201    0.546
       236 -10.3408     54.9967     45.9682   1.0173288788e+02   6.0421785960e+01    0.2342643    0.1907893  46.66  0.001222006    1.485    0.327
       237 -10.7934    142.2257     43.5781   7.4804604536e+01   4.4313357837e+01     0.354933    0.3225056  29.32   0.00173964    1.095    0.087
       238  -9.9148    100.2051     45.6992   8.6570183471e+01   5.3226015025e+01    0.3355055    0.1955445  63.28  0.001277418    2.580    0.612
       239 -10.5323     97.6592     41.6732   8.5848121420e+01   5.4434180177e+01     0.289781    0.2218885  36.08  0.001550363    1.385    0.278
       240 -10.2478     99.8956     37.8179   8.3710546699e+01   5.4663008046e+01    0.3579357    0.2566833  -8.60  0.001486612    1.642    0.391
       241 -10.5378    249.6986     43.4702   5.7445118713e+01   1.7223066811e+01    0.3219815    0.2239453  60.70  0.001632799    1.535    0.349
       242 -10.0358    249.8475     39.1592   5.6294330579e+01   1.7682943241e+01    0.2806258    0.1616698 -40.84 0.0008156171    1.630    0.386
       243 -10.7167    118.2602     41.9950   8.0122675330e+01   5.0123494187e+01    0.5145814    0.2402609 -40.90  0.002056619    2.102    0.524
       244 -10.2199     67.0023     43.4855   9.6581966242e+01   5.9292264651e+01    0.2262132     0.165745 -56.73 0.0005817929    1.406    0.289
       245 -10.0458    213.9953     42.5041   6.1608476104e+01   2.6058353107e+01    0.2681567    0.2035265   6.77  0.001082146    1.492    0.330
       246 -10.7713     87.2651     41.2044   8.8911697200e+01   5.6445162186e+01    0.4211472    0.2783107 -50.46  0.002122484    1.583    0.368
       247 -10.2727     21.7742     41.4557   1.1315732192e+02   6.4676157454e+01     0.422639    0.2679705  85.18  0.002336219    2.334    0.571
       248  -9.4244      9.3713     42.2928   1.1830080678e+02   6.5327848864e+01     0.176001     0.127108 -46.58 0.0009279381    1.240    0.194
       249 -10.8698     15.7441     39.6478   1.1511664422e+02   6.5483422737e+01    0.5300978    0.2836924 -41.65  0.003123918    1.716    0.417
       250 -10.6463    193.9475     39.0807   6.3512445172e+01   3.1679627305e+01    0.5568288    0.4483109 -74.99  0.002769582    1.441    0.306
       251 -10.9238    194.6147     31.2057   6.0934079592e+01   3.2487677894e+01    0.5922608    0.2745084 -25.78  0.001991893    2.110    0.526
       252 -10.1029    186.9750     38.2432   6.4353964878e+01   3.3616403091e+01    0.2848099    0.2212051  45.33  0.001400457    1.288    0.223
       253 -10.0579    161.7292     40.9853   6.9777075030e+01   3.9819199797e+01    0.2603887    0.2030289  45.56  0.000770747    1.269    0.212
       254 -10.0693    161.5405     37.5002   6.8616707012e+01   4.0357257741e+01    0.2782181    0.2391126 -76.37  0.001005541    1.349    0.259
       255  -9.2570    242.5266     40.4382   5.7443771062e+01   1.9258576791e+01    0.1419799    0.1264509 -44.76 0.0001850436    1.101    0.092
       256  -9.6455    130.3062     40.0418   7.6333640178e+01   4.7704325333e+01    0.2024952    0.1853623 -19.25 0.0004754804    1.056    0.053
       257  -9.4803    142.5820     38.4858   7.2904137570e+01   4.4996329634e+01    0.2197073    0.1748959 -56.36 0.0001473669    1.448    0.309
       258 -11.3970    147.6827     34.9726   7.0526923159e+01   4.4237617991e+01    0.8333042    0.3599452  61.55  0.003033217    2.488    0.598
       259 -11.6825     53.7569     36.4309   9.8942233335e+01   6.2467211347e+01    0.7508389    0.4963968  50.50  0.004157907    2.027    0.507
       260 -10.2323     46.0236     36.9594   1.0212602106e+02   6.3298972712e+01     0.261634    0.1446423 -49.57 0.0007486569    1.500    0.333
       261 -10.7077     55.0996     29.8147   9.5933616552e+01   6.3546023663e+01    0.2326676     0.203223  -2.25 0.0003414254    1.202    0.168
       262 -10.0661     51.4523     30.4798   9.7625875837e+01   6.3895689202e+01    0.1924025    0.1357307 -46.50 0.0004746443    1.238    0.192
       263 -10.2967    202.6767     37.6818   6.1769773933e+01   2.9577491068e+01    0.2943473    0.2679719  37.50 0.0009246715    1.113    0.101
       264 -10.0910    200.9714     35.0000   6.1193618011e+01   3.0354579767e+01    0.3955438    0.2306475  55.05  0.001423809    1.677    0.404
       265  -9.7269    173.0628     38.5693   6.6833438952e+01   3.7220126248e+01    0.2291659    0.1493891  63.58   0.00101295    1.576    0.365
       266 -10.9781    123.8375     36.0526   7.6447727277e+01   4.9819405692e+01    0.5201625    0.3410049 -28.37  0.002452391    1.489    0.328
       267 -11.0849    120.0766     33.6179   7.6472943034e+01   5.1048125616e+01    0.3141322      0.21961 -35.33  0.000330871    1.392    0.282
       268 -10.4283    109.8573     36.9635   8.0508342284e+01   5.2761227063e+01    0.4496414    0.1905859 -36.97  0.001319129    2.221    0.550
       269 -10.4120    222.2406     36.3793   5.8739919105e+01   2.4713702402e+01    0.3289303    0.2289861  56.23  0.001185127    1.456    0.313
       270 -11.5350     73.1105     17.3023   8.3787774941e+01   6.2940120129e+01    0.6092829    0.2612437  43.42  0.002696781    2.510    0.602
       271 -10.3856     16.2395    240.3880   1.3416179731e+02   2.6606301676e+01    0.1272421   0.05271981  50.99 0.0007045564    1.612    0.380
       272  -9.7832     12.9857    232.2666   1.3434552306e+02   2.8107104259e+01    0.1139424   0.05832117  46.76 0.0008969903    1.550    0.355
       273  -9.7187    126.4093    216.2489   1.1501565146e+02   1.6718592076e+01     0.131874    0.0989009 -88.19 0.0004307146    1.582    0.368
       274 -11.4736     71.1710     29.9761   8.9982000572e+01   6.1165072184e+01    0.5002851    0.2175385 -35.71  0.001475511    2.163    0.538
       275  -9.8751    218.0982     22.2798   5.5145551455e+01   2.7374638395e+01    0.3831304    0.2933072 -62.64  0.001970128    1.398    0.285
       276 -11.3919    217.5880     29.0366   5.7186996053e+01   2.6752400394e+01    0.4440826    0.3336325 -81.74  0.001173783    1.524    0.344
       277 -10.1971    201.1811     25.4182   5.8199012290e+01   3.1435475975e+01    0.3350834     0.202277 -43.11  0.001195818    1.680    0.405
       278 -10.6122     26.2691    212.5344   1.3150721322e+02   2.9900226779e+01    0.1676584    0.1323515 -67.03  0.001444217    1.739    0.425
       279  -9.9353    204.8757     29.2689   5.8890151198e+01   3.0020283938e+01    0.3855937     0.223121  50.26  0.001168513    1.727    0.421
       280 -10.8823     88.7299     33.7046   8.5543352909e+01   5.7498681142e+01    0.4007693    0.2840619  -9.62  0.002038576    1.648    0.393
       281 -10.1142     93.6217     31.4032   8.3076874905e+01   5.6960010001e+01    0.3560257     0.218681  63.89  0.001590704    2.406    0.584
       282 -11.6004    236.2907     32.0394   5.5857673570e+01   2.1724336021e+01    0.7664943    0.3375247  69.48  0.003077611    2.475    0.596
       283 -11.7738    229.2861     29.0871   5.5820949038e+01   2.3786326204e+01    0.5407613     0.489151 -80.31  0.002678711    1.158    0.136
       284 -10.2342    245.4819    187.4727   9.0772973582e+01   7.2983888880e-01    0.1206216   0.09214147  20.63 0.0002396762    1.021    0.021
       285  -9.6133     36.7820    179.6273   1.2778288886e+02   3.4495727739e+01    0.1498586   0.07395554  50.28 0.0009509751    1.678    0.404
       286 -11.2245    246.1593    177.7235   8.8924323236e+01   1.6363677269e+00    0.1927694    0.1574572 -20.53 0.0008695718    1.371    0.271
       287  -9.8952     80.0000    176.9939   1.1929983723e+02   2.9841544518e+01    0.1742843   0.06098062 -65.00 0.0006911984    2.949    0.661
       288 -11.7009    246.8818    172.2958   8.7807983623e+01   2.0969482117e+00    0.2777652    0.2682267 -38.91  0.001833758    1.528    0.346
       289 -11.1723    249.1645    161.8581   8.5455116596e+01   2.8495657838e+00    0.2409533    0.1613872 -34.68  0.001094991    1.728    0.421
       290 -10.9939     13.9777    165.0548   1.3112738990e+02   3.9367955171e+01    0.1884501     0.126322  48.75   0.00132031    1.433    0.302
       291 -10.0435      8.9942    162.7253   1.3194291414e+02   4.0226375611e+01    0.1417348    0.1029923  66.97 0.0003724683    1.137    0.120
       292  -9.7866      2.5682    161.2724   1.3308570416e+02   4.1013855862e+01    0.1390328    0.1248613 -40.06  0.001194573    1.785    0.440
       293 -10.9334    249.3399    155.5826   8.4186416422e+01   3.5260185725e+00    0.2534406    0.1686667 -29.23  0.001089387    1.574    0.365
       294 -10.2464     77.0079    156.0079   1.1751470702e+02   3.4225434411e+01    0.2546459    0.1130789  70.37 0.0009523855    4.078    0.755
       295 -10.3858     33.2590    155.8718   1.2667410305e+02   3.9354025974e+01    0.1600151    0.1355944 -32.59 0.0005922995    1.888    0.470
       296 -11.0206    229.4972    153.9036   8.7049697484e+01   7.3753997738e+00    0.2471611    0.2263792 -17.08 0.0007462726    1.243    0.195
       297 -10.5298     15.8199    151.8526   1.2993239343e+02   4.1743518443e+01    0.2591318    0.1176313  64.25  0.001252161    1.978    0.494
       298  -9.7660     12.6461     34.0828   1.1495957456e+02   6.6839358429e+01    0.1654657    0.1478913  36.08 0.0008979751    1.447    0.309
       299  -9.8762    160.7979     32.7822   6.7116507479e+01   4.1189711049e+01    0.2293864    0.1929762  31.15 0.0007228639    1.205    0.170
       300 -12.4161     20.4828    147.0458   1.2862722344e+02   4.2289427689e+01    0.4517996    0.3000468 -62.51    0.0028241    1.599    0.374
       301 -10.2758    178.7005     30.8935   6.3305084253e+01   3.6736431117e+01    0.4799201    0.1697409  55.42  0.001658702    2.564    0.610
       302 -11.3498    182.8326     27.9009   6.1650472308e+01   3.6008244690e+01    0.6231303    0.4473384 -41.30  0.002232781    1.420    0.296
       303  -9.9202    177.1642     27.1893   6.2315237906e+01   3.7599403535e+01    0.2740518    0.2172021  60.50  0.001051205    1.247    0.198
       304 -11.6054    170.7991     30.5696   6.4531831165e+01   3.8863209939e+01    0.6622393    0.3289194  74.32  0.002418474    2.579    0.612
       305 -12.2259    241.8026    147.4268   8.3716662137e+01   5.8626870185e+00       0.4322    0.3237508 -44.15  0.002496855    1.741    0.426
       306 -12.5322    235.2888    143.8531   8.4024003709e+01   7.5382843862e+00    0.6101714    0.4214643 -57.77  0.003029948    2.491    0.598
       307 -10.6273     39.3052    146.9722   1.2461912760e+02   4.0515456740e+01    0.2621176    0.1882614 -83.28  0.001253454    1.171    0.146
       308 -10.3707     16.1746     31.2371   1.1265806137e+02   6.7187898391e+01    0.1868043    0.1562193 -73.59 0.0004730055    1.274    0.215
       309 -11.6830    180.8945     38.7744   6.5534695807e+01   3.5142618702e+01    0.6727233    0.3751692 -61.96  0.002464445    2.717    0.632
       310 -10.5027    248.4917     29.4012   5.3859091109e+01   1.9087817973e+01     0.406972     0.246709  80.85  0.001949612    1.936    0.484
       311  -9.6843    244.9758     25.5589   5.3187530788e+01   2.0338165293e+01    0.2099128    0.1620908 -75.33 0.0003944416    1.425    0.298
       312 -10.3592     38.4655    143.0658   1.2442661144e+02   4.1392870645e+01    0.1926738    0.1408945  57.30 0.0002762977    1.279    0.218
       313 -10.0327     88.6761     27.8412   8.3163936314e+01   5.8481658848e+01    0.3530389    0.1738858 -32.31  0.001556214    1.915    0.478
       314  -9.2411     61.3051    147.3008   1.1986421746e+02   3.7980429490e+01    0.1055023   0.08911318 -44.32 0.0002763238    1.593    0.372
       315  -9.8431     40.5816     26.7237   1.0062781606e+02   6.5894413259e+01    0.2470568   0.09442053 -46.30 0.0008421827    2.099    0.524
       316 -10.7322    168.5866     23.9799   6.2636073087e+01   4.0259467848e+01    0.5522306    0.2784925  47.42  0.002224159    1.948    0.487
       317 -10.9949     51.5272     24.9184   9.5385398210e+01   6.4912381297e+01    0.3916154    0.2471872  26.00  0.001054534    1.860    0.462
       318 -10.2162     55.2672     17.4894   9.0656973667e+01   6.5700234841e+01    0.2879072    0.1938986 -23.53 0.0008960844    1.402    0.287
       319 -11.1854     50.2343     19.4225   9.3580906490e+01   6.6056988129e+01    0.3487088    0.2368433  45.68  0.001637191    1.900    0.474
       320 -11.3263    248.1623    144.8827   8.2182055554e+01   4.9835000993e+00    0.2944383    0.2480432  15.17  0.001444987    1.033    0.032
       321 -11.9662     98.2811     21.9293   7.7694753956e+01   5.7501006854e+01    0.3127227    0.2683154  17.62 0.0007132215    1.141    0.124
       322 -11.8244    245.9839    140.0326   8.1500987012e+01   5.9720944851e+00    0.4538838    0.2452653  35.96  0.002207944    1.745    0.427
       323 -10.4181     35.1042    150.5314   1.2583858971e+02   4.0226950403e+01    0.2720841    0.1250893  58.28  0.001526871    2.040    0.510
       324 -10.9890      6.4697    142.7835   1.3125851861e+02   4.4280625754e+01    0.2370082    0.1508817  66.54   0.00169807    1.307    0.235
       325 -10.2748     40.8219     21.3521   9.8392471985e+01   6.6868120164e+01    0.2297962    0.1390615 -39.92 0.0005086975    1.354    0.261
       326 -11.4381      5.7645     26.4502   1.1590875057e+02   6.8805795338e+01    0.3328942    0.2402942 -11.12  0.001263452    1.672    0.402
       327 -11.2274    212.4787    138.1994   8.6698587622e+01   1.2810351104e+01    0.5003072    0.3472808  10.56  0.002528497    1.661    0.398
       328  -9.8206     54.5128    137.4686   1.2022120906e+02   4.0803330936e+01    0.1195219   0.09682474  83.82  6.49318e-05    1.028    0.027
       329 -11.5454    236.2838    135.0256   8.1971869899e+01   8.4672222527e+00    0.3431111    0.2226743  26.44  0.001218518    1.526    0.345
       330 -10.3851    244.4870     20.5461   5.1894476022e+01   2.0986481199e+01    0.2421565    0.2246637 -57.16 0.0007286456    1.057    0.054
       331 -10.2212    240.4355     19.3137   5.1950262531e+01   2.2093684424e+01    0.2738207    0.2125982 -46.16 0.0006472948    1.227    0.185
       332  -9.0459    228.2712     21.3789   5.3756188751e+01   2.4884599197e+01    0.1466889    0.1036718  22.98  0.000699621    1.693    0.409
       333  -9.5576    226.3066     18.6391   5.3187424520e+01   2.5669902133e+01    0.3042676    0.1299544  47.49  0.001171865    2.549    0.608
       334  -9.4906    185.7506     18.6868   5.8173321471e+01   3.6290527864e+01    0.2388853   0.09897006 -35.75 0.0008830342    2.307    0.567
       335 -11.3350    249.4273    132.4200   7.9323873300e+01   6.2412342638e+00    0.3682519    0.2504694  15.96  0.002015098    1.471    0.320
       336 -10.8376    158.9872     15.3128   6.1173612993e+01   4.3791576447e+01    0.2559361    0.1984551  80.86 0.0003328903    1.424    0.298
       337 -11.3132     14.5999    132.5924   1.2877892803e+02   4.5697638441e+01    0.3030479    0.2117144  31.46  0.002185414    1.777    0.437
       338  -9.5703    232.5520     18.1001   5.2392748274e+01   2.4159503655e+01    0.2084619    0.1305763 -25.03 0.0006196472    1.523    0.343
       339 -11.9155     12.3163    129.9378   1.2907991550e+02   4.6420363692e+01    0.5053632    0.2070242 -68.26  0.002121995    1.986    0.496
       340 -11.2037    242.2650    129.2957   7.9753648012e+01   8.0192127700e+00    0.3002534    0.1723469  41.36  0.001505118    1.649    0.393
       341 -10.9975    224.0471    128.7821   8.2621065093e+01   1.1757964831e+01    0.2745329    0.1907683  44.42 0.0007885842    1.380    0.275
       342 -10.9791    226.6501    125.5587   8.1454655334e+01   1.1662784273e+01    0.3405137    0.2785721 -48.61  0.001055378    1.514    0.339
       343  -9.5718     72.8407    128.8450   1.1475723865e+02   4.0327335086e+01    0.1736058    0.1299231  73.21 0.0009024286    1.299    0.230
       344 -10.0332     92.4690     15.7617   7.6701988116e+01   5.9558883331e+01    0.2202714     0.184291  40.41 0.0002610438    1.242    0.195
       345 -10.9390     24.5191    128.3632   1.2615615548e+02   4.5742385481e+01    0.2647563    0.1856037  43.20   0.00163297    1.542    0.351
       346 -10.2143     59.3615    125.7134   1.1755250042e+02   4.2702903965e+01    0.1546995    0.1171193  31.71 0.0005185714    1.607    0.378
       347 -10.0403    246.8102    121.8160   7.7366845369e+01   8.0623949412e+00    0.1740367    0.1568537 -37.08  0.001062006    1.320    0.243
       348  -9.4696    178.4663     14.5212   5.7824391814e+01   3.8689504712e+01    0.1446388    0.1431156  87.16 0.0001192458    1.032    0.031
       349 -10.4292     19.4020    120.1314   1.2657614920e+02   4.7896738606e+01    0.3113071    0.1280534 -53.76  0.001610242    2.597    0.615
       350 -10.4615    217.0831    120.0160   8.1808604219e+01   1.4448383427e+01    0.2955288    0.2058416 -16.71  0.001353858    1.497    0.332
       351 -11.2996     23.7445    108.3206   1.2424841146e+02   5.0055059661e+01    0.4517063    0.1524495  48.18  0.002122889    3.130    0.680
       352 -11.0731      5.7654    117.7964   1.2962448783e+02   4.9406157478e+01    0.4734135    0.1531558 -78.26  0.002349021    2.439    0.590
       353 -10.6493     10.2644     99.2982   1.2678447204e+02   5.3006618271e+01    0.2387532    0.1300413  77.65  0.001415817    1.813    0.448
       354 -12.2448     22.3585     95.9494   1.2310355132e+02   5.2843949322e+01    0.4995525     0.301016 -42.60  0.002679456    2.007    0.502
       355 -11.8552    108.0122     29.3498   7.8012242424e+01   5.4354175463e+01    0.7811192    0.3699269  62.70  0.002247035    3.053    0.672
       356 -11.4527      8.3808    109.6394   1.2828761387e+02   5.0935205683e+01    0.3898355    0.1683876 -52.72  0.001758115    2.464    0.594
       357 -10.8709     11.5972    105.2153   1.2704648319e+02   5.1649874723e+01    0.1996758    0.1630891 -78.85  0.001030658    1.121    0.108
       358 -11.8937     18.2775    103.8998   1.2516778313e+02   5.1440907267e+01    0.3583941    0.2373073  49.91  0.001971043    1.604    0.376
       359  -9.2989     27.7247    119.3894   1.2448493955e+02   4.7348226765e+01    0.1219839   0.06969211  76.11 0.0005861326    1.728    0.421
       360 -10.0747     13.0502    117.3118   1.2784106926e+02   4.8984415663e+01    0.1491221    0.1223732  80.43 0.0007509224    1.126    0.112
       361 -11.6327    238.0175    113.4392   7.6800036173e+01   1.0930755484e+01    0.3195473    0.3066109 -48.73 0.0008305438    1.281    0.219
       362 -12.1124    226.6691    112.6098   7.8435353463e+01   1.3442281717e+01    0.6462494     0.385327  58.22  0.002905707    1.919    0.479
       363 -11.5920    231.8176    111.6160   7.7357094872e+01   1.2479638379e+01    0.3742858    0.2988818  77.20  0.001606159    1.742    0.426
       364 -11.8288    207.5475    112.4708   8.1696712396e+01   1.7629659704e+01    0.5175936    0.3110799 -47.81  0.001760965    2.011    0.503
       365 -11.6354    194.7049    112.7562   8.4131586664e+01   2.0433446946e+01    0.3572392    0.3274423   6.25  0.002025097    1.062    0.059
       366 -11.9964    245.5169    110.0233   7.4836692735e+01   9.8218328661e+00    0.4583864    0.2780388 -14.12  0.002235032    1.690    0.408
       367 -12.5892    242.2452    101.3296   7.3250736382e+01   1.1632998770e+01     1.060329     0.601063 -59.87   0.00396309    3.627    0.724
       368  -9.9173    214.9829    113.0000   8.0511056349e+01   1.5917517144e+01    0.2326036   0.07845464  51.95 0.0006961715    2.930    0.659
       369 -11.0799    232.8588     99.1353   7.4156368609e+01   1.3952544942e+01    0.3862407    0.2954485  67.44  0.001717766    1.613    0.380
       370 -11.0174     37.5164    109.9133   1.2087711020e+02   4.8476273139e+01    0.2845603    0.1672264  56.31 0.0003631102    1.782    0.439
       371 -11.0994     15.8881     98.7315   1.2521427364e+02   5.2732689130e+01    0.3510008    0.2212743 -36.57  0.002170907    2.166    0.538
       372 -11.1574    201.2488    107.5300   8.1628992846e+01   1.9789419828e+01    0.2789528    0.2002922 -30.57  0.001388195    1.400    0.286
