#   1 NUMBER                 Running object number                                     
#   2 MAG_AUTO               Kron-like elliptical aperture magnitude                    [mag]
#   3 X_IMAGE                Object position along x                                    [pixel]
#   4 Y_IMAGE                Object position along y                                    [pixel]
#   5 X_WORLD                Barycenter position along world x axis                     [deg]
#   6 Y_WORLD                Barycenter position along world y axis                     [deg]
#   7 A_WORLD                Profile RMS along major axis (world units)                 [deg]
#   8 B_WORLD                Profile RMS along minor axis (world units)                 [deg]
#   9 THETA_WORLD            Position angle (CCW/world-x)                               [deg]
#  10 FWHM_WORLD             FWHM assuming a gaussian core                              [deg]
#  11 ELONGATION             A_IMAGE/B_IMAGE                                           
#  12 ELLIPTICITY            1 - B_IMAGE/A_IMAGE                                       
         1 -10.8896    229.0506     31.6891   2.7166233441e+01   2.3469043372e+01     1.380644     1.031591 -41.95  0.007586726    1.192    0.161
         2 -11.1756    190.1864     45.0030   3.5675538714e+01   3.1440824460e+01     4.428923     0.654951 -38.48   0.01108461    4.897    0.796
         3 -11.3343    206.8647     16.6296   2.4937081713e+01   3.0517270277e+01    0.8796396    0.4345569 -23.20  0.003604495    1.919    0.479
         4 -11.2772    212.7338     24.6786   2.6754775994e+01   2.8192144168e+01     1.105995    0.6073813   4.85  0.004355043    2.764    0.638
         5 -13.9431    181.2385     77.6274   4.7173394770e+01   2.8832510536e+01     6.150284     2.240802 -45.46  0.001755486    3.114    0.679
         6 -14.3684    223.0452     73.6357   3.9414547896e+01   1.9556246922e+01     10.24932      2.51134 -39.60   0.03133339    3.649    0.726
         7 -14.2414    242.3895     56.8273   3.2567519938e+01   1.7459786347e+01     3.472261     1.755698  67.50  0.008545881    2.364    0.577
         8  99.0000    220.3585     35.6675   2.9151094709e+01   2.5078115004e+01     14.21429          nan -33.91   0.02096611   15.412    0.935
         9 -12.2924    249.8765     29.1639   2.4682427671e+01   1.9037403364e+01     1.871925    0.3850591 -22.35  0.005268043    5.066    0.803
        10  -9.9613    110.7922     34.1578   4.7127182901e+01   5.3368355119e+01    0.5406537     0.218816 -34.86   0.00198916    2.300    0.565
        11 -10.5177    134.6801     16.6722   3.4422863880e+01   4.9608669352e+01     0.571058    0.2329173 -17.40  0.001425947    2.699    0.629
        12 -11.3443    132.3058     27.6809   3.9395609992e+01   4.8909603911e+01    0.8289406    0.3662531 -18.23  0.002932779    2.624    0.619
        13  -9.3251    224.7627     19.0707   2.4045693558e+01   2.5857707503e+01    0.3814695    0.2149183  29.94  0.001253464    2.567    0.610
        14 -10.5327     92.5053     13.1591   4.2283573142e+01   6.0523720460e+01    0.5113924    0.2456873 -24.03   0.00117368    2.006    0.502
        15 -10.1288    246.1849     12.4583   2.0669073744e+01   2.1578894933e+01    0.2827582    0.1856465 -19.18 0.0006780822    1.474    0.321
        16  -8.8878    223.6219     13.4407   2.2566067331e+01   2.6705522637e+01    0.2977796    0.1883135  11.58  0.001389475    2.153    0.536
        17  -7.8328    241.4448     12.4201   2.0978220623e+01   2.2644974450e+01    0.2479897    0.1307383  40.24   0.00107411    2.614    0.617
        18 -10.1613    120.3063      9.3456   3.3966690607e+01   5.4122047515e+01    0.4268326    0.3213555 -24.99   0.00106533    1.318    0.241
        19  -8.6825    108.3915      7.7810   3.5694891235e+01   5.7296068663e+01    0.2095796    0.1314913  -1.99 0.0009531823    1.747    0.427
        20  -8.2878    188.1815      5.9236   2.3378956276e+01   3.6375741269e+01    0.2231887    0.1706179 -55.02 0.0004520932    1.273    0.214
        21  -8.5495    235.8080      3.2469   1.8941531047e+01   2.4809146270e+01      0.23398    0.1671014 -54.33  0.001077688    1.259    0.205
        22 -10.5466    250.2030      2.2844   1.7854209752e+01   2.1663768498e+01    0.2588089    0.1690188 -13.10   0.00142591    1.621    0.383
        23  -8.4768    171.4355      2.4850   2.3894432323e+01   4.1122675346e+01    0.2710197    0.1800973 -69.41 0.0008447916    1.622    0.383
        24  -8.8513    148.0605      2.4155   2.6605007963e+01   4.7414582499e+01    0.2291972     0.194717  13.57  0.001237546    1.242    0.195
        25  -8.6437    105.3299      2.3097   3.3694221990e+01   5.8575843913e+01    0.1539524   0.09508807  31.82 0.0007041211    1.666    0.400
        26  -8.3951    128.8112      9.6370   3.2515034348e+01   5.1883542433e+01    0.2750513    0.1153863 -16.21  0.001004312    2.554    0.609
        27 -10.1887    230.9267    167.9411   6.0275695946e+01   5.0954046613e+00    0.3993576    0.1811594 -38.39  0.001910869    2.466    0.594
        28  -9.1849    136.1247    249.6112   8.8584867352e+01   9.3889750114e+00    0.3344892   0.09258994  47.60   0.00136993    3.249    0.692
        29  -9.4922    221.9991    178.3182   6.3703073239e+01   5.2867385182e+00    0.1794151     0.141313  23.73 0.0008450767    1.103    0.094
        30  -8.4558    188.0110    169.5327   6.8020608274e+01   1.2319830162e+01     0.205671    0.1871158 -80.03 0.0006560057    1.529    0.346
        31  -8.5595    185.0085    166.7185   6.8048968705e+01   1.3283045719e+01    0.1952599    0.1843071   8.73 0.0004614853    1.111    0.100
        32  -8.5824    249.2133    249.4071   7.0801722679e+01  -5.6568068644e+00    0.1325432   0.07437471  38.62 0.0009459928    1.673    0.402
        33  -9.3281    177.5215    247.4825   8.1555938937e+01   3.9347949600e+00    0.2045251    0.1627314  53.90 0.0008726788    1.525    0.344
        34  -9.5795    113.3852    242.7479   9.1766661441e+01   1.3366060069e+01    0.3671591    0.1494727  57.06   0.00181133    3.007    0.667
        35 -10.3128    198.4712    241.8789   7.7499122536e+01   1.6300798887e+00    0.1921388    0.1531956  25.05 0.0003785801    1.116    0.104
        36 -12.2136    203.0035     80.2151   4.4198392317e+01   2.3220714830e+01     1.302622     1.140877 -74.74  0.001933284    1.346    0.257
        37  -9.2610    165.1446    241.2276   8.2855332806e+01   6.3699327313e+00    0.2093858       0.1303  44.28 0.0002532209    1.328    0.247
        38  -8.9660    166.6626    236.7928   8.2076544299e+01   6.6788142373e+00    0.1907217     0.133698  38.50 0.0003751202    1.102    0.092
        39 -10.6339    194.1748    157.1787   6.4472993197e+01   1.3046066117e+01    0.7203145     0.455378 -61.19  0.003174676    2.970    0.663
        40 -10.7275     56.4927    144.4257   9.3030339421e+01   3.9069150147e+01      0.84378    0.5082919  71.86     0.004437    1.736    0.424
        41 -12.5712     29.1636    154.0457   1.0069571070e+02   3.9976895828e+01    0.7054728    0.6074548  40.52  0.001488723    1.380    0.276
        42 -13.0206    238.5576     67.7110   3.5851287314e+01   1.6917123900e+01     1.017012    0.8378267  66.44  0.002406616    1.421    0.296
        43  -7.0117    219.5025    159.5407   6.0493138301e+01   8.1231805193e+00    0.1277385    0.1112838   7.56 0.0001057831    1.061    0.057
        44  -9.6423    166.9591    158.8959   7.0047197353e+01   1.7861622394e+01    0.2190881    0.1920643  33.07 0.0003164538    1.050    0.048
        45  -8.0758    110.1593    153.4604   8.1356871825e+01   2.9157787339e+01    0.1853575    0.1254211  42.12 0.0003956159    1.416    0.294
        46  -7.9380    203.7832    152.4090   6.1753334578e+01   1.1967004137e+01     0.183738     0.115164  33.54 0.0005535845    1.536    0.349
        47 -12.3531     40.7951    149.2377   9.7464859344e+01   3.9825093104e+01    0.8255094    0.6900058 -89.03  0.002650278    1.093    0.085
        48  -9.0864    133.1273    142.1393   7.3967413648e+01   2.7337292171e+01    0.6661441    0.1866326 -55.51  0.001691976    6.243    0.840
        49 -10.2429    173.0705    148.6572   6.6769240527e+01   1.8423337507e+01    0.3655084    0.2700706   4.26   0.00187893    1.661    0.398
        50 -10.2938    162.3922    146.0745   6.8403172241e+01   2.0951117344e+01    0.5545335     0.369744 -80.26 0.0009488683    3.077    0.675
        51  -9.8424     70.1895    145.4078   8.9733460722e+01   3.7053759511e+01    0.3473689    0.2704259  59.48  0.001344603    1.197    0.164
        52 -10.4795     66.5050    143.5223   9.0391990374e+01   3.7976470894e+01    0.4613895    0.3288835  88.12  0.001543543    1.364    0.267
        53  -9.9575    211.1440    138.8722   5.7550228616e+01   1.2555625179e+01    0.3128274    0.2619608 -39.61  0.000495124    1.338    0.253
        54 -10.1944    217.3523    144.3701   5.7690906191e+01   1.0591531277e+01    0.3985826    0.2778333 -25.27  0.002208793    1.364    0.267
        55  -8.9893    214.5526    140.4756   5.7318406271e+01   1.1671382821e+01    0.2289972    0.1748212 -16.50 0.0002645043    1.234    0.190
        56  -9.9615    249.6415    142.5416   5.2201197401e+01   5.0705162035e+00    0.3353791    0.2089124 -23.97  0.001821861    1.416    0.294
        57 -10.0504    190.3659    132.3624   5.9834213039e+01   1.7682573376e+01     0.537734     0.264914 -41.79  0.002292866    2.110    0.526
        58  -9.1167    192.3070    144.2822   6.2124521159e+01   1.5388635958e+01    0.2495321    0.2042333  47.68 0.0005491903    1.290    0.225
        59 -10.3597    193.0589    139.9640   6.1041032351e+01   1.5922546080e+01    0.4479606    0.3128371 -65.92  0.002065368    2.420    0.587
        60  -9.6342    145.9793    141.6908   7.0996043619e+01   2.4961030156e+01    0.2329119    0.2035915 -52.86 0.0005308571    1.208    0.172
        61 -10.1167    143.5266    137.4379   7.0644251543e+01   2.6257584629e+01    0.5556657     0.336399 -73.64    0.0020995    3.181    0.686
        62  -9.6192    174.7675    140.1595   6.4617431242e+01   1.9534413230e+01    0.2988335    0.2697932 -68.17 0.0008986642    1.345    0.256
        63 -11.1717    179.2303    136.2566   6.2866362859e+01   1.9300202200e+01    0.6096215    0.4676436 -31.92  0.002408898    1.312    0.238
        64  -9.0322    223.9299    145.7811   5.6897153179e+01   9.1847308626e+00    0.2773316    0.2050755  61.79  0.001511695    1.918    0.478
        65  -8.5456    158.6242    131.7955   6.6094821093e+01   2.4297693067e+01    0.3001081    0.1975099 -53.28  0.001404079    1.732    0.423
        66  -8.8884    160.5005    128.4953   6.4937220459e+01   2.4522184099e+01    0.2781142     0.220115 -37.97  0.001397587    1.279    0.218
        67  -9.7144    222.8462    129.3729   5.3443576489e+01   1.1664483388e+01    0.3217393    0.2011963 -10.27  0.001140376    1.752    0.429
        68  -8.9752    136.1407    128.0233   7.0271734774e+01   2.9582056867e+01    0.3713858    0.1577425 -52.79  0.001356937    2.676    0.626
        69  -9.1357    201.9002    125.9094   5.6212649344e+01   1.6351923593e+01    0.2082497    0.1942745 -11.50 0.0005657591    1.074    0.069
        70  -7.8801    170.2994    124.6933   6.1989582271e+01   2.3161627066e+01    0.1516932    0.1392922   7.35 0.0003739352    1.083    0.077
        71  -9.5785    170.5644    120.2842   6.0870186287e+01   2.3894042800e+01    0.6319792    0.3382318 -65.06  0.001781186    5.376    0.814
        72  -7.8090    143.6794    124.2965   6.7676246606e+01   2.8802230438e+01    0.1456285    0.1161793  87.62 0.0002552935    1.616    0.381
        73  -8.5655    167.8918    232.0773   8.1292724030e+01   7.0697838860e+00    0.1642323    0.1270559  32.85 0.0003690209    1.022    0.022
        74  -7.5285    205.6523    122.2683   5.4684559575e+01   1.6145147339e+01    0.1321418    0.1132514 -76.05 0.0004800469    1.617    0.382
        75 -11.5236    234.7210     51.0551   3.1870241878e+01   1.9869258847e+01    0.4517717    0.3106275 -25.82 0.0004539084    1.290    0.225
        76 -12.7970    228.9843     92.9285   4.3648997726e+01   1.5574679478e+01      2.52009    0.7269099 -41.71  0.008006747    3.708    0.730
        77  -8.0784     60.7439    119.0623   8.8173805446e+01   4.4393627490e+01    0.1799064    0.1477178 -74.34            0    1.084    0.077
        78  -9.6646    222.3985    117.8972   5.0833090565e+01   1.3387540009e+01    0.2482262      0.20993 -69.80 0.0009754468    1.660    0.398
        79  -9.4439    200.6722    115.9032   5.4017912656e+01   1.8179174622e+01     0.272805    0.2157979  57.55  0.001207585    1.446    0.308
        80  -9.1942    174.9436    112.9856   5.8158066815e+01   2.4241385825e+01     0.363036    0.2297966 -21.50    0.0010382    1.834    0.455
        81  -9.9245    134.8810    110.5182   6.6389088706e+01   3.3407914305e+01    0.9243869    0.1500539 -43.64   0.00210194    6.159    0.838
        82  -9.9973    136.4300     99.6774   6.3150520194e+01   3.5286885005e+01    0.4523428    0.3700893   2.21 0.0008311912    1.521    0.343
        83 -10.2150    205.4487    109.9247   5.1692672375e+01   1.8096284505e+01    0.4507581    0.3381975  10.87  0.001737511    1.484    0.326
        84 -11.6677    225.4993     86.3280   4.2445537672e+01   1.7245219331e+01    0.4671474    0.3711953 -41.25  0.001331519    1.250    0.200
        85 -10.7295    122.5434    103.3435   6.7609079639e+01   3.7474398876e+01    0.5713631    0.3346691 -63.75  0.002258271    2.275    0.560
        86 -10.8523    119.8538     95.6354   6.6225150168e+01   3.9669407305e+01    0.6816806    0.3334562 -55.19  0.002034395    2.351    0.575
        87  -7.7881     84.3379    107.2541   7.9056539019e+01   4.3699343293e+01    0.2026051     0.125403 -66.39 0.0005487893    1.652    0.395
        88  -9.3863    151.2109    102.4660   6.0452243407e+01   3.1464446964e+01    0.4123603    0.2776363 -32.19   0.00186648    1.534    0.348
        89 -10.1222     79.8156    102.1051   7.9213990569e+01   4.5632480000e+01    0.2245056    0.2103191 -76.64 0.0002336851    1.038    0.037
        90  -9.8305    205.3042    100.2390   4.9235927077e+01   1.9628265439e+01     0.471739    0.2362721 -46.10   0.00179554    2.253    0.556
        91  -8.8197    210.5353     99.3667   4.8140762405e+01   1.8611966078e+01    0.3432043     0.197245 -51.80  0.001036714    2.239    0.553
        92 -10.8834    165.9961     98.1351   5.6055840114e+01   2.8915168631e+01    0.9885143    0.4544162  45.37  0.003274235    2.239    0.553
        93  -9.8610    145.2440     93.7945   5.9406486167e+01   3.4490252298e+01    0.3448143    0.3044146 -56.04 0.0008694365    1.170    0.145
        94  -8.5910    171.2263     91.7201   5.3188202843e+01   2.8843443215e+01    0.2341472    0.1992904  87.15  0.001166091    1.429    0.300
        95 -11.7764     11.9322    160.9734   1.0512622758e+02   4.0079833942e+01    0.6298891    0.3765258 -66.36  0.004024497    1.693    0.409
        96 -10.9846    161.7835     89.6077   5.4528156557e+01   3.1442736274e+01    0.3647846    0.2778228 -25.79 0.0006510662    1.338    0.253
        97  -7.4861    195.7428    230.2880   7.6406256201e+01   3.2404439065e+00   0.09345119    0.0777805  48.42 0.0001762572    1.485    0.326
        98 -11.9744    184.4411     90.1694   5.0199790050e+01   2.6003106873e+01     1.384343     1.103698  17.91  0.006875889    1.408    0.290
        99 -10.1521    129.6413     83.6161   6.0181979732e+01   4.0033200495e+01    0.2642312    0.2481115 -33.23 0.0007052093    1.044    0.042
       100 -10.3400    139.8023     79.3511   5.6367741312e+01   3.8533823611e+01    0.3882135    0.2783622  45.98  0.001552847    1.444    0.307
       101 -10.4362    149.8227     81.7923   5.4807441243e+01   3.5708953759e+01      0.45406    0.3068877  10.39  0.001805295    2.286    0.563
       102 -11.5237    153.5370     61.5802   4.7510742677e+01   3.8369031938e+01     1.102974    0.2837168 -36.83  0.003169666    3.435    0.709
       103 -10.2084    151.1176     71.3566   5.1243188005e+01   3.7289535767e+01    0.3334496    0.2941581  50.23 0.0003649285    1.172    0.147
       104  -9.4733    154.3215     68.0069   4.9469804833e+01   3.7084566980e+01    0.2809342    0.2532922 -54.69 0.0003900847    1.145    0.127
       105  -7.7657    100.5387     68.4337   6.3319333636e+01   4.9412793891e+01    0.1498264    0.1411095 -45.18 0.0003529183    1.017    0.016
       106  -9.7521    130.0993     63.8781   5.3629762600e+01   4.3726531724e+01    0.3141061    0.2288917 -38.43 0.0003784211    1.314    0.239
       107 -10.7716    144.5252     59.5364   4.8746393620e+01   4.0971183796e+01    0.5907933    0.3279141 -43.18   0.00106373    1.788    0.441
       108 -10.5347    145.4223     55.2447   4.7055065014e+01   4.1462088656e+01    0.5853118     0.380461 -76.56  0.001864139    2.436    0.589
       109  -7.7895    114.7310     59.6698   5.6144222803e+01   4.8083818153e+01    0.1528009    0.1192603  -0.69 0.0001714702    1.582    0.368
       110  -7.8548     72.5992     58.4696   6.9049211373e+01   5.6758960189e+01     0.144368    0.1274508 -44.96 9.052458e-05    1.022    0.022
       111  -7.9382    102.0196    230.5077   9.2638471252e+01   1.6656571592e+01    0.1597641   0.08623333  40.54 0.0003882437    1.479    0.324
       112  -8.4839    135.6436     62.3032   5.1738687136e+01   4.2677873831e+01    0.1612271    0.1216515 -72.51 0.0007039255    1.714    0.417
       113 -10.3871    134.1498     46.4210   4.6341171855e+01   4.5727211682e+01    0.5392773    0.2606571 -29.08   0.00112533    2.056    0.514
       114 -11.3823    132.5473     39.1533   4.3915618550e+01   4.7248972696e+01    0.7248401    0.4035462 -44.39  0.002966055    1.870    0.465
       115  -9.1087    115.0806     47.3919   5.1414227556e+01   5.0212594765e+01    0.2804525    0.2037424 -38.19  0.001329328    1.319    0.242
       116  -7.5786     96.2845     44.3008   5.5563522095e+01   5.4987759593e+01    0.1471427    0.1134831   3.10 0.0002852592    1.553    0.356
       117 -10.8639    204.0549     36.6133   3.1261863131e+01   2.8982288470e+01     0.481843    0.2682838 -24.47  0.001361055    1.701    0.412
       118  -9.8614    199.9029     34.6174   3.1155402099e+01   3.0274803312e+01    0.6428863    0.2862866 -10.07  0.002149181    3.265    0.694
       119  -9.7192    162.8306     34.7950   3.6475324713e+01   3.9948022398e+01    0.3279437    0.2455246 -17.29 0.0007132651    1.369    0.269
       120  -7.5368     87.6488    230.7034   9.5204717886e+01   1.8529065506e+01   0.09641045   0.08015506  17.94 0.0007034275    1.686    0.407
       121 -10.0786    134.8448    224.7472   8.6186557200e+01   1.2873542436e+01    0.1818911    0.1777032  30.72 0.0005341917    1.249    0.199
       122  -9.4955    179.3504     23.6934   3.0220303064e+01   3.6903118206e+01    0.4590301    0.3733535  86.84  0.002382634    1.291    0.225
       123 -10.1858    171.3788     22.2743   3.0790101295e+01   3.9184744990e+01    0.3967814    0.2485455 -23.34  0.001096842    1.571    0.363
       124  -8.9624    224.8810    218.6089   7.0019066597e+01   3.0476156283e-01    0.2633342    0.1696116  54.82  0.001271978    2.550    0.608
       125  -8.6214     86.5014    217.9984   9.4331142082e+01   2.0702564177e+01    0.1824925    0.1343257  35.04  0.001267552    1.411    0.291
       126  -8.6809    164.9462     18.2478   3.0248929473e+01   4.1349294436e+01    0.2440541    0.1989883 -25.11  0.000540068    1.211    0.174
       127  -8.7597    164.2505     26.8807   3.3436986954e+01   4.0557939481e+01    0.3123785    0.2230615  83.14  0.001462477    1.552    0.356
       128  -9.3099     92.3095     17.3226   4.4437752540e+01   6.0051212422e+01     0.265837    0.2011229  20.05 0.0005648155    1.380    0.275
       129  -9.1672     36.1583    215.2933   1.0338728718e+02   2.7205870782e+01    0.1498233    0.1236272  41.23   0.00097568    1.430    0.301
       130  -8.0540    160.9592     18.3297   3.0837589334e+01   4.2411520129e+01    0.1954878     0.185165  55.85 0.0004942228    1.064    0.060
       131  -8.0908    143.9822     18.0305   3.3350839309e+01   4.6993971620e+01    0.1907813    0.1623919 -20.86 0.0009922442    1.170    0.146
       132  -8.5966    157.9347    211.3320   8.0345199752e+01   1.1281498865e+01    0.1596062    0.1443582  45.45 0.0002371351    1.162    0.140
       133  -9.5453    188.0648    209.4939   7.4730740835e+01   6.8283566744e+00    0.3183708    0.2328509  67.82  0.001540334    2.326    0.570
       134  -7.9261    237.3130    203.6743   6.5688322662e+01   5.7849774639e-02   0.09352262   0.09039299  31.84  0.000307259    1.664    0.399
       135  -9.3603    236.5672     18.5147   2.2941105477e+01   2.3143079061e+01    0.2564204    0.1794947 -15.38 0.0007733108    1.449    0.310
       136  -9.1987     18.6766    201.2804   1.0588430440e+02   3.1489941555e+01    0.1667814    0.1346088  72.93 0.0003163777    1.175    0.149
       137  -9.7399    193.6256    196.4196   7.1715106970e+01   7.6178390626e+00    0.4257744    0.2449451 -59.85  0.001810951    4.409    0.773
       138  -8.9448     21.8250    185.9259   1.0448401909e+02   3.4098585121e+01    0.1647149    0.1296937  59.38  0.000337575    1.168    0.144
       139  -7.7993    169.9357    185.0153   7.4152457702e+01   1.3159725288e+01    0.1511762    0.1262951  33.28  0.000435036    1.037    0.036
       140  -8.9632    242.2782    183.3665   6.1383331052e+01   1.4922642043e+00    0.2005489    0.1687904  13.60 0.0004364873    1.179    0.152
       141  -9.7238    213.1085    176.5004   6.4859895819e+01   6.9913090693e+00    0.3888374    0.1724779  30.69   0.00123002    2.390    0.582
       142 -10.0332    238.5946    176.0029   6.0596141942e+01   2.8940507477e+00    0.2966805    0.2344341  62.90 0.0008347118    2.152    0.535
       143  -9.5556    228.4897    171.4849   6.1353038611e+01   5.0622493207e+00    0.2362033     0.210197  65.21    0.0011668    1.735    0.424
