#   1 NUMBER                 Running object number                                     
#   2 MAG_AUTO               Kron-like elliptical aperture magnitude                    [mag]
#   3 X_IMAGE                Object position along x                                    [pixel]
#   4 Y_IMAGE                Object position along y                                    [pixel]
#   5 X_WORLD                Barycenter position along world x axis                     [deg]
#   6 Y_WORLD                Barycenter position along world y axis                     [deg]
#   7 A_WORLD                Profile RMS along major axis (world units)                 [deg]
#   8 B_WORLD                Profile RMS along minor axis (world units)                 [deg]
#   9 THETA_WORLD            Position angle (CCW/world-x)                               [deg]
#  10 FWHM_WORLD             FWHM assuming a gaussian core                              [deg]
#  11 ELONGATION             A_IMAGE/B_IMAGE                                           
#  12 ELLIPTICITY            1 - B_IMAGE/A_IMAGE                                       
         1 -14.1656    201.6527     31.2058   5.0922292882e+00   3.3043557450e+01    0.8277707    0.6417792 -66.00  0.003638452    1.064    0.060
         2 -11.1651    189.8118     15.0930   2.8112499412e+00   3.7065415064e+01    0.1785213    0.1156865 -67.95  0.000903379    1.217    0.178
         3 -13.6297    247.9847    244.1896   3.5284163417e+01  -4.3265495026e+00     1.108147    0.3862685 -40.02   0.00654502    2.184    0.542
         4 -11.4680    151.9595    200.8454   4.5859151525e+01   1.2242574771e+01    0.2335651    0.1776981 -40.10 0.0005888548    1.251    0.200
         5 -11.2347    160.8490    198.6191   4.3608802304e+01   1.1531929506e+01    0.2592925    0.2433011  20.27 0.0007064613    1.207    0.171
         6 -10.1693    191.3150    191.9894   3.6628576965e+01   8.9666574925e+00      0.29576    0.1661454 -64.31  0.001291163    3.402    0.706
         7 -15.6282     68.7274    142.7485   5.8268216709e+01   3.7952939170e+01     2.032381     1.406088 -69.04  0.004888089    1.571    0.364
         8 -10.4127    159.4930    192.5362   4.2898047780e+01   1.2885202042e+01    0.2165126     0.125138 -59.41 0.0008653926    2.154    0.536
         9 -13.1798    172.8085    174.4052   3.7112881421e+01   1.4577620685e+01    0.7738252    0.5723974 -34.39  0.001219489    1.232    0.188
        10 -12.0539    180.7690    168.9216   3.4642282095e+01   1.4504014568e+01    0.6341838    0.4306566 -67.45  0.002524959    2.088    0.521
        11 -11.9573      8.9420    176.0427   8.2689057755e+01   3.5563659746e+01    0.2543932    0.2127885  15.34 0.0006925183    1.233    0.189
        12 -11.2835     85.8325    240.0957   6.6978356470e+01   1.2270437313e+01    0.1852718     0.163744  -6.13  0.000427793    1.130    0.115
        13 -10.3702    238.3165    169.3177   2.5659454287e+01   7.3101007788e+00    0.1100378    0.0706144 -21.85 0.0003648121    1.654    0.395
        14 -11.4218    242.1434    166.8437   2.4768144976e+01   7.2742514301e+00     0.162227    0.1260664 -47.49 0.0007809776    1.239    0.193
        15 -11.3314    122.4105    166.4888   4.6929214568e+01   2.3771662777e+01    0.4850979    0.2573023  61.42  0.001593403    3.967    0.748
        16 -10.0812      9.3204    167.0346   8.1871333959e+01   3.7937450515e+01    0.1930151     0.154291 -81.89 0.0004587129    1.225    0.184
        17 -11.2196    229.9846    166.4944   2.6337377929e+01   8.6779480409e+00    0.1418555    0.1110235  31.64  0.000743838    1.586    0.369
        18 -10.5174    149.2929    162.0558   3.9744022106e+01   2.0507444493e+01    0.1961051    0.1728414 -43.54 0.0006084847    1.084    0.078
        19 -10.4755    127.3389    161.6631   4.4801433431e+01   2.4072415758e+01     0.257251    0.1736771 -63.75  0.001212208    1.705    0.413
        20 -11.1378    123.6743    155.6232   4.4575464600e+01   2.6019700325e+01    0.4945549    0.3074442 -81.60  0.001769266    2.987    0.665
        21 -12.5805    133.7223    145.8435   4.0182217881e+01   2.6495054813e+01      1.47277     0.343204 -55.34  0.003417442    6.764    0.852
        22 -10.2233    129.1860    141.7974   4.0461794609e+01   2.8157834449e+01    0.3253684    0.2626292 -14.25  0.001102123    1.483    0.326
        23 -10.1872    213.8035    246.4189   4.0875868029e+01  -1.9946477003e+00     0.180417    0.1162289 -33.06 0.0005998423    1.298    0.230
        24 -11.8262    111.0829    149.6949   4.6729480052e+01   2.9470134922e+01     0.529869    0.3465869  70.63  0.001421711    2.409    0.585
        25 -10.4566    143.3986    145.6065   3.7892418763e+01   2.4901173635e+01    0.2794427    0.1265446 -61.89 0.0009554791    3.380    0.704
        26 -11.4436    110.0497    143.1413   4.5704754505e+01   3.1170891142e+01    0.2964171     0.265317  75.89 0.0005078962    1.241    0.194
        27 -11.8337    100.3705    130.1032   4.5719005563e+01   3.5904104749e+01    0.2872679    0.2651733  -2.39 0.0003392378    1.170    0.145
        28 -19.3930     40.3595    150.2593   6.9329118095e+01   3.9641739578e+01     19.28143     7.644683 -74.49    0.0653666    2.965    0.663
        29 -12.6229     95.3497    132.9902   4.7823625507e+01   3.6101148590e+01    0.6159043    0.3994344 -66.71   0.00108407    1.791    0.442
        30 -10.8385     89.9875    128.9658   4.8604752397e+01   3.7990423816e+01    0.2495366    0.2213338 -60.50 0.0003427836    1.158    0.136
        31 -12.0074    111.5958    131.5059   4.2851675805e+01   3.3574122097e+01    0.5215402    0.3524973 -21.90  0.001895381    2.103    0.525
        32 -10.6432    136.1261    129.7972   3.6305259151e+01   2.9497407598e+01    0.3580102    0.0866806 -46.90  0.001052685    3.980    0.749
        33 -10.0576    161.0069    128.0429   3.0645496031e+01   2.5413303789e+01    0.2214801    0.1637336 -81.26  0.001147147    1.776    0.437
        34 -11.3234    117.0702    125.3932   4.0054157814e+01   3.3942726151e+01      0.29829    0.2363684 -11.52 0.0007456089    1.640    0.390
        35 -11.3725    134.9887    119.3624   3.4306761712e+01   3.1874094753e+01    0.5574927    0.1724273 -46.30  0.001872893    3.159    0.683
        36 -10.6550    105.3077    119.9842   4.2051226838e+01   3.7329908583e+01    0.2668055    0.2347929 -12.74 0.0005943718    1.314    0.239
        37 -10.2463     95.8775    119.0822   4.4605545084e+01   3.9271998060e+01    0.2254029    0.1956094  73.35            0    1.264    0.209
        38 -10.0235    178.0390    118.0181   2.5531633667e+01   2.4331879448e+01    0.2001316    0.1448901 -74.60 0.0004964736    1.657    0.396
        39  -9.7088    111.9640    115.3691   3.9146648045e+01   3.7096735436e+01    0.2038086    0.1803502  46.36  0.000392268    1.120    0.107
        40 -10.2553    170.9790    113.7500   2.5871205912e+01   2.6332058948e+01    0.2069023    0.1897153  58.24 0.0006935407    1.194    0.163
        41 -10.3417    168.7796    110.9778   2.5680960088e+01   2.7227193987e+01    0.2381572     0.178454 -46.83 0.0003575004    1.229    0.186
        42 -12.0993    118.9613    110.7733   3.6235632261e+01   3.6729358636e+01     0.582622    0.4242472  75.19  0.001550267    1.742    0.426
        43 -12.5827    118.1348    104.1235   3.4865252221e+01   3.8269437131e+01    0.6307977    0.4069034  70.71  0.001355488    2.116    0.527
        44  -9.2153    144.7021    111.3403   3.0388634100e+01   3.1635521185e+01    0.1416016    0.1051957 -81.81 0.0007033743    1.663    0.399
        45  -9.7909     94.9059    110.6865   4.2935310365e+01   4.1361874956e+01    0.2118177    0.1814352  47.26 0.0004545468    1.139    0.122
        46 -10.7531     80.1138    238.9290   6.8284737508e+01   1.3149014812e+01    0.1721739    0.1428542 -21.83 0.0003143057    1.287    0.223
        47 -11.1991    134.3422    105.4017   3.1292713045e+01   3.4804302892e+01    0.3958436    0.1851204 -48.15  0.001652178    2.100    0.524
        48  -9.3606     71.3685    233.2001   6.9921587912e+01   1.5344967424e+01    0.2642525    0.1075446  32.96  0.001114598    2.039    0.509
        49  -9.8520     80.4686    230.3679   6.7277509202e+01   1.4939987679e+01    0.1363622    0.1164864  13.04 0.0002829525    1.072    0.067
        50 -10.4040    109.7649     97.6810   3.5467844800e+01   4.1258505691e+01    0.2568063    0.2274415  79.25  0.000816139    1.163    0.140
        51 -13.2120     72.4297    225.5718   6.8848043635e+01   1.6913928871e+01    0.3209422    0.2415879 -46.82  0.001588021    1.445    0.308
        52  -9.6528    135.1349     89.0765   2.7244440783e+01   3.7738367279e+01    0.2283981    0.1610399 -83.49  0.001122775    1.777    0.437
        53 -10.3149    151.8811     87.1165   2.3477122048e+01   3.4686806741e+01    0.2547868    0.2036013 -72.21  0.001027753    1.233    0.189
        54 -10.1945     95.9484     87.0453   3.6598038042e+01   4.6197966896e+01    0.2190359    0.2007967  65.05 0.0003882095    1.057    0.054
        55 -13.5021    165.4426     69.5347   1.7218687322e+01   3.4837779465e+01    0.8628964    0.7025224  46.08 0.0008791295    1.531    0.347
        56 -13.9657    180.0656     56.9893   1.2503560364e+01   3.3796987739e+01    0.9030445    0.8514426  58.28   0.00388595    1.400    0.286
        57 -12.2513    186.3757     50.4556   1.0403229439e+01   3.3477283160e+01     0.341098    0.3020702  84.88  0.001037831    1.237    0.191
        58 -10.2423    113.2082     73.3695   2.8201396279e+01   4.5165851993e+01     0.389621    0.2221792  73.43  0.001444323    2.516    0.603
        59  -9.7691     78.4952    224.3193   6.7116377170e+01   1.6498286466e+01    0.2429943    0.1637678 -33.92 0.0001712425    1.678    0.404
        60 -11.2505     56.2444     63.7449   4.3645924283e+01   5.8429510304e+01    0.3515562    0.2092348  43.70  0.001302957    1.572    0.364
        61  -9.4902    209.0781    206.3233   3.5836473826e+01   4.5703506210e+00    0.1509531    0.1252472 -16.83 0.0003741262    1.082    0.076
        62  -9.6633     93.2288     56.1971   2.8435124847e+01   5.2376470550e+01    0.1921111     0.151848  79.20 0.0005920831    1.362    0.266
        63  -9.8677    155.3318    248.3009   5.2043525892e+01   3.1403342675e+00    0.1274467   0.07798006 -12.53 0.0007033474    1.650    0.394
        64 -11.3169     60.8537     21.5334   2.6222812870e+01   6.4212665887e+01    0.2700561     0.183489  63.49  0.000874988    1.436    0.303
