#   1 NUMBER                 Running object number                                     
#   2 MAG_AUTO               Kron-like elliptical aperture magnitude                    [mag]
#   3 X_IMAGE                Object position along x                                    [pixel]
#   4 Y_IMAGE                Object position along y                                    [pixel]
#   5 X_WORLD                Barycenter position along world x axis                     [deg]
#   6 Y_WORLD                Barycenter position along world y axis                     [deg]
#   7 A_WORLD                Profile RMS along major axis (world units)                 [deg]
#   8 B_WORLD                Profile RMS along minor axis (world units)                 [deg]
#   9 THETA_WORLD            Position angle (CCW/world-x)                               [deg]
#  10 FWHM_WORLD             FWHM assuming a gaussian core                              [deg]
#  11 ELONGATION             A_IMAGE/B_IMAGE                                           
#  12 ELLIPTICITY            1 - B_IMAGE/A_IMAGE                                       
         1 -17.0525    243.3579    122.2422   5.4953905396e+01   8.8690372229e+00     7.213702     4.222077  22.76   0.03157977    2.872    0.652
         2 -17.2565    239.9799     87.0269   4.7701957763e+01   1.5256364492e+01     11.44873     6.324285 -81.86   0.03412556    4.177    0.761
         3 -17.6943    247.3845     72.7024   4.3670254579e+01   1.6019949765e+01     8.438682     1.496726 -35.71   0.02481753    4.986    0.799
         4 -17.6846    226.6295     48.9831   4.0806465222e+01   2.3593874141e+01     5.635247     2.394958  49.49   0.02432351    2.911    0.656
         5 -17.4511    241.2096    105.9006   5.1699175115e+01   1.1977088253e+01     10.06507     3.506282  62.02   0.03196266    5.411    0.815
         6 -12.2749    113.2174     29.6537   5.4007113518e+01   5.2217314126e+01    0.5472901    0.4478732 -34.73  0.001095963    1.344    0.256
         7 -10.8860    166.6134     20.8273   4.1257498368e+01   4.0688724971e+01    0.5354468    0.4012593 -66.96  0.002270143    1.421    0.297
         8 -11.9725     14.9873     15.5815   8.4951641693e+01   7.0563658503e+01    0.6734031    0.3856693  38.95  0.003689185    2.550    0.608
         9 -11.2710     67.3703     14.9206   6.1407367949e+01   6.3264780029e+01    0.4603213    0.2400923  38.44   0.00188439    1.687    0.407
        10 -10.9606     51.5750     14.2466   6.7009530930e+01   6.6047346665e+01    0.3526087    0.2929466 -73.98  0.002046544    2.554    0.608
        11  -9.5877    125.7600     13.7872   4.5776713105e+01   5.1036662038e+01    0.2174127    0.1655954 -12.49  0.001066935    1.483    0.326
        12 -10.1308    168.3197      9.7946   3.7986814218e+01   4.1391757467e+01    0.4071886    0.2944625 -26.05  0.001830794    1.565    0.361
        13  -9.9382     90.6682     11.0362   5.2668601231e+01   5.9079206811e+01    0.3340671    0.2106109 -50.74  0.001663838    2.365    0.577
        14 -10.7961     86.2900      5.1330   5.1422967844e+01   6.0517270253e+01    0.3913857    0.3037713 -47.96  0.002391312    1.734    0.423
        15  -6.6993    238.5416      7.1383   3.0777485836e+01   2.6159764819e+01    0.2060431    0.1727708  59.28   0.00108819    1.473    0.321
        16 -10.5720    250.4827      8.8298   3.0295937671e+01   2.3625598901e+01    0.2667702   0.09406955 -46.05 0.0008046813    2.217    0.549
        17  -8.0516    248.3309      3.7387   2.9457388995e+01   2.4581178323e+01    0.1758036    0.1345638 -68.62 0.0005727303    1.021    0.021
        18  -9.9255    244.2842      6.8731   3.0329538802e+01   2.5044237807e+01    0.3117702    0.1505267 -72.16  0.001061745    2.101    0.524
        19 -10.0153    244.7009      3.3481   2.9614280585e+01   2.5330512504e+01    0.2061214     0.159411 -80.07 0.0004660871    1.101    0.092
        20  -9.1933    218.9120      9.6836   3.2810999712e+01   2.9966988777e+01    0.1619363    0.1208055 -82.15 0.0002320474    1.173    0.148
        21  -8.5955    181.1557      9.9916   3.6525774776e+01   3.8377118272e+01     0.210014    0.1125245 -55.29  0.001045511    1.993    0.498
        22 -10.4646     60.7618      9.5775   6.1326033879e+01   6.5019959145e+01    0.2058538    0.1924576  79.91 0.0009854489    1.665    0.400
        23  -8.9246    201.9859      8.5403   3.4042920727e+01   3.3781017074e+01    0.1776363    0.1074518  78.83 0.0009977546    1.511    0.338
        24 -10.8467     51.4498      6.6856   6.3464591464e+01   6.6911521024e+01    0.3010234    0.2628458  41.01  0.002085706    1.445    0.308
        25  -9.4868    148.8851      7.1229   3.9822620258e+01   4.6215207319e+01    0.1898408    0.1578809 -83.21 0.0002796357    1.232    0.188
        26  -9.9802     11.0878      4.0588   8.1535495710e+01   7.2594575612e+01    0.1951993      0.13289 -23.98 0.0007017364    1.215    0.177
        27  -9.3367    221.2441      4.2334   3.1449073260e+01   3.0027608633e+01    0.2885233   0.09352453 -41.58   0.00105656    2.568    0.611
        28  -9.5017    161.9669      4.1495   3.7221998773e+01   4.3394197624e+01    0.2845035    0.2546494 -18.34  0.001407543    1.313    0.238
        29 -10.7224     92.6835      3.6958   4.9208413712e+01   5.9294862826e+01    0.5557151    0.3384018  82.55  0.002660949    2.648    0.622
        30 -10.6186    107.6052      3.9404   4.5927346655e+01   5.6021885687e+01    0.3550561    0.3060266  61.55  0.001286248    1.142    0.124
        31 -10.8890    101.9454      3.2248   4.6873924656e+01   5.7330620310e+01     0.385404    0.3293242  53.85 0.0009197107    1.103    0.094
        32 -11.0470     72.0445      4.0080   5.5018782982e+01   6.3465796933e+01    0.3642758    0.3456708  -5.43 0.0006651815    1.300    0.231
        33 -10.5227     78.3925      2.5406   5.2495737038e+01   6.2342561020e+01    0.2769466    0.2536419  37.08  0.001150318    1.195    0.163
        34  -8.5991    196.4000      5.4669   3.3842608536e+01   3.5332453321e+01    0.1205197    0.1033052 -81.38 0.0001219773    1.019    0.018
        35 -10.2033     65.6498      4.7168   5.7388870369e+01   6.4611879653e+01    0.2239066    0.1547191  23.52 0.0008404404    1.249    0.199
        36  -9.6267    201.4916      2.4677   3.2678165979e+01   3.4481460209e+01    0.2876619    0.2422673  81.78  0.001977086    1.105    0.095
        37  -9.5032    176.2464      3.1587   3.5304067506e+01   4.0150232860e+01     0.234585    0.1595245 -33.98   0.00124247    1.583    0.368
        38  -8.4855    187.4430      3.1592   3.4147900528e+01   3.7577018561e+01    0.1510772    0.1202887 -29.14  0.000601736    1.433    0.302
        39  -8.8919    150.9384      2.4750   3.8165562231e+01   4.6126548394e+01    0.1668475    0.1648724 -77.38 0.0001447079    1.148    0.129
        40 -10.1897    217.7825      5.1487   3.1917060940e+01   3.0671648261e+01    0.2942178    0.2121063 -88.14  0.001170418    1.218    0.179
        41  -9.3187    146.1389      1.7856   3.8617561207e+01   4.7309914203e+01    0.3150655    0.1315071  60.34  0.001467994    1.949    0.487
        42 -17.9720    233.6007     69.8056   4.4675909501e+01   1.9171088003e+01     7.063978     3.774899  30.86   0.02601153    4.415    0.774
        43  -9.5564    250.3153    187.8399   6.7357026813e+01  -2.9650065263e+00    0.4754673     0.149051 -41.97  0.001843016    3.186    0.686
        44 -10.3225    248.9305    236.0826   7.6366860014e+01  -9.6217422691e+00    0.2168965    0.1358225  17.39  0.001376971    1.392    0.281
        45  -9.9816     49.3243    189.3463   1.1176860909e+02   2.8437363094e+01    0.2181335    0.1193219 -66.10  0.001098167    1.685    0.407
        46  -9.3477     65.6241    187.5266   1.0768262790e+02   2.6867724221e+01    0.2844999    0.2042395  77.89  0.000901553    1.468    0.319
        47  -9.1544    108.8840    187.1969   9.7120482411e+01   2.0638609284e+01    0.2189973    0.1844769  64.54 0.0006556141    1.257    0.204
        48 -16.6365    232.1674     96.7696   5.0955325510e+01   1.5209512105e+01     1.537661     1.010704  77.38  0.007587587    2.139    0.532
        49 -10.9081    165.5790    181.4295   8.2707860949e+01   1.2072571490e+01    0.4087131    0.2176415  35.50   0.00103968    1.860    0.462
        50 -10.9500    171.5596    181.3480   8.1363539888e+01   1.1017057261e+01    0.3943451    0.3221731   8.64  0.001301169    1.245    0.197
        51  -9.7244    168.6816    185.9450   8.2902562002e+01   1.0616085846e+01    0.2023107    0.1817839 -24.79 0.0004550345    1.096    0.087
        52 -12.8716     20.4373    224.1309   1.2087252567e+02   2.3893317050e+01     1.154149     0.773995  49.66  0.007752944    1.325    0.245
        53  -8.8178    125.3156    183.6733   9.2536778930e+01   1.8703807265e+01    0.1473246    0.1130124  73.05 0.0007044266    1.672    0.402
        54  -9.1478     52.5320    181.9606   1.1016102530e+02   2.9795204776e+01    0.2054218    0.1195986 -69.71 0.0008698417    1.592    0.372
        55 -10.9443    170.0944    196.3193   8.4563322956e+01   8.3488187026e+00    0.4390089    0.3364671 -23.29  0.002355759    1.343    0.255
        56  -9.6651     91.4482    177.8892   9.9927720227e+01   2.5515075690e+01    0.5441849    0.2941876  80.67  0.001724672    4.365    0.771
        57 -10.1210     87.6954    171.2324   9.9806880941e+01   2.7663359298e+01    0.4923197    0.3108728 -55.07  0.002004783    1.534    0.348
        58 -10.2000    160.0175    176.6166   8.3007490971e+01   1.4064590370e+01    0.3978349    0.2825036  37.73  0.001787385    1.392    0.282
        59 -10.4726    171.2096    172.2291   7.9589886483e+01   1.2913469628e+01    0.4443302     0.259939 -34.05   0.00174951    1.772    0.436
        60  -9.7762    109.8295    172.3825   9.4341609117e+01   2.3886290252e+01    0.2690356    0.1932114  27.20  0.001303237    1.492    0.330
        61  -8.4939     32.0105    168.2409   1.1362964788e+02   3.5292230861e+01    0.1536251    0.1090492  30.80 0.0008772846    1.588    0.370
        62 -10.0491    151.5072    149.7969   7.9301823325e+01   2.1423192090e+01    0.4829566    0.3560869  77.74  0.001428696    2.110    0.526
        63 -10.3284    154.0324    146.0099   7.7835269318e+01   2.1752209426e+01    0.3131891    0.2754521 -61.79 0.0008102361    1.264    0.209
        64 -10.4520    154.4725    162.1267   8.1297943672e+01   1.8166617960e+01    0.5035506    0.2944444 -56.40  0.002079497    2.020    0.505
        65 -10.1429    154.8536    156.2809   7.9943867222e+01   1.9357825520e+01    0.4208155    0.2217998 -57.33  0.001574381    2.430    0.588
        66  -9.0655     77.8424    163.1250   1.0105460970e+02   3.1066051865e+01    0.2216844    0.1934527  73.98  0.001235957    1.176    0.149
        67 -10.7985    123.8305    158.0454   8.7992763233e+01   2.4798450129e+01     1.158716    0.6339507  13.02   0.00360956    3.969    0.748
        68 -10.6178    179.9225    159.5737   7.4981180819e+01   1.3842993874e+01    0.2665921    0.2245745 -31.35 0.0003108359    1.128    0.114
        69 -10.2169    181.2217    155.0359   7.3700841845e+01   1.4508893568e+01     0.288277     0.219388 -40.48 0.0004143752    1.270    0.213
        70 -11.2227    179.0853    150.6129   7.3172659665e+01   1.5819465818e+01    0.4409854     0.392729 -61.81  0.001223951    1.306    0.234
        71  -8.4373     15.5201    159.5060   1.1683060201e+02   3.8860254333e+01    0.1274596    0.1036023 -87.96 0.0006921209    1.047    0.045
        72 -10.0783     94.4022    156.5343   9.5455377245e+01   3.0182839670e+01    0.5692869    0.3079808 -80.16  0.001913652    3.455    0.711
        73 -10.8468    143.4819    155.2432   8.2458944338e+01   2.1773304183e+01    0.5617049     0.462857  85.15  0.002522917    1.608    0.378
        74 -10.3589    135.9849    151.6307   8.3534225542e+01   2.4017137413e+01    0.4706702    0.3665362  26.79  0.001315855    1.354    0.261
        75 -11.6898    132.9138    140.5888   8.1832169280e+01   2.7127492552e+01     1.127477    0.5130066 -57.86  0.003766148    2.875    0.652
        76  -8.7509     78.6453    157.3059   9.9859797914e+01   3.2379438965e+01    0.1513764    0.1068249  69.11 0.0006221557    1.717    0.417
        77 -10.2104     52.0500    150.9165   1.0611649260e+02   3.7418772804e+01    0.3654048    0.1912033 -65.06   0.00167345    1.715    0.417
        78 -11.6339     61.3966    149.2919   1.0326221235e+02   3.6694708578e+01    0.4893692    0.3948414 -37.96  0.002293739    1.338    0.253
        79 -10.0523     41.4931    151.5121   1.0909844836e+02   3.8431156355e+01    0.2377169    0.1551594  58.60 0.0009411334    1.703    0.413
        80 -12.0668     43.6957    141.8988   1.0709100395e+02   4.0591171808e+01    0.4821056    0.4262215 -82.82  0.002925786    1.076    0.071
        81 -10.5017    142.2637    145.7368   8.0644240037e+01   2.4136669170e+01     0.445948    0.2856421 -53.01  0.001933506    1.635    0.388
        82 -10.7422    145.8502    144.1295   7.9388205699e+01   2.3789702788e+01    0.5460888    0.3484526 -54.11  0.001796314    1.686    0.407
        83  -9.4043    104.5082    145.7762   9.0564871428e+01   3.1121955234e+01    0.2704238    0.2393754  66.18 0.0005203604    1.243    0.195
        84  -9.8722     84.3743    143.2872   9.5682734756e+01   3.4993426374e+01    0.3245262    0.2271152 -89.56  0.001457415    1.906    0.475
        85 -10.1862    120.5978    141.5659   8.5288652862e+01   2.9245127860e+01    0.6098999    0.3697262  72.01  0.002027184    3.501    0.714
        86 -10.2488     86.0164    149.2473   9.6374283274e+01   3.3273540908e+01    0.3457152    0.2909957  59.83  0.001831506    1.282    0.220
        87  -9.5563    151.1628    139.7207   7.7063304705e+01   2.3701301687e+01     0.286462    0.2393229  75.85 0.0008699393    1.532    0.347
        88  -9.6280    163.8164    136.2471   7.3248536758e+01   2.1871172900e+01    0.3499531    0.2521656 -42.87  0.001348104    1.344    0.256
        89  -9.5458    142.1403    137.1585   7.8680890079e+01   2.6082550202e+01    0.2339184    0.2056565 -13.89  0.000356067    1.190    0.160
        90 -10.8446    141.0522    133.0034   7.7959417411e+01   2.7229227143e+01    0.4838595    0.3082227  58.37  0.001658826    2.024    0.506
        91 -11.0645     59.5658    135.3301   1.0137570682e+02   4.0410496849e+01    0.5192541    0.2832983  80.74  0.001777743    3.759    0.734
        92  -9.4512     46.5944    197.8641   1.1328899217e+02   2.6796810283e+01    0.2568273    0.1447935 -89.90  0.001287409    1.886    0.470
        93 -10.9077     87.1882    132.6448   9.2678326092e+01   3.7177177699e+01    0.7367995     0.541759  11.66   0.00350559    1.680    0.405
        94 -10.1721    145.6911    125.3406   7.4911004320e+01   2.7969891432e+01    0.3931708    0.3590257  88.54 0.0009162983    1.282    0.220
        95 -10.8900     55.4988    141.5136   1.0364412466e+02   3.9360179105e+01     0.360149      0.24988 -75.50  0.001777537    1.436    0.304
        96  -9.2021    104.3312    133.4006   8.7909426237e+01   3.4132014564e+01    0.3168837    0.1895637 -53.46   0.00111022    1.631    0.387
        97 -11.2354    149.3492    131.3280   7.5491088429e+01   2.5906766774e+01    0.9269525    0.5056123  62.19  0.003120152    3.175    0.685
        98 -10.6335     52.2764    129.3444   1.0247206401e+02   4.2778490680e+01    0.5127745    0.2812146  79.12  0.001839551    3.535    0.717
        99  -9.6042    111.3851    130.1723   8.5178250599e+01   3.3633501550e+01    0.2246792     0.144869 -60.12 0.0009508477    1.708    0.415
       100 -10.5133    138.0298    139.4024   8.0246917219e+01   2.6395481724e+01    0.4320467      0.36276 -59.36 0.0009943784    1.279    0.218
       101  -8.6084    116.6651    126.6912   8.2875358164e+01   3.3464703362e+01    0.1603895    0.1212628 -10.01 0.0007042526    1.675    0.403
       102  -9.6089    127.7745    124.8899   7.9412198947e+01   3.1720089671e+01    0.2951904    0.2199786 -67.64  0.001319181    1.663    0.399
       103  -8.7333    108.4020    125.1691   8.4823807933e+01   3.5359925205e+01    0.2164874     0.145189 -60.85 0.0005123699    1.650    0.394
       104 -10.8599     27.2286    123.9670   1.0919672686e+02   4.6611814593e+01    0.3425196    0.1803324  44.15  0.001647331    2.219    0.549
       105 -10.4080    139.1277    119.3230   7.5035769780e+01   3.0649239842e+01    0.5267736    0.3358641 -42.04  0.002279528    1.524    0.344
       106 -10.6846    134.9433    120.9908   7.6540711634e+01   3.1146535459e+01    0.3757622    0.3467567  -9.97 0.0009055118    1.099    0.090
       107 -10.0201    134.9370    116.3115   7.5335923155e+01   3.2178544752e+01     0.284124    0.2786981 -25.20 0.0002204626    1.037    0.036
       108  -9.1116    113.4823    121.4585   8.2474112684e+01   3.5282422370e+01    0.1540656    0.1482023 -31.80 6.786574e-05    1.013    0.013
       109  -8.9902     71.6232    120.8319   9.4805333254e+01   4.2405569600e+01    0.2069469    0.1337052 -67.56 0.0004194737    1.675    0.403
       110 -12.2968      6.2561    117.8583   1.1469765047e+02   4.9601409230e+01    0.7059109    0.4428044 -65.53  0.004095656    1.253    0.202
       111  -9.1882     82.2710    119.3910   9.1187096880e+01   4.1176489632e+01    0.2042386    0.1379256  44.73 0.0008742955    1.635    0.388
       112  -9.6027    112.7790    114.0915   8.0796922683e+01   3.7109258030e+01    0.2908102    0.2069481 -41.44  0.001337743    1.357    0.263
       113  -9.2113     71.0325    109.9326   9.2499503983e+01   4.5131093465e+01    0.2286163    0.2090939 -41.28 0.0009064828    1.007    0.007
       114  -9.5466     36.4899    119.5483   1.0560335476e+02   4.6873769667e+01    0.2731793   0.08744185 -54.04  0.001042176    2.446    0.591
       115 -10.2317    243.5918    195.1334   6.9906536628e+01  -3.1337346589e+00    0.3480674    0.1980452  27.29  0.001166006    1.817    0.450
       116  -8.7315     90.8658    102.8288   8.4366178848e+01   4.3672653696e+01     0.200726    0.1828461 -89.03 0.0006215199    1.318    0.241
       117 -11.1539      4.7167    101.5864   1.1293578870e+02   5.3588421625e+01    0.4769256    0.1451981 -51.32  0.002044937    2.427    0.588
       118  -8.9394     67.6033     97.9111   9.0648176765e+01   4.8452633277e+01    0.2675182    0.1868958  70.23  0.001185669    2.327    0.570
       119  -9.1730     95.0107     95.4620   8.1037232219e+01   4.4594068958e+01    0.2511966    0.1953479 -41.59  0.001251256    1.221    0.181
       120  -8.8347     44.2622     94.9899   9.8019766960e+01   5.2033442299e+01    0.1917496    0.1546257 -47.85   0.00037033    1.068    0.063
       121 -11.3189    104.5579     85.6261   7.5224324809e+01   4.4891906178e+01    0.6512635    0.4737253 -75.00  0.002501314    2.183    0.542
       122  -8.8033     49.0686     88.8322   9.4795922438e+01   5.2926876079e+01    0.2011796    0.1852431 -75.19 0.0006432337    1.267    0.211
       123 -15.4039    248.4851     98.6069   4.9114474363e+01   1.1816151844e+01    0.6457123    0.4752133 -35.11  0.002689415    1.189    0.159
       124  -9.1240      2.3187     84.3296   1.1098853840e+02   5.7744078350e+01     0.135543   0.06794915 -43.01 0.0005265108    1.686    0.407
       125 -10.0925     15.5571     98.8203   1.0884771167e+02   5.3597707728e+01    0.2952479    0.1177999 -76.77  0.001135342    3.033    0.670
       126  -9.8928     81.8084     77.1669   7.9873760495e+01   5.0787843647e+01    0.4007435    0.3486245  77.31  0.001723379    1.595    0.373
       127  -9.9430     84.9540     72.2252   7.7243901663e+01   5.1232635478e+01    0.3243137    0.2459024  25.02 0.0005037536    1.341    0.254
       128  -9.2797     98.3627     76.5005   7.4295556746e+01   4.7921103935e+01    0.2847242    0.2313763  82.23 0.0006570762    1.827    0.453
       129  -8.9683    105.0439     71.4999   7.0661335492e+01   4.7560454805e+01    0.2188973    0.1430444  43.05 0.0006545483    1.537    0.350
       130  -9.5084    100.1798     68.4235   7.1125161247e+01   4.9101847143e+01    0.3020373    0.2279599  -6.12  0.001494028    1.498    0.332
       131  -9.4169     84.5364     64.7871   7.4921458716e+01   5.2727979746e+01    0.2743922    0.2271958  -3.76 0.0008459469    1.183    0.155
       132 -10.7060     79.4704     62.9824   7.6030852978e+01   5.3956018134e+01    0.4071493    0.2477341  34.09  0.001578052    1.659    0.397
       133 -10.7304     94.1861     61.0080   7.0492906801e+01   5.1608815141e+01    0.4632643    0.3254697 -68.88  0.002033109    2.505    0.601
       134  -9.9666     90.2530     57.4190   7.0500991953e+01   5.2988122345e+01    0.3006586    0.2168827  59.02  0.001480229    1.825    0.452
       135  -9.5261     85.6363     55.1078   7.1191729588e+01   5.4251745664e+01    0.3080704    0.2535281  61.70  0.001294429    1.615    0.381
       136  -9.4801    100.7181     62.2174   6.8888885046e+01   5.0107259885e+01    0.2731923    0.2275033 -64.25  0.001216297    1.579    0.367
       137  -9.3094     53.1721     62.2816   8.5511472445e+01   5.8114766285e+01    0.2332458     0.181627 -75.34  0.001220006    2.041    0.510
       138  -9.6361     57.3338     55.2666   8.1488181526e+01   5.8888297892e+01    0.2582999    0.2073223 -68.04   0.00109686    1.892    0.472
       139  -9.6490     74.8799     50.4291   7.3181341140e+01   5.6972284241e+01     0.226824    0.1804496 -39.50 0.0006786976    1.346    0.257
       140  -8.9526     21.0520     50.9756   9.5377309347e+01   6.3795977966e+01    0.1695922    0.1513935  84.55 0.0005616073    1.687    0.407
       141  -9.7001     59.0600     46.9786   7.7792455704e+01   6.0116298229e+01    0.2545724    0.1849459  44.11 0.0009918861    1.679    0.404
       142 -11.7220     68.3736     41.9820   7.2335978581e+01   5.9457792943e+01    0.6897314    0.3742602 -49.90  0.003068413    2.582    0.613
       143  -8.9015    132.6759     42.8427   5.4006375888e+01   4.6097423136e+01    0.1855334    0.1757097 -32.09 0.0006078839    1.121    0.108
       144  -8.2230     33.6643     41.3159   8.6363745609e+01   6.4414752730e+01    0.1090998    0.1026381  72.25 0.0007047628    1.694    0.410
       145  -9.5517     54.8915     39.6677   7.6629644610e+01   6.1957298207e+01    0.2474122    0.1702447  -4.35 0.0009354903    1.475    0.322
       146 -11.7524    123.4836     34.7861   5.3386410070e+01   4.9268491816e+01    0.6324043     0.362843 -25.70  0.003009754    1.890    0.471
       147  -9.0818     45.3481     39.0676   8.0360217354e+01   6.3391537330e+01    0.1802782    0.1442886 -24.13 0.0005084049    1.125    0.111
       148 -10.7912     72.7408     36.9035   6.8760464784e+01   5.9477419838e+01     0.334136    0.2959992 -29.79  0.001152041    1.282    0.220
       149 -11.6073     25.8553    232.4284   1.2037159875e+02   2.1669323845e+01    0.4736869    0.2932145 -62.20    0.0030147    1.772    0.436
       150 -10.2898    107.1913     20.6070   5.2179509580e+01   5.4571051729e+01    0.2345109    0.2177238  16.81 0.0002533175    1.091    0.083
       151  -9.9069     55.0403     32.7005   7.3745386191e+01   6.3022699481e+01      0.27177    0.1973795  28.49  0.001615489    1.323    0.244
       152 -10.1977     55.2767     27.0598   7.1265370317e+01   6.3803781629e+01    0.4995825    0.1858776  28.06  0.001839554    3.624    0.724
       153 -10.4159     24.1541     27.7028   8.5499054964e+01   6.7751525051e+01    0.1935965    0.1491892 -37.31 0.0006224259    1.332    0.249
       154  -9.5443    163.0000     25.0103   4.2963573235e+01   4.1092424071e+01    0.3239502    0.1793481 -36.95   0.00129939    1.861    0.463
       155 -11.6541     14.2099    207.7473   1.2103142104e+02   2.7928797998e+01    0.6595407    0.4028212  58.76  0.004119369    1.440    0.306
       156  -9.0583     48.1795     24.9613   7.3274548321e+01   6.5175782885e+01    0.1760628    0.1607091  -2.70 0.0006914621    1.299    0.230
       157 -12.6841     27.0370    208.3349   1.1844681834e+02   2.6568537864e+01      1.21792     1.053265  45.68  0.004654793    1.270    0.213
       158 -10.6480     11.8531     23.6944   9.0119896576e+01   6.9542277274e+01    0.2109247    0.1605182 -13.57 0.0008571105    1.082    0.075
       159 -10.0850     32.2340     22.5559   7.9371889837e+01   6.7659783442e+01    0.2156979    0.1067258  34.39  0.001136545    2.122    0.529
       160 -10.5720     79.1738     31.4481   6.4374808040e+01   5.9064158936e+01    0.3459236     0.282706 -18.88  0.002088937    1.216    0.178
       161 -10.2964     50.4773     18.6538   6.9490229410e+01   6.5677031621e+01    0.2309199    0.1984767 -55.70 0.0009380563    1.931    0.482
       162 -12.5903     14.9097    217.7340   1.2153683789e+02   2.5748490151e+01    0.7267272     0.583506 -40.93  0.005056347    1.786    0.440
       163 -10.6850      2.4720    225.9857   1.2434349674e+02   2.5192969082e+01     0.499033     0.150386 -74.02  0.002426213    2.810    0.644
       164  -9.0948    135.9169    224.8935   9.6764554684e+01   8.5102259643e+00    0.2026791    0.1695373   8.42 0.0005461174    1.271    0.213
       165  -8.9724     91.1921    225.0108   1.0643129723e+02   1.5179656109e+01    0.2153993    0.1343507  74.78  0.001077571    2.059    0.514
       166  -9.2797     86.7010    221.7400   1.0701832244e+02   1.6475540472e+01    0.2509957    0.1461586  84.82  0.001165637    2.449    0.592
       167 -10.1224    248.7606    221.4250   7.3852003785e+01  -7.6495022304e+00    0.2129174    0.1057575  35.63  0.001144947    2.121    0.528
       168  -9.3106     43.0273    221.3355   1.1618970208e+02   2.2085079720e+01    0.1722133     0.140755  57.44  0.001166918    1.106    0.096
       169 -11.2415    236.0327    211.6981   7.4339457198e+01  -4.5757306520e+00    0.4655343    0.3558169 -36.83  0.002419842    1.480    0.325
       170  -9.0884     57.8248    209.6368   1.1198691227e+02   2.2846210323e+01    0.2096144    0.1590662 -66.61 0.0006431282    1.327    0.246
       171 -10.3836    187.0059    207.4926   8.3031770481e+01   3.4890580709e+00    0.2662507    0.2184994  40.59 0.0009600283    1.344    0.256
       172 -11.0350    248.2954    206.1532   7.1165035648e+01  -5.4276403714e+00    0.3719495    0.2820905  30.77  0.002398058    1.493    0.330
       173 -10.2219    228.9440    205.9693   7.4568009217e+01  -2.7071226401e+00    0.2022464    0.1660219  -6.45 0.0006763744    1.036    0.034
       174  -9.4364    143.8035    209.0227   9.2583950221e+01   1.0295449007e+01    0.2301831    0.1842953  32.99 0.0003974318    1.153    0.133
       175  -8.5707     58.4063    205.2140   1.1140051948e+02   2.3747798483e+01    0.1723495    0.1115929 -87.56  0.000436583    1.582    0.368
       176 -10.9555    231.5570    200.2157   7.3010835969e+01  -2.1912113743e+00     0.419846    0.1826417 -41.97  0.001899995    2.350    0.575
       177 -10.1331    225.9200    198.1357   7.3648579376e+01  -1.0280416608e+00    0.2560559    0.1831315  33.19  0.001055545    1.465    0.318
       178 -10.0052    225.4558    202.0433   7.4475620112e+01  -1.5818729314e+00    0.2558113    0.1697092 -44.14  0.000840201    1.736    0.424
       179 -10.2458    221.2971    199.5766   7.4784784331e+01  -5.6326176278e-01    0.3371774    0.1465164  33.88  0.001504388    2.320    0.569
       180 -10.2071    185.7406    201.4719   8.2191576991e+01   4.7640211963e+00     0.254447    0.2204362  40.53 0.0008801547    1.300    0.231
       181 -10.3636    201.4203    197.3681   7.8218459370e+01   2.9254913545e+00    0.4333448    0.3491978  81.66  0.002222446    2.335    0.572
       182  -9.3145    192.4282    199.7296   8.0485704207e+01   3.9757823661e+00    0.1900496    0.1206779 -27.62 0.0009439813    1.597    0.374
       183  -9.2327    236.3443    249.2948   8.0759499481e+01  -9.7710452825e+00    0.1222236   0.07117209   2.41 0.0002187988    1.665    0.399
       184 -10.0758    241.8532    241.8343   7.8564921505e+01  -9.4986343633e+00    0.1472313    0.1238049   7.26 0.0005313501    1.306    0.235
       185 -11.6173     18.4313    237.0246   1.2202759590e+02   2.1512425509e+01    0.5444582    0.3106154  71.90  0.003467108    1.506    0.336
       186  -9.2267    249.8560    194.8835   6.8784468529e+01  -3.9707249776e+00    0.2719523    0.1748927  44.60  0.001421694    2.090    0.521
       187 -10.9126    162.3317    193.8137   8.5802978730e+01   1.0169293793e+01    0.4572101    0.2363132 -29.77  0.001354928    2.508    0.601
       188  -9.2349    207.9301    193.3530   7.6156499447e+01   2.5681571526e+00    0.2250837    0.1767281 -40.03 0.0006351606    1.366    0.268
       189 -10.2259     10.0800    239.0359   1.2363801947e+02   2.1931280843e+01    0.3532897    0.1525253  63.71   0.00199047    2.023    0.506
       190  -9.8403    135.4878    193.0549   9.1778114193e+01   1.4940613726e+01    0.2809496    0.1874264  49.79 0.0008152287    1.596    0.373
       191  -9.7013    102.5085    232.4789   1.0490581834e+02   1.2091950713e+01    0.2418103    0.1255143 -60.61  0.001207249    2.152    0.535
       192  -9.4166    228.3810    192.1891   7.2051278876e+01  -4.4026191511e-01     0.185426    0.1129515 -43.60 0.0009490782    1.774    0.436
       193  -9.3856    211.6783    192.0514   7.5172442052e+01   2.1889116128e+00    0.1997049     0.158251 -22.21  0.001154428    1.139    0.122
       194  -8.9006     85.4298    192.2685   1.0355702377e+02   2.3062808628e+01    0.1834314    0.1282833 -79.34 0.0008743599    1.557    0.358
