#   1 NUMBER                 Running object number                                     
#   2 MAG_AUTO               Kron-like elliptical aperture magnitude                    [mag]
#   3 X_IMAGE                Object position along x                                    [pixel]
#   4 Y_IMAGE                Object position along y                                    [pixel]
#   5 X_WORLD                Barycenter position along world x axis                     [deg]
#   6 Y_WORLD                Barycenter position along world y axis                     [deg]
#   7 A_WORLD                Profile RMS along major axis (world units)                 [deg]
#   8 B_WORLD                Profile RMS along minor axis (world units)                 [deg]
#   9 THETA_WORLD            Position angle (CCW/world-x)                               [deg]
#  10 FWHM_WORLD             FWHM assuming a gaussian core                              [deg]
#  11 ELONGATION             A_IMAGE/B_IMAGE                                           
#  12 ELLIPTICITY            1 - B_IMAGE/A_IMAGE                                       
         1 -15.6394    117.2008    107.0289   1.0514733297e+02   3.8283241051e+01     2.726525     2.128823 -61.58   0.01092151    1.384    0.277
         2 -16.0195    144.8952    110.8047   9.9048225143e+01   3.1525187977e+01     3.506761     2.150792 -71.21    0.0125988    2.728    0.633
         3 -14.9407    139.7655     77.8526   9.1030501794e+01   3.9218780228e+01     1.753958     1.398788 -64.88  0.006801555    1.470    0.320
         4 -15.0843     95.0357     60.5568   9.7570100371e+01   5.1645153510e+01     1.545532     1.156104  19.43  0.005077509    1.415    0.293
         5 -12.9559     66.0189      2.0589   8.4370172050e+01   6.4205262261e+01     1.184066    0.2528617  53.30  0.003910336    5.575    0.821
         6 -15.3112     72.3375     18.9944   8.9389721627e+01   6.1476881519e+01     1.558797     1.218013   3.16  0.007236086    1.134    0.118
         7 -12.6090      2.5752     16.6070   1.1624824525e+02   7.0220399023e+01    0.5711477    0.1936981 -44.85  0.003019298    2.357    0.576
         8  -9.7775     55.2863    210.2544   1.3899105189e+02   2.4391243872e+01    0.1045066    0.0948514 -56.69 0.0001820235    1.477    0.323
         9 -11.7183    246.3242    249.9084   1.0737970309e+02  -1.3921514895e+01    0.4821868    0.1636202  33.81  0.002182787    2.692    0.629
        10 -13.5777    217.3532    245.9629   1.1192387312e+02  -9.0586558226e+00    0.7119664    0.4546904  -0.22   0.00389634    1.951    0.487
        11 -12.7538    207.5536    245.7439   1.1370306838e+02  -7.4575296594e+00    0.5447583    0.3764744   8.92  0.003161953    1.608    0.378
        12 -19.4053     34.0630    134.2833   1.3420753547e+02   4.4374387974e+01     19.72753     3.368406 -65.83   0.05470427    5.423    0.816
        13 -12.2154     70.5879    206.0892   1.3543335365e+02   2.3183955794e+01    0.4542507    0.2549588 -45.50  0.001581317    2.541    0.606
        14 -12.0356     11.1268    206.7584   1.4708429250e+02   3.0219826881e+01    0.3241932    0.2598105  49.88   0.00216704    1.454    0.312
        15 -10.2832     16.6306    200.8362   1.4561394470e+02   3.0930456836e+01   0.08670872   0.08522954  37.95 0.0005363733    1.560    0.359
        16 -11.2516    196.0764    194.9200   1.0685296387e+02   2.9071375248e+00    0.3863125     0.249116  27.88  0.001823235    1.690    0.408
        17 -12.3170     80.1174    193.9304   1.3186275134e+02   2.4485001183e+01    0.5963715    0.4058981  61.17  0.003221075    1.405    0.289
        18 -11.4410    138.5184    183.3680   1.1701015378e+02   1.6629594977e+01    0.5304523    0.2940495  62.13  0.002063278    2.393    0.582
        19 -11.3879    131.3328    179.0525   1.1784351115e+02   1.8983397149e+01    0.3642772    0.2578716  66.51  0.001708467    1.593    0.372
        20 -10.3524     58.4677    226.0568   1.3995072554e+02   2.0632426327e+01    0.1658112    0.1042049 -80.33 0.0003490983    1.450    0.311
        21 -11.4743     88.0775    177.6262   1.2766514129e+02   2.7004058385e+01    0.4036171    0.2189739 -47.29  0.001786771    2.079    0.519
        22 -11.0715     90.7729    173.0058   1.2628181988e+02   2.7654966748e+01    0.3246419    0.2029984 -48.09 0.0009527924    1.724    0.420
        23 -13.2574    231.0580    240.4136   1.0848675644e+02  -1.0438678314e+01    0.4427046    0.3574974   6.62   0.00296128    1.073    0.068
        24 -15.7948    209.9788    144.4837   9.3264601482e+01   9.7819538722e+00     2.372057     1.939463 -88.03   0.01063884    1.562    0.360
        25 -14.1610    181.0994    159.9392   1.0267991844e+02   1.2877568435e+01     1.092396    0.9675996 -88.77  0.004272268    1.292    0.226
        26 -15.4793    174.1975    136.2750   9.8708546283e+01   1.9404024676e+01     3.044638     1.625054 -63.13   0.01013864    3.012    0.668
        27 -15.2167    144.9113    140.5497   1.0648975971e+02   2.4962884031e+01     2.657359     1.266668  44.33  0.009461985    2.126    0.530
        28 -15.1223    143.1801    127.2924   1.0370743079e+02   2.8314295670e+01     1.806896     1.346071  68.31  0.006874659    1.590    0.371
        29 -11.8970     86.9473    239.6654   1.3597962440e+02   1.3798897755e+01    0.2407656     0.174979 -83.14 0.0005236263    1.348    0.258
        30 -12.5403    246.6876    165.4399   9.1196763001e+01  -1.3495725772e+00    0.4786563    0.3414081  -7.53   0.00247235    1.644    0.392
        31 -13.0143    100.7405    231.6834   1.3243385873e+02   1.3192566083e+01    0.3893254    0.2554958 -76.68 0.0007869394    1.628    0.386
        32 -10.3984     96.8842    163.5219   1.2316169412e+02   2.8886550742e+01    0.2092889    0.1778907 -68.56 0.0003800786    1.103    0.093
        33 -12.5896     85.9320    158.5952   1.2497879365e+02   3.1863398041e+01    0.3732092    0.2677552 -35.84  0.001355853    1.762    0.433
        34 -11.3967     17.9731    229.2625   1.4745403312e+02   2.4901566584e+01    0.1684283     0.141274  50.68 0.0007863168    1.496    0.332
        35 -11.6912     18.3622    224.7985   1.4708376354e+02   2.5754701987e+01     0.211134    0.1711075  18.75  0.001479891    2.134    0.531
        36 -10.7092     86.9795    224.5160   1.3428948504e+02   1.6811220358e+01    0.1922545    0.1138907  44.63 0.0008239881    1.565    0.361
        37 -13.3706    229.7239    172.2954   9.5666994418e+01   5.8073741617e-01    0.9824615    0.4860895  47.00  0.004250197    2.171    0.539
        38 -11.1969    100.0434    141.0290   1.1793626883e+02   3.3710045249e+01    0.2155664    0.2047917 -65.06 0.0003645663    1.046    0.044
        39 -10.7204    113.0731    139.7193   1.1426291956e+02   3.1636556108e+01    0.3291404    0.1764003  46.08     0.001341    1.932    0.482
        40 -10.6820     80.6040    219.8344   1.3501048218e+02   1.8755867876e+01    0.2210225    0.1487568 -82.83 0.0007853935    1.443    0.307
        41 -15.1539    240.3487    115.9849   8.1382022441e+01   8.6813184147e+00     2.397226     1.115005 -55.75     0.008862    2.800    0.643
        42 -12.4843     94.8936    126.4871   1.1610499029e+02   3.8045248801e+01    0.7535619    0.5229261 -40.18  0.003142516    1.490    0.329
        43 -11.6115     63.0052    216.8122   1.3815432517e+02   2.1941614337e+01    0.2645636    0.1744899  63.50 0.0009676756    1.329    0.247
        44 -14.5039     95.3281     91.4445   1.0700243560e+02   4.5771792810e+01     1.602462     1.162403  59.53   0.00784729    1.743    0.426
        45 -15.6536    160.7688    159.8354   1.0715216446e+02   1.7258841133e+01     3.506919     1.851131  60.16   0.01263142    2.575    0.612
        46 -13.5504    215.0376    112.7009   8.4834000903e+01   1.4799664000e+01    0.4822298    0.3527315 -25.52   0.00229444    1.540    0.351
        47 -11.6991     93.0193    110.8353   1.1286716722e+02   4.1970797222e+01    0.4880027    0.3131644  48.23  0.002274521    1.727    0.421
        48 -11.8402    182.6375    109.3192   9.0176717011e+01   2.3012011980e+01    0.4568063    0.3539416 -49.98  0.002179739    1.274    0.215
        49 -11.5173     65.8056    213.9031   1.3729047837e+02   2.2170945688e+01     0.243554    0.1699751  53.25 0.0005705836    1.314    0.239
        50 -14.8795    220.3592     99.2735   8.0699231386e+01   1.6066928390e+01     1.413631     0.857345 -51.98  0.006364885    1.635    0.388
        51 -14.9273     64.1493    115.6426   1.2235690068e+02   4.5275952676e+01     5.026089     2.873305 -88.92   0.01811911    3.768    0.735
        52 -12.2604    194.3998    103.3978   8.6329364475e+01   2.1368141703e+01    0.7343586    0.5172009 -35.00  0.003392982    1.454    0.312
        53 -13.0667    163.9292    102.3339   9.2342871602e+01   2.8857308640e+01    0.9100102    0.6661746  55.53  0.004209459    1.387    0.279
        54 -13.7419    233.9786     91.0676   7.6640698106e+01   1.4449172444e+01    0.6919346    0.4246836  76.12  0.003139467    2.033    0.508
        55 -12.3383     85.8948     46.8391   9.5640656916e+01   5.5491176250e+01    0.5418755    0.4789148 -88.93  0.002895035    1.687    0.407
        56 -14.6847    112.9331     73.3008   9.6546826543e+01   4.5912236497e+01     1.654041     1.250279  34.64  0.007682076    1.341    0.254
        57 -13.4823     80.2823     63.1790   1.0298738617e+02   5.3793182054e+01     1.048473    0.4952495 -47.09  0.003927962    2.252    0.556
        58 -11.8900     95.9522    226.4652   1.3274635494e+02   1.5003244591e+01    0.2451673    0.1653945  89.96 0.0007705747    1.568    0.362
        59 -13.3431      3.2571     66.9878   1.3105490844e+02   6.1416204475e+01     0.983041    0.3398422 -64.85  0.004494654    2.772    0.639
        60 -11.9148    198.2242     63.9337   7.5519353209e+01   2.7372570367e+01     0.450823    0.1982003  61.48  0.001768156    2.237    0.553
        61 -14.8835    193.9873    149.5094   9.7609000820e+01   1.2238805881e+01      2.29977     1.503769 -63.25  0.009656047    2.006    0.502
        62 -11.8409    243.6772     46.8923   6.5459509841e+01   1.9272132448e+01     0.226895    0.1747045  64.70  0.001340593    1.385    0.278
        63 -11.6138    167.3773     45.3676   7.5707697983e+01   3.7735465467e+01    0.2731393    0.2375917  88.53  0.000760461    1.151    0.131
        64 -11.4596     95.3955     40.1567   9.0434511275e+01   5.4681150317e+01    0.3062643    0.2420488 -11.00  0.001257363    1.255    0.203
        65 -11.2560      7.7170    227.9363   1.4908848000e+02   2.6236421260e+01    0.1523694    0.1450546  26.60 0.0009729818    1.788    0.441
        66 -13.0005     82.0316     32.4786   9.1593113690e+01   5.8177983329e+01    0.4458562    0.3571399  23.60  0.001683486    1.114    0.102
        67 -13.3347    125.3265    229.6022   1.2729060026e+02   9.4806964300e+00    0.3962068    0.3395503  81.52  0.002460385    1.161    0.139
        68 -13.7350    180.9355     30.7465   6.9486801081e+01   3.6287514196e+01    0.6333986    0.4711235  41.78  0.003246877    1.510    0.338
        69 -13.0033    184.7782     24.3451   6.7259763795e+01   3.6104396596e+01    0.5552823    0.3686241  57.15  0.001105423    1.411    0.291
        70 -11.3273      5.8591     26.2127   1.1834377694e+02   6.8543866342e+01    0.3604688    0.1281515 -48.83  0.001898282    2.393    0.582
        71 -10.9683     13.1892    231.5768   1.4840669017e+02   2.4953372037e+01     0.227532    0.1353474  30.42  0.001179729    2.439    0.590
