#   1 NUMBER                 Running object number                                     
#   2 MAG_AUTO               Kron-like elliptical aperture magnitude                    [mag]
#   3 X_IMAGE                Object position along x                                    [pixel]
#   4 Y_IMAGE                Object position along y                                    [pixel]
#   5 X_WORLD                Barycenter position along world x axis                     [deg]
#   6 Y_WORLD                Barycenter position along world y axis                     [deg]
#   7 A_WORLD                Profile RMS along major axis (world units)                 [deg]
#   8 B_WORLD                Profile RMS along minor axis (world units)                 [deg]
#   9 THETA_WORLD            Position angle (CCW/world-x)                               [deg]
#  10 FWHM_WORLD             FWHM assuming a gaussian core                              [deg]
#  11 ELONGATION             A_IMAGE/B_IMAGE                                           
#  12 ELLIPTICITY            1 - B_IMAGE/A_IMAGE                                       
         1 -13.9372    215.3465     13.0468   4.6124799755e+01   2.8564516845e+01     2.038023     1.231774 -60.57  0.009814403    1.722    0.419
         2 -12.9486    220.3624      2.3525   4.2701139182e+01   2.8329142431e+01     1.235899    0.3578651  73.69   0.00289162    3.404    0.706
         3 -13.7425    179.7002     45.4582   6.0399084800e+01   3.3977864677e+01     1.129514    0.8201315 -17.33 0.0009310467    1.451    0.311
         4 -13.9754    190.5209     35.9057   5.5756244802e+01   3.2391225435e+01     1.163581     1.001894 -34.85   0.00305734    1.119    0.106
         5 -14.4290    198.4981     26.1872   5.1728956686e+01   3.1462225519e+01     1.686236     1.041384 -13.81   0.00134991    1.758    0.431
         6 -10.8575     69.8075      2.3870   6.8562966043e+01   6.7808647142e+01    0.2032682    0.1163666  42.14 0.0009530018    1.711    0.416
         7 -10.0419     36.0612    234.1785   1.2654752382e+02   2.4694928158e+01    0.1393089    0.1029197  45.96 0.0005627217    1.197    0.165
         8 -16.3532     70.2901    147.7901   1.1285683617e+02   3.6689056252e+01     7.623359     3.500697  75.08   0.01744618    3.925    0.745
         9 -10.6823     37.9045    221.8395   1.2570345633e+02   2.6457056326e+01    0.2322161    0.1739672  39.75  0.001105136    1.305    0.234
        10  -9.9100     43.7311    220.3634   1.2454268263e+02   2.6087644637e+01    0.1222185   0.09108486 -74.33 0.0009473581    1.641    0.391
        11 -10.3810     48.5907    217.5739   1.2347765221e+02   2.6021472870e+01    0.3073216    0.1644034  24.57  0.001545485    2.297    0.565
        12  99.0000     59.7159    216.0202   1.2124251609e+02   2.5028109133e+01    0.5809554    0.4184445 -49.65  0.003076027    2.087    0.521
        13 -10.0177     43.8479    211.5108   1.2407693520e+02   2.7547984404e+01    0.2968935    0.1629697 -84.84  0.001250114    1.929    0.482
        14 -11.9533     50.5887    208.5927   1.2258875118e+02   2.7310194305e+01     0.333274    0.1487515  26.28  0.001734308    2.676    0.626
        15 -13.7936     56.7665    204.6120   1.2110368396e+02   2.7297212727e+01    0.7341864    0.4604475  35.81  0.002305466    1.435    0.303
        16 -11.5312     38.8674    211.1810   1.2503110714e+02   2.8129765629e+01    0.3042834    0.1395644  68.53  0.001825596    2.015    0.504
        17 -13.4301    128.1853    209.9143   1.0723896525e+02   1.6928317957e+01    0.5013081    0.3412179  64.76  0.003150099    1.775    0.437
        18 -14.3118    115.4980    199.4852   1.0859230129e+02   2.0401573996e+01     1.062317    0.5606892  55.04   0.00570308    1.934    0.483
        19 -12.4250    108.2514    203.6341   1.1052146606e+02   2.0782972204e+01    0.3248593    0.2335809  41.14 0.0002011046    1.107    0.097
        20 -10.9917    155.8693    199.9866   1.0061560704e+02   1.4165310666e+01    0.3134808    0.2438712  82.44  0.001953789    2.051    0.512
        21 -10.8123     95.2479    200.3758   1.1285390702e+02   2.3142874783e+01    0.2471845    0.1662868  63.34  0.000816247    1.459    0.315
        22 -16.4959     80.9647    245.8844   1.1918096612e+02   1.8003665756e+01     7.587384     2.227018  29.38   0.02800936    5.476    0.817
        23 -10.6542    209.9727    199.5675   9.0726998179e+01   5.8532043723e+00    0.1762777     0.156985 -29.09  0.000647046    1.554    0.356
        24 -12.0548    193.2162    193.3097   9.2669463412e+01   9.1614538321e+00    0.6737198    0.3946357 -51.23  0.003603201    2.867    0.651
        25 -12.8808    106.2887    209.9483   1.1155988776e+02   2.0056572381e+01    0.5401087    0.2652104  46.45  0.002594202    1.599    0.375
        26 -11.5074    141.2231    198.0440   1.0322292736e+02   1.6728738625e+01     0.229259    0.1973363  71.01 0.0007929452    1.410    0.291
        27 -12.5997     32.6276    198.2779   1.2565272390e+02   3.1028042574e+01    0.3142385     0.151818  31.84  0.001562079    1.932    0.482
        28 -11.0380     70.4012    209.9415   1.1872813345e+02   2.4767247867e+01    0.2108045    0.1338762  55.09 0.0004575697    1.244    0.196
        29 -13.2545     66.2821    191.1467   1.1813776326e+02   2.8562644686e+01    0.6775984    0.6065059  67.87  0.003868936    1.194    0.162
        30 -10.2403     81.6612    195.3753   1.1522217447e+02   2.5838213098e+01    0.2511186    0.1918682  29.30  0.001681254    1.412    0.292
        31 -10.9044    152.2374    193.7627   1.0046209822e+02   1.5631410921e+01    0.2125391    0.1683477  61.16 0.0007061361    1.499    0.333
        32  -9.2905     29.1298    210.1767   1.2687400886e+02   2.9287219871e+01    0.2715712   0.05205243  42.60  0.001307465    2.735    0.634
        33  -9.5651     76.3446    207.1583   1.1732229490e+02   2.4496079535e+01    0.1434104   0.09353191  83.46 0.0004005813    1.699    0.411
        34 -10.9421    150.9498    182.5054   9.9084756420e+01   1.7536348560e+01    0.1990723     0.174818  86.48 0.0005179187    1.501    0.334
        35 -11.6166     99.5433    180.7171   1.0982004625e+02   2.5970968062e+01    0.2364826    0.1977049  41.83 0.0005687022    1.113    0.102
        36 -11.6994    144.1200    179.1241   9.9982063946e+01   1.9202869159e+01    0.2282971    0.1891123 -45.58 0.0009239439    1.449    0.310
        37 -10.8355     33.0099    205.8890   1.2593130470e+02   2.9641503246e+01    0.1773298    0.1546346 -73.13  0.001446905    1.518    0.341
        38  -9.5523     60.9611    231.0625   1.2189506978e+02   2.2497132992e+01     0.112986   0.08441015  61.08            0    1.146    0.127
        39  -9.9670    165.1536    171.9266   9.4525390710e+01   1.6755319267e+01    0.1844857    0.1603871  54.88 0.0006783038    1.303    0.232
        40  -9.9844    202.4907    170.5029   8.7172870076e+01   1.0532942262e+01    0.1266597    0.1032548  19.93 0.0003076356    1.005    0.005
        41 -11.3648    194.5184    167.6058   8.8100450694e+01   1.2277984021e+01    0.2970314     0.262797  14.65 0.0008693673    1.106    0.095
        42  -9.7229     72.0400    230.0551   1.1978855474e+02   2.1362497174e+01    0.1570311    0.1036518  50.65 0.0004140695    1.093    0.085
        43 -10.1354    204.1189    165.2319   8.5922306429e+01   1.0940598862e+01    0.2623815    0.1724118 -46.56  0.001438428    2.101    0.524
        44 -10.5652    190.4055    161.1441   8.7681013411e+01   1.3894094607e+01    0.2414867    0.1999364  74.50   0.00139103    1.871    0.465
        45 -13.0203     94.9028    154.8408   1.0757090971e+02   3.1650790772e+01    0.6749997    0.4747717 -40.39  0.003678528    1.862    0.463
        46 -11.1625    189.0240    154.9487   8.6768055943e+01   1.5030594499e+01    0.3911343    0.3441598  54.87  0.002431311    1.377    0.274
        47 -10.6121    140.3329    157.0374   9.7237068058e+01   2.3593565748e+01    0.2807824    0.2192785  78.22  0.001340684    1.687    0.407
        48 -11.7277    133.8685    145.0924   9.6575454739e+01   2.6950225104e+01    0.9897026    0.2955098 -55.39  0.002926744    5.252    0.810
        49  -9.0412     32.0685    227.9041   1.2702295828e+02   2.6075566092e+01    0.1662554   0.06818745  52.87  0.001056915    1.677    0.404
        50 -10.5563    174.7527    149.1891   8.8448160180e+01   1.8552471145e+01    0.2392061    0.1807611  37.21 0.0006858399    1.180    0.152
        51 -10.8839    144.4754    147.6866   9.4626549304e+01   2.4508533450e+01    0.2905363     0.202295  62.25  0.001461106    1.726    0.421
        52  -9.8578    159.9891    147.0401   9.1098556431e+01   2.1700683983e+01    0.2071865    0.1669895  76.54 0.0007404545    1.691    0.409
        53 -11.9897    106.6440    140.4558   1.0239140596e+02   3.2702900209e+01    0.4974889    0.3211284 -34.73   0.00237232    2.150    0.535
        54 -12.5827     94.5898    140.4888   1.0549779982e+02   3.4681149786e+01    0.2786362    0.2722008 -28.53 0.0003617263    1.223    0.182
        55 -10.0700    198.6495    222.7942   9.6016190576e+01   4.9858361309e+00    0.1837047    0.1105633  29.12 0.0004783695    1.240    0.194
        56 -11.0987    114.3680    130.5965   9.8620137378e+01   3.3393190525e+01    0.3399448    0.2826816  -1.43 0.0007449621    1.576    0.366
        57 -12.2994    119.1872    126.7994   9.6629404739e+01   3.3292140569e+01    0.7075302    0.3756169 -46.42  0.003105664    2.040    0.510
        58 -11.0587    101.8145    126.7913   1.0120529858e+02   3.6421482427e+01    0.2666159    0.2364918   4.73 0.0006541547    1.392    0.281
        59 -10.8737    136.0000    123.9596   9.1821833034e+01   3.0610088303e+01    0.3505339    0.1105599 -49.21  0.001133142    3.559    0.719
        60 -10.1557    160.8265    127.9977   8.6971272771e+01   2.4829910552e+01    0.2308846    0.1707142 -72.82  0.001089771    2.047    0.511
        61 -11.0032    106.0455    130.8601   1.0083729766e+02   3.4816567219e+01    0.3318891    0.2938187  76.97  0.001254193    1.134    0.118
        62 -10.3190    109.9283    119.3131   9.7529037569e+01   3.6587169559e+01    0.2237584    0.2048202 -60.18 0.0005032828    1.140    0.123
        63  -9.6102     64.2428    223.7125   1.2085006902e+02   2.3262859777e+01    0.1046658    0.0586813  58.26 0.0002420031    1.463    0.317
        64  -9.9621    168.1335    112.8985   8.1896521102e+01   2.5936359492e+01    0.3076558    0.2215624 -81.96  0.001331505    2.379    0.580
        65  -9.8172    135.0000    112.0193   8.9353165416e+01   3.3174328314e+01    0.2409138   0.08504695 -45.17 0.0008066393    2.972    0.663
        66 -11.4237    119.1514    110.7023   9.3148189910e+01   3.6660173135e+01    0.6103284    0.2532703  51.37  0.002170229    2.655    0.623
        67 -10.1742    205.6248    110.1174   7.3978005205e+01   1.8354192581e+01    0.2647081    0.1909875  38.04 0.0007008859    1.351    0.260
        68  -9.9609     74.0333    106.9905   1.0550431405e+02   4.5400874320e+01    0.2287873    0.1559909  68.30 0.0008130721    1.646    0.393
        69  -9.0776    167.6658     95.2635   7.7500004885e+01   2.9102800047e+01     0.145362    0.1197185 -87.47 0.0002144733    1.580    0.367
        70 -11.9057     53.3298     90.8997   1.0929525772e+02   5.2079493523e+01    0.3809912    0.2796751  77.29   0.00139112    1.445    0.308
        71 -11.8836     41.6045     90.6016   1.1341473494e+02   5.3490315190e+01    0.4853864    0.2651116 -85.99  0.001380421    1.983    0.496
        72  -9.1367     67.7123     71.3049   9.9467823830e+01   5.4800620227e+01    0.1412725    0.1083608  80.59 0.0002600492    1.567    0.362
        73 -11.5521    162.4548     63.5048   6.9324122919e+01   3.5740053151e+01    0.3805457    0.2957482 -82.04  0.000725624    1.627    0.385
        74 -11.2434    163.0807     55.7596   6.6710743604e+01   3.6809636852e+01    0.2835468    0.2278993 -19.78 0.0003724932    1.297    0.229
        75 -10.4630    172.2684    238.9902   1.0251499040e+02   6.9173950569e+00    0.1670321    0.1510221 -70.25  0.001380041    1.804    0.446
        76  -8.9974     60.2302    236.2305   1.2231262211e+02   2.1797641768e+01   0.08131731   0.06741297  37.36            0    1.362    0.266
        77 -11.8334     49.0765    233.6228   1.2419238004e+02   2.3420155516e+01    0.2909953    0.1515312  78.37 0.0006319001    2.007    0.502
        78 -12.0628     44.2234    231.8430   1.2498668492e+02   2.4211307303e+01    0.2603666    0.2180023  85.16 0.0008667308    1.398    0.285
        79 -19.3959      8.6905    134.1349   1.2802728498e+02   4.6091910422e+01     16.83701     1.881099 -82.64   0.04097515    9.401    0.894
        80  -9.2749     53.6178    230.3289   1.2320327140e+02   2.3432245824e+01    0.3020281    0.1446646  86.65  0.001885138    2.455    0.593
        81 -10.8840    189.9320     15.0026   4.9188514942e+01   3.4912702739e+01    0.2246356    0.2138226 -54.26 0.0006880367    1.012    0.012
