#   1 NUMBER                 Running object number                                     
#   2 MAG_AUTO               Kron-like elliptical aperture magnitude                    [mag]
#   3 X_IMAGE                Object position along x                                    [pixel]
#   4 Y_IMAGE                Object position along y                                    [pixel]
#   5 X_WORLD                Barycenter position along world x axis                     [deg]
#   6 Y_WORLD                Barycenter position along world y axis                     [deg]
#   7 A_WORLD                Profile RMS along major axis (world units)                 [deg]
#   8 B_WORLD                Profile RMS along minor axis (world units)                 [deg]
#   9 THETA_WORLD            Position angle (CCW/world-x)                               [deg]
#  10 FWHM_WORLD             FWHM assuming a gaussian core                              [deg]
#  11 ELONGATION             A_IMAGE/B_IMAGE                                           
#  12 ELLIPTICITY            1 - B_IMAGE/A_IMAGE                                       
         1 -13.4447     68.5230    144.4653   9.6642833799e+01   3.7495267345e+01      3.23691     1.617255 -87.87  0.007058639    5.199    0.808
         2 -13.6130    205.6044     41.9908   3.9263569141e+01   2.8810091075e+01     1.762024     1.344616  28.94   0.00853009    2.032    0.508
         3 -13.4244    218.3588     30.4376   3.5393507984e+01   2.7519731783e+01    0.9746776    0.8057094  45.56  0.006338578    1.643    0.392
         4 -12.6948    244.5864      5.7830   2.8498871669e+01   2.5037093002e+01    0.7487882    0.5209429 -83.52  0.005062786    1.180    0.152
         5 -10.2995      2.0000      6.4760   8.4369926223e+01   7.3521088802e+01    0.5611467   0.05323138 -45.73  0.001503902    9.925    0.899
         6 -10.1939     50.0679      3.4710   5.8933313674e+01   6.7495778556e+01    0.4036752    0.2208244  63.05  0.001929858    3.087    0.676
         7  -8.1246    224.2720    206.6858   7.1425017617e+01  -2.6752832314e+00    0.1100951     0.101292 -58.68 0.0003345594    1.556    0.357
         8 -14.6306      5.6550    139.9321   1.1466154473e+02   4.5290743848e+01     5.875138     1.567844 -78.92   0.01899147    4.164    0.760
         9 -10.1557    192.5023    193.9809   7.5185223160e+01   4.4655095980e+00    0.3215253    0.2103685 -64.74  0.001195653    2.540    0.606
        10  -7.9465     66.3142    196.6280   1.0519851739e+02   2.4886682067e+01    0.1511007   0.09436386  68.40  0.000703376    1.785    0.440
        11  -9.7756    147.0229    187.0778   8.3834902096e+01   1.3840505116e+01    0.4270313    0.2182017 -61.49  0.001604198    2.724    0.633
        12  -9.2867     99.3548    180.9217   9.4518765899e+01   2.3625844838e+01    0.2622001    0.2130522  29.36 0.0005704638    1.282    0.220
        13  -9.9796    186.8452    175.0034   7.2636175006e+01   9.0702342869e+00    0.3388108    0.2985195 -54.90  0.001174083    1.270    0.213
        14  -9.2956     86.4817    175.5315   9.6995119272e+01   2.7010595025e+01    0.4703343     0.248877 -78.16  0.001755695    2.713    0.631
        15 -11.4002     63.3570    172.7745   1.0275096340e+02   3.1093381582e+01    0.4692447    0.3059344 -33.08  0.002153225    2.088    0.521
        16 -11.1976     68.2428    167.9893   1.0070855439e+02   3.1608588822e+01    0.3628711    0.2977311 -11.25 0.0006234207    1.577    0.366
        17 -12.1784    101.8462    171.1113   9.2161882432e+01   2.5565870916e+01     2.817573    0.6682634  48.49  0.005606857    8.421    0.881
        18 -12.2540     77.4657    158.6689   9.6607848799e+01   3.2591024836e+01    0.9813083    0.6197909  62.41 0.0006610504    1.933    0.483
        19 -12.7113     65.0602    154.8895   9.9490413034e+01   3.5351155723e+01    0.5068101     0.397326 -25.03   0.00106659    1.579    0.367
        20 -10.2330    240.0768    169.3091   6.1628807069e+01   1.1597184557e+00    0.1739644    0.1585796 -13.32 0.0004879575    1.113    0.102
        21  -8.7235    110.7946    167.7346   8.9177069957e+01   2.4818961751e+01     0.209896    0.1765695  77.64  0.000676476    1.330    0.248
        22  -9.3540     46.0225    166.9192   1.0662563465e+02   3.4764957562e+01     0.209297    0.1813687  78.95 0.0005459475    1.088    0.081
        23 -15.1310     10.5585    209.9251   1.1936268179e+02   2.8240855908e+01     2.147539     1.205338 -88.23   0.01223872    1.567    0.362
        24  -8.9255    111.0233    203.2908   9.5204150929e+01   1.6534694969e+01    0.1972087    0.1747199  45.17 0.0004145739    1.052    0.049
        25 -10.5257     23.3228    156.6054   1.1156179305e+02   3.9737707935e+01    0.3889739    0.2071699  55.79  0.001846679    2.066    0.516
        26  -9.2805     32.4962    155.5388   1.0887834983e+02   3.9113101805e+01    0.2629663    0.1108817 -63.56  0.001122305    2.025    0.506
        27  -9.7291     28.8415    155.6028   1.0991040904e+02   3.9462827217e+01    0.2477522    0.1597201  36.45  0.001083986    1.643    0.391
        28 -11.5289     85.1278    152.7458   9.3356475327e+01   3.2873688829e+01      0.65457    0.4629081 -22.69   0.00231734    1.937    0.484
        29 -10.3098    133.7126    145.0690   7.8485734545e+01   2.5822296182e+01     1.039231    0.2701575 -53.82  0.002510941    5.210    0.808
        30  -9.0589    174.8448    149.1459   6.9711264743e+01   1.6597144765e+01    0.2288323    0.2061843 -80.87 0.0006191003    1.283    0.221
        31 -10.4365     55.4984    146.4865   1.0087484007e+02   3.8758723615e+01    0.4855853    0.3124898  31.31  0.002359277    1.659    0.397
        32  -9.4371     92.8621    146.1492   8.9846236087e+01   3.3229952333e+01    0.2118425    0.1798165 -28.74 0.0005040558    1.312    0.238
        33  -9.3676     32.8722    143.6247   1.0715774357e+02   4.2072892237e+01    0.4101638    0.2106674  53.25   0.00181012    2.293    0.564
        34 -11.6986     87.0945    138.3145   8.9899791352e+01   3.6143646856e+01    0.3576942    0.2957415 -67.86 0.0004239652    1.229    0.186
        35 -10.1392     99.9361    138.9654   8.6296841658e+01   3.3753329312e+01     0.513157    0.3525828 -20.36  0.002148067    2.075    0.518
        36  -9.7246    105.9834    130.7456   8.2706071227e+01   3.4620679269e+01    0.3753918    0.3550836  46.65   0.00131491    1.071    0.067
        37  -9.7205    109.6664    129.6742   8.1406905990e+01   3.4173025733e+01    0.3119841    0.2487693 -11.53 0.0008527484    1.571    0.364
        38  -9.0455    135.6362    130.1988   7.4537217664e+01   2.8817086194e+01    0.2315996    0.1433786 -38.41 0.0009568719    1.706    0.414
        39 -10.7330    237.2958    172.5588   6.2719181463e+01   1.0388388006e+00    0.3523056    0.1269026  43.54   0.00144647    3.203    0.688
        40 -10.0616     23.2024    146.6907   1.1039857270e+02   4.2223714669e+01    0.4371597    0.2022898  58.13   0.00180724    2.771    0.639
        41  -9.7249     97.1476    125.3191   8.4007913813e+01   3.7556411038e+01    0.3055135    0.2393733  -6.95 0.0009185239    1.631    0.387
        42  -9.0144    106.8434    118.5719   7.9518846326e+01   3.7318461685e+01    0.2329777    0.2017208 -35.13 0.0003384603    1.179    0.152
        43  -9.3751    243.6785    118.6542   5.0941889497e+01   9.1654612721e+00    0.1282338   0.09795874  -9.18 0.0007049734    1.734    0.423
        44  -8.1906     81.3490    116.3016   8.6708406457e+01   4.2470059906e+01    0.1551958    0.1156627 -15.79 0.0007038889    1.692    0.409
        45  -9.9702    231.2095    113.7694   5.1703123553e+01   1.2251603120e+01    0.2655328     0.235165 -48.11 0.0007208813    1.022    0.021
        46 -14.4478     36.9756    196.5686   1.1231291128e+02   2.8577909664e+01     3.154934     1.501948  80.52  0.007844773    2.661    0.624
        47  -9.2894    205.3969    110.1574   5.4961001298e+01   1.7972766010e+01    0.2996083    0.2037295  43.20  0.001339706    1.672    0.402
        48 -13.5026     46.6355    187.7873   1.0902907005e+02   2.9548580162e+01     1.353833     1.018607  53.40  0.007720725    1.263    0.208
        49 -10.5175    249.1198    100.6491   4.6576976856e+01   1.1165511517e+01    0.2426623    0.1486667 -49.01  0.001340043    1.386    0.278
        50  -9.9195    241.0004    101.7536   4.7836084021e+01   1.2455264911e+01    0.1528706    0.1112833  60.36 0.0008825529    1.582    0.368
        51 -10.5007    248.8289     94.1628   4.5306994882e+01   1.2253886612e+01    0.3939764    0.1486533 -57.84   0.00130738    4.469    0.776
        52 -16.4919     16.1808    242.7507   1.2023329164e+02   2.0709050417e+01     6.779643     2.606426  23.09   0.02862059    4.121    0.757
        53  -9.6594     53.5840     90.2248   8.9625742997e+01   5.2698624193e+01     0.211068    0.1162012 -43.50 0.0009579753    1.697    0.411
        54  -9.4224     18.0048     90.0504   1.0302891883e+02   5.6448227410e+01    0.1891136    0.1492985  71.24 0.0004500801    1.620    0.383
        55  -8.2636    160.4946     83.4848   5.6715958043e+01   3.2797889640e+01    0.1476326    0.1398506 -85.62  5.20514e-05    1.021    0.021
        56  -8.6476     71.8477     83.0435   8.1030703015e+01   5.1544477527e+01    0.2033788    0.1901607  70.38 0.0004816643    1.282    0.220
        57  -8.3260     48.2367     62.4619   8.3560850019e+01   5.9218490287e+01    0.1633221    0.1223548  39.06 0.0006578891    1.500    0.333
        58 -10.5211     13.4005     60.1349   9.7884221090e+01   6.3311107995e+01    0.2801164    0.1847511 -46.24 0.0005080009    1.258    0.205
        59 -12.0073    196.0626     48.4987   4.1937171895e+01   3.0064470028e+01    0.6015276     0.454628  64.25  0.001404912    1.315    0.240
        60  -9.6427    122.3491    199.1902   9.1832564732e+01   1.5545709448e+01    0.2781842    0.2462956 -84.62  0.001258383    1.254    0.203
        61 -10.7315     95.0988    241.2596   1.0387207583e+02   1.1034311876e+01    0.3579136    0.1843504 -69.90  0.001359194    2.406    0.584
        62 -10.3133    194.6732    198.0279   7.5506467577e+01   3.3647842484e+00    0.3338099    0.1870636 -56.79  0.001430146    2.610    0.617
        63  -8.9500    197.9662     24.1017   3.6031231215e+01   3.2744460929e+01    0.2079829    0.1634208  15.41 0.0009905966    2.054    0.513
        64  -8.9169    189.4758     15.0128   3.4812784249e+01   3.5675831671e+01    0.1714072    0.1177654 -37.86 0.0007191272    1.559    0.358
        65  -8.6668    169.2034    235.9695   8.7271817996e+01   6.8991906054e-01    0.1693275    0.1511741  -3.99 0.0003794203    1.111    0.100
        66 -10.6558    140.0072    218.8172   9.0889464334e+01   8.4849586996e+00    0.3432854    0.1968367 -57.62  0.001585054    2.072    0.517
