#   1 NUMBER                 Running object number                                     
#   2 MAG_AUTO               Kron-like elliptical aperture magnitude                    [mag]
#   3 X_IMAGE                Object position along x                                    [pixel]
#   4 Y_IMAGE                Object position along y                                    [pixel]
#   5 X_WORLD                Barycenter position along world x axis                     [deg]
#   6 Y_WORLD                Barycenter position along world y axis                     [deg]
#   7 A_WORLD                Profile RMS along major axis (world units)                 [deg]
#   8 B_WORLD                Profile RMS along minor axis (world units)                 [deg]
#   9 THETA_WORLD            Position angle (CCW/world-x)                               [deg]
#  10 FWHM_WORLD             FWHM assuming a gaussian core                              [deg]
#  11 ELONGATION             A_IMAGE/B_IMAGE                                           
#  12 ELLIPTICITY            1 - B_IMAGE/A_IMAGE                                       
         1 -11.6152     48.2817     35.1274   6.0302904620e+01   6.5324480472e+01    0.8235046    0.5628104 -78.58  0.003422074    3.767    0.735
         2 -13.0524     44.8347     22.8741   5.6270796361e+01   6.7769227074e+01     1.017675      0.79695 -55.65  0.006035727    1.787    0.440
         3 -11.0825     75.8021     25.0901   4.5241818841e+01   6.1470984305e+01    0.4503692    0.2916848  -3.09  0.002226413    2.118    0.528
         4 -12.9479    156.0873     11.7002   2.4684618159e+01   4.4058991751e+01    0.8102016    0.5586187  65.61   0.00451563    1.353    0.261
         5 -13.2547    164.9901     12.1962   2.3848531239e+01   4.1916134171e+01    0.9647465    0.4594937  63.24  0.004804868    1.924    0.480
         6 -12.5016    158.4772      3.6090   2.2197256105e+01   4.4276312508e+01    0.9883608    0.3889598  72.17  0.004565167    2.169    0.539
         7 -13.3350    169.3946      2.5069   2.0881989645e+01   4.1845426523e+01     2.025695    0.7283355  89.83  0.007887951    3.310    0.698
         8 -11.8058     78.4286     13.5812   3.9483828114e+01   6.2218419644e+01    0.4031978    0.2763585   0.21  0.002210402    1.822    0.451
         9 -11.0102     39.5100      8.0439   5.1122369765e+01   7.0593308815e+01    0.3800641    0.2026263 -22.49  0.001867894    2.080    0.519
        10 -10.0495    129.8343     12.6354   2.8403869674e+01   5.0255954529e+01    0.2689157     0.187997  32.49  0.001468318    1.817    0.450
        11 -11.7496    145.7375      4.7277   2.3876300536e+01   4.7184462788e+01    0.6008796    0.2990911  67.92  0.003056235    1.716    0.417
        12 -11.1159    141.4888      1.5171   2.3417116777e+01   4.8480538399e+01     0.336577    0.2506098  56.44  0.002071146    1.361    0.265
        13  -9.9859    223.6116      5.4072   1.7663252425e+01   2.9902497414e+01    0.2461783   0.07729935 -53.41  0.001159906    2.517    0.603
        14 -10.3303    116.3939     16.7033   3.2003296368e+01   5.3084699063e+01    0.3665985     0.182679 -51.79  0.001649507    2.397    0.583
        15 -11.2816    131.1674      3.8812   2.5419506350e+01   5.0745246242e+01    0.6858859    0.2200353  59.29  0.002860092    2.538    0.606
        16 -11.1187    121.0747      4.6184   2.7087642177e+01   5.3104072699e+01    0.4958903    0.3493935  69.91  0.002922529    1.210    0.174
        17 -10.6537    106.7006      5.1479   2.9640690227e+01   5.6491980143e+01    0.4814925    0.2345675 -85.89  0.001925307    3.167    0.684
        18 -10.5226     71.0959      5.7071   3.8065698050e+01   6.4585443564e+01    0.4252044    0.1750377  55.46  0.001974425    1.998    0.500
        19 -10.6569    208.4910      4.4893   1.8398141478e+01   3.3066934665e+01    0.2131746    0.1788711  79.22 0.0009743505    1.312    0.238
        20 -11.1357    204.5129      4.5277   1.8667846589e+01   3.3895645814e+01    0.2732787    0.1782084  80.86  0.001248452    1.403    0.287
        21 -11.8187     83.7943      3.5986   3.3773925892e+01   6.1952568550e+01    0.7987209    0.2941498  63.92  0.003238528    2.366    0.577
        22 -10.5739     61.7149      2.2446   3.9287933723e+01   6.6889820841e+01    0.3886159    0.1834479  37.33  0.001884123    2.094    0.522
        23  -9.6709    218.1217      2.1453   1.7313949253e+01   3.1335131468e+01    0.1678673    0.1016178 -67.98  0.001066576    1.324    0.245
        24  -8.9835     17.5127      1.5113   5.9448278536e+01   7.4838336718e+01    0.1172241   0.09322097   8.47 0.0008104343    1.009    0.009
        25  -9.8042    102.6621    173.3398   7.8599252527e+01   2.4643658290e+01    0.1582764    0.1117247  68.42 0.0007050643    1.762    0.432
        26 -10.6307    220.9910    172.1620   5.2578347732e+01   5.2597156122e+00    0.1837014    0.1524114  79.21  0.001087374    1.998    0.500
        27 -11.1363    173.3284    158.6948   5.8803155284e+01   1.5436000984e+01    0.2546318    0.2478105  75.58  0.001017238    1.175    0.149
        28 -10.4092    172.5081    163.4907   5.9944496206e+01   1.4625073075e+01     0.268433    0.2297495  62.48  0.001074631    1.426    0.299
        29 -10.0205     14.8715    160.1436   1.0196639619e+02   3.9351260456e+01    0.2204847    0.1627836  68.25  0.001231591    1.267    0.211
        30 -11.0223    215.5035    157.5195   5.0692551900e+01   8.5719481731e+00    0.3164253     0.225407 -29.35  0.001818287    1.268    0.211
        31 -10.8740    220.2453    156.1550   4.9645316562e+01   8.0694435211e+00    0.3603955     0.308249  89.80  0.002212634    1.703    0.413
        32  -9.9617     20.6781    155.7039   9.9826518413e+01   3.9992402967e+01    0.2351041    0.2019165 -56.26 0.0009466338    1.224    0.183
        33 -10.9022    163.5263    151.3093   5.9347993642e+01   1.8718702006e+01     0.457639    0.3325496 -31.83   0.00227295    1.418    0.295
        34  -9.5039    173.5054    144.5140   5.5794022236e+01   1.8242974894e+01    0.1433581    0.1342002 -32.48 7.313646e-05    1.003    0.003
        35  -9.8949     53.2666    143.4935   8.8054642420e+01   3.9648703085e+01    0.2860665    0.1994803 -67.61  0.001387053    1.370    0.270
        36  -9.4641    165.3926    142.7800   5.7115843993e+01   2.0128842220e+01    0.2077212    0.1314947 -35.06 0.0007708063    1.626    0.385
        37 -12.6024      9.9574    140.5452   1.0162973949e+02   4.4825679277e+01    0.6156274    0.5335534 -12.75  0.003737724    1.389    0.280
        38 -10.0180    220.8762    136.8866   4.5716964100e+01   1.1266721175e+01    0.2035903    0.1659336 -19.25  0.001056723    1.257    0.205
        39  -9.5800    165.0888    134.8136   5.5418200366e+01   2.1826320831e+01    0.2233526    0.1987247 -78.54 0.0007581923    1.263    0.208
        40 -13.4733    240.7932    125.1973   4.0531869110e+01   9.9989383342e+00      1.12441    0.9800726  73.72  0.007686215    1.462    0.316
        41 -13.7740    244.6255    110.3172   3.7116728831e+01   1.1747211247e+01     1.902199    0.8808315 -45.68  0.009633005    1.773    0.436
        42 -10.4811     18.2215    127.6583   9.7435375864e+01   4.7558012325e+01     0.196575    0.1628697 -87.63 0.0009415351    1.124    0.110
        43 -11.2816      9.3591    121.6228   9.9783159537e+01   4.9806471903e+01    0.2700908    0.1868782  41.03  0.001462961    1.543    0.352
        44 -10.5480      4.7461    124.8714   1.0175304769e+02   4.9266752239e+01    0.2686205    0.1403915  52.53  0.001249564    2.085    0.520
        45  -9.5541    208.2301    123.5330   4.4928183637e+01   1.5781276904e+01    0.2829875    0.1223646  40.20  0.001145861    2.998    0.666
        46 -11.5260    189.9600    114.4719   4.5983507255e+01   2.0880087478e+01    0.9655446    0.4400871 -27.04  0.003193646    3.786    0.736
        47 -10.0358    154.7563    120.4411   5.4324975489e+01   2.6889181300e+01    0.2078078    0.1442295  35.16 0.0009519745    1.635    0.388
        48 -11.0722    212.7320    112.7006   4.1908650704e+01   1.6852222185e+01     0.540835    0.2867393 -42.81  0.002629452    1.621    0.383
        49  -9.9734    224.6772    111.6863   3.9976120137e+01   1.4880263652e+01    0.2556079    0.1132171 -36.57  0.001133845    2.033    0.508
        50 -11.2371    222.9279    107.1523   3.9267502421e+01   1.5941122829e+01    0.4429159    0.3224848  49.35   0.00232258    1.632    0.387
        51 -10.1659    148.6434    111.0109   5.3385410979e+01   3.0135642720e+01    0.3659504    0.1743963 -49.50  0.001399962    2.108    0.526
        52  -9.3660    155.9898    108.7607   5.1204269860e+01   2.9018598566e+01    0.1977797    0.1262199  49.85 0.0008865615    1.628    0.386
        53 -10.6355     17.2178    104.0875   9.4411280871e+01   5.3771965554e+01    0.4176714    0.2562387  43.49  0.002079234    1.802    0.445
        54 -10.0723     30.5560    101.8390   8.8738958580e+01   5.3156058786e+01    0.2952441    0.2023442 -31.75  0.001473474    1.590    0.371
        55  -9.6808    208.9733     94.3222   3.8436289561e+01   2.0682652546e+01    0.1809261     0.166441 -65.88  0.000632213    1.086    0.079
        56  -9.8549    178.5053     92.5147   4.2803015687e+01   2.7252829936e+01    0.2658078    0.1860541 -71.93  0.001284572    1.696    0.411
        57 -10.4336     12.8362     89.8316   9.3767192821e+01   5.7701890021e+01    0.2143205    0.1661813 -44.04 0.0008652345    1.192    0.161
        58 -12.3983      4.7877     75.8912   9.4774481121e+01   6.1623649019e+01    0.7176026    0.4795455  72.04  0.003570772    1.919    0.479
        59 -12.9935     14.8073     73.1434   8.9484559101e+01   6.1606620190e+01    0.9580858    0.6683266  36.34  0.005337461    1.616    0.381
        60 -10.9366      2.4839     88.4905   9.7966265208e+01   5.8678003831e+01    0.3927034    0.2709622 -78.04  0.002200259    1.366    0.268
        61 -10.5913      2.5834     83.2552   9.7084131159e+01   5.9961708560e+01    0.3514496    0.1880463 -53.75  0.001448178    1.557    0.358
        62 -10.4846    191.9577     86.9935   3.9268123200e+01   2.5358438057e+01    0.5421492     0.221074  55.84  0.002213225    2.624    0.619
        63 -12.3192     41.5625     82.3035   7.9717100684e+01   5.6732652843e+01    0.9349284    0.7185221  13.92  0.005013481    1.395    0.283
        64 -10.9336     47.2205     76.4154   7.5668942649e+01   5.7351480250e+01     0.386429     0.332079  50.43  0.002104442    1.313    0.238
        65  -9.6042    100.6095     83.7827   5.8480853949e+01   4.6217074465e+01     0.213412    0.1419367 -55.34 0.0008820656    1.625    0.385
        66  -8.8523    145.3571     81.3015   4.6279710894e+01   3.6701780395e+01    0.1481519     0.117685  18.93 0.0007037882    1.712    0.416
        67  -9.9381    215.1635     79.7098   3.4373769983e+01   2.1836480466e+01    0.2460383     0.149949 -50.50  0.001115671    1.423    0.297
        68 -10.0300    220.6807     77.6275   3.3245832968e+01   2.1088998050e+01    0.2983075     0.144457 -60.75    0.0013116    2.479    0.597
        69 -10.1047    169.4977     76.4307   4.0320826330e+01   3.2049907808e+01    0.2608276    0.2364524 -66.97  0.001071473    1.012    0.011
        70  -9.7435    227.1543     71.7155   3.1241956232e+01   2.0747876044e+01    0.2031306    0.1430578 -74.22 0.0009288958    1.466    0.318
        71  -9.3519    218.7707     71.5784   3.2156419168e+01   2.2380724195e+01    0.1671456    0.1156342  87.45 0.0009446607    1.620    0.383
        72 -10.4928     75.5002     69.2168   6.2190436059e+01   5.4241637770e+01     0.458136    0.3204981  12.59  0.002101802    1.907    0.476
        73 -11.7358    214.8666     66.8437   3.1568241977e+01   2.3862652145e+01    0.3436238    0.2162186 -37.63  0.001890844    1.486    0.327
        74 -10.9836     25.5373     65.1737   8.2275107923e+01   6.2490009257e+01    0.4236736    0.2436297 -56.85  0.001816941    1.630    0.387
        75  -9.4969    179.2000     66.3743   3.6175814852e+01   3.1515175209e+01    0.1948872    0.1256359  77.83 0.0009517281    1.708    0.414
        76 -11.3623    233.2248     64.3488   2.9065954483e+01   2.0681791984e+01    0.2698894    0.2082389  55.48  0.001744493    1.625    0.385
        77  -8.9172    132.3058     63.6781   4.4028612445e+01   4.2851764462e+01    0.1501584    0.1097003 -75.77 0.0007032321    1.639    0.390
        78 -10.3772    218.8365     61.8679   3.0031321905e+01   2.3803473938e+01    0.1847716    0.1674761 -40.75  0.001233759    1.257    0.204
        79  -9.7515    200.1795     63.8288   3.2655606284e+01   2.7335558763e+01    0.1668257    0.1575965 -21.94 0.0007803715    1.322    0.244
        80 -10.5765    229.0103     60.4944   2.8681497438e+01   2.2023809260e+01    0.2058855    0.1378836 -71.78  0.001087225    1.474    0.322
        81 -10.4692    227.0126     57.9866   2.8351441129e+01   2.2760205465e+01    0.3274064    0.1628425  44.76  0.001487333    3.339    0.701
        82  -9.9026     83.8289     68.7533   5.9114061823e+01   5.2711843345e+01    0.2658863     0.201496 -30.58  0.001330277    1.424    0.298
        83 -11.9788    214.7082     51.9484   2.8290617341e+01   2.6039223475e+01    0.5212811    0.3311962 -20.33  0.002688874    2.282    0.562
        84 -10.9776    198.2622     53.0505   3.0359906451e+01   2.9323022628e+01    0.5305139    0.3284569 -11.38  0.002314932    3.164    0.684
        85  -9.3580    138.2038     55.9900   4.0468802089e+01   4.2701557107e+01    0.2162258    0.1518842  40.93  0.001054435    1.631    0.387
        86  -9.6632    164.4969     53.9996   3.5212604964e+01   3.6781437077e+01    0.2071179    0.1326988 -36.95 0.0008287894    1.586    0.370
        87  -9.8853     34.9618     52.5062   7.3590191798e+01   6.4116421789e+01    0.1977321    0.1260253  26.11 0.0006588344    1.574    0.365
        88 -10.8902     85.3094     47.8452   5.1245040657e+01   5.6162532767e+01    0.4867471    0.3675163  56.78  0.002580232    1.339    0.253
        89 -11.3913     81.1661     39.5558   4.9419008110e+01   5.8336032949e+01    0.6835471    0.3662102 -43.01  0.003141451    2.049    0.512
        90 -11.9275    219.2226     54.4917   2.8384833482e+01   2.4776493028e+01     0.428506    0.2486685  43.55  0.002145064    2.673    0.626
        91 -10.5544    196.7069     44.0127   2.8403500790e+01   3.0912034733e+01     0.183888    0.1539564 -62.14  0.001107619    1.049    0.047
        92 -10.2556    242.4798     42.9888   2.3917838578e+01   2.1873594719e+01    0.1785387   0.09395198 -40.82  0.001025646    1.571    0.363
        93 -11.4694      3.3044     41.2799   8.7139661362e+01   6.9478908756e+01    0.4199487    0.3830766  56.44  0.002900003    1.431    0.301
        94 -11.7839    182.6891     39.9100   2.9023748920e+01   3.4568173522e+01    0.4390246    0.3266053  75.18  0.002578164    1.290    0.225
        95 -10.9595    159.3480    231.8750   7.4560022769e+01   3.8552980470e+00    0.2179519    0.1585703  35.06 0.0007891327    1.312    0.238
        96 -11.7489     40.1940     29.8124   6.1769090811e+01   6.7487276644e+01    0.5053027    0.3101579 -39.16  0.002369697    1.671    0.402
        97 -11.6711    240.5639    229.0999   5.9139793787e+01  -5.7325767422e+00    0.3306641    0.2885292  21.00  0.002571275    1.535    0.349
        98 -10.7348      6.0971     35.1537   8.3396220453e+01   7.0522138100e+01    0.3332769    0.1798371  36.03  0.001766427    2.200    0.545
        99 -10.2618    198.1046     33.8818   2.5871398487e+01   3.1930601846e+01    0.2106487    0.1462235 -67.43  0.001244751    1.273    0.215
       100 -10.5571     86.0245     31.6869   4.4799902068e+01   5.8397010577e+01    0.2007165    0.1643774  48.73  0.001157259    1.111    0.100
       101 -10.0098     90.1141     28.3359   4.2304053551e+01   5.7919453234e+01    0.3028764    0.2241031  31.12  0.001365716    1.447    0.309
       102 -10.3119    145.8118     28.3745   3.0847639228e+01   4.4681761102e+01     0.379488    0.2034658 -79.73  0.001610077    2.499    0.600
       103 -10.9237      3.8335    230.4924   1.0907018467e+02   2.3692920637e+01    0.2820981    0.1474608  30.78  0.001602505    1.796    0.443
       104 -12.0635    178.6590     23.8629   2.5436633872e+01   3.7479160846e+01    0.4203279     0.355139  78.46  0.002718682    1.170    0.146
       105 -11.7870    173.4250     20.6762   2.5180512648e+01   3.9045000247e+01    0.4237472    0.2248927  66.04  0.001762886    1.752    0.429
       106  -9.3852    102.8281     26.1362   3.8220611615e+01   5.5262723104e+01    0.1861458    0.1491839  36.73 0.0007000234    1.301    0.232
       107 -10.2765    187.6637     19.5231   2.3466159995e+01   3.5944580331e+01    0.2547202    0.2064287 -79.03  0.001663759    1.032    0.031
       108  -9.3237    135.3104     19.3320   2.9693846111e+01   4.8244412630e+01    0.1326289   0.09394124  39.66 0.0007042761    1.672    0.402
       109 -10.4390    128.4995     18.3324   3.0453722318e+01   4.9996939008e+01    0.3208317    0.2451354  83.11  0.001421798    1.211    0.174
       110  -9.5901    111.3024    229.0030   8.4634241316e+01   1.1132088819e+01    0.1795605    0.1700982  29.39  0.001166337    1.081    0.075
       111 -11.4784    248.6188    224.6154   5.7159370638e+01  -5.9848636356e+00    0.4489487    0.2583436 -28.58  0.002961784    1.413    0.292
       112  -9.8568     31.7911    227.3862   1.0277353613e+02   2.1593490353e+01    0.1628222    0.1132872  20.41 0.0006724269    1.646    0.392
       113 -11.3175    158.7014    225.3527   7.3729008651e+01   5.0688440389e+00    0.2446482    0.2061269 -16.42  0.001327308    1.172    0.146
       114 -10.0126     94.4579     17.0027   3.6716729874e+01   5.8237779337e+01    0.2584625    0.1741926  80.10  0.001228545    1.666    0.400
       115 -10.2296    227.5591     15.7013   1.9511243766e+01   2.8008508595e+01     0.315468    0.1488793  88.96  0.001714217    2.127    0.530
       116 -13.5669    208.3335    215.7905   6.2488424908e+01  -6.3656222177e-02       1.2928    0.6203221  25.17  0.006565835    2.162    0.538
       117 -11.1955     50.5260    218.1267   9.7715707154e+01   2.1499851967e+01    0.3464097    0.2932808  39.18  0.002172054    1.145    0.127
       118  -9.9913     20.2435     15.0676   6.5530070210e+01   7.2609142824e+01    0.3009756    0.1638668   8.04  0.001465972    2.429    0.588
       119  -9.3329     65.6557    222.3161   9.4509351933e+01   1.8710489104e+01    0.1437228   0.08383896  57.73 0.0007048287    1.716    0.417
       120 -10.3175     67.0463    217.0473   9.3651852757e+01   1.9683934941e+01    0.2337231     0.137957  59.91   0.00114922    1.763    0.433
       121 -13.7530    183.9605    217.1098   6.7301920311e+01   2.9581411363e+00    0.8563266    0.6004745  -6.26  0.004970984    1.475    0.322
       122 -10.0985    141.3571    206.4745   7.4582458813e+01   1.1142420665e+01    0.2620752    0.1719791 -52.94  0.001340032    1.678    0.404
       123 -11.6065    244.1985    202.2207   5.4184488391e+01  -2.4159228133e+00     0.523256    0.3914699 -42.39  0.003581239    1.532    0.347
       124 -10.4275     75.4882    220.4851   9.1988468290e+01   1.7827056801e+01     0.247481    0.1173624  31.79    0.0011214    1.900    0.474
       125 -10.0041     80.7445    199.7589   8.8274373789e+01   2.1744745222e+01    0.2375375   0.08715651  41.54 0.0008929555    2.425    0.588
       126 -10.9785    202.7032    197.0200   6.0320480286e+01   3.7120416550e+00    0.2793883    0.1737335 -41.35  0.001286271    1.552    0.356
       127 -11.2965    204.2026    192.7228   5.9283490005e+01   4.2215409207e+00    0.4228173    0.2298528  21.35  0.002062052    2.185    0.542
       128 -10.3166     23.7953    198.6048   1.0266534277e+02   2.8956974962e+01    0.1918431   0.09973934  41.14  0.000810445    1.691    0.409
       129 -12.2568    195.6237    184.9869   5.9479252985e+01   6.8142194938e+00    0.5338579    0.3678619 -39.96  0.002991841    1.371    0.271
       130  -9.5378    219.6670    185.3458   5.5225646277e+01   3.2757231916e+00    0.1148645   0.09890193 -69.38 0.0007049656    1.765    0.433
       131 -10.4604     36.8341    185.4554   9.8179867447e+01   3.0783310540e+01    0.3121687    0.1361878  23.25  0.001284182    2.547    0.607
       132 -10.5204     26.4169    180.2599   1.0050573734e+02   3.3171088355e+01    0.1931778    0.1163597  87.42 0.0009520144    1.624    0.384
