#   1 NUMBER                 Running object number                                     
#   2 MAG_AUTO               Kron-like elliptical aperture magnitude                    [mag]
#   3 X_IMAGE                Object position along x                                    [pixel]
#   4 Y_IMAGE                Object position along y                                    [pixel]
#   5 X_WORLD                Barycenter position along world x axis                     [deg]
#   6 Y_WORLD                Barycenter position along world y axis                     [deg]
#   7 A_WORLD                Profile RMS along major axis (world units)                 [deg]
#   8 B_WORLD                Profile RMS along minor axis (world units)                 [deg]
#   9 THETA_WORLD            Position angle (CCW/world-x)                               [deg]
#  10 FWHM_WORLD             FWHM assuming a gaussian core                              [deg]
#  11 ELONGATION             A_IMAGE/B_IMAGE                                           
#  12 ELLIPTICITY            1 - B_IMAGE/A_IMAGE                                       
         1 -12.1394    249.1447     51.8084   3.9828943091e+01   1.8189400735e+01    0.5025973     0.141496 -42.05  0.002019643    2.736    0.635
         2 -12.6997     68.3737     30.6044   6.8528106103e+01   6.1730529200e+01     1.171621    0.5503408  41.11  0.005500644    2.012    0.503
         3 -11.3700     30.8519     24.4118   8.1816270560e+01   6.8185007981e+01    0.4426941    0.2393678 -38.33  0.001867923    1.697    0.411
         4 -11.5063     18.6959     14.0509   8.3278532908e+01   7.1075767867e+01    0.3467551    0.2461137 -16.06  0.001283597    1.105    0.095
         5 -10.7961    153.9221     17.7476   4.2816477279e+01   4.4250674979e+01    0.2389746    0.1823079  38.52 0.0003271445    1.429    0.300
         6 -10.4481      6.8425     20.1643   9.2579870214e+01   7.1161164258e+01    0.2672918    0.1424704 -53.96  0.001210246    2.085    0.520
         7 -12.5320      4.3087     11.1897   9.0089236175e+01   7.2793838814e+01    0.5793415    0.4027697 -32.04  0.003191241    1.189    0.159
         8 -11.1785      3.6197      2.6849   8.6325627021e+01   7.4109247031e+01    0.4473236    0.2093796  10.87  0.002550852    2.223    0.550
         9 -10.0049    168.9480     15.0660   3.9938759675e+01   4.0872710593e+01     0.311449    0.1905591  -2.78  0.001206477    2.507    0.601
        10 -10.9005    120.9918     10.0355   4.5933361609e+01   5.2893018177e+01     0.334379    0.1883799  19.33  0.001549247    2.416    0.586
        11 -11.2873    116.6542     14.2367   4.8295895709e+01   5.3517921322e+01    0.3829791    0.2465946  31.90  0.001708374    1.633    0.388
        12 -10.3425    100.9787     12.5136   5.1174078439e+01   5.7238175690e+01    0.3708867    0.1693233  39.38  0.001558335    2.119    0.528
        13 -11.5060    104.3884      9.0482   4.9037731365e+01   5.6793446846e+01    0.3513913    0.1948539  44.00 0.0005394575    1.580    0.367
        14  -9.5655     49.7439     11.5889   6.7176067112e+01   6.7280862404e+01    0.1623274     0.109001  46.71 0.0009559398    1.701    0.412
        15 -11.9936     24.5150      7.4365   7.6864100779e+01   7.1339065255e+01     0.625504    0.3588286 -29.22  0.003519751    1.567    0.362
        16 -12.3071     14.8940      6.5881   8.1667435383e+01   7.2521647876e+01    0.6255857    0.4290509  -3.20  0.004047289    1.184    0.156
        17  -9.2638     77.6138      9.1751   5.6118939763e+01   6.2482649150e+01    0.1597027    0.1092587   1.13 0.0001285251    1.525    0.344
        18  -9.0592    233.6649      7.2027   3.1782822222e+01   2.6892135412e+01     0.142944    0.1063004 -29.01 0.0003064493    1.595    0.373
        19 -10.3947    200.5795      7.0592   3.4428764293e+01   3.4196089269e+01    0.2112248     0.158568  75.11 0.0003186995    1.216    0.177
        20 -11.6900    161.5327      5.5282   3.8202427041e+01   4.3575306069e+01    0.4591106    0.2768595  51.88  0.002461533    1.604    0.377
        21 -10.7902    139.7145      3.8892   4.0696603264e+01   4.8970326725e+01      0.36759    0.2349421  -7.68  0.001578175    1.987    0.497
        22  -9.8475     93.3895      7.1377   5.0903824392e+01   5.9382772066e+01    0.1677107    0.1112816 -35.32 0.0004367635    1.761    0.432
        23  -9.9202    100.9254      5.6685   4.8518115715e+01   5.7855639266e+01    0.1813065    0.1435164  53.72 0.0004657933    1.116    0.104
        24  -9.7682    148.1619     10.1662   4.1385761173e+01   4.6386882465e+01    0.1936786    0.1587311  51.48 0.0003273836    1.174    0.148
        25  -9.8281    197.4055      3.7399   3.3926568144e+01   3.5252509930e+01    0.1497155    0.1219169 -15.45 0.0009133499    1.591    0.371
        26  -9.9086    181.9781      3.7510   3.5412297290e+01   3.8851498064e+01    0.1743767    0.1443014  83.49 0.0004065582    1.043    0.041
        27 -10.2638    132.0919      4.2151   4.1990955813e+01   5.0764849179e+01    0.2061589    0.1521917  50.63 0.0009062901    1.217    0.178
        28 -10.2818     71.2663      3.0623   5.5323117329e+01   6.4287278891e+01    0.3124171    0.2374247  -9.73  0.002010879    1.347    0.258
        29  -9.3096     41.5222      3.5615   6.6634464390e+01   6.9457626816e+01    0.1210711   0.09105937  11.58 0.0001612034    1.051    0.049
        30  -9.4122    125.4538     12.4864   4.5934798834e+01   5.1620230683e+01     0.132855    0.1146841  50.89 0.0001267757    1.037    0.035
        31 -11.7739    247.3723    105.7829   5.1698470919e+01   1.0270216464e+01    0.4026746     0.242055  81.33  0.001774638    2.965    0.663
        32 -10.7730    146.6435     99.7894   6.8821093105e+01   3.3216239009e+01    0.2846706    0.2465893  24.51 0.0006508268    1.254    0.203
        33  -9.8481     62.4055    102.3069   9.4518045895e+01   4.8619550777e+01    0.1987443    0.1317203 -64.45 0.0007803023    1.563    0.360
        34 -10.9795     15.4177    101.1076   1.1042389786e+02   5.3644185025e+01    0.3073922     0.195645 -59.73  0.000854178    1.255    0.203
        35 -10.8573    142.4878    101.5060   7.0320896426e+01   3.3801746554e+01    0.3687039    0.2891904  17.58 0.0009327718    1.550    0.355
        36 -10.5628      4.1251     99.2614   1.1395193834e+02   5.4766860053e+01    0.3407404    0.1331123 -61.72  0.001174508    1.865    0.464
        37 -11.7582      4.2263     88.8120   1.1227403538e+02   5.7216167065e+01    0.7648467    0.2107355 -54.83  0.002654118    2.417    0.586
        38  -9.7864     34.3473     99.8305   1.0364787893e+02   5.2427297141e+01    0.2065744    0.1585986 -79.13 0.0005483052    1.384    0.277
        39 -10.9512     25.5538     96.9227   1.0615144165e+02   5.3892370014e+01    0.3744454    0.3503054 -54.25  0.002474607    1.118    0.106
        40  -9.9697    156.0200     96.9918   6.5831549909e+01   3.1628472521e+01    0.2237581    0.2169956 -27.16  0.001189285    1.033    0.032
        41 -10.2167     87.9810     97.3085   8.4726773890e+01   4.5819666670e+01     0.210318    0.1989999  13.05 0.0006345429    1.087    0.080
        42 -11.3069     75.4922     95.1167   8.8232634690e+01   4.8389351004e+01    0.4552517    0.3798277 -29.36  0.002118378    1.172    0.147
        43  -9.6420     39.4717     96.4859   1.0112923780e+02   5.2726707494e+01    0.2258937    0.1310861   3.17  0.001030169    2.378    0.579
        44  -9.0992    108.6795    101.2672   7.9454410631e+01   4.1064499641e+01     0.149336    0.1232228  81.18 0.0002517607    1.560    0.359
        45 -11.0421     52.5466     92.0624   9.5410852229e+01   5.2305597663e+01    0.3530155    0.2628379 -30.89  0.001895951    1.333    0.250
        46  -9.3895    122.6760     92.3491   7.2900663201e+01   4.0082154957e+01    0.1590656    0.1247868 -83.18 0.0007049055    1.749    0.428
        47  -9.7428     39.4741     92.4975   1.0022668296e+02   5.3669834037e+01    0.2087944    0.1343274  24.62 0.0009272227    1.755    0.430
        48 -10.3001     34.5877     91.5596   1.0178742077e+02   5.4370425297e+01    0.4242307    0.2074173   5.92  0.001759369    3.079    0.675
        49 -11.3098     19.6842     90.9320   1.0707918749e+02   5.5762261829e+01    0.4665216    0.2750822  40.72  0.001817303    2.082    0.520
        50  -9.2025     47.4903     89.5073   9.6593685358e+01   5.3498675387e+01    0.1403166    0.1199364 -39.97 -0.0001324084    1.033    0.032
        51 -10.1778     91.0534     87.6130   8.0945339936e+01   4.7418045380e+01    0.3236169    0.2497933  53.53 0.0006951027    1.506    0.336
        52  -9.4656    119.2689     86.5683   7.2128783931e+01   4.2001912025e+01    0.2191758     0.144216  34.02 0.0009506647    1.643    0.391
        53 -10.2061     25.4100     84.5541   1.0362606679e+02   5.6808167951e+01    0.2707299    0.1895708  65.16  0.001447779    2.036    0.509
        54 -10.0641    146.5664     83.2595   6.4122858903e+01   3.6483942266e+01    0.2489789    0.2407902  76.05 0.0004505048    1.060    0.057
        55 -10.0092     41.4850     82.5037   9.7040956791e+01   5.5768759923e+01    0.2253194    0.1942759 -43.58  0.001365387    1.031    0.030
        56 -11.9728     36.5253     78.0310   9.7782155140e+01   5.7287495515e+01    0.3736355    0.2805689  16.55  0.002174093    1.475    0.322
        57  -9.2611    100.2107     82.6168   7.6531052765e+01   4.6737317566e+01    0.2179966    0.1475831  39.47  0.001005634    1.504    0.335
        58 -10.7463    105.7873     78.4064   7.3514618863e+01   4.6469236019e+01    0.5370032    0.3792693   4.52   0.00236896    1.941    0.485
        59 -11.4809    249.6034     80.2763   4.5871914887e+01   1.3919731767e+01     0.267488    0.2079458 -59.84  0.001615922    1.193    0.161
        60  -9.1418    161.3949     81.7834   6.0381968573e+01   3.3254376748e+01    0.1511994     0.115565  85.82 0.0006849421    1.627    0.385
        61 -10.4119    177.0339     78.6019   5.6363426116e+01   3.0096263182e+01    0.2452089    0.2045088 -31.54  0.000218717    1.234    0.190
        62 -10.5474      5.7570     77.3334   1.0963515247e+02   5.9771546515e+01    0.2313361    0.1870612  50.76  0.001010053    1.592    0.372
        63 -10.9882    146.6522     74.9299   6.1640972698e+01   3.7990056944e+01    0.3298682    0.2594984  22.67 0.0004171849    1.506    0.336
        64 -10.3533     98.8150     76.2904   7.4975114380e+01   4.8288737533e+01    0.4048705    0.2402046 -33.30  0.001762173    1.752    0.429
        65 -11.8913     21.2768     72.1219   1.0233548401e+02   5.9943267902e+01    0.4997236    0.3102673 -62.27   0.00276694    1.485    0.327
        66 -10.8050    115.5873     71.6388   6.8507495980e+01   4.5693392627e+01    0.4815457    0.2752897  30.90  0.001214238    2.136    0.532
        67  -9.6574      3.8439     72.6641   1.0946094629e+02   6.0918753567e+01    0.2611758   0.08259936 -53.87  0.001128838    2.146    0.534
        68 -10.8691     52.6079     71.4124   8.9643909139e+01   5.6893766344e+01    0.3128641    0.2416771 -17.46 0.0006890186    1.286    0.222
        69 -10.4397     57.0297     69.1167   8.7225450593e+01   5.6785523356e+01    0.2649761    0.2164999  32.81 0.0008451456    1.349    0.258
        70 -11.6992     56.1554     63.3722   8.5700570080e+01   5.8071783071e+01    0.5956779    0.3711509 -43.39  0.001454787    1.468    0.319
        71 -11.3327     31.2675     70.8386   9.7954788596e+01   5.9380728825e+01    0.3565281    0.2139229 -29.43  0.001151965    1.662    0.398
        72 -10.8809     71.1874     69.1897   8.1966076524e+01   5.4662403345e+01    0.5276448    0.1767512  39.15  0.001886705    3.106    0.678
        73 -10.6816     23.8840     60.1509   9.8054044989e+01   6.2311106249e+01    0.2220946    0.1498218 -16.86 0.0005530533    1.501    0.334
        74  -9.3241     69.4129     76.7830   8.5025598219e+01   5.3378548078e+01    0.2135592    0.1204982 -37.48 0.0009532493    1.716    0.417
        75 -12.1345     15.5246     62.1095   1.0219439634e+02   6.2535208934e+01    0.8120887    0.4548988  -0.01  0.003773602    2.106    0.525
        76 -10.8697     39.9368     66.5183   9.3192281037e+01   5.9431713395e+01    0.2920764    0.2316006  -7.19   0.00113693    1.266    0.210
        77  -9.6156    122.2509     65.9554   6.4853585001e+01   4.5236114064e+01    0.2046437    0.1840063 -27.45 0.0003852859    1.125    0.111
        78 -11.9317    248.1698     64.2087   4.2571451869e+01   1.6616650931e+01     0.329239    0.2334903 -84.85  0.001911642    1.543    0.352
        79  -9.6670    148.3780     65.3278   5.8365610418e+01   3.9231089497e+01     0.229797    0.1757585  16.51  0.001087682    1.662    0.398
        80  -9.3107    131.9213     62.8493   6.1394716437e+01   4.3545089632e+01    0.1890416    0.1698335 -77.23  0.001004909    1.264    0.209
        81 -11.5476     33.6150     58.6021   9.3398953054e+01   6.1732207042e+01    0.5102934    0.2788332 -37.88  0.001653008    1.594    0.373
        82 -11.3708     29.2159     59.3690   9.5523701870e+01   6.2002349138e+01    0.3278764    0.2717574 -86.14  0.001593446    1.738    0.425
        83 -10.6292     78.3041     60.4881   7.6465712598e+01   5.5140505682e+01    0.2728408    0.2403097 -64.40 0.0007038122    1.464    0.317
        84  -9.6640    106.4426     59.7006   6.7153381729e+01   4.9784763406e+01    0.1867762    0.1734427  31.39 0.0006329888    1.056    0.053
        85 -11.8078     87.7377     57.4977   7.2191500601e+01   5.3948154075e+01    0.6471126    0.3749977  32.68  0.002348569    1.802    0.445
        86 -10.8301     87.0156     51.8821   7.0401751030e+01   5.5044516730e+01    0.3539981    0.2806503  14.65 0.0009184693    1.270    0.213
        87  -9.7566     95.9800     58.9720   7.0060803106e+01   5.2076334930e+01    0.2182269    0.1836425   9.79 0.0003189651    1.198    0.166
        88 -11.1374     99.5249     55.6063   6.7784738118e+01   5.1926725890e+01    0.5380454    0.3684783 -37.33  0.002681392    1.484    0.326
        89 -10.7890    104.5536     51.3173   6.4775950316e+01   5.1565156371e+01    0.5429332    0.2834107  52.49  0.002337945    1.961    0.490
        90 -10.1351    231.3237     57.3168   4.2924317574e+01   2.1083695545e+01    0.1223528    0.1037863  19.92 0.0007043513    1.668    0.400
        91 -10.5627      2.8426     56.5340   1.0631076347e+02   6.4469882429e+01    0.2259976    0.1389788 -56.14  0.000961014    1.296    0.229
        92 -11.8809    147.1481     53.8790   5.5123848536e+01   4.1341408969e+01    0.2900842    0.2517582  34.83  0.000251682    1.202    0.168
        93  -9.9937    152.3928     51.8805   5.3444609643e+01   4.0366103543e+01    0.2993082    0.1963833  73.75 0.0006517947    1.722    0.419
        94  -9.5789    133.4995     54.5363   5.8344345051e+01   4.4509823526e+01    0.2530361    0.1450285 -19.08  0.001029305    2.293    0.564
        95  -9.8419    225.3313    249.3162   8.3635752022e+01  -8.9168669231e+00    0.1236945   0.07438995   3.30 0.0007046557    1.684    0.406
        96 -10.7341     58.7985     50.9028   8.0281331794e+01   6.0055688294e+01    0.5154957    0.3687145  57.86  0.002627104    2.215    0.548
        97 -11.0979     58.3877     46.9934   7.8976469087e+01   6.0806741633e+01    0.3975479    0.2696965  52.37  0.002002995    2.113    0.527
        98  -9.4967    140.2123     52.3662   5.6132320560e+01   4.3240858877e+01    0.2030751    0.1349335  67.79 0.0005635499    1.637    0.389
        99 -10.4859    120.8300     54.9581   6.1591203498e+01   4.7388024505e+01    0.2463216    0.2257374 -23.47 0.0003551727    1.118    0.106
       100  -9.9298    161.0750     50.6116   5.1408906723e+01   3.8432480124e+01    0.2541437    0.1869469 -46.27 0.0007452608    1.392    0.282
       101  -9.3871    141.5002     45.0293   5.3524713407e+01   4.3992300716e+01    0.1960485    0.1424586 -29.77 0.0003862069    1.465    0.317
       102 -10.4208    145.4520     46.6693   5.3230101217e+01   4.2805624731e+01    0.3883151    0.1831594 -26.19  0.001415071    2.487    0.598
       103  -9.7044    144.8497     42.5315   5.2052234033e+01   4.3524350494e+01     0.254064    0.1845215  45.23  0.001299362    1.356    0.262
       104 -10.2945    152.5005     43.1396   5.0761606811e+01   4.1577658914e+01     0.237434    0.2056281 -72.61  0.001324189    1.225    0.184
       105  -9.7142    148.8219     41.2509   5.0877375450e+01   4.2729884395e+01    0.2582361    0.1913179  38.27 0.0006041485    1.441    0.306
       106  -9.6019     41.8098     53.8206   8.8321663531e+01   6.1783374709e+01    0.1931397    0.1481785 -19.57 0.0003824185    1.169    0.145
       107  -9.7461    208.8551     45.8886   4.2913040966e+01   2.7669026459e+01    0.1827317    0.1762858  76.78 0.0003211198    1.178    0.151
       108 -10.8681     76.5350     41.6669   7.0094969908e+01   5.8645329169e+01     0.438802    0.2486031 -18.27    0.0017451    2.133    0.531
       109  -9.8004    104.4456     43.2205   6.1893578203e+01   5.2813560232e+01     0.385981    0.1260112  40.60   0.00125856    3.417    0.707
       110 -10.6745     32.8827     41.8436   8.7969797419e+01   6.5032107245e+01    0.4031975    0.2511126  15.30   0.00228986    1.661    0.398
       111  -9.3487    118.0000     41.9812   5.7860983440e+01   4.9964011114e+01    0.2224778   0.08056679 -31.45 0.0007687656    2.916    0.657
       112 -10.1201     98.8398     41.5364   6.2880764610e+01   5.4256274798e+01    0.2689111    0.2351251 -26.43  0.001564523    1.192    0.161
       113 -10.5999    101.4282     38.0322   6.0830173312e+01   5.4195797221e+01    0.4063811    0.2403914  35.12  0.001690495    1.711    0.415
       114 -10.1287     13.1370     34.1651   9.4677623937e+01   6.8249356929e+01    0.2343894    0.1815919  64.14 0.0009860693    2.461    0.594
       115 -12.5655     11.2795     40.2088   9.7702352424e+01   6.7258017169e+01    0.4797103    0.3156347   9.61  0.001148671    1.603    0.376
       116 -10.9514     18.1313     38.1599   9.3628261121e+01   6.7119193714e+01    0.3203496    0.1887072 -36.15  0.001327527    1.371    0.270
       117 -10.9956     86.4973     38.0982   6.5351887019e+01   5.7276956114e+01    0.5108876    0.3892902 -53.30  0.002754108    1.748    0.428
       118 -11.1442     60.4312     27.4461   7.0178401153e+01   6.3529855749e+01    0.6035871    0.3044778  20.03  0.002602467    2.687    0.628
       119 -10.4234    242.8348    246.1605   8.0025260301e+01  -1.0745139237e+01    0.1676598     0.108808  -0.76  0.001081747    1.332    0.249
       120 -11.8698     79.8115     33.5240   6.5725832855e+01   5.9220785100e+01    0.3496028    0.2980407 -28.48 0.0002549306    1.259    0.206
       121 -10.5963     75.2014     32.8479   6.7023311546e+01   6.0182878527e+01    0.2752548    0.2151947  34.40 0.0007879454    1.199    0.166
       122 -11.8792     48.9143     39.6377   8.0004947544e+01   6.3430839567e+01    0.3694831    0.2756474  25.47 0.0001420429    1.334    0.251
       123 -11.6560     56.9117     37.6203   7.5871079148e+01   6.2586690158e+01    0.4930248    0.3032764  -4.97  0.001945109    2.000    0.500
       124  -9.8581    157.4751     40.0194   4.8913900631e+01   4.0777206580e+01    0.2062243    0.1788336  63.80 0.0003916413    1.082    0.076
       125  -9.5806    174.5630     39.1019   4.5847100649e+01   3.6718030580e+01     0.233305     0.149515  59.41 0.0005657609    1.476    0.322
       126  -9.9065     40.6219     39.4465   8.3542696443e+01   6.4554791995e+01    0.2213558    0.1112864  17.19  0.001026219    2.383    0.580
       127  -9.7836    220.9522     36.7151   3.9359385951e+01   2.6165253658e+01    0.1787743    0.1482204 -80.53 0.0003893085    1.085    0.078
       128 -10.8409    235.0187     33.2816   3.7206977153e+01   2.3560015406e+01    0.2258355    0.1603425   3.82  0.001165005    2.632    0.620
       129 -10.0576    145.9993     34.7862   4.9394739866e+01   4.4252177201e+01    0.4871285   0.07114745  57.65  0.001312556    4.792    0.791
       130  -9.9721    124.6656     45.7744   5.7534665345e+01   4.7888735416e+01    0.2936827     0.196318 -23.46  0.001341672    1.649    0.394
       131  -9.7546    108.1347     29.6455   5.5908825260e+01   5.3802507611e+01    0.3305566    0.2508363 -62.52   0.00175035    1.786    0.440
       132  -9.7492    102.7547     27.8189   5.6618649598e+01   5.5215151559e+01    0.3393092    0.1351767  60.41   0.00128546    2.830    0.647
       133  -9.3823     94.6416     31.2981   6.0207845844e+01   5.6531511113e+01    0.1291348    0.1082277 -82.29 0.0007034848    1.707    0.414
       134 -10.3988     29.8784     30.5424   8.4926152005e+01   6.7316626807e+01    0.2608847    0.2215542 -52.94 0.0004080629    1.633    0.387
       135 -10.0532      3.3416    246.3260   1.2597715720e+02   2.1628626282e+01   0.09211203   0.07737412 -58.05 0.0007051195    1.734    0.423
       136 -11.0979    167.4412     29.1879   4.4128094620e+01   3.9687526516e+01    0.2433525    0.2291761  49.53 0.0004418761    1.149    0.129
       137 -10.0423    150.5008     29.4804   4.6935853712e+01   4.3796154179e+01    0.2356744     0.138272  -9.20  0.001034086    2.452    0.592
       138 -10.2062    143.1444     29.4883   4.8251854475e+01   4.5587668014e+01    0.2411024    0.1882943  37.25 0.0003535069    1.340    0.254
       139 -11.4543      3.0576     27.2559   9.7435322740e+01   7.0190461937e+01    0.4026478    0.2094928 -27.95  0.002044795    1.634    0.388
       140 -10.5769     22.6292     28.3792   8.7609199958e+01   6.8432827468e+01     0.264683    0.2326824  64.46  0.001751399    2.037    0.509
       141  -9.5610    228.1243     27.4443   3.6565352998e+01   2.5759972629e+01    0.1766031    0.1121246  73.24 0.0006282683    1.536    0.349
       142 -10.0663     36.0850     25.4794   7.9781957079e+01   6.7385779245e+01    0.1894285    0.1391297 -22.64 0.0006746271    1.172    0.147
       143  -9.8579    179.9607     25.0456   4.1239661247e+01   3.7130151955e+01    0.1988014    0.1734412 -85.38 0.0003273653    1.042    0.041
       144  -9.8837    176.4331     22.8231   4.1098605402e+01   3.8233318547e+01     0.192927     0.156151  62.70 0.0008493374    1.185    0.156
       145 -10.0873     49.8885     24.3701   7.3104601798e+01   6.5631277364e+01    0.2492847    0.1629605 -19.20  0.001167757    1.439    0.305
       146 -10.5754     12.5268     24.8422   9.1403605820e+01   6.9935155528e+01    0.2171504    0.1588927  -9.72  0.000522827    1.174    0.148
       147  -9.0791    204.6239     24.6846   3.8250557495e+01   3.1345392442e+01    0.1296555   0.09343489  41.07 0.0002060006    1.800    0.444
       148  -9.2713    147.4941     24.4524   4.5897354917e+01   4.5103044280e+01    0.1361153    0.1220187  62.02 0.0002031073    1.028    0.027
       149  -8.9162    185.2622     23.6809   4.0209417939e+01   3.6013339584e+01    0.1346014   0.08917349 -64.11 0.0002176085    1.549    0.354
       150 -10.2411    123.3251     22.0559   4.9668523142e+01   5.1168682810e+01     0.353477    0.1955275  24.37   0.00138477    2.516    0.603
       151  -9.5458     68.3179     22.9081   6.5245769215e+01   6.2753681289e+01    0.1746397    0.1437869   2.45 0.0004283914    1.089    0.082
       152  -9.8998    250.2974    232.3495   7.6428583050e+01  -9.9273775710e+00    0.1238096   0.07281364  -3.52  0.000699867    1.683    0.406
       153 -10.6569    248.5754    225.2215   7.5491261518e+01  -8.7727357543e+00    0.2184109     0.101587 -36.93  0.001147258    2.107    0.525
       154 -10.3368    162.0457     20.3615   4.2385201215e+01   4.1997445299e+01    0.2491093    0.1864814 -32.25 0.0005538219    1.456    0.313
       155 -10.5648    160.3570     17.2902   4.1736737761e+01   4.2730854792e+01    0.2361747    0.1661587  57.32 0.0006791754    1.312    0.238
       156  -9.3197     55.9897    216.9101   1.1395639648e+02   2.1792453842e+01    0.1452811     0.119978  80.90            0    1.073    0.068
       157  -9.3655    123.9987    206.0123   9.7440975686e+01   1.4080951095e+01    0.1576892    0.1483279  48.49  0.000939115    1.022    0.022
       158  -9.3349    100.9995    175.9943   9.8119269448e+01   2.4615090414e+01    0.1613471    0.1532704  86.98 0.0009100438    1.019    0.019
       159 -10.5284    130.7517     19.8572   4.7432680853e+01   4.9638338647e+01     0.393932    0.1896344  69.09  0.001503376    2.138    0.532
       160  -9.7123    116.6324     19.1879   5.0080923445e+01   5.3032600150e+01    0.1754759    0.1253968  -4.23  0.000943035    1.632    0.387
       161  -9.8173     80.2893     18.6420   5.9388271079e+01   6.0977499485e+01    0.1191869    0.1017266 -61.84 0.0004378886    1.685    0.406
       162  -8.9268     63.5114     18.5286   6.5049312602e+01   6.4146983418e+01    0.1284931    0.1051013  14.09 0.0008098257    1.017    0.017
       163  -9.5671     55.4984     17.8562   6.7817017765e+01   6.5598121525e+01    0.1751395    0.1124246 -24.87 0.0009404091    1.516    0.341
       164  -9.0738    232.7621     17.0136   3.3909290941e+01   2.5998190202e+01    0.1470491   0.09112863 -39.60 0.0002276374    1.522    0.343
       165  -9.9153    181.9889     15.6537   3.8497472087e+01   3.7674262565e+01    0.1855297    0.1464576  80.18 0.0004207132    1.126    0.112
       166 -10.3989    173.9901     16.2735   3.9629433769e+01   3.9530120741e+01    0.1858941    0.1509134  78.70 0.0003750117    1.095    0.087
       167 -11.4059      6.1718    144.2863   1.1874929214e+02   4.3775068246e+01     0.541558    0.2317906 -61.60  0.002667404    1.891    0.471
       168 -10.6462      6.9538    136.6385   1.1776460287e+02   4.5576519122e+01    0.4325418      0.20259 -87.65  0.002032971    2.100    0.524
       169 -12.0016     13.2921    133.7932   1.1568000147e+02   4.5828170728e+01    0.5252263    0.4135839 -64.33  0.002090916    1.115    0.103
       170 -11.3892    111.7968     13.3954   4.9025671977e+01   5.4717530459e+01    0.3185155    0.1965938  66.45   0.00146159    1.601    0.375
       171 -10.1410    157.8492     19.8607   4.2854730982e+01   4.3073728288e+01    0.2381795    0.1908656 -42.75 0.0004240671    1.328    0.247
       172 -10.2510     92.3069     14.1585   5.4037241042e+01   5.8965559120e+01    0.2063987    0.1479125  15.78  0.001119253    1.443    0.307
       173  -8.7472     44.6656    145.3221   1.0832341335e+02   4.0091957242e+01    0.1441838   0.09594147  70.32 0.0007050248    1.706    0.414
       174 -11.5277     42.2158    128.9135   1.0646800883e+02   4.4476959930e+01     0.278084    0.2587782  37.22            0    1.222    0.182
       175  -9.4303     61.3133     11.6515   6.2693548378e+01   6.5315639521e+01    0.1102348   0.09942305 -61.22 0.0007046558    1.720    0.418
       176 -12.5709     12.2650    125.5383   1.1497335534e+02   4.7923868771e+01    0.3711458    0.3474458  74.64 0.0005159852    1.200    0.166
       177  -9.6036     55.9761    125.4870   1.0162624431e+02   4.3759537608e+01    0.1934935    0.1078931  55.59 0.0005200494    2.342    0.573
       178 -10.9047     91.1564    121.2221   8.9877806252e+01   3.9635283550e+01    0.6584405    0.2909067 -41.15  0.002341577    2.501    0.600
       179 -10.9052     75.4549    120.0001   9.4412571205e+01   4.2456059301e+01    0.2434759    0.2149129  33.88 0.0002198443    1.218    0.179
       180 -11.1604     33.3515    119.4751   1.0763275513e+02   4.7714187558e+01    0.2794119    0.2355929 -21.12  0.001118497    1.366    0.268
       181 -10.2966     28.1624    119.7325   1.0930691598e+02   4.8117858530e+01    0.2598119     0.206941  42.81  0.001311754    1.435    0.303
       182 -10.3403     20.2451    118.2239   1.1155032214e+02   4.9137009978e+01    0.3042626    0.2195472 -78.14   0.00176737    1.249    0.199
       183 -12.2485    248.0134    117.3594   5.4121394074e+01   8.2361108650e+00    0.3312213    0.2482288 -55.61  0.001880055    1.389    0.280
       184 -11.0479     39.5380    116.2604   1.0509442643e+02   4.7908853488e+01    0.2918916    0.1807465  -8.79  0.001354403    2.357    0.576
       185 -10.4933      2.9903    113.3346   1.1623741606e+02   5.1465349682e+01    0.3009606    0.1885851  -5.97  0.001565728    2.133    0.531
       186 -10.1912      7.2998    106.5921   1.1397085379e+02   5.2840139081e+01    0.2444582    0.1438828 -67.40 0.0006299475    1.346    0.257
       187 -11.0652      8.0950    112.4811   1.1453724444e+02   5.1373623753e+01    0.5551092    0.1871984 -61.19  0.002143111    2.139    0.532
       188 -11.3488     12.7105    106.3726   1.1217282980e+02   5.2557967316e+01    0.3426461    0.2724909 -29.04  0.001418272    1.381    0.276
       189  -9.8771    116.0488    116.9254   8.1532608639e+01   3.6041185993e+01    0.2295138    0.2176363 -28.43 0.0003270735    1.048    0.046
       190 -10.3046     16.7000    109.9256   1.1141878535e+02   5.1426657839e+01    0.2030489    0.1640297 -38.03 0.0007116557    1.278    0.218
       191  -9.3267     21.4549    108.5248   1.0963964374e+02   5.1417048054e+01     0.132397    0.1089084 -61.43 8.361386e-05    1.007    0.007
