#   1 NUMBER                 Running object number                                     
#   2 MAG_AUTO               Kron-like elliptical aperture magnitude                    [mag]
#   3 X_IMAGE                Object position along x                                    [pixel]
#   4 Y_IMAGE                Object position along y                                    [pixel]
#   5 X_WORLD                Barycenter position along world x axis                     [deg]
#   6 Y_WORLD                Barycenter position along world y axis                     [deg]
#   7 A_WORLD                Profile RMS along major axis (world units)                 [deg]
#   8 B_WORLD                Profile RMS along minor axis (world units)                 [deg]
#   9 THETA_WORLD            Position angle (CCW/world-x)                               [deg]
#  10 FWHM_WORLD             FWHM assuming a gaussian core                              [deg]
#  11 ELONGATION             A_IMAGE/B_IMAGE                                           
#  12 ELLIPTICITY            1 - B_IMAGE/A_IMAGE                                       
         1 -11.9255    212.8027      1.7843   6.0768034130e+01   3.1920289810e+01     1.186496    0.6296973  76.02  0.004086051    1.634    0.388
         2 -13.2034    188.7384     25.7915   6.9520627009e+01   3.5141463150e+01     1.565451     1.293431 -18.47  0.006767074    1.466    0.318
         3 -12.6778    195.3411     19.5283   6.7010341571e+01   3.4239272469e+01     1.255105    0.6525705 -47.88  0.004276595    1.989    0.497
         4 -12.7655    202.3157     11.1668   6.4084271107e+01   3.3457821297e+01    0.8808827    0.8414925 -25.97  0.002050045    1.296    0.229
         5 -11.3776     20.9436     35.8292   1.1843006304e+02   6.5610367789e+01    0.3596496    0.1502465 -44.46  0.001969605    1.881    0.468
         6  -9.2912     40.6654      8.6834   9.9663217745e+01   6.7434334039e+01    0.1185325   0.07030896   2.54 0.0007047761    1.693    0.409
         7 -12.1163     48.5027    225.5768   1.4348841778e+02   2.2397307676e+01    0.3581182    0.2884773 -60.12 0.0007425267    1.636    0.389
         8 -11.7341    141.1352    248.5264   1.2895809173e+02   3.9481339148e+00    0.6249712    0.3607368  54.82   0.00341644    1.559    0.359
         9 -11.3166    127.0068    249.0949   1.3163062377e+02   6.2248644477e+00    0.3554786    0.3029037  35.20  0.002239218    1.347    0.258
        10 -13.5597     34.5762    246.8528   1.4742910927e+02   2.0040679437e+01     1.931786     1.027845  50.64   0.01266107    1.580    0.367
        11  -9.5193    228.1776    204.6799   1.0523451485e+02  -4.4109563667e+00    0.2242767      0.21374 -68.98 0.0006645895    1.395    0.283
        12  -9.9251    192.0808    192.9811   1.0999410443e+02   4.3280015926e+00    0.6092247    0.3226236 -66.97  0.001763248    5.687    0.824
        13 -11.0360     71.9851    192.4333   1.3550842624e+02   2.6208332281e+01    0.4053542    0.2504907 -45.12  0.001993883    2.206    0.547
        14 -11.0207     76.5399    185.7519   1.3367105698e+02   2.7036559084e+01    0.2994688    0.2359333 -54.72 0.0009225467    1.425    0.298
        15  -8.3495    181.5234    192.4468   1.1205039663e+02   6.5124776954e+00    0.1429022    0.1322982  32.01 5.466407e-05    1.033    0.032
        16 -10.6556     84.6439    173.8457   1.3015952573e+02   2.8523791129e+01    0.3110969    0.2355229 -70.07 0.0004043222    1.218    0.179
        17 -10.7507    126.7350    173.9918   1.2052146849e+02   2.1196137323e+01    0.5139731    0.2029028  42.41  0.001892575    2.484    0.597
        18 -12.3084     87.3673    164.1063   1.2797547660e+02   3.0356730065e+01     2.329565    0.8553928  57.15  0.003784518    4.871    0.795
        19 -12.3273     67.5858    144.1640   1.2945028425e+02   3.7957952348e+01    0.8460584    0.5541691  77.21  0.002916578    1.867    0.464
        20 -12.6201     57.4297    128.5406   1.2932834010e+02   4.2938623972e+01     2.234209    0.7413301 -71.34  0.005721919    6.485    0.846
        21  -8.4705     44.3104    173.2950   1.3909580358e+02   3.4108369024e+01     0.116616   0.08955462 -48.54 0.0002791808    1.592    0.372
        22 -12.6124     72.5862    171.2720   1.3252814372e+02   3.0912407770e+01     0.485661    0.2803592 -45.87  0.001628289    2.106    0.525
        23 -11.9560     46.4076    148.9186   1.3544340132e+02   3.9476974023e+01    0.8382386    0.1729955 -54.02  0.002769249    4.050    0.753
        24  -8.9819    105.2544    145.1737   1.2010420096e+02   3.1800564095e+01    0.3334835    0.2284688 -28.23  0.001475069    2.088    0.521
        25 -11.3908     91.6977    148.7150   1.2420054877e+02   3.3278091854e+01    0.2834219    0.2537245 -34.91 0.0005814007    1.311    0.237
        26  -9.2325    134.3198    147.2514   1.1336797020e+02   2.5750879029e+01    0.5627878    0.1398887 -54.26  0.001356273    5.312    0.812
        27 -11.0200     57.3685    145.2721   1.3219844478e+02   3.9026778481e+01    0.4044739    0.1971789  43.57  0.001911907    2.201    0.546
        28  -9.4281    112.8214    135.2563   1.1607473081e+02   3.2732479057e+01    0.3729852    0.2553307 -20.17  0.001273205    2.328    0.570
        29 -10.3398     69.5735    134.7189   1.2724897180e+02   3.9911638545e+01    0.3146755    0.1926392  29.11  0.001009319    2.003    0.501
        30 -10.0287    100.1660    132.3351   1.1871336503e+02   3.5702680404e+01    0.3007441    0.2361879 -34.33 0.0008497807    1.445    0.308
        31  -9.7325    102.9362    149.0354   1.2145665492e+02   3.1303797955e+01    0.3376471    0.3008209 -44.55  0.001064785    1.217    0.179
        32 -10.8876     40.9776    128.5469   1.3369455477e+02   4.4794006584e+01     0.266889     0.143516 -52.68  0.001379986    1.636    0.389
        33 -12.8895     83.6765    237.7535   1.3829610224e+02   1.5150968651e+01     1.151795    0.5165275  75.09  0.002492935    3.729    0.732
        34 -12.6409     73.5290    227.1125   1.3908657294e+02   1.8700789041e+01     1.251827    0.4708179  66.34  0.003810781    4.722    0.788
        35  -8.8434    108.8486    122.8236   1.1426460347e+02   3.6341927270e+01    0.2100617    0.1953787 -23.64 0.0003928387    1.177    0.150
        36  -9.3703    117.7864    128.2258   1.1319644710e+02   3.3405835150e+01    0.2414291    0.1778815 -11.85  0.001048571    2.054    0.513
        37 -10.2735    168.2917    113.0778   9.7122279803e+01   2.5719768913e+01    0.4062133    0.3198312 -75.86 0.0009017278    1.525    0.344
        38 -14.5005      7.5473    240.3641   1.5126389599e+02   2.4236595673e+01     2.166079    0.8001546 -70.52   0.01132279    2.376    0.579
        39  -8.9353    205.0446    110.4968   8.8905918512e+01   1.7520924084e+01    0.2401691    0.1512104  52.10  0.001043703    1.628    0.386
        40 -13.5936     11.8034    206.7604   1.4851977623e+02   3.0342745127e+01     1.054963    0.7867879  48.19   0.00427534    1.513    0.339
        41 -10.1054     64.5140    250.1267   1.4276509162e+02   1.5599360320e+01     0.248599    0.1789901  34.32   0.00162172    1.902    0.474
        42 -15.0280     56.2490    211.9445   1.4082152598e+02   2.4173887888e+01     8.003406     1.591943  48.53   0.02840777    4.238    0.764
        43 -11.3684     69.0699    234.7826   1.4063818297e+02   1.7836873030e+01    0.4545888     0.261249  89.25  0.001795854    1.736    0.424
        44  -9.7267    126.1669     53.0343   8.9678442826e+01   4.6584315491e+01    0.3877876    0.2765319 -87.50  0.001519583    2.295    0.564
        45 -10.5794    164.9674    224.3257   1.2095188269e+02   3.8582110969e+00    0.2982944    0.2603889  72.57  0.001829648    1.247    0.198
        46  -9.9369    198.8330    247.2828   1.1807388095e+02  -5.7054040536e+00     0.202572    0.1410066  49.67  0.001207299    1.442    0.306
        47 -10.8638     70.4846    243.9627   1.4122120688e+02   1.5901069413e+01    0.3163132     0.208961 -49.85  0.001904556    2.281    0.562
        48 -10.4897    142.5697    240.9678   1.2770677409e+02   4.9708067129e+00    0.3063127     0.150873  55.45 0.0009136897    2.026    0.506
        49 -15.7593      9.3337    156.5946   1.4486357712e+02   4.1297776777e+01     16.97034     1.905949 -72.28  0.009095625    7.663    0.870
        50 -12.4036     49.6706    232.1549   1.4383050782e+02   2.0954050195e+01    0.6131002    0.3364606  52.82  0.003748758    1.535    0.349
        51  -9.8153     59.8844    235.7946   1.4235422098e+02   1.8907270614e+01     0.163696    0.1364882  73.79 0.0005207334    1.189    0.159
