#   1 NUMBER                 Running object number                                     
#   2 MAG_AUTO               Kron-like elliptical aperture magnitude                    [mag]
#   3 X_IMAGE                Object position along x                                    [pixel]
#   4 Y_IMAGE                Object position along y                                    [pixel]
#   5 X_WORLD                Barycenter position along world x axis                     [deg]
#   6 Y_WORLD                Barycenter position along world y axis                     [deg]
#   7 A_WORLD                Profile RMS along major axis (world units)                 [deg]
#   8 B_WORLD                Profile RMS along minor axis (world units)                 [deg]
#   9 THETA_WORLD            Position angle (CCW/world-x)                               [deg]
#  10 FWHM_WORLD             FWHM assuming a gaussian core                              [deg]
#  11 ELONGATION             A_IMAGE/B_IMAGE                                           
#  12 ELLIPTICITY            1 - B_IMAGE/A_IMAGE                                       
         1 -13.2213    227.4362     29.2535   3.6330717173e+01   2.5955473030e+01    0.8827004    0.6994917  43.14  0.005570933    1.648    0.393
         2 -13.0166     45.1624     15.9430   7.0472753216e+01   6.6828858164e+01     1.416521    0.6032048  40.55  0.006919167    2.326    0.570
         3 -12.4609     30.6437      7.7452   7.3111493679e+01   6.9880842373e+01    0.8777926    0.4508348  34.66  0.005019225    1.889    0.471
         4 -12.1629     16.0153      9.8973   8.1715295723e+01   7.1296617948e+01    0.5775551    0.4152045  36.73  0.003826064    1.966    0.491
         5 -11.1289     72.3061      6.5111   5.6049955848e+01   6.3190018492e+01    0.7344792    0.3568057  24.76  0.003445827    2.342    0.573
         6 -12.1867    167.2816      4.0548   3.6554015900e+01   4.2157488643e+01    0.5832554    0.3136055  60.94   0.00307647    1.623    0.384
         7 -10.5596    199.0756      3.2377   3.3071254104e+01   3.4945894242e+01    0.2352099    0.2074785  32.30  0.001607426    1.465    0.317
         8 -10.9526     89.9392      1.7792   4.9112154358e+01   6.0028955972e+01    0.5675185    0.1586803  59.29  0.002161172    3.186    0.686
         9 -10.3385     83.7863    227.7958   1.0832206328e+02   1.5646131808e+01    0.4667422    0.2514439 -45.29  0.002297491    2.407    0.585
        10 -10.7270    140.0992    249.4214   9.9265780164e+01   3.5517420978e+00     0.239418    0.1764703  49.96  0.001470728    1.384    0.277
        11  -8.6268     26.0363    250.0463   1.2140700684e+02   1.8254657344e+01    0.1308153   0.09881812  61.98  0.000357034    1.048    0.045
        12 -12.4378     63.1287    195.8048   1.0928040136e+02   2.5274978639e+01     1.127843    0.6787575  59.71  0.004127565    1.735    0.424
        13 -12.5928     46.4447    182.9553   1.1174184625e+02   3.0261598683e+01    0.6455939    0.5272594 -85.87  0.001531693    1.093    0.085
        14 -13.6073     47.2156    198.7130   1.1323453435e+02   2.6533818975e+01     2.496546      1.22835 -89.27    0.0112911    2.420    0.587
        15 -13.7713      2.8788    125.8322   1.1665228446e+02   4.7872953678e+01     3.644482    0.8703743 -76.76   0.01178252    4.271    0.766
        16 -13.9842      3.1886    181.2803   1.2153596939e+02   3.4727149376e+01     4.410771    0.4606499 -76.45   0.01049891    8.938    0.888
        17 -14.1724     28.6269    186.0351   1.1622554028e+02   3.1416138530e+01     2.054701    0.8739395  87.77  0.007932355    2.944    0.660
        18 -15.2012     15.4120    178.8036   1.1860978347e+02   3.4306288787e+01     5.806788    0.6624844 -69.48   0.01773457    5.089    0.804
        19 -11.3113     54.4689    175.3659   1.0887329365e+02   3.1139079516e+01    0.2922228    0.2482802 -40.17 0.0006898253    1.362    0.266
        20 -10.5510     66.6138    165.0763   1.0433122581e+02   3.2120345103e+01    0.2589705    0.2253408 -65.85 0.0003755095    1.082    0.075
        21 -12.7795     52.1920    161.6728   1.0763782848e+02   3.4739757894e+01    0.5351852    0.3252696 -41.60  0.001522658    1.902    0.474
        22  -8.5293    136.0204    164.7220   8.6296018301e+01   2.1047588497e+01    0.1800103    0.1316166  37.78 0.0003711283    1.365    0.267
        23 -11.7833     75.3060    158.0507   1.0089158216e+02   3.2669726424e+01    0.5490475    0.5163485 -49.91  0.002671206    1.092    0.084
        24 -12.5536     67.8255    143.9933   1.0053546586e+02   3.7182325385e+01    0.7637188    0.5470207  74.11  0.002926969    1.723    0.420
        25 -13.6310     13.9045    208.6339   1.2115159433e+02   2.7766383013e+01     0.976145    0.5156208  49.09  0.001838736    1.693    0.409
        26 -10.8198     44.8555    145.1939   1.0726015989e+02   3.9646160956e+01    0.3602894     0.173054 -85.58  0.001348912    2.995    0.666
        27  -9.5322     91.4176    144.4827   9.3932078479e+01   3.3602671683e+01    0.2635912    0.2558748 -56.03 0.0008192749    1.018    0.018
        28 -11.5695     78.8403    142.6135   9.7128652776e+01   3.5985378072e+01    0.3315105    0.2602888 -51.61 0.0004871505    1.197    0.165
        29  -8.8198     94.8108    141.1808   9.2299114786e+01   3.3862935981e+01    0.2058943    0.1733843 -23.93 0.0003766382    1.306    0.234
        30 -11.2810     34.7668    139.1399   1.0923111691e+02   4.2174676891e+01    0.2572431    0.2176026  69.49  0.001352887    1.253    0.202
        31 -11.2974     56.1266    131.0977   1.0162879379e+02   4.1887520914e+01    0.4152181    0.2148661 -67.34  0.001788278    1.914    0.478
        32 -10.2358    105.7423    131.6895   8.7118660088e+01   3.4292219405e+01    0.3768456    0.3032112 -25.62 0.0009874988    1.351    0.260
        33 -10.0953     91.8142    128.5075   9.0408589705e+01   3.7441686287e+01    0.2986045    0.2601359   3.81 0.0006401918    1.272    0.214
        34 -11.7736     37.9245    122.3234   1.0563639875e+02   4.6049765356e+01     0.351038    0.3247148  58.68  0.002192745    1.220    0.180
        35 -10.1142    244.0000    121.0150   5.4592456941e+01   8.9603299863e+00    0.2329638   0.06628677 -37.88 0.0008070645    2.975    0.664
        36  -9.2580    103.7994    120.1415   8.4919157266e+01   3.7378066594e+01    0.2124193    0.2039739 -74.32 0.0003119036    1.120    0.107
        37 -10.5968     52.3104    116.0219   9.9896723074e+01   4.6074397558e+01     0.383181    0.2338222  88.41    0.0015874    2.614    0.617
        38  -8.8120    203.3370    111.3121   5.9033315165e+01   1.8535913650e+01    0.1479056    0.1132062   4.25 0.0006506819    1.688    0.408
        39 -14.1982     21.8600    201.9839   1.1904450673e+02   2.8466739175e+01     1.244146    0.8094264  71.61    0.0048716    1.372    0.271
        40  -9.9433     31.6626     89.5201   1.0129291235e+02   5.4545654418e+01    0.3145229    0.2101758 -51.76  0.001733451    1.239    0.193
        41  -8.9701     52.4984     89.5302   9.3740619922e+01   5.2362034218e+01    0.1422121    0.1212245 -34.93  0.000224698    1.037    0.035
        42 -10.6871      2.1027     87.4954   1.1160736314e+02   5.7024941781e+01    0.3639105    0.2036526 -61.82  0.002048413    1.370    0.270
        43 -10.0787      8.5646     83.6123   1.0856740457e+02   5.7583311348e+01    0.2780956    0.1691162 -37.63  0.001588374    1.489    0.328
        44 -12.5825    127.6549    230.4412   9.9315337544e+01   8.7466086137e+00    0.7891077    0.2453528  40.50  0.003039149    2.776    0.640
        45 -10.5555      2.0453     61.8868   1.0662513731e+02   6.2755008092e+01    0.3830907     0.147379 -64.94  0.001781141    2.283    0.562
        46 -12.2684    211.2540     40.7304   4.0658027799e+01   2.8014007246e+01    0.4989117    0.3519692 -48.09  0.002861143    1.309    0.236
        47 -10.7133     87.9750     38.7053   6.4373166752e+01   5.6369708635e+01     0.244442    0.1723269 -42.59 0.0009619729    1.646    0.392
        48 -11.1196     96.1521    249.0106   1.0804472280e+02   9.9021333709e+00    0.3123995    0.1929663  21.77  0.001699655    1.973    0.493
        49 -11.4411    119.0295    243.2694   1.0277320796e+02   7.6920611994e+00    0.2315575    0.1917253  10.89  0.001472888    1.365    0.267
        50 -11.0359    132.4669    247.0658   1.0050585179e+02   5.0651388648e+00    0.2384588    0.1594317  21.65  0.000801752    1.548    0.354
        51 -10.1624    152.9944    229.8213   9.3867452190e+01   4.9568912817e+00    0.2210511    0.1416473   9.09   0.00108511    2.012    0.503
        52 -10.9386    109.1529    246.1019   1.0511889613e+02   8.6073524546e+00    0.1875684    0.1639747  16.09  0.001253845    1.273    0.215
        53  -9.6020     12.7967    243.9956   1.2341248673e+02   2.0723623824e+01    0.1512932    0.1269627 -88.13 0.0006315502    1.271    0.213
        54 -10.6722    110.5605    238.2781   1.0391568305e+02   9.8312816499e+00    0.2207742    0.1262032 -65.87  0.001143632    2.137    0.532
