#   1 NUMBER                 Running object number                                     
#   2 MAG_AUTO               Kron-like elliptical aperture magnitude                    [mag]
#   3 X_IMAGE                Object position along x                                    [pixel]
#   4 Y_IMAGE                Object position along y                                    [pixel]
#   5 X_WORLD                Barycenter position along world x axis                     [deg]
#   6 Y_WORLD                Barycenter position along world y axis                     [deg]
#   7 A_WORLD                Profile RMS along major axis (world units)                 [deg]
#   8 B_WORLD                Profile RMS along minor axis (world units)                 [deg]
#   9 THETA_WORLD            Position angle (CCW/world-x)                               [deg]
#  10 FWHM_WORLD             FWHM assuming a gaussian core                              [deg]
#  11 ELONGATION             A_IMAGE/B_IMAGE                                           
#  12 ELLIPTICITY            1 - B_IMAGE/A_IMAGE                                       
         1 -10.2993     24.6665     16.4805   1.0920522218e+02   6.8152416672e+01     0.372491    0.3046005  -0.08 0.0007277899    1.225    0.183
         2  -8.8232     31.7224     10.4918   1.0367487439e+02   6.8196468571e+01    0.3619434    0.1556733 -20.84  0.001612279    2.606    0.616
         3 -10.0760      9.3130     19.7795   1.1724011761e+02   6.8978121206e+01    0.3357375    0.1813355   1.05 0.0006274141    1.980    0.495
         4  -9.8119     64.0590     14.3407   9.3043127012e+01   6.3381452141e+01     0.412764    0.2049968  28.27 0.0007668665    2.015    0.504
         5  -8.8751     50.7714     14.9401   9.8036459331e+01   6.5274103610e+01    0.2786676    0.1667328  14.59 0.0009553029    1.668    0.400
         6  -9.8221     74.5841     13.3464   8.9196192065e+01   6.1757359260e+01    0.3442024    0.2217413  -7.88  0.001439792    1.554    0.357
         7  -8.9506     80.3793     12.7064   8.7165863692e+01   6.0806313740e+01     0.246625     0.218505  -2.12 0.0009765308    1.181    0.153
         8  -8.5514    233.3406     11.6947   6.0607066763e+01   2.5925372041e+01    0.2852012    0.2109957 -35.76  0.001736849    1.520    0.342
         9  -8.9676     97.0785     11.9883   8.2230912477e+01   5.7715032330e+01    0.2933418    0.1692866  43.40 0.0007552897    1.484    0.326
        10  -8.0158    157.8280     11.2367   6.9598361493e+01   4.4160403537e+01    0.2287274    0.1234744 -66.92 0.0009551304    2.829    0.647
        11  -8.3717    105.9247     10.7884   7.9578763902e+01   5.6027507631e+01    0.2049029     0.146133  33.43 0.0006693585    1.250    0.200
        12  -8.1302    136.6247      8.9647   7.2505966233e+01   4.9405372079e+01    0.2669351    0.1268664 -21.96   0.00124357    2.433    0.589
        13 -10.6875     20.1336      8.8598   1.0797939290e+02   6.9604010031e+01    0.2624928     0.162347   7.20 0.0004073678    1.489    0.328
        14  -7.4510     65.2728      9.3414   9.0546692343e+01   6.3724970250e+01    0.1221318   0.07556292  11.19 0.0002503074    1.613    0.380
        15  -8.2537      2.3911      7.8522   1.1576094520e+02   7.1192859746e+01    0.2042131    0.1393154 -26.68  0.001594673    1.082    0.076
        16  -8.6000    128.6547      7.4422   7.3512451043e+01   5.1370522417e+01    0.2167048    0.1420546  21.08 0.0008242706    1.751    0.429
        17  -7.5541     39.0013      8.5121   9.9820697143e+01   6.7573977036e+01    0.1604543    0.0952952  28.73  0.001028614    1.581    0.368
        18  -8.5540    119.2244      6.8323   7.5201188610e+01   5.3532087731e+01    0.1851536     0.125109  37.63  0.000556147    1.346    0.257
        19  -9.0028     56.6773      4.8891   9.1571456276e+01   6.5521425937e+01    0.3698021    0.1849151  12.20  0.001827375    2.581    0.613
        20  -9.8746     49.0679      4.6483   9.4212862257e+01   6.6661084362e+01    0.2349298    0.1599715   9.30 0.0003849934    1.244    0.196
        21  -8.5851    111.0055      4.7267   7.6225725847e+01   5.5493155066e+01     0.193736    0.1633536  14.78 0.0003560183    1.183    0.155
        22  -8.7918     69.0400      3.3408   8.6794423586e+01   6.3686837188e+01    0.3272386    0.1733649  -1.63  0.001730182    2.195    0.544
        23  -7.8920     13.6344      4.8527   1.0918019836e+02   7.0712815200e+01    0.2031212    0.1080753  -2.61  0.001094876    1.958    0.489
        24  -8.1601    125.2002      3.7321   7.2949375673e+01   5.2466359825e+01    0.2313872     0.135926  27.46 0.0007731538    1.897    0.473
        25  -8.4792    104.7432      2.6207   7.6872373230e+01   5.6986527032e+01    0.2614442    0.1722384  -6.56  0.001528626    1.672    0.402
        26  -7.7379    153.8279      3.1874   6.7864289390e+01   4.5857578069e+01    0.1762154    0.1312887  42.68  0.000345007    1.328    0.247
        27  -7.6695    182.2937      2.0589   6.3702251463e+01   3.9083464628e+01    0.1704047    0.1515257  86.25 0.0003996684    1.071    0.067
        28  -7.8034    143.1293      2.1039   6.9228879753e+01   4.8481668627e+01     0.190724    0.1441202  46.08 0.0003956914    1.208    0.172
        29  -7.4836      3.0726      1.1879   1.1259002243e+02   7.2039137959e+01    0.1152235   0.06614997  13.39 0.0003348593    1.680    0.405
        30  -7.9870    236.9141    229.3825   1.0751961627e+02  -9.7655098096e+00    0.1889569    0.1632054 -31.67 0.0007170889    1.375    0.273
        31  -7.8380    248.8354    250.1252   1.0896071125e+02  -1.4206263656e+01    0.1652935    0.1120779  11.46  0.000735029    1.310    0.237
        32  -9.3305    212.3665    250.2241   1.1547297992e+02  -8.6410813737e+00    0.2534343    0.1463659  44.83  0.001416106    1.613    0.380
        33 -10.1346    201.0183    249.0031   1.1736372036e+02  -6.6192774535e+00    0.4512984    0.2483465  23.14  0.001688339    2.135    0.532
        34  -7.9798    123.2923    250.5857   1.3204434880e+02   6.3157700429e+00    0.1703678    0.1030941  38.15 0.0005684667    1.615    0.381
        35  -7.5335    133.3387    229.2852   1.2742486554e+02   8.3917043780e+00    0.1235651    0.1014499  17.16 0.0002667052    1.632    0.387
        36  -8.5292    187.0424    226.8612   1.1647195270e+02  -8.6313753567e-01    0.3328223    0.2116803  14.57  0.001580325    2.228    0.551
        37  -7.5777    175.0193    227.9737   1.1900456067e+02   1.1265767691e+00    0.1667659    0.1329267  41.26 0.0004487133    1.086    0.079
        38  -8.6091    247.4022    226.0002   1.0504285560e+02  -1.0950242436e+01     0.315587    0.2066477 -31.37  0.001885866    1.558    0.358
        39  -7.9069    229.8887    226.9225   1.0836202497e+02  -8.2894972918e+00    0.2133734    0.1316383  -4.66  0.001077776    2.093    0.522
        40  -7.5570     70.4330    226.0506   1.3918138840e+02   1.9161296894e+01    0.1536289   0.09347543 -47.72 0.0008054716    2.445    0.591
        41  -7.9450    195.2212    228.9684   1.1523880245e+02  -2.6607920577e+00    0.2079819     0.142647  -2.26  0.001063941    2.015    0.504
        42  -7.7836    223.7609    225.0282   1.0915661307e+02  -7.0010427493e+00    0.2040071    0.1319858  -4.09  0.001054546    1.935    0.483
        43  -7.2664    206.4971    222.5099   1.1196906719e+02  -3.6446284740e+00    0.1351573    0.1116287  17.60 0.0008072723    1.133    0.118
        44  -7.4670     51.3492    221.3363   1.4226363361e+02   2.2711188501e+01    0.1063896    0.0908689 -47.47 1.356675e-05    1.783    0.439
        45  -8.3448    239.8530    219.7968   1.0526769894e+02  -8.9014071106e+00    0.2184801    0.1613055 -32.49  0.001326122    1.423    0.297
        46  -8.3361    226.3913    218.9455   1.0757752059e+02  -6.5486499781e+00    0.3636589    0.2067748  -5.25  0.001557421    2.911    0.656
        47  -8.3639    182.4377    219.9051   1.1621257255e+02   1.1342422666e+00    0.2617338    0.1700421  27.47  0.001000099    1.642    0.391
        48  -7.6240    130.2268    220.5625   1.2682102689e+02   1.0589322673e+01    0.1891766    0.1196667  35.62 0.0009501541    1.660    0.398
        49  -7.4111    114.6843    220.3160   1.2991602479e+02   1.3348346299e+01    0.1386997   0.09068616  71.47 0.0006194557    1.648    0.393
        50  -7.4518     39.6281    220.6986   1.4433188116e+02   2.4306756004e+01    0.1014657   0.08812386 -51.02 0.0007030833    1.749    0.428
        51  -7.7581    173.2293    219.5218   1.1798267013e+02   2.9042991495e+00    0.1927705    0.1177741  31.92 0.0009317807    1.677    0.404
        52  -6.8115     95.6700    218.3231   1.3345828120e+02   1.6900070293e+01     0.139477    0.0857991  71.27 0.0007049707    1.698    0.411
        53  -7.9457    203.6869    216.5952   1.1146547143e+02  -2.2021058676e+00    0.2044053    0.1459668  10.28 0.0007259897    1.641    0.391
        54  -7.3506    105.6497    217.6772   1.3138271488e+02   1.5400524430e+01    0.1212198    0.1068232  -3.76 0.0004564636    1.749    0.428
        55  -8.3269    193.4964    215.4062   1.1324716319e+02  -1.4491275155e-01    0.2547942    0.1869993  31.59   0.00111355    1.266    0.210
        56  -7.2531    219.3159    215.2933   1.0823744553e+02  -4.7763484037e+00    0.1338801   0.09365379   9.71  0.000342123    1.600    0.375
        57  -7.3624    210.3563    215.2954   1.0994464264e+02  -3.1922470162e+00    0.1388098   0.09565292  12.02 0.0007032784    1.695    0.410
        58  -9.1627    248.8964    212.7107   1.0233920334e+02  -9.3458192490e+00    0.3138494    0.2681264 -31.68  0.001611757    1.329    0.247
        59  -8.2844    232.1819    212.2251   1.0526877298e+02  -6.5246599189e+00    0.2242152     0.161007 -15.67 0.0008916217    1.429    0.300
        60  -8.3071    122.4947    213.0268   1.2731486908e+02   1.3446492815e+01    0.2612305    0.1801286  32.55 0.0009751609    1.666    0.400
        61  -7.6352    169.3614    212.2912   1.1754897746e+02   4.9229088177e+00    0.1396709    0.1048944  13.83 0.0007027701    1.697    0.411
        62  -7.9081    186.2683    210.5307   1.1382071810e+02   2.0404882974e+00    0.1954994    0.1212305  32.32 0.0009404805    1.609    0.378
        63  -7.3330    108.4842    209.5334   1.2971386785e+02   1.6592699901e+01    0.1334499    0.1188498  68.01 0.0004075252    1.076    0.070
        64  -8.0501    162.9812    208.0145   1.1812920178e+02   6.9306017771e+00     0.218813    0.1691179   9.54 0.0009135251    1.719    0.418
        65 -10.1155    173.9006    204.7936   1.1531253016e+02   5.4375555065e+00    0.3167035    0.2508746  38.03 0.0005509606    1.170    0.145
        66  -7.7805    247.0477    205.2169   1.0124828818e+02  -7.9598030319e+00    0.1809656    0.1519139  10.31  0.001142038    1.049    0.047
        67  -8.2579    236.7432    204.6436   1.0299760072e+02  -6.1493128720e+00    0.2100557    0.1619767 -14.37 0.0009236378    1.257    0.204
        68  -8.0039    215.9709    205.4878   1.0705158495e+02  -2.6212266317e+00    0.2110542    0.1230836  39.10  0.001033141    1.598    0.374
        69  -7.9285    117.6303    205.1346   1.2717358096e+02   1.5923906777e+01    0.2270936    0.1522194  41.23 0.0007944091    1.465    0.318
        70  -8.2465    228.6672    200.0978   1.0361410591e+02  -4.0305884307e+00    0.2657759    0.1626916 -18.72  0.001281397    1.931    0.482
        71  -8.0102    195.7407    200.3965   1.1005929834e+02   2.0269323418e+00    0.2715603    0.1261201  45.55  0.001131373    2.046    0.511
        72  -7.4154    185.0107    199.9464   1.1214827609e+02   4.1807737360e+00    0.2201744    0.1676751   4.12   0.00111067    1.666    0.400
        73  -7.9460    244.2026    197.0487   1.0017449256e+02  -6.2514933588e+00    0.1714183   0.09718219 -33.56 0.0004409761    1.710    0.415
        74  -8.0786    166.0952    197.4702   1.1562042988e+02   8.3518558328e+00    0.2187024    0.1321274  42.80 0.0005795241    1.533    0.348
        75  -8.4184    193.0591    194.5348   1.0948240796e+02   3.6021109697e+00     0.317319    0.1952609 -30.71  0.001464671    1.887    0.470
        76  -7.0263     90.0588    192.0000   1.3116994506e+02   2.3411142433e+01    0.2133735   0.07302458  39.95 0.0007953142    2.893    0.654
        77  -7.9651    161.6253    190.1880   1.1523206949e+02   1.0681128263e+01    0.1964417    0.1367819 -36.86 0.0005051952    1.652    0.395
        78  -7.7621    224.7754    189.3957   1.0223555502e+02  -1.5642978900e+00    0.1955997    0.1206662  30.66 0.0007594107    1.672    0.402
        79  -7.4576      1.9717    194.2516   1.4910488907e+02   3.3709882871e+01    0.1231257   0.08536122  48.91 0.0008079942    1.544    0.352
        80  -8.1024     64.5194    189.4597   1.3631603934e+02   2.7771702860e+01    0.2064165    0.1297458  25.01  0.001032345    2.372    0.578
        81  -7.3874    172.6849    187.6824   1.1239348068e+02   8.9630417085e+00    0.1461021    0.1148352   4.80 0.0007037875    1.650    0.394
        82  -7.7926    149.3194    185.3176   1.1700258676e+02   1.4135530357e+01    0.1439928    0.1179152   0.98 0.0004015024    1.660    0.397
        83  -7.9202    156.1807    181.0849   1.1469182260e+02   1.3648599611e+01    0.2239965    0.2037398   4.48 0.0008934279    1.280    0.219
        84  -7.5725     96.5533    178.4570   1.2770195606e+02   2.5408318306e+01     0.140193    0.1251793  85.89 7.022772e-05    1.018    0.018
        85  -7.7017    121.5388    177.5333   1.2182824806e+02   2.1203531104e+01    0.1455698    0.1343375  77.75 0.0001498926    1.011    0.011
        86  -8.1653    148.4337    175.0002   1.1523668414e+02   1.6513443937e+01    0.2815234    0.2059396  28.85 0.0008107107    1.587    0.370
        87  -7.5658     47.1645    175.5977   1.3837176566e+02   3.3137341694e+01     0.154967    0.1254563  21.20 0.0009516085    1.752    0.429
        88  -7.4468    192.4688    173.5115   1.0537674347e+02   7.6957094110e+00    0.1465987     0.140859  19.55 0.0002821455    1.012    0.011
        89  -7.9179    184.4765    171.4867   1.0662564520e+02   9.7621724758e+00    0.1483603    0.1427847  23.93 0.0008099248    1.027    0.026
        90  -8.2039    199.1777    166.5420   1.0251645630e+02   7.6528512323e+00     0.283195    0.1937572  -1.30  0.001184121    2.245    0.555
        91  -8.0985    177.0437    167.0014   1.0726858632e+02   1.2241430923e+01     0.240617    0.1885149   2.74 0.0008634186    1.678    0.404
        92  -8.3393    169.0172    163.8158   1.0834458118e+02   1.4614822724e+01    0.3626872    0.1979667  25.60  0.001237938    3.047    0.672
        93  -7.6045    122.9480    162.7481   1.1874740068e+02   2.4294149462e+01    0.1936722    0.1258073  42.81 0.0008772257    1.547    0.353
        94  -7.5463    138.3418    158.2707   1.1419071737e+02   2.2267393008e+01    0.1481473    0.1229261   4.63 0.0004278602    1.609    0.379
        95  -7.5477    151.8097    157.4047   1.1086002468e+02   1.9661491190e+01    0.2183863    0.1442618  33.11 0.0009356352    1.718    0.418
        96  -7.9537     21.2244    157.1898   1.4197789716e+02   4.0059747483e+01    0.1974272   0.09963658 -42.31 0.0009542995    2.814    0.645
        97  -7.8464    133.4603    147.9020   1.1315185089e+02   2.5619000456e+01    0.2357024    0.1490705 -51.81  0.001022944    1.572    0.364
        98  -9.3295     67.0895    144.5199   1.2918956219e+02   3.7848379704e+01    0.5016953    0.2830538  60.54  0.002283586    2.207    0.547
        99  -8.5583    231.0526    134.8275   8.9312197028e+01   6.9406438221e+00    0.2507876    0.1983599 -38.57 0.0004973466    1.185    0.156
       100  -7.6343     55.3522    135.3179   1.3063569101e+02   4.1529361936e+01    0.1353123     0.094435 -35.88 0.0007047122    1.741    0.426
       101  -8.4088      4.4805    134.1484   1.4326486370e+02   4.6570883133e+01    0.2009999    0.1414687 -25.76  0.001305065    2.007    0.502
       102  -8.5063     23.6157    130.1906   1.3804497745e+02   4.5989546468e+01    0.3193574    0.1697593 -36.87  0.001605322    2.498    0.600
       103  -7.5242    214.2527    145.9691   9.4953300726e+01   8.4246925251e+00    0.1968993     0.124194 -40.45 0.0008762149    1.536    0.349
       104  -7.9122    133.7071    124.5657   1.0768566927e+02   3.0866613457e+01    0.3129026    0.1512858  39.33  0.001149111    2.249    0.555
       105  -8.3793     12.4165    121.7610   1.3975330971e+02   4.8773693221e+01    0.2349772   0.06947646 -58.82  0.001049444    2.371    0.578
       106  -8.4742     15.2235    118.6075   1.3857642981e+02   4.9273537053e+01    0.2082563    0.1277334 -24.19  0.001106581    2.316    0.568
       107  -7.7800    119.3862    119.1729   1.1004031595e+02   3.5023460426e+01    0.2870585    0.1152103  40.60 0.0009259325    2.649    0.622
       108  -7.6598     99.3757    119.3049   1.1544482987e+02   3.8753077825e+01    0.1507447    0.1157277 -12.68 0.0007029157    1.769    0.435
       109  -8.9398    249.3647    116.1868   8.2056221399e+01   6.4714026184e+00    0.2635848    0.1920035 -47.01 0.0003344162    1.262    0.207
       110  -8.1410     21.5971    113.1748   1.3602758732e+02   5.0001227487e+01    0.1764729    0.0857903 -56.75 0.0008412617    1.598    0.374
       111  -9.1272      2.3356    109.9343   1.4079136275e+02   5.2045747683e+01    0.3485196     0.118456 -47.20  0.001651906    2.676    0.626
       112  -8.0864    134.0596    106.4841   1.0295932222e+02   3.4752481405e+01    0.2473783    0.2183655  -7.57  0.000780104    1.296    0.228
       113  -7.4902    124.6849    106.6809   1.0543948342e+02   3.6703781327e+01    0.1546088    0.1223237  -4.08 0.0007039102    1.653    0.395
       114  -7.4871    109.3400    106.3586   1.0948474427e+02   3.9835482657e+01    0.1572067    0.1174365 -10.96 0.0007037376    1.822    0.451
       115  -9.2693     13.9878    105.9872   1.3699983289e+02   5.2161402346e+01    0.3270776    0.1753785 -42.47  0.001357043    1.830    0.454
       116  -8.3092     17.6752    103.3145   1.3550959280e+02   5.2485729398e+01    0.1901131     0.113908  30.71  0.000936926    2.047    0.511
       117  -7.8941     59.0161    114.0000   1.2560739697e+02   4.6037402554e+01    0.1970611   0.07805745  32.12 0.0007978086    2.910    0.656
       118  -7.5543     93.6705    103.6826   1.1319361753e+02   4.3260715668e+01    0.1479587    0.1114164 -15.64  0.000704669    1.683    0.406
       119  -7.7665      3.6829    101.6877   1.3923619446e+02   5.3756083572e+01    0.1199024   0.06552523 -46.02 0.0007034991    1.643    0.391
       120  -9.2557     10.9984     95.4949   1.3612712709e+02   5.4643128295e+01    0.1879359    0.1183425   7.17 0.0006683458    2.126    0.530
       121  -9.8276     19.8387     91.7344   1.3277538866e+02   5.4841900194e+01    0.4183732    0.2131222 -43.53  0.002303846    1.740    0.425
       122  -7.0164    203.2807     93.7161   8.4399954938e+01   2.0908418608e+01    0.1513187    0.1147936 -73.25  0.000177147    1.516    0.340
       123  -7.0408     83.3156     93.6762   1.1360950320e+02   4.7139656463e+01    0.1377906    0.1111332  89.63  0.000704264    1.665    0.399
       124  -8.7578     44.6849     91.7924   1.2505552478e+02   5.2623029812e+01    0.3168673     0.190412 -27.01  0.001460368    2.012    0.503
       125  -7.7573     97.2251     90.1673   1.0853129766e+02   4.5533557136e+01    0.2445355    0.1551645  -7.05 0.0009464374    2.821    0.646
       126  -8.5380     67.4161     85.8514   1.1640272287e+02   5.1143561413e+01    0.4051403    0.1772687  24.25  0.001567904    3.286    0.696
       127  -9.4256     35.7008     82.1055   1.2567395483e+02   5.5566879767e+01     0.610567    0.2786415 -29.39  0.002612277    3.058    0.673
       128  -7.9597    126.2007     84.2185   9.8759936203e+01   4.1002649409e+01    0.2474729    0.1616003   6.35 0.0009353779    2.698    0.629
       129  -9.9772      8.6993     76.7983   1.3336088050e+02   5.8713095872e+01     0.475095    0.1823974 -38.65  0.002037799    2.496    0.599
       130  -7.5792    184.4638     78.4556   8.3914340029e+01   2.8265889767e+01    0.1514001    0.1449401  89.07 0.0001073169    1.004    0.004
       131  -8.2050     89.3086     78.2638   1.0744662088e+02   4.9317791842e+01    0.2588274    0.1715322  24.65 0.0009724867    1.735    0.424
       132  -8.9181     48.8004     76.8619   1.2002771817e+02   5.5308794639e+01    0.3150094    0.2235634 -26.39  0.001583791    1.409    0.290
       133  -7.2960    120.2860     76.2905   9.7966464928e+01   4.3770088229e+01    0.1450775    0.1137916   5.50 0.0002274956    1.537    0.349
       134  -9.6126     24.2680     73.1635   1.2736138322e+02   5.8383199528e+01    0.7939267    0.3126568 -29.57  0.003172111    3.815    0.738
       135  -8.2241     23.4808     69.4935   1.2674437581e+02   5.9181081358e+01    0.2320415    0.1360789 -42.25 0.0007889288    1.379    0.275
       136  -7.5814    150.0234     74.4757   9.0020302689e+01   3.7395359002e+01    0.2159717     0.146348  52.96 8.282007e-06    1.444    0.308
       137  -7.9422     75.0877     74.5289   1.1076512688e+02   5.2330817419e+01     0.187919    0.1319514  30.84 0.0004414647    1.523    0.343
       138  -7.9993    105.9298     67.6760   9.9271717318e+01   4.8259549058e+01    0.2334612    0.1694089  23.53  0.001166115    1.521    0.342
       139  -8.2782     80.4838     67.9770   1.0704907090e+02   5.2741172904e+01    0.2492985    0.1714177 -25.12 0.0005389698    1.487    0.328
       140  -8.4139     84.0872     63.7997   1.0458587691e+02   5.2914925789e+01    0.3641948    0.2333269   9.20  0.001541207    2.143    0.533
       141  -8.5513     43.1814     67.9977   1.1951510112e+02   5.7681461963e+01    0.2116913     0.147719  -9.54  0.001243317    1.609    0.378
       142  -9.1726     62.1263     66.4089   1.1256981385e+02   5.5730482378e+01    0.4796417    0.1833844 -33.03  0.001656623    3.443    0.710
       143  -9.2293     65.7576     60.9517   1.0964527429e+02   5.6243350306e+01    0.2916313     0.242937  -6.04 0.0002301324    1.146    0.127
       144  -9.5830     17.7181     62.0230   1.2691119236e+02   6.1075084188e+01    0.4372334     0.195037 -40.88  0.001845642    1.829    0.453
       145  -8.6206     51.3870     60.6365   1.1449070916e+02   5.8163449164e+01     0.314954    0.2513922 -72.52   0.00188004    1.827    0.453
       146 -10.7871     38.4113     57.5806   1.1819033971e+02   6.0151043539e+01    0.4570751     0.259964 -13.10 0.0005139481    2.280    0.561
       147  -9.4068    243.0910     59.4422   7.0093828089e+01   1.7270454901e+01    0.2654993    0.2500883  70.75 0.0008483938    1.221    0.181
       148  -9.2789    247.1172     55.3301   6.8695293102e+01   1.6988038177e+01    0.2316476    0.2169439   3.49 0.0006699208    1.443    0.307
       149  -6.9755    128.4322     58.5620   9.0337164638e+01   4.5078662808e+01    0.1445221    0.1331604  21.45 5.163967e-05    1.062    0.058
       150  -7.1264    111.3547     58.3202   9.4738777898e+01   4.8776310789e+01    0.1499325    0.1056838  12.65 0.0007046384    1.754    0.430
       151  -9.3894      3.0022     54.9555   1.3050697322e+02   6.3336403734e+01    0.4478593    0.1983858 -43.04  0.002627859    1.688    0.408
       152  -7.9622     99.4125     53.7547   9.6609428754e+01   5.1880104927e+01    0.2601548    0.1260559 -40.50  0.001131901    2.096    0.523
       153  -9.2625     74.9220     50.5369   1.0312144865e+02   5.6675563223e+01    0.3543202    0.2332306   1.99 0.0004390696    1.863    0.463
       154  -7.9248    118.0881     51.2108   9.0598460629e+01   4.8490616110e+01    0.2208007    0.1663875  81.01  0.001077871    1.923    0.480
       155 -10.2254     45.3583     49.0983   1.1297573301e+02   6.0926122205e+01    0.2426931     0.185763  -8.41 0.0006025368    1.229    0.186
       156  -8.5329    106.7396     48.4233   9.2717919141e+01   5.1271424680e+01    0.2936612    0.2058487   2.05   0.00023045    1.732    0.423
       157  -9.9429     10.1811     47.6488   1.2589890425e+02   6.4273853391e+01    0.5001768    0.2292533 -22.35  0.002636196    2.556    0.609
       158  -9.6623     24.4858     47.2920   1.2027173793e+02   6.3291914812e+01    0.4349379    0.2106522   5.20  0.002171007    2.883    0.653
       159  -8.6966     31.5423     44.1191   1.1654343819e+02   6.3218388107e+01    0.2562319    0.1618807  -1.52  0.001099371    1.736    0.424
       160  -9.2161      2.1593     45.5355   1.2843200435e+02   6.5124279491e+01    0.3043606    0.1658183 -45.70  0.001181004    1.323    0.244
       161  -8.9053      3.7073     39.3212   1.2608964763e+02   6.6145159627e+01    0.3908866     0.112928 -58.31  0.001542883    3.418    0.707
       162  -9.0343      7.1248     33.4856   1.2291486110e+02   6.6940596941e+01    0.2921993     0.176061 -20.09  0.001508216    1.512    0.339
       163  -8.5199     93.2924     42.1356   9.4397461236e+01   5.4808497698e+01    0.2385287    0.1650775  31.09 0.0008439053    1.396    0.283
       164  -9.2579     39.3187     41.4870   1.1266839955e+02   6.2876671455e+01    0.3911595    0.1924266  10.88   0.00185153    2.908    0.656
       165 -10.2444     83.2820     39.9917   9.6689723588e+01   5.6919318709e+01    0.2758721    0.2079449  19.53 0.0001625611    1.272    0.214
       166  -8.8798     18.2055     37.7926   1.1974734624e+02   6.5438681252e+01    0.2117839    0.1334594 -25.77 0.0009067741    1.340    0.254
       167  -8.6048    106.4021     36.8058   8.8796607188e+01   5.2988040440e+01    0.3648091    0.2039485  23.76  0.001393004    2.321    0.569
       168  -9.2715     54.8545     36.8951   1.0520785689e+02   6.1738974687e+01    0.2705296    0.2037132  -3.24  0.001020069    1.207    0.172
       169  -8.6136     92.3924     36.8463   9.2769794439e+01   5.5721249271e+01    0.2918419    0.1769881  38.62 0.0006689567    1.555    0.357
       170  -9.4024     95.9945     33.3285   9.0446460529e+01   5.5508305644e+01    0.2628997    0.2029383  20.34 0.0002942807    1.227    0.185
       171  -9.1541     37.9277     35.5396   1.1110504343e+02   6.3985051474e+01     0.311074    0.1906846  -2.97  0.001275557    1.797    0.444
       172 -10.1436    138.9781     35.5206   8.0529678383e+01   4.5972462190e+01    0.2309196    0.2211106  24.14 0.0002260808    1.071    0.066
       173  -8.2715     81.6679     32.3774   9.4392282373e+01   5.8259027934e+01    0.2457807    0.1634198   8.63 0.0008890918    1.657    0.396
       174  -8.5646     76.6492     34.2069   9.6679446072e+01   5.8864134298e+01    0.2499857    0.2309547  49.65  0.001653669    1.415    0.293
       175  -8.2621    112.2589     30.1666   8.4940851354e+01   5.2615770952e+01    0.3699346    0.1521043  36.65  0.001432739    2.775    0.640
       176  -7.8367     87.7889     31.3780   9.2138109125e+01   5.7299719606e+01    0.1839657    0.1070373  36.25 0.0009494452    1.616    0.381
       177  -8.9567      1.4946     29.7844   1.2411357403e+02   6.7894764300e+01    0.2398289   0.08537269 -48.12  0.001321249    2.007    0.502
       178  -8.5241    127.9070     30.1301   8.1199953257e+01   4.9189355447e+01      0.19562    0.1770313  35.37 0.0003093615    1.023    0.022
       179  -8.6469     57.3754     25.2620   9.9832335417e+01   6.3047536025e+01    0.2409578    0.1605441  41.55  0.001000825    1.709    0.415
       180 -10.4704     71.7138     25.4496   9.4947278476e+01   6.0834581750e+01    0.5389537    0.2892456  51.31  0.002722095    2.328    0.570
       181  -9.1442     61.6933     27.0046   9.8979316788e+01   6.2189696039e+01     0.297175    0.1791845  -2.75  0.001181691    1.918    0.479
       182  -8.8720     48.3431     25.8360   1.0340543966e+02   6.4192301666e+01    0.3083674    0.1452936  27.76  0.001178043    2.198    0.545
       183  -9.6762     83.6975     22.1612   8.9880282020e+01   5.9175776381e+01     0.489795    0.1989227  41.08  0.001422005    2.246    0.555
       184  -8.9827     92.3319     20.8449   8.6861242288e+01   5.7720658750e+01    0.2896948     0.212259  -2.25  0.001727578    1.375    0.273
       185  -7.3514    130.7193     21.6783   7.7792912271e+01   4.9509798673e+01    0.1367932   0.09231593  29.02 0.0002074754    1.587    0.370
       186  -8.8562    243.2874    244.3224   1.0895978172e+02  -1.2692596875e+01     0.274746    0.1508646 -30.41  0.000934087    1.919    0.479
       187  -8.8644    233.5425    245.0132   1.1080368362e+02  -1.1303060402e+01    0.4650387    0.1924045 -25.60   0.00205602    3.251    0.692
       188 -10.4721    192.0827    244.9956   1.1840616969e+02  -4.5465704686e+00    0.4006442    0.3077851  14.77  0.001532511    1.378    0.275
       189  -7.7704    116.9698     20.0168   8.0260226828e+01   5.2757916541e+01    0.1554918     0.137601  33.07 0.0003119775    1.022    0.022
       190  -8.1739    127.8618     16.8371   7.6786971126e+01   5.0664859389e+01    0.1991996    0.1538675  40.92 0.0004250073    1.166    0.142
       191  -8.0000     74.2149    247.5845   1.4053712746e+02   1.4482456040e+01    0.1521969    0.1017992  39.68 0.0009392487    1.667    0.400
       192  -7.8693     18.2556    247.6273   1.4974350027e+02   2.1586013767e+01    0.1267776   0.09080236  44.33 0.0009433372    1.672    0.402
       193  -8.8288    224.4619    246.0390   1.1260502836e+02  -1.0019627657e+01    0.1629975    0.1149982 -28.48 0.0006367781    1.555    0.357
       194  -8.1325    218.5348    245.6793   1.1362238320e+02  -9.0279771202e+00    0.2154377    0.1152791 -29.95  0.001144064    2.159    0.537
       195  -7.6773     87.6630     13.6938   8.5437667630e+01   5.9368052885e+01    0.1808235    0.1354969  25.78 0.0007462459    1.157    0.136
       196  -8.4873     90.3137     12.3295   8.4169498503e+01   5.9002041771e+01    0.1934043    0.1019103  37.04 0.0005910546    1.700    0.412
       197  -9.7673    157.3303    244.8862   1.2494996397e+02   1.4752830204e+00    0.2538004    0.1620606  38.26 0.0007668802    1.385    0.278
       198  -7.9829    134.8438     13.1392   7.4179381621e+01   4.9428830142e+01    0.1835831    0.1358323  36.62 0.0003928675    1.308    0.235
       199  -9.0178    176.1618    243.5709   1.2119011183e+02  -1.5921530147e+00    0.2249104    0.1543634   8.15  0.001175845    2.134    0.531
       200  -7.7560    250.6773    243.3036   1.0749464254e+02  -1.3655224251e+01    0.1006257   0.09253074  48.28  0.000190933    1.636    0.389
       201  -8.1375     95.7741    243.2482   1.3627001513e+02   1.2051290501e+01    0.1516511    0.1353028  50.52 0.0007442987    1.325    0.245
       202  -9.1858    170.4611    239.7640   1.2170943622e+02   5.1051771601e-03     0.269684    0.2141568   9.03 0.0008195504    1.552    0.356
       203  -7.8255     26.6375    241.2971   1.4803837170e+02   2.1815816869e+01    0.1198119   0.05755819  67.32 0.0007032901    1.714    0.417
       204  -9.2172    150.8667    249.6141   1.2680807697e+02   1.8252170612e+00    0.2647853    0.1900395  37.78 0.0008477868    1.269    0.212
       205  -8.7829    122.4629    238.6658   1.3076182159e+02   8.5495333247e+00    0.2903667    0.2155409   1.34   0.00147552    2.719    0.632
       206  -7.9351    249.5802    238.2313   1.0681596870e+02  -1.2867801880e+01    0.1572442    0.1004334 -15.65 0.0007448354    1.577    0.366
       207  -8.9369    242.0931    236.6431   1.0786069547e+02  -1.1539177952e+01    0.2580625    0.1656468  -1.70  0.001026497    1.709    0.415
       208  -7.8302     79.9231    238.4951   1.3866955785e+02   1.5350266820e+01    0.1800065    0.1028319  45.86   0.00102218    1.564    0.361
       209  -7.3594    231.0044    236.9912   1.0990891938e+02  -9.8573078659e+00    0.1455107    0.1189014  17.14 0.0009570732    1.000    0.000
       210  -8.3076    146.7431     14.0253   7.2275457653e+01   4.6549177935e+01    0.1919978    0.1570948  39.69 0.0004178587    1.200    0.166
       211  -7.8335    148.2133    237.6210   1.2568119002e+02   4.2849424016e+00        0.183    0.1079013  36.55 0.0005334586    1.626    0.385
       212  -8.1471    196.0495    236.1748   1.1626472966e+02  -3.9160023833e+00    0.2432979    0.1266524  35.02 0.0009916691    1.731    0.422
       213  -8.4020    184.1368    236.0711   1.1852114629e+02  -1.8177600441e+00    0.2020719    0.1628667  18.98 0.0006844152    1.278    0.218
       214  -9.6964    188.5424    234.1595   1.1737214971e+02  -2.2943301021e+00    0.3480392    0.2628437  62.07   0.00163038    1.605    0.377
       215  -8.3875    161.8800    234.2335   1.2254170184e+02   2.4384186065e+00    0.2356786    0.1606694  29.64 0.0005748523    1.545    0.353
       216  -7.6366    137.9864    234.7788   1.2726897797e+02   6.5784997104e+00    0.1774213   0.09239087  43.90 0.0008644587    1.640    0.390
       217  -7.4988     91.6607    234.7259   1.3611987661e+02   1.4291342515e+01    0.1074116   0.09836835  21.30    0.0003042    1.611    0.379
       218  -8.2056    248.5170    233.1279   1.0611287770e+02  -1.2059446887e+01    0.1981863    0.1372833  11.88 0.0006478411    1.324    0.245
       219  -7.6809    205.1021    230.8302   1.1366389069e+02  -4.6773236243e+00    0.1801009    0.1322457  21.92 0.0005562704    1.308    0.235
