#   1 NUMBER                 Running object number                                     
#   2 MAG_AUTO               Kron-like elliptical aperture magnitude                    [mag]
#   3 X_IMAGE                Object position along x                                    [pixel]
#   4 Y_IMAGE                Object position along y                                    [pixel]
#   5 X_WORLD                Barycenter position along world x axis                     [deg]
#   6 Y_WORLD                Barycenter position along world y axis                     [deg]
#   7 A_WORLD                Profile RMS along major axis (world units)                 [deg]
#   8 B_WORLD                Profile RMS along minor axis (world units)                 [deg]
#   9 THETA_WORLD            Position angle (CCW/world-x)                               [deg]
#  10 FWHM_WORLD             FWHM assuming a gaussian core                              [deg]
#  11 ELONGATION             A_IMAGE/B_IMAGE                                           
#  12 ELLIPTICITY            1 - B_IMAGE/A_IMAGE                                       
         1 -13.7055      4.6820     10.9650   1.2147346472e+02   7.1169135173e+01     2.881786    0.7266594 -47.15   0.01346086    2.665    0.625
         2 -13.9799    202.6781     10.3973   6.5835523537e+01   3.2610811927e+01     1.947987     1.094006  45.56   0.00918941    1.918    0.479
         3 -13.3636    189.9886     28.2539   7.2561360026e+01   3.3886150660e+01     1.345369     1.082132  51.61  0.006097262    1.217    0.178
         4  -9.1451     71.3118    244.6592   1.4215866637e+02   1.7511977115e+01    0.1126039    0.0607149  66.04 0.0005142631    1.697    0.411
         5 -10.3749    250.0023    249.7633   1.1266008914e+02  -9.3400129653e+00    0.2362495    0.1117987  41.19   0.00139659    1.911    0.477
         6 -10.6244    139.0547    250.1025   1.3129977686e+02   7.2304273175e+00    0.2497797    0.1200123  39.96  0.001425059    1.676    0.403
         7 -11.4303    124.0660    249.8000   1.3381441175e+02   9.4958789555e+00    0.4830382    0.1153119  42.60  0.002018137    3.177    0.685
         8 -11.1386     97.0353    245.6860   1.3798206361e+02   1.3955083349e+01    0.2308122    0.1616485  71.06 0.0006318855    1.347    0.257
         9 -10.5015     98.3058    249.9895   1.3815105526e+02   1.3126330812e+01    0.2546115    0.1677172  49.50  0.001060672    1.173    0.148
        10 -11.2013    102.1938    247.5037   1.3728062888e+02   1.2963340553e+01    0.2713341    0.1891657  61.18 0.0007516121    1.206    0.171
        11 -10.6924     81.1987    248.5403   1.4084428605e+02   1.5636207334e+01    0.2719115    0.2047567  83.67  0.001468421    1.286    0.222
        12 -11.5462     82.5483    243.3053   1.4019984949e+02   1.6278612679e+01    0.5042745    0.2400608  70.65  0.002683788    2.669    0.625
        13  -9.8541     67.3781    250.3861   1.4320922666e+02   1.7102792089e+01    0.1871672   0.09624704  47.97 0.0006623482    1.496    0.332
        14 -10.0964     37.2375    249.5914   1.4784258185e+02   2.0729345674e+01    0.2191301    0.1833642  43.29  0.001901835    1.569    0.363
        15 -10.1246     40.5524    240.2273   1.4679663039e+02   2.1871854006e+01    0.3477809    0.1652442  67.39  0.002236431    1.838    0.456
        16 -11.5895     29.9977    249.3968   1.4892153423e+02   2.1534576568e+01    0.4983684    0.3054223  39.42  0.003806564    1.743    0.426
        17 -11.2197     36.2532    243.6514   1.4766497303e+02   2.1784957585e+01     0.370518    0.2359234  43.47  0.002840722    1.528    0.345
        18 -14.9392      6.7705    213.0119   1.5070693208e+02   2.9941192231e+01     5.498583    0.6741392 -72.07   0.02197894    5.326    0.812
        19 -15.1686     17.4732    167.4585   1.4589990857e+02   3.7734338838e+01     6.437199     1.975033 -87.68    0.0232527    4.823    0.793
        20 -13.8058     49.0574    223.7067   1.4432155683e+02   2.3709029049e+01    0.9221856    0.5601635  58.64  0.004157638    1.310    0.236
        21  -8.5763     21.2984    239.2901   1.4972690858e+02   2.4056269892e+01    0.0789374   0.07057522 -82.50 0.0005620013    1.559    0.359
        22 -10.4249    230.6097    231.8486   1.1305157528e+02  -4.7082766128e+00    0.3092487    0.2231003 -54.12  0.001854083    2.658    0.624
        23  -9.9387    228.6687    228.3502   1.1281972948e+02  -4.0195991911e+00    0.2889522    0.1994371 -52.77  0.001673567    2.687    0.628
        24 -10.6601    150.9881    229.4749   1.2673588562e+02   8.3285217945e+00    0.2364413    0.1688488  47.21  0.001522205    1.168    0.144
        25  -9.1153     33.6332    228.9469   1.4722628598e+02   2.4513165193e+01    0.1421753   0.09939855  80.11 0.0004502345    1.138    0.121
        26 -12.1694     50.2209    232.6255   1.4475254953e+02   2.2041951213e+01    0.3562151    0.2609792  64.70  0.001588983    1.036    0.035
        27 -10.5709    163.4017    225.8165   1.2398560947e+02   6.8503143699e+00    0.2674579    0.1874855  -0.53  0.001513597    2.157    0.536
        28 -10.8663    173.6938    222.4412   1.2162317373e+02   5.6367345097e+00    0.3612507    0.2800001  59.89  0.002110105    1.490    0.329
        29 -10.6693    128.1396    245.2857   1.3264812226e+02   9.5458110943e+00     0.181002    0.1244147  32.55  0.001192783    1.491    0.329
        30  -8.9625    152.6550    212.9613   1.2416653251e+02   1.0587745787e+01    0.1573042    0.1503473  50.90 0.0003733886    1.135    0.119
        31  -9.4698     34.3999    202.2049   1.4532615399e+02   2.9238873235e+01    0.1571574    0.1316002  58.89 0.0005795536    1.256    0.204
        32 -11.3676     67.5210    198.3143   1.3881415718e+02   2.6123892337e+01    0.3047356    0.2120865 -50.76  0.001264478    1.820    0.451
        33  -9.8338    192.8013    194.3940   1.1350541517e+02   6.4588502190e+00    0.3604682    0.2215296 -69.62   0.00130586    4.918    0.797
        34 -11.6506     72.8028    190.5813   1.3696752006e+02   2.6939007610e+01    0.2492323    0.2161267 -62.03 0.0007205053    1.337    0.252
        35 -14.5860     57.8673    213.2473   1.4197311341e+02   2.4534147823e+01     7.376609          nan  45.57   0.01869187    9.711    0.897
        36  -9.1540    104.2855    180.2429   1.2915611660e+02   2.4441428802e+01    0.1685371    0.1316355  74.88  0.000354408    1.298    0.230
        37 -10.8739     81.8147    177.8976   1.3360562935e+02   2.8254212371e+01    0.2250983    0.1908159 -74.30 0.0003563761    1.162    0.140
        38 -13.2438     69.3113    175.7031   1.3598092933e+02   3.0394487926e+01    0.4602024    0.2657387 -45.81  0.002155976    2.254    0.556
        39 -11.9269     88.3318    168.1705   1.3087543482e+02   2.9327945182e+01    0.8555271    0.5409136  64.59  0.004519369    1.723    0.420
        40 -10.0928    235.0784    239.9150   1.1357137047e+02  -6.2424294904e+00    0.2175063    0.1454199 -52.95  0.001228477    3.216    0.689
        41 -12.6425     67.1345    143.9876   1.3220241762e+02   3.7473861219e+01    0.9275666    0.5545059  83.29  0.004493089    2.179    0.541
        42 -11.9418     57.8009    131.9684   1.3265509057e+02   4.1308609809e+01    0.8132332    0.3265874 -75.67  0.002951244    3.598    0.722
        43  -8.9182    103.4335    148.0736   1.2416213841e+02   3.1255899876e+01    0.2123554     0.163422 -37.43 0.0005448047    1.507    0.336
        44 -11.9587     89.4353    151.7148   1.2810217504e+02   3.2667079093e+01    0.2664841    0.2370934 -40.40 0.0004941025    1.297    0.229
        45  -8.4295    192.1895    144.0013   1.0348889782e+02   1.4862349465e+01    0.1854748    0.1110782 -36.44 0.0003596107    1.695    0.410
        46  -9.7289    110.9993    137.4412   1.2030922227e+02   3.2272241863e+01    0.3240133    0.2438507  -4.49  0.001479218    1.996    0.499
        47 -10.2906     98.7209    134.5147   1.2276529056e+02   3.4976521543e+01    0.2563524    0.2152836 -29.08  0.001026306    1.396    0.284
        48 -12.6156     42.8454    232.8993   1.4597724275e+02   2.2835439739e+01     0.265327    0.2366919 -79.89 0.0007970229    1.470    0.320
        49  -9.3881    107.9709    124.0522   1.1825588180e+02   3.5710015774e+01    0.1992172    0.1936843 -60.38            0    1.022    0.021
        50  -9.8751    100.6363    152.3201   1.2557168822e+02   3.0797765368e+01    0.2870988    0.2445788 -49.80 0.0008725249    1.235    0.190
        51 -10.6812    168.1173    113.2077   1.0114102777e+02   2.5735433597e+01    0.3530397    0.2954029 -74.58 0.0008302897    1.507    0.336
        52  -9.5534    203.5644    111.2359   9.3392682047e+01   1.8076626292e+01    0.2142097    0.1405854 -19.94 0.0009460541    1.676    0.403
        53 -10.4748     53.2720    110.1650   1.3014514551e+02   4.6749493087e+01    0.2619461    0.1456327 -65.44  0.001326583    1.623    0.384
        54  -8.5147     77.4941     88.6248   1.1829553617e+02   4.8407213395e+01    0.1333912    0.1243857 -45.03 0.0007968656    1.041    0.040
        55  -8.3801     25.3039     59.2822   1.2807345014e+02   6.0558422763e+01    0.1225713   0.07376168 -35.43 0.0003533991    1.555    0.357
        56 -11.2291     15.4321     55.9763   1.3088754332e+02   6.1959187631e+01    0.4952709    0.2010712  36.89   0.00246018    3.210    0.688
        57  -9.1732    162.3263    249.3135   1.2722989024e+02   3.7944564713e+00    0.1114546   0.07757327  19.98 0.0003454908    1.666    0.400
        58 -10.0205     46.3582    248.5742   1.4638888235e+02   1.9877214373e+01    0.2666411    0.1183801  68.22  0.001468808    2.123    0.529
        59 -11.2124      5.9758     52.9929   1.3371863003e+02   6.3141798988e+01    0.2373331    0.2190449  50.73 0.0007247564    1.442    0.307
        60 -10.5586      1.7344     51.6225   1.3500697039e+02   6.3641235011e+01    0.2465484    0.1433685 -66.28 0.0008424098    1.433    0.302
