#   1 NUMBER                 Running object number                                     
#   2 MAG_AUTO               Kron-like elliptical aperture magnitude                    [mag]
#   3 X_IMAGE                Object position along x                                    [pixel]
#   4 Y_IMAGE                Object position along y                                    [pixel]
#   5 X_WORLD                Barycenter position along world x axis                     [deg]
#   6 Y_WORLD                Barycenter position along world y axis                     [deg]
#   7 A_WORLD                Profile RMS along major axis (world units)                 [deg]
#   8 B_WORLD                Profile RMS along minor axis (world units)                 [deg]
#   9 THETA_WORLD            Position angle (CCW/world-x)                               [deg]
#  10 FWHM_WORLD             FWHM assuming a gaussian core                              [deg]
#  11 ELONGATION             A_IMAGE/B_IMAGE                                           
#  12 ELLIPTICITY            1 - B_IMAGE/A_IMAGE                                       
         1 -12.9280    147.7710     61.1165   8.5184031968e+01   4.0362582926e+01     1.425586     1.162832  -8.29  0.004514576    1.455    0.313
         2 -13.0348    159.0824     46.2080   7.8425819992e+01   3.9865729986e+01     1.164067     1.032224 -37.58  0.003801575    1.209    0.173
         3 -11.8785    188.6196     14.0265   6.4955264338e+01   3.6544329747e+01     2.351109    0.9845732 -78.06  0.006584594    6.159    0.838
         4 -12.5892    170.4793     17.1569   6.8226079224e+01   4.0633680197e+01    0.9361132    0.6962119 -88.70  0.004127972    1.355    0.262
         5 -12.2820    172.8291     11.3813   6.6324882699e+01   4.0655937284e+01    0.9290407    0.4844058 -89.08  0.003182134    2.428    0.588
         6  -9.1948    231.9392     14.5877   6.0439650354e+01   2.6226800844e+01    0.2436313    0.1755142 -46.26 0.0008913046    1.378    0.274
         7  -9.8565    203.9660      9.0359   6.1971464567e+01   3.3378762824e+01    0.1969148    0.1410121  46.27 0.0006076751    1.665    0.399
         8 -11.4353    203.6846    168.7844   1.0063295688e+02   6.4358734553e+00     0.884919     0.559821 -50.63  0.003811402    1.710    0.415
         9 -15.3633     58.3916    143.8577   1.3011562178e+02   3.9399621290e+01     6.545178     4.600165   3.72   0.03310721    2.287    0.563
        10 -11.0505    140.5131    174.5384   1.1553582868e+02   1.8302806296e+01    0.3591304    0.3025044 -84.88 0.0008520694    1.271    0.213
        11 -12.0451    137.7377    172.0003   1.1568364200e+02   1.9422514221e+01    0.7798089     0.463962  41.97  0.002572411    1.666    0.400
        12 -10.7317    170.3437    184.0863   1.1075443864e+02   1.0228146526e+01    0.5016515    0.3317509  42.42  0.001744072    1.451    0.311
        13 -10.1652    230.1825    168.3573   9.5447444862e+01   1.2496637209e+00    0.3656189    0.2137203 -58.76  0.001509942    2.568    0.611
        14 -11.5642     55.7154    164.9858   1.3399063433e+02   3.4726713505e+01    0.4426135    0.3840783 -87.73    0.0024082    1.050    0.048
        15 -10.5708     57.3043    160.5208   1.3297696752e+02   3.5578269821e+01    0.3162593    0.2054672  24.14  0.001439425    2.086    0.521
        16 -11.0168    172.3056    189.0393   1.1129529712e+02   8.8318340758e+00    0.4141868    0.3748556 -64.39  0.001272729    1.196    0.164
        17 -10.2337    123.2368    159.4170   1.1663511198e+02   2.5152550345e+01    0.4467334    0.3122087  82.51   0.00196913    1.869    0.465
        18  -9.9199    191.1213    158.7053   1.0101881738e+02   1.1070084522e+01    0.4227408    0.2967583  16.62  0.001832521    1.978    0.494
        19  -9.6781    115.9780    158.2393   1.1817089981e+02   2.6811929877e+01    0.3111786    0.2120816  52.32 0.0009726015    1.482    0.325
        20 -11.0245    176.0078    187.2447   1.1015989686e+02   8.4474136424e+00    0.4581979    0.3122064 -61.07   0.00125775    1.778    0.437
        21  -9.7791    107.9641    146.9655   1.1789857901e+02   3.0957086233e+01    0.2301378    0.2112521 -78.63 0.0003696486    1.026    0.025
        22 -10.6572    110.0141    155.5063   1.1910313847e+02   2.8561223784e+01    0.3298682    0.3058314 -71.76 0.0003369428    1.050    0.047
        23 -10.2569    116.6332    151.6292   1.1667611669e+02   2.8240863598e+01    0.3690055    0.2718337 -27.78 0.0009909059    1.818    0.450
        24 -11.6512    112.3051    150.7134   1.1757038365e+02   2.9270413279e+01    0.5983077    0.4959037 -47.97  0.000524925    1.240    0.193
        25 -19.0700     74.7010    233.8282   1.3809480908e+02   1.6944840012e+01     5.216561     3.590458  48.38   0.02048073    1.349    0.259
        26 -10.5829    180.3335    193.9229   1.1053593254e+02   6.2761103935e+00    0.3549353    0.2822912 -79.74  0.001808812    1.660    0.398
        27 -10.0916     17.3972    154.2232   1.4158388800e+02   4.1316561312e+01    0.3337063    0.1722756 -76.83  0.001181128    1.581    0.367
        28 -11.0096    134.0208    147.5648   1.1151345846e+02   2.5747281898e+01     1.181122    0.3569396 -56.48  0.003048462    4.688    0.787
        29 -11.2572    146.5229    189.4395   1.1697404177e+02   1.3873969810e+01    0.5861422    0.3840569 -15.29  0.002251757    3.112    0.679
        30 -10.2769    140.9692    200.3556   1.2009764396e+02   1.2651927923e+01     0.378635    0.2416377  53.72  0.001254027    1.514    0.339
        31  -9.7326      7.9624    149.2213   1.4320949352e+02   4.3223169356e+01    0.2756965    0.1252777 -67.28 0.0008340448    1.666    0.400
        32 -10.6738    143.4077    145.4465   1.0876540082e+02   2.4271387200e+01    0.7552603    0.3508622 -61.82  0.002411191    3.179    0.685
        33 -10.4585     27.3457    146.4534   1.3830398412e+02   4.2204092517e+01    0.3373295    0.2708909 -54.27  0.001194936    1.295    0.228
        34  -8.8256    181.9238    144.3476   9.9723496113e+01   1.6051076114e+01    0.2526046    0.2058727 -56.86 0.0003663405    1.271    0.213
        35 -14.9440     60.2183    209.8232   1.3843526569e+02   2.3961143791e+01    0.7248288    0.4324197  55.75  0.002242796    1.500    0.333
        36 -11.3730    204.5865    177.1784   1.0221771270e+02   4.6496672629e+00    0.5394984    0.4980708 -62.73  0.002268323    1.219    0.179
        37  -9.5467    173.2411    175.9690   1.0850473795e+02   1.1301156350e+01    0.1995736     0.195841 -46.76 0.0003494097    1.053    0.050
        38  -8.7273     25.7232    139.5475   1.3779629628e+02   4.3952098077e+01    0.1885997    0.1542637 -40.96 0.0007534171    1.431    0.301
        39 -10.3759    228.1969    137.9342   8.9156407008e+01   7.2295773615e+00    0.2449681    0.2221912  51.98 0.0003530675    1.182    0.154
        40  -9.5386      1.9450    136.6040   1.4326972212e+02   4.6489691522e+01    0.2088319    0.1222527 -55.62  0.001287602    1.528    0.345
        41 -11.4453    136.0000    129.5349   1.0686994381e+02   2.9456128857e+01     1.110655     0.195574 -47.51  0.002526236    5.621    0.822
        42 -11.3880    135.0000    122.0134   1.0527562965e+02   3.1359561142e+01       1.1791    0.1923598 -45.98  0.002588332    6.037    0.834
        43 -10.7664    160.1705    128.7504   1.0085909462e+02   2.4300149180e+01    0.4695394    0.3547702  67.66  0.002135633    1.502    0.334
        44 -11.0194    148.7715    174.4991   1.1364235157e+02   1.6648949684e+01     0.521381    0.3427456  88.48  0.001314946    2.468    0.595
        45 -10.7330    121.6538    128.0695   1.1017061621e+02   3.2756793101e+01    0.3434137    0.2727141 -65.62  0.001150203    1.308    0.235
        46  -9.0433     38.0959    124.3793   1.3225707180e+02   4.6291907347e+01    0.2589487     0.161981 -70.65 0.0009698853    1.413    0.292
        47 -10.9718    143.3917    168.7650   1.1373495992e+02   1.9009676320e+01    0.5483606    0.4477317  68.40  0.001857295    1.284    0.221
        48  -8.8678    140.7208    121.5494   1.0372988803e+02   3.0224018840e+01    0.2244059    0.1487776  59.41 0.0009458955    1.690    0.408
        49 -12.3444    163.6352    189.5558   1.1325530059e+02   1.0461216238e+01      1.10208    0.5425405  57.87  0.004068887    2.676    0.626
        50  -9.0349    246.2043    119.1587   8.1940328427e+01   6.9282746018e+00    0.1998065    0.1806633 -26.68  0.000394875    1.141    0.123
        51  -9.6189    115.0428    118.0241   1.0947028961e+02   3.6359697356e+01    0.2288702    0.2179557 -64.32 0.0003457214    1.018    0.018
        52 -11.6788     71.5592    115.4368   1.2102729300e+02   4.4336209692e+01    0.9133621     0.526049 -75.82  0.003112044    2.446    0.591
        53 -11.2922     60.2000    109.4251   1.2302593139e+02   4.7239122100e+01    0.6505923    0.2728259  37.34  0.002786414    2.623    0.619
        54 -12.1668     64.4960    104.9816   1.2074038447e+02   4.7686452054e+01    0.8318418     0.573456 -40.54  0.002999815    1.397    0.284
        55  -8.7740     12.1019    136.3583   1.4077334207e+02   4.5816959870e+01    0.1524386    0.1317078 -81.21 0.0004380861    1.128    0.113
        56 -11.4578    111.6969    105.5149   1.0717205723e+02   3.9796274082e+01    0.4723047    0.3393214 -46.52  0.002271796    1.344    0.256
        57 -10.2856    134.3280    106.7271   1.0149834152e+02   3.4845892029e+01    0.4541192    0.1805724 -45.56  0.001558775    2.487    0.598
        58 -10.6812    113.5403     95.2580   1.0387669762e+02   4.1620434809e+01    0.3463924    0.2699656 -43.62  0.001056219    1.250    0.200
        59  -9.2046    124.8233     95.8673   1.0099898179e+02   3.9170523192e+01    0.2337781    0.2100373   5.91 0.0008796827    1.232    0.188
        60  -9.2710    142.8319     81.5408   9.2352371819e+01   3.7981465281e+01    0.2733842    0.2164344 -39.51 0.0006106533    1.281    0.220
        61  -8.7094    184.8293     74.8479   8.1566052475e+01   2.9013020815e+01    0.2085023    0.1997171  22.34 0.0003427901    1.190    0.160
        62  -9.1616    169.5320    196.4937   1.1329034524e+02   7.9014472595e+00     0.231825    0.1848829  55.87 0.0005871813    1.258    0.205
        63  -9.5487    198.8542    178.9243   1.0373388791e+02   5.4674755320e+00    0.3544599    0.2754449 -85.59 0.0008837106    1.879    0.468
        64 -11.7563    163.0617     37.2010   7.5074057821e+01   4.0102644885e+01    0.4796266    0.4126795  61.90 0.0008539591    1.062    0.058
        65  -9.8562    240.3853     63.2577   7.0203189458e+01   1.7635982272e+01    0.2368352    0.2089984 -76.31 0.0003579647    1.047    0.044
        66  -9.2545    125.9993     60.9674   9.0287379614e+01   4.5399363304e+01    0.2108157    0.2013836  40.86  0.001215635    1.036    0.035
        67  -8.6446    244.6857     59.3055   6.8803507800e+01   1.7284849862e+01    0.1428443   0.09023464 -68.26 0.0002833913    1.622    0.383
        68 -10.3558    137.0441     37.8582   8.0365035170e+01   4.6262299345e+01    0.2081237    0.1945004   4.13 0.0002538413    1.137    0.121
        69 -10.6651    146.9303    245.8120   1.2573824705e+02   2.9862953132e+00    0.4459022    0.2880776  24.00  0.002220214    2.046    0.511
        70 -12.1964    194.1974    168.4197   1.0248661667e+02   8.4687162232e+00    0.7891047    0.5680371 -56.05  0.002430709    1.559    0.358
        71 -10.6052    150.8360    239.7042   1.2414139847e+02   3.3528518449e+00    0.2920038     0.248841  40.26  0.001059039    1.106    0.096
        72 -10.8484    187.5731    236.1476   1.1646222906e+02  -2.5061360111e+00     0.272435    0.2301833 -40.05 0.0005163797    1.367    0.269
