#   1 NUMBER                 Running object number                                     
#   2 MAG_AUTO               Kron-like elliptical aperture magnitude                    [mag]
#   3 X_IMAGE                Object position along x                                    [pixel]
#   4 Y_IMAGE                Object position along y                                    [pixel]
#   5 X_WORLD                Barycenter position along world x axis                     [deg]
#   6 Y_WORLD                Barycenter position along world y axis                     [deg]
#   7 A_WORLD                Profile RMS along major axis (world units)                 [deg]
#   8 B_WORLD                Profile RMS along minor axis (world units)                 [deg]
#   9 THETA_WORLD            Position angle (CCW/world-x)                               [deg]
#  10 FWHM_WORLD             FWHM assuming a gaussian core                              [deg]
#  11 ELONGATION             A_IMAGE/B_IMAGE                                           
#  12 ELLIPTICITY            1 - B_IMAGE/A_IMAGE                                       
         1 -14.8591      9.8059    149.8595   1.4315072103e+02   4.2799544317e+01     11.68958      4.92118  77.07   0.04853793    3.533    0.717
         2 -13.2412    196.4898     29.9718   6.8217997244e+01   3.2651953266e+01     1.360224     1.155795  57.15  0.006627237    1.222    0.182
         3 -13.3683    211.7616     10.2604   6.1646202253e+01   3.1254885715e+01      1.20099    0.8795173  43.65  0.006976857    1.723    0.420
         4 -11.8053      3.0775      8.7273   1.1509543384e+02   7.1178074085e+01    0.5392454    0.2366282 -29.72  0.003333393    1.830    0.453
         5 -10.3762    106.1049    246.8681   1.3393953796e+02   9.6648798288e+00    0.2011436    0.1429169  68.15 0.0008012071    1.263    0.208
         6 -11.7941    246.9958    248.1051   1.0783079579e+02  -1.3725195319e+01    0.6203081    0.3048823  42.53  0.003357667    2.061    0.515
         7 -10.0976    225.5804    249.8545   1.1193166122e+02  -1.0746900722e+01    0.2076711    0.1247829  39.46  0.001211342    1.481    0.325
         8 -10.3047    156.6663    250.0767   1.2482163814e+02   6.4568048899e-01    0.2298683    0.1470166  49.66 0.0008168948    1.340    0.254
         9 -11.9000    139.5501    249.0481   1.2792522949e+02   3.7382596957e+00    0.5306787     0.310316  53.15  0.002893688    1.502    0.334
        10  -9.7463    122.2037    250.3987   1.3134797934e+02   6.4168107529e+00    0.1896341   0.09358601  51.22 0.0007328891    1.698    0.411
        11  -9.8567    111.8537    250.3175   1.3325817383e+02   8.1229659681e+00    0.2090155    0.1255825  57.21  0.001183713    1.423    0.297
        12 -10.7416     99.8534    249.0519   1.3532600361e+02   1.0261687945e+01    0.3854563    0.2045558  56.80  0.002089906    1.622    0.384
        13 -10.5290    100.5139    245.5262   1.3482931713e+02   1.0799200067e+01    0.2415066    0.1677215  68.59  0.001459139    1.287    0.223
        14  -9.1648     66.8034    250.1454   1.4131808101e+02   1.4972055508e+01    0.1785937    0.1201003  67.23 0.0004428666    1.160    0.138
        15 -10.7815     29.5820    248.7412   1.4742966178e+02   2.0019655136e+01    0.3599845    0.2499962  86.12  0.002396399    1.160    0.138
        16 -11.3750     35.0680    244.3747   1.4624840561e+02   2.0183732747e+01     0.500752     0.344818 -70.75  0.003366703    1.567    0.362
        17  -9.6101      2.4665    249.5060   1.5167594730e+02   2.2846691033e+01    0.1932404    0.1277945  76.30  0.001145897    1.006    0.006
        18 -10.1048      2.5102    245.9966   1.5149703612e+02   2.3482286216e+01      0.17403    0.1185484 -74.98 0.0009624598    1.544    0.352
        19  -9.7486    209.5035    246.4836   1.1433345308e+02  -7.7424434117e+00    0.1249956    0.1022348  25.33 0.0008104573    1.003    0.003
        20 -11.8753    238.0517    247.4756   1.0930440559e+02  -1.2336524370e+01    0.4089269    0.3832832 -57.92  0.002938423    1.687    0.407
        21  -9.8511     18.9610    242.3504   1.4873787460e+02   2.2423059610e+01     0.192506    0.1095045  82.90 0.0008575348    1.363    0.267
        22 -10.4641      5.6967    241.1266   1.5075931399e+02   2.4060252479e+01    0.1768892    0.1323612  73.08 0.0003862399    1.176    0.150
        23 -10.8671     11.8392    240.0267   1.4973612317e+02   2.3629286348e+01    0.3068421    0.1397285  61.93  0.001176305    1.728    0.421
        24 -10.1214    183.1705    238.3330   1.1802645416e+02  -2.0798718163e+00    0.2080505     0.144164  28.25 0.0005727758    1.394    0.283
        25  -9.9516     21.9329    237.3714   1.4794933417e+02   2.3039741055e+01    0.2589118    0.1858629 -26.72   0.00140427    4.187    0.761
        26 -10.8426    230.1486    231.0340   1.0793288731e+02  -8.9247448848e+00    0.4178075    0.2018119 -50.88  0.001788561    3.531    0.717
        27 -10.6968     50.5431    234.6760   1.4287100340e+02   2.0116115583e+01    0.2445039     0.187292 -76.94  0.001143093    1.344    0.256
        28  -9.9190     47.0865    249.1921   1.4459436533e+02   1.7787858937e+01     0.159658    0.1315877  76.84 0.0004606096    1.234    0.189
        29  -7.8310    221.3089    213.3057   1.0639626758e+02  -4.8108820030e+00    0.1346502   0.09452218   6.79 0.0003479263    1.611    0.379
        30  -8.7223    152.4776    212.9373   1.2012246008e+02   7.9487417950e+00    0.1826828    0.1388189 -53.39 0.0004235513    1.460    0.315
        31 -13.6794     38.5978    224.8400   1.4419863835e+02   2.3574104949e+01     0.757636    0.5808649  77.04  0.002382066    1.053    0.051
        32 -12.4282      9.8104    206.6834   1.4799340413e+02   3.0434916228e+01    0.6830639     0.444457  46.69  0.002931679    1.599    0.374
        33 -11.4101     60.1004    198.2469   1.3752352454e+02   2.6460101298e+01    0.2735907    0.2229571 -63.26 0.0005254986    1.361    0.265
        34  -9.4473    191.7444    192.7642   1.0833053949e+02   4.2009059848e+00    0.4587285    0.2385721 -67.19  0.001184936    6.919    0.855
        35 -11.9469     14.0628    196.3564   1.4646038350e+02   3.2188472774e+01     0.293067    0.1801667  63.44 0.0008237392    1.433    0.302
        36 -11.1100    119.5442    237.8313   1.3033372833e+02   9.1093335952e+00    0.3388858    0.2009895 -85.17  0.001651269    2.378    0.579
        37 -11.6999     66.5223    189.9123   1.3518063325e+02   2.7440256418e+01    0.2787485    0.2331394 -64.40 0.0005108112    1.285    0.222
        38  -9.9546     54.6259    229.6255   1.4170864189e+02   2.0581767844e+01    0.2687502    0.1472507  69.11  0.001514454    1.659    0.397
        39 -10.6178     76.7375    177.2229   1.3120119115e+02   2.8876100892e+01    0.2455823    0.2077106 -81.59 0.0003143866    1.060    0.056
        40 -13.0885     63.5038    175.1099   1.3392866107e+02   3.1245754054e+01      0.51741    0.2788024 -46.38  0.001712225    2.312    0.567
        41 -12.5755     33.1644    232.0259   1.4569868758e+02   2.2790435043e+01    0.2913354    0.2333055 -78.95 0.0007362724    1.363    0.266
        42  -9.8938    172.4991    222.4959   1.1759058092e+02   2.4691875484e+00    0.2558793     0.116832  33.40  0.001036441    2.390    0.582
        43  -8.9461     97.0237    173.4224   1.2589356579e+02   2.6552444582e+01    0.2324301    0.1851117 -55.63 0.0005388343    1.291    0.225
        44 -11.5518     84.3645    168.0696   1.2801769077e+02   2.9855469965e+01    0.5982657    0.5743988 -60.02  0.003655292    1.215    0.177
        45  -9.6812      1.5425    215.2799   1.4997979657e+02   2.9473488509e+01    0.2063826   0.08175345 -84.14 0.0007121221    2.047    0.512
        46 -11.8750     85.7675    151.2551   1.2479143369e+02   3.3622915232e+01    0.3075123    0.2470421 -48.35 0.0006022316    1.299    0.230
        47  -8.5555    134.0000    148.0332   1.1203614985e+02   2.5561993238e+01    0.2535187    0.0868768 -49.71  0.000797114    2.906    0.656
        48  -8.6875    100.1856    147.8954   1.2048415997e+02   3.2030973972e+01    0.1938329    0.1655911 -39.10 0.0003389105    1.306    0.234
        49 -12.1011     67.2990    143.5154   1.2814210836e+02   3.8189235758e+01    0.6833635    0.4489169  68.46  0.002573567    1.826    0.452
        50 -10.1761     96.2317    134.3649   1.1873202201e+02   3.5918893790e+01    0.2630048    0.2216355 -35.79 0.0006046211    1.305    0.234
        51 -10.3903     31.4250    131.5580   1.3555308852e+02   4.5129458832e+01    0.2756711    0.1926508  60.98  0.001018679    1.624    0.384
        52  -8.9758     78.5071    131.0131   1.2280703509e+02   3.9555937155e+01    0.2633802    0.1836993  61.42  0.001304181    1.681    0.405
        53  -8.8719     87.3370    128.7837   1.1993659209e+02   3.8711029790e+01    0.2166238    0.1676277 -86.29 0.0007602191    1.475    0.322
        54  -9.6457     97.2256    152.1774   1.2206726240e+02   3.1523521361e+01    0.2774688    0.2448884 -33.50    0.0007455    1.334    0.251
        55 -11.3969     22.4898    126.7114   1.3718201110e+02   4.7033224331e+01    0.3674546    0.2319576  55.67  0.001418091    1.868    0.465
        56  -9.6291    109.2730    137.1888   1.1590678679e+02   3.2928922683e+01     0.433165    0.2712541 -27.14  0.001592416    2.482    0.597
        57 -10.0902    167.8331    112.9026   9.5517230619e+01   2.5791522260e+01    0.3516459    0.2838181 -81.86 0.0007835917    1.471    0.320
        58  -9.1992    203.2120    111.5878   8.7866842349e+01   1.7677923488e+01    0.2075684    0.1436718  42.23  0.000558866    1.572    0.364
        59  -8.8022    106.3465    123.9045   1.1367039562e+02   3.6566439982e+01     0.199667    0.1737678 -51.74 0.0002842906    1.101    0.091
        60  -8.7754    184.4847     77.5021   8.2671051696e+01   2.8524537493e+01     0.149941    0.1451147  75.28 0.0008099858    1.050    0.048
        61  -9.0030    158.0170     76.7521   8.7875903490e+01   3.5160543776e+01    0.2015528    0.1269251  54.50 0.0004239951    1.550    0.355
        62  -8.7695     44.7250     68.4841   1.1828868975e+02   5.7596780735e+01    0.2277462   0.09546001  44.05 0.0009495933    3.518    0.716
        63  -8.2608     38.6339     65.3062   1.1954213670e+02   5.8844123608e+01    0.1122031   0.09587527  77.87 0.0007036703    1.747    0.428
        64  -8.9244     31.8399     62.1661   1.2110517971e+02   6.0091790116e+01    0.1649395    0.1549455 -45.61 0.0007776681    1.258    0.205
        65 -10.8647      1.8928     54.7341   1.3023865321e+02   6.3616911990e+01    0.4734673   0.03474493 -59.55  0.001337465    7.161    0.860
        66 -11.3473     12.9957     54.5695   1.2601999525e+02   6.2996966358e+01    0.3635626    0.1763159  34.64  0.001604968    2.684    0.627
        67 -11.5082      3.0099     39.4045   1.2574671649e+02   6.6344849114e+01    0.3990375    0.1536743 -53.38  0.002200573    2.022    0.506
        68  -9.3334     81.5007    248.5099   1.3858853591e+02   1.3160731816e+01    0.1226238   0.09281114  67.05 6.878419e-05    1.017    0.016
        69 -10.8576    198.2191    246.0428   1.1636904899e+02  -5.8173977325e+00    0.2055008    0.1869763 -78.67  0.001372301    1.534    0.348
