#   1 NUMBER                 Running object number                                     
#   2 MAG_AUTO               Kron-like elliptical aperture magnitude                    [mag]
#   3 X_IMAGE                Object position along x                                    [pixel]
#   4 Y_IMAGE                Object position along y                                    [pixel]
#   5 X_WORLD                Barycenter position along world x axis                     [deg]
#   6 Y_WORLD                Barycenter position along world y axis                     [deg]
#   7 A_WORLD                Profile RMS along major axis (world units)                 [deg]
#   8 B_WORLD                Profile RMS along minor axis (world units)                 [deg]
#   9 THETA_WORLD            Position angle (CCW/world-x)                               [deg]
#  10 FWHM_WORLD             FWHM assuming a gaussian core                              [deg]
#  11 ELONGATION             A_IMAGE/B_IMAGE                                           
#  12 ELLIPTICITY            1 - B_IMAGE/A_IMAGE                                       
         1 -13.8126    212.9772     28.3578   3.5396763293e+02   2.9336330304e+01    0.9151492    0.7611431 -44.42  0.003951345    1.177    0.150
         2  -9.8220     92.6927      6.6864   1.4948625636e+00   6.0884412280e+01    0.1418869   0.09318321  40.98 0.0002714373    1.624    0.384
         3 -11.6438     54.7616      5.6289   1.1966487112e+01   7.0271382380e+01    0.4238271   0.06524137  52.99   0.00126958    4.211    0.763
         4 -11.9359     53.8693    230.8411   6.8278266342e+01   1.8809027809e+01    0.2546186    0.1720922 -76.14  0.001142592    1.725    0.420
         5 -13.9961    245.6802    236.3063   3.0264690298e+01  -4.1166571953e+00     1.938027    0.5717114 -32.60   0.01023092    2.899    0.655
         6  -9.0050    182.2751    201.7128   3.5688293883e+01   7.4733014184e+00    0.1033366   0.09824015  48.51 0.0002213638    1.512    0.339
         7 -11.2596     82.3807    195.5231   5.7822609386e+01   2.2780131125e+01    0.3453134    0.2549726  32.85 0.0004527986    1.198    0.165
         8 -10.0244    193.0100    194.7993   3.2522092527e+01   7.1392547644e+00    0.3124415    0.1982624 -64.49  0.001363073    3.978    0.749
         9 -15.8737     68.4115    143.5992   5.4609194484e+01   3.7447518750e+01     2.831327     2.023754  83.06   0.01307212    1.620    0.383
        10  -8.3239     59.7636    225.7644   6.6499328036e+01   1.9163263127e+01    0.2648649    0.1212386  55.76  0.001214846    2.299    0.565
        11  -9.7799    159.2000    191.2255   3.8629813235e+01   1.2456059583e+01    0.1625441     0.153681  42.87 0.0003686117    1.300    0.231
        12 -12.1393     61.9329    178.8525   6.1493034048e+01   2.9372346346e+01    0.5290346    0.3596873 -40.15  0.001547552    1.809    0.447
        13 -10.5437     55.8494    182.0495   6.3587469944e+01   2.9356142397e+01    0.2507439    0.2154148  12.32 0.0009086504    1.287    0.223
        14  -9.5323     50.9794    186.0394   6.5366796080e+01   2.8976078422e+01    0.4145792    0.2313914  15.07  0.001824011    2.097    0.523
        15 -10.1811     51.8344    182.6102   6.4790360450e+01   2.9703507079e+01    0.2463361    0.1556437  56.85  0.000754018    1.533    0.348
        16  -9.6938     74.2482    182.3627   5.8419189112e+01   2.6902232005e+01    0.2116676     0.184002  74.19 0.0004484062    1.185    0.156
        17 -12.0811    173.2590    176.0365   3.3047425383e+01   1.3061075138e+01    0.6728528    0.4410652 -48.00  0.002103271    1.661    0.398
        18 -11.8458    179.8237    169.3444   3.0502377009e+01   1.3233059296e+01    0.6118743    0.5124789 -33.76  0.003012755    1.171    0.146
        19 -11.1708    155.0633    178.8960   3.7398406220e+01   1.5346550534e+01    0.2579161    0.1830536  23.51  0.001384324    1.370    0.270
        20 -11.8588      1.5930    177.4953   7.8783089934e+01   3.5775048507e+01    0.1857431    0.1438727  84.60  0.001116382    1.193    0.161
        21 -10.4928    160.2995    177.0018   3.5923123033e+01   1.4884564688e+01    0.1881406    0.1658559 -28.05 0.0006382943    1.128    0.114
        22 -10.7733    230.4015    167.1895   2.1408039041e+01   6.3882654030e+00    0.1688702   0.09375194 -42.13 0.0009554866    1.738    0.425
        23 -10.9192    100.7685    162.4049   4.7992043460e+01   2.7679643080e+01    0.2564625    0.2454399  66.86 0.0003456054    1.074    0.069
        24 -10.1238    126.0359    159.4858   4.0691835801e+01   2.4095053191e+01     0.228213    0.1388754  36.89  0.001027371    1.579    0.367
        25  -9.5613    123.5777    155.5010   4.0558594702e+01   2.5403164710e+01    0.1449821    0.1408077  14.03  7.15159e-05    1.013    0.012
        26 -11.9282    133.7607    145.5714   3.5957073849e+01   2.5762217449e+01     1.256896    0.3156754 -54.02  0.003066899    5.826    0.828
        27 -10.2188     94.4702    154.0100   4.8323773266e+01   3.0724084170e+01     0.311897     0.208013  39.10 0.0007313522    1.418    0.295
        28 -11.8269     98.4886    151.1413   4.6629569818e+01   3.0753231731e+01    0.4343422    0.3931451  60.54  0.001979448    1.121    0.108
        29 -11.5652     91.9912    148.6547   4.8088372907e+01   3.2449949806e+01    0.3409138    0.2990246 -85.39 0.0003494107    1.221    0.181
        30 -12.8492     96.4563    144.0204   4.5875578635e+01   3.2839699188e+01    0.7979456    0.5902026  -2.68  0.001909123    1.842    0.457
        31 -11.4621    112.3032    151.1028   4.2714476529e+01   2.8382879684e+01    0.5483714    0.3169742  65.97  0.001950657    3.035    0.670
        32 -11.0036     90.3658    222.7820   5.8876374889e+01   1.6057499535e+01    0.2572741    0.2288773 -31.52  0.001050693    1.322    0.244
        33 -11.2933    106.2625    139.0217   4.1983502742e+01   3.2320449574e+01    0.3348723    0.2761343  62.26 0.0003675688    1.313    0.238
        34 -12.3406     48.8743    227.7944   6.9255463464e+01   1.9965600811e+01    0.3150583    0.1586695 -58.86   0.00161961    2.352    0.575
        35 -12.1493     96.7927    131.3089   4.3172990152e+01   3.5921748793e+01    0.4309013     0.332368 -43.51 0.0004298103    1.365    0.268
        36 -11.6691    107.9958    132.6233   4.0111732424e+01   3.3535018854e+01    0.5144596    0.3766212   0.20  0.002228916    1.944    0.486
        37 -11.5567    133.6488    128.5495   3.2232876411e+01   2.9502720987e+01    0.6123394    0.4357961  87.00  0.001785523    2.221    0.550
        38  -9.2030    182.6435    124.8541   2.0809131033e+01   2.0734243529e+01    0.2002998    0.1165793 -48.19 0.0005759741    1.698    0.411
        39 -10.8011    161.6283    118.8705   2.3523773266e+01   2.5907634005e+01     0.506395    0.2871631 -61.93  0.001861983    2.581    0.613
        40 -10.8271    115.3397    125.6845   3.6440875958e+01   3.3766108755e+01    0.2886676    0.2630884  -8.40 0.0006014723    1.217    0.178
        41 -10.6083    103.1891    120.6467   3.8804877004e+01   3.7334329970e+01    0.2900915    0.2562082   8.23  0.000695201    1.292    0.226
        42  -9.5840    110.6619    115.9400   3.5437310392e+01   3.6977155162e+01    0.2131834    0.1979341 -57.38 0.0003892581    1.079    0.073
        43 -11.6992    117.6278    109.3210   3.1764976979e+01   3.7066921389e+01    0.4963785    0.3215984  61.97  0.002060082    1.882    0.469
        44 -11.9603    119.5626    104.8705   3.0055761006e+01   3.7654247603e+01     0.475757    0.3034118 -48.12  0.001319528    1.561    0.359
        45 -10.4600     86.2227    106.0734   4.0687333996e+01   4.4175551891e+01    0.3285469    0.3062792  20.70 0.0009395514    1.145    0.126
        46 -11.0846    133.6695    104.9135   2.6378218706e+01   3.4598525016e+01    0.3689909    0.3140169 -56.36   0.00187952    1.173    0.148
        47 -12.3257     89.4663    215.9818   5.8366748922e+01   1.7515726548e+01    0.5950938    0.3260204 -63.73  0.002734319    2.157    0.536
        48 -11.9031    112.8027     99.4540   3.0487504248e+01   4.0318877816e+01    0.5785722    0.4174396  75.33  0.002074959    1.808    0.447
        49 -10.7030     61.0093    219.7772   6.5718163541e+01   2.0243763926e+01    0.1472974    0.1272652  58.95 0.0003576748    1.133    0.117
        50  -9.3300    139.9723     94.4676   2.2052540939e+01   3.5355553825e+01    0.2154127    0.1495626  53.16 0.0004006472    1.477    0.323
        51 -19.0960     24.3406    132.9286   6.8499274998e+01   4.5615339812e+01      19.6325      7.68559 -84.51   0.07009078    2.782    0.641
        52 -11.1460     67.8123    214.1390   6.3538954130e+01   2.0613718620e+01    0.1770968    0.1513244  45.73  0.000279886    1.044    0.042
        53  -9.4549    114.1271     87.8543   2.6776513738e+01   4.2567230040e+01    0.2387972    0.2028975 -88.98 0.0004268286    1.304    0.233
        54 -10.2703     97.0509     87.6931   3.1912317861e+01   4.6368994370e+01    0.3155877    0.2522091 -84.66 0.0004324675    1.499    0.333
        55 -10.8085     92.2422     85.1514   3.2733155897e+01   4.7970251961e+01     0.332773    0.2394278  60.50 0.0005228151    1.531    0.347
        56 -10.3997    161.8742    202.0829   3.9836025757e+01   1.0178053325e+01    0.3671477     0.228151   0.10  0.001860111    1.967    0.492
        57 -10.3345     61.4367    202.5562   6.4094345150e+01   2.3898144170e+01     0.170724    0.1224437  54.84 0.0009336477    1.303    0.232
        58 -13.1477    171.6749     67.8229   8.5892038872e+00   3.2914952555e+01    0.7400361    0.6561502 -55.66  0.001056505    1.028    0.028
        59  -9.5622    135.7591     71.7482   1.6428058619e+01   4.0689067034e+01    0.2118401    0.1681785 -75.19 0.0007659649    1.367    0.269
        60 -13.7755    188.7165     54.1852   2.6385459222e+00   3.1157975152e+01     1.143859    0.9514239  20.96  0.004160621    1.696    0.410
        61 -12.0220    194.4685     48.6651   5.7339398974e-01   3.0671028741e+01    0.3547982    0.3325289 -21.99 0.0009391931    1.299    0.230
        62  -9.6754     67.9473     55.4906   3.1593515603e+01   5.9492200820e+01    0.2329747    0.1431658  45.80  0.001026628    1.593    0.372
        63  99.0000     51.3403    197.4310   6.6308147120e+01   2.6254840261e+01    0.2462539    0.1576045 -72.31  0.001054162    1.686    0.407
        64 -11.0237     64.1262    235.4741   6.6213122601e+01   1.6757104038e+01    0.1062587   0.07525495 -52.73 0.0006263526    1.756    0.431
        65  -9.4810     51.6002    201.9957   6.6630989587e+01   2.5184181227e+01    0.2467382    0.1387573 -62.05   0.00122416    1.954    0.488
        66 -10.3228     60.7659     21.3390   1.8709982269e+01   6.6985998858e+01    0.2308936    0.2032269  72.11 0.0008420114    1.249    0.199
        67 -10.8872     70.9154    232.8806   6.4423924347e+01   1.6472771354e+01     0.133677    0.1131195  36.39  0.000440379    1.052    0.049
