#   1 NUMBER                 Running object number                                     
#   2 MAG_AUTO               Kron-like elliptical aperture magnitude                    [mag]
#   3 X_IMAGE                Object position along x                                    [pixel]
#   4 Y_IMAGE                Object position along y                                    [pixel]
#   5 X_WORLD                Barycenter position along world x axis                     [deg]
#   6 Y_WORLD                Barycenter position along world y axis                     [deg]
#   7 A_WORLD                Profile RMS along major axis (world units)                 [deg]
#   8 B_WORLD                Profile RMS along minor axis (world units)                 [deg]
#   9 THETA_WORLD            Position angle (CCW/world-x)                               [deg]
#  10 FWHM_WORLD             FWHM assuming a gaussian core                              [deg]
#  11 ELONGATION             A_IMAGE/B_IMAGE                                           
#  12 ELLIPTICITY            1 - B_IMAGE/A_IMAGE                                       
         1 -13.0244    182.7344     36.2778   6.1926653900e+01   3.4976529545e+01     1.346603     1.014398  18.77  0.004624033    1.625    0.385
         2 -11.8179    187.4034     29.7107   5.9240908188e+01   3.4593984263e+01    0.5901575    0.5388446 -17.85  0.001660009    1.172    0.146
         3 -11.7111    207.3906      4.4883   4.9657648449e+01   3.2244003918e+01    0.6060889    0.5037661  13.66  0.003202747    1.492    0.330
         4 -11.6891    201.6536      4.3451   5.0185974479e+01   3.3694632631e+01    0.5774764    0.4539838 -37.03  0.003099935    1.293    0.227
         5 -11.1030    174.5973    220.2989   1.0685851225e+02   5.5684519610e+00    0.4821934    0.2351426  29.03  0.002265917    2.276    0.561
         6 -10.3868    140.0426    249.8190   1.1689609702e+02   6.8444256023e+00    0.3361541    0.1930422  48.26  0.001410468    1.385    0.278
         7 -10.9046    140.5281    245.4844   1.1633223536e+02   7.3808121317e+00    0.2416786    0.2005757  61.48  0.001706178    1.226    0.184
         8  -8.9311    141.1620    197.9300   1.1004279306e+02   1.4858504594e+01    0.1957238    0.1614021  67.34 0.0006181162    1.277    0.217
         9  -9.0169    121.1670    197.7421   1.1410489468e+02   1.8258149059e+01    0.1582369    0.1483572  10.58 0.0007468961    1.310    0.237
        10 -10.5742    114.5286    194.6099   1.1504808156e+02   1.9925556731e+01    0.3000033    0.2349762  -5.32  0.001667872    2.053    0.513
        11  -9.9416    193.9845    196.4777   9.9368536305e+01   5.7571674935e+00    0.6185978    0.3210961 -61.92  0.001850676    7.159    0.860
        12  -8.6683    152.9991    193.9303   1.0701527799e+02   1.3490370597e+01    0.2128876    0.1526959  68.30  0.001127813    1.753    0.429
        13 -12.1577    106.2270    204.6482   1.1803250013e+02   1.9355721423e+01    0.5159189     0.421016 -47.24   0.00333199    1.538    0.350
        14 -10.0186     99.3641    191.7565   1.1783752194e+02   2.2864308361e+01    0.2544585    0.1692953  70.39 0.0006424222    1.596    0.373
        15  -8.9414    113.6407    185.6823   1.1398827170e+02   2.1792414692e+01    0.1262686    0.1041777  -0.91  6.46054e-05    1.759    0.432
        16 -10.8372     99.5945    179.9453   1.1621777299e+02   2.5191888229e+01     0.372177    0.2230276 -53.90  0.001428401    1.799    0.444
        17  -9.0704    167.1983    175.4108   1.0089510844e+02   1.4147558018e+01    0.3973674    0.2709293 -83.29  0.001717101    2.810    0.644
        18 -10.5575    104.6522    172.2729   1.1398568273e+02   2.5967936509e+01    0.3196092    0.2851639  75.07   0.00198335    1.035    0.034
        19  -9.8850     67.8712    172.2784   1.2223336551e+02   3.1374960107e+01    0.2066437    0.1500407  87.25 0.0002736943    1.293    0.226
        20  -9.6388    114.2548    169.7827   1.1143407898e+02   2.4891776660e+01    0.1798551    0.1634293   0.61  0.001065275    1.388    0.279
        21  -8.5935    124.6524    171.6961   1.0941629166e+02   2.2705530951e+01    0.1334706    0.1087692   1.69 0.0007040783    1.694    0.410
        22  -9.8894    194.4565    167.6673   9.3872374046e+01   1.0236409404e+01    0.3142198    0.2634867 -24.37 0.0008684308    1.229    0.186
        23  -8.5551    141.2664    169.6451   1.0538519831e+02   2.0109251204e+01    0.1376543    0.1066076  83.45 0.0006026801    1.629    0.386
        24  -9.9612     73.2338    175.1665   1.2139281491e+02   3.0044499390e+01    0.2600418    0.1481173  52.67   0.00120833    1.637    0.389
        25  -8.7833    204.0883    164.7815   9.1414794637e+01   8.8458873254e+00    0.3404768    0.1750901 -53.10  0.001333187    3.065    0.674
        26  -9.3740      9.7821    214.0957   1.3692738728e+02   2.9463474741e+01    0.2193871    0.1604779  16.66  0.001591228    2.343    0.573
        27 -10.2076     95.4167    160.4024   1.1428373808e+02   2.9963394202e+01    0.2521736    0.2311052 -58.55 0.0004849133    1.193    0.162
        28  -9.0971    190.2922    160.7985   9.3298709626e+01   1.2213947987e+01    0.2345772     0.173042 -38.41 0.0005670571    1.426    0.299
        29  -9.3180    189.0323    155.4235   9.2426685257e+01   1.3398100127e+01    0.3256262    0.2640069  37.96  0.001333026    1.168    0.144
        30 -11.0931    100.4334    153.2938   1.1192954409e+02   3.0708191418e+01    0.5582535    0.3854523 -37.63  0.002808788    1.834    0.455
        31  -8.2623     82.2764    149.6499   1.1575064252e+02   3.4333860253e+01    0.1388521   0.09555341  78.94 0.0006484225    1.639    0.390
        32  -9.9882    133.7686    144.0097   1.0216907583e+02   2.6741580790e+01    0.6367852    0.1886571 -53.64  0.001881458    4.128    0.758
        33 -10.9932    109.8271    139.3204   1.0706125056e+02   3.2193217816e+01    0.5023381    0.3190315 -32.11  0.002222773    2.176    0.540
        34 -10.7538     99.1907    138.9495   1.0967047832e+02   3.4094986220e+01     0.278163     0.266436 -30.89 0.0004483474    1.192    0.161
        35 -10.3577    156.5337    218.3595   1.0998084680e+02   8.8661680692e+00    0.2508535    0.1806248  26.41  0.001264898    1.422    0.297
        36 -10.1181    105.9638    130.7365   1.0631313962e+02   3.4782801481e+01    0.4117735    0.2930059 -63.91  0.001085002    1.441    0.306
        37  -9.5512    104.6036    125.9556   1.0566476417e+02   3.6094000094e+01    0.2882214    0.2235865 -27.05  0.000605443    1.602    0.376
        38  -9.7668    116.6049    129.8512   1.0339528501e+02   3.3058347334e+01    0.2920178    0.2291683   5.26 0.0009548838    1.755    0.430
        39  -9.2926    160.1393    127.2943   9.2284684110e+01   2.4754287716e+01     0.292713    0.2013946 -70.37  0.001230326    2.134    0.531
        40  -9.2031    135.5112    128.0175   9.8263764378e+01   2.9778367765e+01    0.3764417    0.1369396 -57.11   0.00103906    4.477    0.777
        41  -9.0164    111.8011    119.0889   1.0224325049e+02   3.6332889233e+01     0.225076    0.1958953  79.46 0.0005922389    1.250    0.200
        42  -8.9743      8.9606    217.5345   1.3722427483e+02   2.8917328750e+01    0.1275661   0.09456135  67.29 0.0004066635    1.113    0.102
        43  -9.7874    130.0837    212.6817   1.1431633798e+02   1.4146890336e+01    0.2172318    0.1608396  75.04 0.0006824756    1.563    0.360
        44  -8.8672    168.1787    113.2368   8.7000626940e+01   2.5731866331e+01     0.345194    0.2422922  86.45  0.001396166    2.339    0.572
        45  -8.5529    205.5092    110.4600   7.8712106402e+01   1.7731925794e+01    0.2630625       0.1309  40.75   0.00102716    2.169    0.539
        46 -11.4720    102.7871    199.3423   1.1807991692e+02   2.0877158613e+01    0.4796922    0.2893137  39.33  0.002648727    1.557    0.358
        47 -11.2030    107.0425    210.4892   1.1856662925e+02   1.8165695791e+01    0.5235618    0.1766215  43.54  0.002280585    2.445    0.591
        48  -9.5639     93.7130    205.4480   1.2062631734e+02   2.1087029139e+01    0.2693481    0.2188177 -44.65    0.0014175    1.644    0.392
        49 -10.3134     95.1540    200.5815   1.1978133457e+02   2.1793500623e+01    0.3619742    0.2180033  88.07  0.001897821    2.088    0.521
        50 -10.7987    172.4150     71.5178   7.4481956757e+01   3.2350457138e+01    0.5146093    0.3478979 -80.71 0.0008405311    2.300    0.565
        51 -11.8327    168.8450     51.2595   6.8983976745e+01   3.6468823439e+01    0.6246783     0.566598 -46.55  0.001962141    1.128    0.113
        52 -19.5504     31.9863    150.7370   1.2802914562e+02   4.0200741684e+01     18.54622     2.948242 -71.99   0.05349011    6.096    0.836
        53  -9.3364    158.5585    237.3277   1.1213407307e+02   5.7383537948e+00    0.1953415     0.110161 -67.69 0.0009586497    3.407    0.706
        54 -10.2393    189.1862     14.8643   5.4589119918e+01   3.5815556285e+01     0.221891    0.1820294 -68.54 0.0009381247    1.232    0.188
        55  -8.6271    168.8796    235.1274   1.0998459565e+02   4.4072077609e+00    0.1691505    0.1406371  51.26 0.0005333386    1.232    0.188
