#   1 NUMBER                 Running object number                                     
#   2 MAG_AUTO               Kron-like elliptical aperture magnitude                    [mag]
#   3 X_IMAGE                Object position along x                                    [pixel]
#   4 Y_IMAGE                Object position along y                                    [pixel]
#   5 X_WORLD                Barycenter position along world x axis                     [deg]
#   6 Y_WORLD                Barycenter position along world y axis                     [deg]
#   7 A_WORLD                Profile RMS along major axis (world units)                 [deg]
#   8 B_WORLD                Profile RMS along minor axis (world units)                 [deg]
#   9 THETA_WORLD            Position angle (CCW/world-x)                               [deg]
#  10 FWHM_WORLD             FWHM assuming a gaussian core                              [deg]
#  11 ELONGATION             A_IMAGE/B_IMAGE                                           
#  12 ELLIPTICITY            1 - B_IMAGE/A_IMAGE                                       
         1 -16.1868     17.5087    112.4715   7.9218997788e+01   5.1118467033e+01     2.919626     1.568952  81.79   0.01331822    2.087    0.521
         2 -15.4015      5.2644    104.9428   8.2778033160e+01   5.3830344387e+01     2.227488    0.7343477 -81.64  0.006999305    2.941    0.660
         3 -15.0824     25.9984     73.3577   6.9052461869e+01   6.0305227704e+01     2.222479     1.853396  30.51  0.009526515    1.320    0.243
         4 -14.5008      4.1612     24.9987   6.7262420260e+01   7.2786053734e+01     1.422945     1.130959  49.71  0.007887637    1.717    0.417
         5 -13.7972      8.9496     53.5537   7.2829013935e+01   6.6257409262e+01     1.828593    0.9584996 -50.54  0.009516979    1.565    0.361
         6 -13.7541      7.1146     43.5475   7.1289606167e+01   6.8639535484e+01     1.173446    0.5722395 -26.88   0.00570591    2.159    0.537
         7 -14.1588     11.5582     15.7751   5.8018787914e+01   7.4031989311e+01      1.21564     0.684113  33.29  0.005826349    2.008    0.502
         8 -14.4062     11.5485      5.6787   5.2527652834e+01   7.5797379993e+01     1.132583    0.5862049  28.54  0.004888159    1.935    0.483
         9 -13.2640    245.4983     30.2518   2.4253143257e+00   2.1549137954e+01     0.846872     0.329805 -63.41  0.003618185    3.138    0.681
        10 -14.5845    233.7177     36.0802   4.6145101255e+00   2.3198011720e+01     1.271932    0.8413048 -12.52  0.006931216    2.118    0.528
        11 -13.8166    233.7571     16.7133   3.0673174509e-01   2.5427376126e+01    0.9817582    0.2977269 -45.22  0.004389302    2.469    0.595
        12 -13.8638    242.3391     15.0412   3.5939792208e+02   2.3880627422e+01    0.6093667     0.463778 -39.82  0.003439193    1.233    0.189
        13 -13.4919    245.7119      5.6528   3.5724150155e+02   2.4204756657e+01    0.7996501    0.4741357 -47.15  0.005090849    1.313    0.238
        14 -13.7817     51.1578     34.9056   4.3708879675e+01   6.5477603314e+01    0.8214837    0.7074903 -44.65  0.004357226    1.288    0.224
        15 -12.8148     42.5327     35.7283   4.8382472126e+01   6.6667805504e+01     0.843446    0.4799426 -28.02  0.003996336    1.946    0.486
        16 -12.2880    220.0047     34.0121   5.3318098053e+00   2.6323383942e+01    0.3576951    0.2162828 -54.49  0.001959413    1.469    0.319
        17 -12.9358     75.3439     18.0876   2.5621184123e+01   6.3323693673e+01     0.690287    0.5143035 -23.72  0.003839228    1.417    0.294
        18 -12.5314     60.8474     15.5860   2.9829433768e+01   6.6679895895e+01    0.6684788    0.4487077  30.57  0.003605066    1.434    0.303
        19 -11.6351    200.2991     10.5362   1.2983167626e+00   3.3382721416e+01    0.4062241    0.1846197 -61.41  0.001858813    2.219    0.549
        20 -12.0906     30.8121      8.1419   4.0701222206e+01   7.2977410651e+01    0.6856903    0.3817152   4.36  0.003134973    2.671    0.626
        21 -12.6111     27.6091      3.3493   3.9673682912e+01   7.4125294453e+01    0.5391709    0.4001979  -9.80  0.003022775    1.231    0.188
        22 -11.1610    125.8186     10.9972   1.0165980845e+01   5.1851610657e+01     0.324281    0.2002214  82.87  0.001562216    1.673    0.402
        23 -12.0065    108.1866      1.9295   9.7769718990e+00   5.7133797579e+01    0.4693494    0.1463245  62.24  0.001794662    2.517    0.603
        24 -12.5093     73.1622    132.4330   6.3499124762e+01   3.9631469685e+01    0.4906534    0.2852582 -58.94   0.00145075    1.678    0.404
        25 -13.0812    248.3056    224.3450   4.0551738137e+01  -5.2409810030e+00    0.5722442    0.2461261 -28.52  0.003276032    2.093    0.522
        26 -13.2852    241.7791    226.2340   4.1893620026e+01  -4.7186536649e+00    0.5433599    0.2618621 -13.88  0.002948227    2.317    0.568
        27 -14.9840    225.5314    247.3840   4.7784390309e+01  -5.3010867214e+00     1.941313    0.4684108  32.83  0.008461473    3.545    0.718
        28 -14.1662    238.8907    237.1575   4.4052748919e+01  -5.6511064687e+00    0.7170443    0.3921325  27.08   0.00361409    1.599    0.375
        29 -14.5640    199.9091    244.2400   5.1809258783e+01  -1.8684951966e+00     0.824832    0.7161847  25.57  0.005196772    1.424    0.298
        30 -16.1665     76.1252    235.5092   7.5851413963e+01   1.6123747438e+01     2.310002     1.781103  73.66   0.01108127    1.360    0.265
        31 -14.9118     54.5993    238.9564   8.0672089237e+01   1.8108367605e+01     1.433911    0.7293492  85.35  0.007647412    2.431    0.589
        32 -14.5020     45.6743    214.2914   8.0875428738e+01   2.3967752248e+01     2.138173    0.7964398  63.13  0.008474556    3.380    0.704
        33 -14.5394     33.8085    245.4216   8.5291044324e+01   1.9228753397e+01      1.12794    0.5062985  60.57  0.005597391    1.973    0.493
        34 -13.3046     39.9911    237.0434   8.3586402160e+01   2.0112522677e+01    0.6834939    0.3276639  60.24  0.003098438    1.885    0.470
        35 -15.5435     50.0877    196.0340   7.8366345655e+01   2.7366039169e+01     3.974439     1.612201 -85.68   0.01572402    3.276    0.695
        36 -14.5068     71.2498    203.5463   7.3954160054e+01   2.3085933873e+01     1.361312    0.6883946  84.57  0.005697879    3.034    0.670
        37 -14.5132     59.0304    193.8333   7.5955048504e+01   2.6768931844e+01     1.114827     0.656369  71.90  0.004439461    1.886    0.470
        38 -15.7470     23.1058    188.1017   8.4372141547e+01   3.2034631799e+01     1.773619     1.010956  89.26   0.00723357    1.663    0.399
        39 -15.2166     18.1829    155.5552   8.3310489631e+01   4.0179330843e+01     2.245457    0.6744084 -78.12  0.008401201    3.109    0.678
        40 -15.2690     15.0401    214.1597   8.7669937137e+01   2.7164843874e+01     2.203984    0.5663217  52.92   0.00928512    3.046    0.672
        41 -14.5980      6.1547    191.3245   8.8608812980e+01   3.2823594199e+01     1.814426    0.3903917  58.16  0.006104835    4.650    0.785
        42 -15.8769      6.4516    176.0004   8.7777367579e+01   3.6262402313e+01     3.370216    0.8662273 -86.32   0.01186771    4.059    0.754
        43 -12.1303     24.3242    250.6668   8.7386252876e+01   1.9264259567e+01    0.2970622    0.0786702  31.05  0.001348503    3.015    0.668
        44 -13.4820      3.8209    248.7203   9.1197286343e+01   2.1565511245e+01    0.4805589    0.1199485  52.81  0.002394432    2.589    0.614
        45 -14.3793     13.8331    229.7173   8.8596156067e+01   2.4173434046e+01     1.678099    0.4484792  60.12  0.007036197    3.438    0.709
        46 -11.3581      7.2010    127.6198   8.4291706092e+01   4.7974307937e+01    0.3413004    0.1583295 -84.29  0.001550439    1.958    0.489
        47 -13.8985    122.1328    117.2878   4.5430969084e+01   3.4414297553e+01    0.9619995    0.8411428 -72.26  0.003936247    1.257    0.205
        48 -11.1980      2.1101    119.2702   8.5243665252e+01   5.0384959077e+01    0.2665988    0.1844038 -58.85  0.001095144    1.361    0.265
        49 -12.9588     87.9220    106.5348   5.3048627708e+01   4.3612354510e+01    0.8865879    0.4541781 -46.68  0.003508257    1.958    0.489
        50 -12.5823    124.6694    103.3844   4.1119024804e+01   3.6950535015e+01    0.5243176     0.371136 -38.83   0.00228127    1.457    0.314
        51 -12.7688     59.0242    116.2613   6.5078197004e+01   4.5776327019e+01    0.7555716    0.3615324 -51.07  0.003076831    2.018    0.505
        52 -14.6700     83.1483     89.6714   5.0151833732e+01   4.8476814348e+01     2.015726     1.186256 -51.99  0.007611813    1.693    0.409
        53 -13.8338     70.5345     85.9505   5.3671737549e+01   5.1553415181e+01      1.48165    0.7419513 -58.53  0.005586541    2.138    0.532
        54 -12.6047     19.1148     92.4410   7.5753749580e+01   5.6112359163e+01    0.5709629    0.4496836 -30.04   0.00246825    1.360    0.265
        55 -11.4798     48.4391     89.4730   6.3224912968e+01   5.3932506073e+01    0.6655121    0.2527499  43.24  0.002391323    2.999    0.667
        56 -12.0762      6.3986    239.0742   9.0412157044e+01   2.3086616214e+01    0.3700596    0.1204262  63.37  0.001591865    2.633    0.620
        57 -15.7955    113.9377    244.5629   6.8736396992e+01   9.5609128058e+00     2.181412     1.018007  38.35    0.0115155    1.668    0.401
        58 -14.2192     99.6066    234.9542   7.0757558810e+01   1.3138015810e+01    0.9327006    0.4572452 -50.27   0.00481447    2.514    0.602
        59 -15.9702    144.5020    243.6864   6.2376458077e+01   5.5297862926e+00     3.832064      1.29632  32.56   0.01697904    2.408    0.585
        60 -12.8395    100.9949    211.6577   6.7851520546e+01   1.7292912033e+01    0.5696295    0.3338227  76.16   0.00233254    2.825    0.646
        61 -11.8497    112.5476    217.8765   6.5983212902e+01   1.4424895784e+01    0.3769329    0.1598347  47.54    0.0016198    2.371    0.578
        62 -11.9141     52.5495     79.7659   5.9053056501e+01   5.5755877399e+01    0.5693306    0.3563463 -49.61  0.002708062    1.493    0.330
        63 -12.6104    150.8126     74.3390   2.6363939426e+01   3.6646175895e+01    0.6570743    0.4403937  55.54  0.003026173    1.488    0.328
        64 -10.8081     34.7121    214.9176   8.3384008453e+01   2.5045019961e+01    0.2721398    0.1300992 -69.86  0.001435481    2.174    0.540
        65 -14.4850    103.3514    192.5383   6.4805147880e+01   2.0834712996e+01     1.446619     1.009243  78.84  0.007264672    1.896    0.473
        66 -14.8723     87.7074    201.1648   6.9727314221e+01   2.1332710295e+01     1.442099    0.8802127 -79.76   0.00609623    2.057    0.514
        67 -15.0480     82.0685    180.5975   6.8546530081e+01   2.6645154818e+01     1.878535     1.023482  59.04  0.006421362    2.143    0.533
        68 -10.8472     35.7068    179.9265   8.0588986489e+01   3.2647380662e+01    0.2908391    0.1394924 -85.59  0.001015156    2.180    0.541
        69 -13.5723    233.3584     59.4746   9.9269168721e+00   2.0257862650e+01    0.5795556    0.4553031  87.25  0.002214961    1.387    0.279
        70 -13.6531    233.5619     51.5338   8.1099222737e+00   2.1275176230e+01    0.6196523    0.4126751 -48.61  0.002398206    1.268    0.211
        71 -11.9691    191.8294     55.4374   1.3893211252e+01   2.9823666505e+01    0.5508336    0.3209305 -32.01  0.002614073    1.700    0.412
        72 -12.7672     78.8977     52.7913   3.9427709446e+01   5.7121239848e+01    0.6954893    0.3483075 -45.39  0.002879431    2.081    0.519
        73 -11.8818     51.9051     56.8560   5.2164418021e+01   6.1048920668e+01     0.434272    0.3934515  76.48  0.002503132    1.383    0.277
        74 -13.1174    138.0042     51.1768   2.1882154163e+01   4.3662726650e+01    0.8817573    0.4373277 -37.02  0.003603957    2.029    0.507
        75 -12.7723    128.2500     44.6010   2.1797616855e+01   4.7105200372e+01    0.8526027    0.3297362  51.26  0.003114439    2.414    0.586
        76 -11.8065     94.1373     43.1072   3.0370040424e+01   5.5548671174e+01    0.2355075    0.1982421  19.72  0.001250418    1.258    0.205
        77 -10.8649     29.6159     42.2490   5.7984233475e+01   6.7032519375e+01    0.4186958    0.2473393 -62.55  0.002059614    1.969    0.492
        78 -12.1726     25.5397     36.0216   5.7890704367e+01   6.8754468897e+01    0.4939417    0.4424725  -4.97  0.003222632    1.100    0.091
        79 -11.2434     26.4867     29.9978   5.4809824202e+01   6.9840956894e+01    0.2991926     0.232178 -45.41  0.001306269    1.274    0.215
        80 -11.9097     39.1194    172.3808   7.9016643678e+01   3.4064090036e+01    0.4519742    0.2523032  73.14  0.001682253    1.908    0.476
        81 -12.2824     68.5236    179.5098   7.1955377271e+01   2.8792167876e+01     0.503488    0.3504486  83.01  0.001767427    1.573    0.364
        82 -10.6971     37.9185    161.8938   7.8319282870e+01   3.6731466152e+01     0.440323    0.2526669  83.78  0.002110505    1.846    0.458
        83 -11.4128    198.7090     32.6807   7.0937915940e+00   3.1252902987e+01    0.3280768    0.2256816  -9.83  0.001684487    2.003    0.501
        84 -12.5012    238.4491    152.5477   2.9313580119e+01   5.6064678066e+00     0.363695    0.1932103 -23.77  0.001534285    1.861    0.463
        85 -14.6976     45.7404    118.7209   7.0149187075e+01   4.6820602140e+01     3.674341      1.65072 -45.58   0.01447078    2.436    0.590
        86 -13.8411     15.1339    126.1445   8.1576185835e+01   4.7798439699e+01    0.9833733    0.5183083  63.85  0.004485999    2.051    0.512
        87 -10.6229     16.5731    249.4517   8.8820803070e+01   2.0244409396e+01     0.104441   0.08367867  54.72 0.0003438498    1.133    0.117
        88 -10.5583     12.2067    244.0887   8.9461831619e+01   2.1627593028e+01     0.159285    0.1220716  -5.71 0.0009042667    2.174    0.540
        89 -11.5550     10.5504    139.0094   8.4203007204e+01   4.4883590627e+01    0.3479823    0.2033697  89.22  0.001389022    1.560    0.359
