#   1 NUMBER                 Running object number                                     
#   2 MAG_AUTO               Kron-like elliptical aperture magnitude                    [mag]
#   3 X_IMAGE                Object position along x                                    [pixel]
#   4 Y_IMAGE                Object position along y                                    [pixel]
#   5 X_WORLD                Barycenter position along world x axis                     [deg]
#   6 Y_WORLD                Barycenter position along world y axis                     [deg]
#   7 A_WORLD                Profile RMS along major axis (world units)                 [deg]
#   8 B_WORLD                Profile RMS along minor axis (world units)                 [deg]
#   9 THETA_WORLD            Position angle (CCW/world-x)                               [deg]
#  10 FWHM_WORLD             FWHM assuming a gaussian core                              [deg]
#  11 ELONGATION             A_IMAGE/B_IMAGE                                           
#  12 ELLIPTICITY            1 - B_IMAGE/A_IMAGE                                       
         1 -12.7905    199.1555     36.6833   4.7773450454e+01   3.0648938707e+01      1.75625     1.152052  34.60  0.008211665    1.986    0.496
         2 -12.6001    210.6217     24.5132   4.3113097725e+01   2.9328651498e+01     1.032421    0.7808377  35.13   0.00497663    1.680    0.405
         3 -10.3499     17.7073     37.8539   1.0133762692e+02   6.6747015771e+01    0.3892753    0.0906179 -39.69  0.001415118    3.748    0.733
         4  -9.8390     32.7294     19.8357   8.6937729343e+01   6.8556111984e+01    0.2768897   0.09271336 -43.64  0.001199003    2.775    0.640
         5 -10.3312    234.8420      2.1211   3.5483153639e+01   2.6110965973e+01    0.6555461    0.2248861  75.55  0.002785863    2.769    0.639
         6  -9.0485     22.9710      1.4830   8.2727179899e+01   7.2307898364e+01    0.1617056   0.09907968  23.71  0.001033595    1.595    0.373
         7 -11.9727     68.5478    144.2113   1.0815977868e+02   3.7136454309e+01    0.9497413    0.5990894  74.61  0.003998368    1.977    0.494
         8 -12.9147     85.4807    229.1308   1.1509862206e+02   1.6132247159e+01     2.138142     1.348203  65.73  0.008910141    1.499    0.333
         9 -11.6687     15.2346    190.6528   1.2572253187e+02   3.2383738613e+01    0.5032677    0.3493428  78.47  0.001006138    1.120    0.107
        10 -13.6085     45.4212    204.4447   1.2073893031e+02   2.6293513605e+01     2.430655     1.066528  57.48   0.00767725    2.122    0.529
        11 -12.5911     53.8268    193.8515   1.1804177129e+02   2.7532928437e+01     1.042959    0.8470545  65.07  0.005089375    1.091    0.083
        12  -9.6678     32.7252    165.0943   1.1986353399e+02   3.6368213467e+01    0.2503781    0.1696401 -86.53  0.001054896    1.251    0.201
        13  -9.2190     74.6934    189.3677   1.1301086911e+02   2.5761738658e+01       0.3481    0.2012495  65.97  0.001351388    1.856    0.461
        14  -8.8073     84.5032    143.8138   1.0381738756e+02   3.4921053829e+01    0.3011246    0.2114018  61.67 0.0009659834    1.574    0.365
        15  -8.5144    133.6007    142.8250   9.0744494382e+01   2.6353560896e+01    0.2230009    0.1458226 -61.26  0.000947938    1.740    0.425
        16  -9.4055    102.7588    140.3135   9.8240250266e+01   3.2761328238e+01    0.5097201    0.3096848 -29.89  0.002031784    2.441    0.590
        17 -10.6028     89.8785    140.7196   1.0179008801e+02   3.4823786352e+01    0.2855073    0.2500222 -43.94 0.0004443355    1.207    0.172
        18  -7.7964     38.1603    141.3186   1.1579867607e+02   4.1434276866e+01     0.169639    0.1067851  45.26 0.0003935658    1.687    0.407
        19  -8.8637     72.2074    186.4602   1.1321607522e+02   2.6750101761e+01    0.2336347    0.1847796  81.52 0.0004370681    1.147    0.128
        20 -14.1758     61.8996    247.5090   1.2101433724e+02   1.5987126620e+01     6.135082     1.954188  30.60  0.007909786    6.466    0.845
        21  -9.0107    111.8691    130.9148   9.3753348167e+01   3.3346540052e+01    0.4029548    0.2174258  40.49  0.001157693    1.899    0.473
        22  -8.5146    105.8814    130.7265   9.5345766836e+01   3.4493299012e+01    0.2674654    0.2038956 -43.58  0.001300688    1.323    0.244
        23  -9.8899     32.4604    156.7291   1.1905769859e+02   3.8340428295e+01    0.4215522    0.1501325 -71.24  0.001822073    2.371    0.578
        24  -8.3004     99.3447    180.9168   1.0624197140e+02   2.3911410772e+01    0.1896509    0.1717823 -76.29  0.001059612    1.114    0.102
        25  -9.2621     98.9027    126.9304   9.6438946943e+01   3.6639852818e+01    0.2836305    0.2365414   2.45 0.0008181161    1.497    0.332
        26 -11.3228     58.7013    130.9611   1.0863993157e+02   4.1649460247e+01      1.02151     0.327455 -71.11   0.00296256    4.600    0.783
        27 -11.9222     70.0225    158.1922   1.0995680125e+02   3.3569666751e+01    0.6380188    0.4296797 -46.57  0.001820306    1.666    0.400
        28  -8.4662    107.9695    119.4842   9.2152953977e+01   3.6774273134e+01    0.2179672    0.2010911 -53.52   0.00115098    1.043    0.041
        29 -10.1117     68.1861    178.0658   1.1310231984e+02   2.9186867604e+01    0.3368932    0.2493353 -46.68  0.001756592    1.635    0.389
        30  -8.5375    135.0000    113.9800   8.3376693344e+01   3.2571897359e+01    0.2669892   0.08912411 -45.01  0.000802998    2.946    0.661
        31  -8.1221    168.3649    113.0348   7.4947254314e+01   2.5244636195e+01    0.2752888    0.1209108 -57.56 0.0007036934    4.612    0.783
        32  -9.6796     18.6416    111.3805   1.1717276052e+02   5.0328981536e+01    0.1888669    0.1298164  74.53  0.001096465    1.600    0.375
        33  -9.8396     49.3572    107.8218   1.0716343081e+02   4.8390238109e+01    0.2839234    0.1959816  63.42  0.001440749    1.811    0.448
        34  -9.3414    119.5838    105.1123   8.5172202805e+01   3.7806488760e+01    0.5786992    0.1906752 -36.02  0.001438032    4.886    0.795
        35  -8.2676    205.8112    110.1889   6.6437684953e+01   1.7133204491e+01    0.2133308    0.1799126   6.02 0.0006469458    1.329    0.247
        36  -9.7870     33.1992     99.9829   1.1080740720e+02   5.1882846987e+01    0.4067558    0.1389902 -69.10  0.001521372    2.912    0.657
        37  -7.9170     41.2289     91.8741   1.0651328381e+02   5.3052279027e+01    0.1829093    0.1343729 -39.22 0.0005029544    1.305    0.234
        38  -8.3729     74.9940     84.9650   9.3253270560e+01   5.0416507427e+01    0.2159887    0.1986636 -40.45 0.0003722476    1.037    0.036
        39  -8.4287    114.6818     84.0203   8.0450427455e+01   4.3402884090e+01    0.2549876    0.1200851 -60.03 0.0007049159    4.309    0.768
        40 -15.0602      6.6556    206.4749   1.2829214420e+02   2.9898733424e+01     5.098768     1.311402 -72.38   0.01715764    3.111    0.679
        41 -11.7695    189.7975     43.8709   5.1138210944e+01   3.2042951861e+01    0.6731865    0.5688376  15.84  0.002531657    1.433    0.302
        42 -15.7455      8.4022    242.5345   1.2970049193e+02   2.2906536895e+01     16.25398     1.747665 -78.23  0.003199847    8.843    0.887
        43 -12.6478     47.4891    223.4881   1.2184824312e+02   2.2212020696e+01     1.286845    0.6959028  66.20  0.003239073    1.636    0.389
        44  -9.8582    146.1743     50.5815   6.1326877311e+01   4.2173330145e+01    0.5305756     0.345894 -81.79  0.002080847    2.571    0.611
        45 -10.5580     72.9554    172.5800   1.1127172300e+02   2.9788121231e+01    0.4488902    0.2774853 -41.67  0.001548848    2.152    0.535
        46  -8.7950     40.2352    178.1707   1.1945548050e+02   3.2591331385e+01    0.1787273    0.1198874  69.45 0.0005902906    1.354    0.262
        47  -8.9526    147.7603     44.0476   5.8806003408e+01   4.2744458702e+01    0.2704863    0.2115997  69.81 0.0005361158    1.348    0.258
        48 -11.3935    162.0978    226.6534   9.9572599596e+01   4.4359973206e+00    0.6485773    0.2945335  35.10  0.002994972    1.980    0.495
        49  -9.4875     32.6629     29.5596   9.1191230813e+01   6.6949691503e+01      0.30223    0.1044101 -49.49  0.001256755    2.938    0.660
        50 -10.5697     88.4249    156.0951   1.0494974693e+02   3.1366673801e+01    0.5799932     0.405882 -25.63  0.001402754    2.155    0.536
        51  -8.8447     93.9774    220.0035   1.1246320333e+02   1.6624477155e+01    0.1950704    0.1556425  65.96 0.0006167101    1.097    0.088
        52 -11.7990     82.2920    162.6609   1.0756204702e+02   3.0751685411e+01     1.496026    0.5418383  53.35 0.0005824543    3.762    0.734
        53  -7.6218    113.6395    208.2805   1.0694755885e+02   1.5844835686e+01    0.1392722   0.08995949  63.59 0.0007014297    1.671    0.401
