#   1 NUMBER                 Running object number                                     
#   2 MAG_AUTO               Kron-like elliptical aperture magnitude                    [mag]
#   3 X_IMAGE                Object position along x                                    [pixel]
#   4 Y_IMAGE                Object position along y                                    [pixel]
#   5 X_WORLD                Barycenter position along world x axis                     [deg]
#   6 Y_WORLD                Barycenter position along world y axis                     [deg]
#   7 A_WORLD                Profile RMS along major axis (world units)                 [deg]
#   8 B_WORLD                Profile RMS along minor axis (world units)                 [deg]
#   9 THETA_WORLD            Position angle (CCW/world-x)                               [deg]
#  10 FWHM_WORLD             FWHM assuming a gaussian core                              [deg]
#  11 ELONGATION             A_IMAGE/B_IMAGE                                           
#  12 ELLIPTICITY            1 - B_IMAGE/A_IMAGE                                       
         1  -7.2602    105.3034      5.6887   3.8547277231e+00   5.7961799942e+01    0.1457917    0.1000357 -66.68  0.000174025    1.611    0.379
         2  -9.9378    151.0091    243.2098   5.3602141786e+01   5.5264046667e+00    0.2421257    0.1903027  -8.99  0.001264972    1.330    0.248
         3 -15.6915    225.6382     13.2897   3.5392287260e+02   2.7085469748e+01     8.699518     6.004611 -13.27   0.03946354    1.883    0.469
         4 -19.8383    236.7120    148.6369   2.2242867827e+01   7.2486996627e+00     6.937004     5.068248 -19.74   0.04535118    1.139    0.122
         5  -9.6964    132.5338    226.9899   5.5495923853e+01   1.0420540362e+01    0.2673933    0.1833846 -47.36 0.0009810068    1.799    0.444
         6 -10.2813    213.4632    223.0966   3.8957014346e+01   4.4569477960e-01    0.2548309    0.1558066   5.73 0.0007259629    1.438    0.305
         7 -10.5235    134.6692    219.3310   5.4042215787e+01   1.1384835977e+01    0.4019436    0.2780691 -25.98  0.001472347    1.726    0.421
         8  -8.7153    208.7103    220.2182   3.9349720097e+01   1.3709104009e+00    0.1595448     0.119646  13.92 0.0003740937    1.123    0.110
         9  -8.1302     66.1418    218.8641   7.0078319601e+01   2.0701845143e+01    0.2022098    0.1392841  50.93 0.0005206156    1.264    0.209
        10 -10.3071    118.2307    216.7219   5.7436265628e+01   1.4155949691e+01    0.2563509    0.2156306  23.28 0.0003973297    1.062    0.058
        11 -10.6987    155.2831    243.1376   5.2729373909e+01   4.9954125840e+00    0.2950142    0.2500084 -22.39 0.0002664175    1.392    0.282
        12 -10.5389    160.0335    241.1576   5.1528318370e+01   4.6695258517e+00    0.3840842    0.2599147  49.97 0.0004060843    2.093    0.522
        13  -7.3972     62.6884    210.6768   7.0247273776e+01   2.2772283040e+01    0.1213079   0.09791583 -13.98 0.0005478721    1.655    0.396
        14  -8.9613    108.7111    195.5018   5.6961730761e+01   1.9559316664e+01    0.3101304    0.1183606  32.81  0.001225424    2.216    0.549
        15  -8.4968    107.2683    186.9185   5.6123960715e+01   2.1532860499e+01    0.2804335    0.1964366  52.71 0.0009305242    1.489    0.328
        16  -9.1025    107.0766    182.6182   5.5544568210e+01   2.2464787431e+01    0.4059037    0.1760998  39.04  0.001103204    1.979    0.495
        17  -9.3156    108.4958    242.7809   6.2529475958e+01   1.1044619854e+01    0.2235577    0.1667753  21.19 0.0002565462    1.172    0.147
        18  -9.3725     98.7010    177.5694   5.7023631203e+01   2.4868675284e+01    0.2469973    0.2352809  41.93 0.0002674138    1.080    0.075
        19 -16.9351    224.9321    111.8606   1.6418144451e+01   1.4392928600e+01     2.278543    0.8186928  44.11  0.009476728    3.276    0.695
        20 -10.5275    110.7508    162.4680   5.1309050988e+01   2.6241175882e+01    0.4534523    0.2369435 -54.21  0.001909772    2.095    0.523
        21  -8.1213     98.9330    168.5238   5.5580122069e+01   2.6850686862e+01    0.2305544    0.1294266  37.18  0.001012749    1.573    0.364
        22  -8.0661     83.1072    161.5913   5.9045587760e+01   3.0967180747e+01     0.235709    0.1973605  76.68 0.0004339762    1.281    0.219
        23 -10.5921    109.7590    147.0509   4.8733473889e+01   2.9914230864e+01    0.5020984    0.3282585  46.39   0.00177111    1.484    0.326
        24  -7.9867     95.3047    145.9090   5.2757996755e+01   3.2749187743e+01    0.2005722    0.1925644 -55.47 0.0003850426    1.117    0.105
        25  -9.2208    120.0345    236.2839   5.9328068736e+01   1.0594960710e+01    0.2148135    0.1842158 -46.61 0.0009290418    1.494    0.331
        26 -10.0850    144.0706    232.2456   5.3675508808e+01   8.0360930827e+00    0.3506042    0.2777032  59.09 0.0002946534    1.804    0.446
        27 -10.3431    145.0608    226.2488   5.2691021776e+01   8.8271177478e+00    0.6127248     0.202502  34.08  0.002519706    2.385    0.581
        28  -9.0075    140.9798    222.7175   5.3103588117e+01   9.9479635131e+00    0.2276488    0.1835062  28.92 0.0003228055    1.107    0.096
        29  -9.9329    101.0116    139.0758   4.9715083631e+01   3.3379580826e+01    0.2705671    0.2548533  19.82  0.001439892    1.090    0.083
        30 -10.0086    110.3931    132.0583   4.5444718157e+01   3.3282086473e+01    0.3258125    0.2827485  82.16  0.001630805    1.314    0.239
        31  -9.6575    106.5051    126.3969   4.5343464761e+01   3.5370201029e+01    0.3746684    0.2815389  59.91  0.001717773    1.467    0.318
        32  -9.0166    148.0056    222.5291   5.1564923708e+01   9.0056835492e+00    0.2228395    0.1843514  60.15 0.0008034501    1.719    0.418
        33 -10.1124    132.1053    231.1889   5.6106101111e+01   9.8038787878e+00    0.3219734    0.2150975  58.39   0.00143915    2.154    0.536
        34  -8.2102     29.1724    112.0000   7.0375898693e+01   5.0812830974e+01    0.3757333   0.08160225  20.33  0.001037408    4.809    0.792
        35  -8.7947     60.8054    105.1633   5.6419188635e+01   4.8808001346e+01     0.210846    0.1817277 -19.12 0.0004951751    1.329    0.247
        36  -8.2078     73.0783    233.2366   6.9604912566e+01   1.7130239948e+01    0.1773289    0.1462474  18.27 0.0007044202    1.277    0.217
        37  -9.8789     75.8589    100.8404   4.9566979490e+01   4.7449071187e+01    0.2613893    0.2256595  78.04  0.001288743    1.263    0.208
        38 -10.5235     69.9614     96.0102   5.0610276438e+01   4.9703933697e+01    0.4497337    0.2477431  27.51  0.001759076    1.989    0.497
        39  -9.6579     66.1501     93.2774   5.1431357809e+01   5.1043080167e+01    0.2784941    0.2095677 -46.95  0.000745373    1.361    0.265
        40  -9.3109    110.9791     90.4823   3.4601009723e+01   4.2717466189e+01    0.2507753    0.2183412 -47.03 0.0004985957    1.183    0.155
        41  -8.5214    114.7717     80.8012   3.0501332564e+01   4.3906648371e+01    0.2186024    0.1862083  85.01 0.0004960413    1.319    0.242
        42  -9.6965    174.0916     76.5720   1.5735947861e+01   3.0347611058e+01    0.4981305    0.3638579  16.57  0.002255042    1.977    0.494
        43  -9.1414    151.3350     76.5544   2.0064643749e+01   3.5812336050e+01    0.3037821    0.2495297 -87.72 0.0007978536    1.352    0.261
        44 -10.1754    119.8802     74.8238   2.7134050794e+01   4.3887205048e+01    0.4672012    0.2622173  40.40  0.001590386    1.932    0.482
        45  -8.7716      1.9767     73.9952   7.7953892957e+01   6.2744290287e+01    0.2054085    0.1866149 -67.66 0.0007336598    1.017    0.017
        46  -9.0060    150.9816     71.0081   1.8489609502e+01   3.6870305981e+01    0.2292573    0.2191264 -71.17  0.000382682    1.018    0.018
        47 -10.0288    145.0827     69.0242   1.9123661716e+01   3.8686916991e+01    0.4937943    0.2362976 -50.54  0.001549113    2.354    0.575
        48  -9.9415    139.8369     65.5096   1.9166517325e+01   4.0621410774e+01    0.3539026    0.2954987  25.68  0.001244839    1.434    0.303
        49 -10.7801    136.6727     61.5371   1.8591041768e+01   4.2111155048e+01    0.6505147    0.3153143 -35.18  0.002011942    2.146    0.534
        50  -8.0640    163.9825     62.9336   1.3634424354e+01   3.4978850629e+01    0.2101981    0.1977423  12.96 0.0004215343    1.236    0.191
        51  -8.1482    158.0000     61.0424   1.4134993418e+01   3.6767990806e+01    0.2295645    0.1828491  18.72  0.000601246    1.658    0.397
        52  -8.6106    161.1499     56.7601   1.2294031270e+01   3.6644437131e+01    0.3058965    0.2251621  -1.79  0.001416985    1.936    0.483
        53  -8.4690    172.9279     65.9878   1.3002765605e+01   3.2319376836e+01    0.2095162    0.1957156 -81.80 0.0004776972    1.041    0.040
        54  -8.7587    156.9026     65.5592   1.5691978064e+01   3.6313515700e+01    0.2774292    0.2158002 -11.97 0.0008582883    1.618    0.382
        55  -8.2469    188.7416     56.2290   7.9974109059e+00   3.0030918831e+01    0.1994153     0.163022 -61.66 0.0004755083    1.147    0.128
        56  -9.0087    114.0400    228.8528   5.9828374088e+01   1.2623358838e+01    0.2277202    0.1787807 -45.52 0.0008190203    1.581    0.368
        57  -9.5595    181.5481     46.2995   6.2257388543e+00   3.3114067406e+01     0.380618    0.2398399 -62.04 0.0009427044    1.640    0.390
        58  -9.2667    181.0203     42.3164   5.1799722119e+00   3.3774859709e+01    0.3615481    0.2354348  84.10  0.001035627    1.604    0.377
        59  -8.4392    197.8687     45.5252   4.0712514687e+00   2.9386711096e+01    0.3052322    0.1875313  -9.92  0.001054388    2.444    0.591
        60  -8.3084    173.1815     45.5325   7.1251366400e+00   3.5265231669e+01    0.2343929    0.1858107 -36.98 0.0002695219    1.255    0.203
        61 -15.6091    243.2547     87.9370   9.0196416533e+00   1.4594716454e+01     2.215879     1.454322 -87.56   0.01232624    2.375    0.579
        62  -9.5272    250.4564     41.9084   3.5860893778e+02   1.9114395756e+01    0.1728436    0.1135547 -38.33  0.001106726    1.213    0.176
        63 -10.3341    173.9922    249.8905   4.9915204788e+01   1.8053419553e+00    0.4893303    0.1389944  35.51  0.001151979    2.876    0.652
        64  -7.9154    241.9843     39.0532   3.5859736011e+02   2.1004332884e+01    0.1712866    0.1347868 -54.12 0.0003674903    1.052    0.050
        65 -10.1103    186.4836     37.8418   3.2930256852e+00   3.3036387166e+01    0.5792069    0.4265003 -88.54  0.003184538    1.342    0.255
        66 -16.3123    229.4054    194.3395   3.1660406540e+01   2.1194892471e+00     1.918104    0.8764755  46.86  0.008821501    3.853    0.740
        67 -15.2290    245.3816    183.9595   2.7406061690e+01   1.4685252528e+00    0.5349016    0.4784775 -10.78  0.003612308    1.423    0.297
