#   1 NUMBER                 Running object number                                     
#   2 MAG_AUTO               Kron-like elliptical aperture magnitude                    [mag]
#   3 X_IMAGE                Object position along x                                    [pixel]
#   4 Y_IMAGE                Object position along y                                    [pixel]
#   5 X_WORLD                Barycenter position along world x axis                     [deg]
#   6 Y_WORLD                Barycenter position along world y axis                     [deg]
#   7 A_WORLD                Profile RMS along major axis (world units)                 [deg]
#   8 B_WORLD                Profile RMS along minor axis (world units)                 [deg]
#   9 THETA_WORLD            Position angle (CCW/world-x)                               [deg]
#  10 FWHM_WORLD             FWHM assuming a gaussian core                              [deg]
#  11 ELONGATION             A_IMAGE/B_IMAGE                                           
#  12 ELLIPTICITY            1 - B_IMAGE/A_IMAGE                                       
         1 -13.6531    233.0929     84.0224   6.3522019194e+01   1.6759719775e+01     3.592671    0.8254693 -43.12   0.01116572    3.845    0.740
         2 -15.5510    244.8027     44.5596   5.3704218819e+01   2.0461435363e+01     7.513772     1.968669 -38.45   0.02732016    3.735    0.732
         3 -13.5413    243.4211    132.6155   7.2374860735e+01   5.7323414503e+00      3.95621    0.8927189 -49.69  0.009170068    6.748    0.852
         4 -12.8640    248.5098    125.4128   7.0024108494e+01   6.0729249127e+00      2.48429    0.2895312 -43.44  0.005536048    7.151    0.860
         5 -11.0677    208.8585     20.8435   5.2939677163e+01   3.1590206492e+01     0.349645    0.2311971  19.84  0.001661975    3.107    0.678
         6  -9.7521    140.5131     17.0370   6.2401612266e+01   4.7575638874e+01    0.1715141    0.1265952 -25.26  0.000837461    1.572    0.364
         7 -10.1274      6.6644     11.9790   1.0182752271e+02   6.8768332696e+01    0.1771748    0.1113025  -5.87 0.0005262033    1.335    0.251
         8  -9.9061      1.4190      7.1471   1.0233850624e+02   6.9760076312e+01    0.2117679   0.08065252 -45.16  0.001025965    2.473    0.596
         9  -9.5389    162.0829     14.1990   5.7860789350e+01   4.3048607855e+01    0.2321205    0.1702713 -22.50  0.001315443    1.672    0.402
        10 -10.5108    116.6644      5.2726   6.3695366878e+01   5.3712912251e+01    0.2047058    0.1833874  44.64  0.000367991    1.098    0.090
        11 -10.2737    110.9639      5.1076   6.4882136977e+01   5.4869847526e+01     0.193514    0.1557997  17.15  0.001312652    1.248    0.199
        12  -9.7257     50.9574      3.4607   8.1170905177e+01   6.5164259203e+01    0.1553229    0.1163177   2.60  0.000314257    1.083    0.077
        13  -9.1928    159.1607      2.2004   5.5203066593e+01   4.4851121170e+01    0.1688483     0.131246 -87.54  0.000982475    1.342    0.255
        14  -9.4514     14.7494      1.9670   9.4599179331e+01   6.9369353766e+01    0.1380863   0.09609554 -13.22 0.0001864852    1.070    0.065
        15  -8.5406    121.7118      1.7171   6.1562116823e+01   5.2980579100e+01    0.1208729    0.0750439  35.99 0.0002123394    1.527    0.345
        16  -9.0885    224.4373    237.1796   9.6452054061e+01  -9.4639109332e+00    0.1592126    0.1197722 -51.27 0.0007023735    1.707    0.414
        17  -9.3948    227.8553    201.5505   8.9312378251e+01  -4.1600587111e+00    0.2842945    0.1908822 -56.24  0.001013338    1.913    0.477
        18 -10.1081    229.3110    206.9551   9.0063825829e+01  -5.3496833448e+00    0.3197735    0.2269938 -49.82  0.001189567    1.609    0.378
        19  -9.7333    236.8241    235.0932   9.3771342655e+01  -1.1087889946e+01    0.2078736    0.1769226 -67.76  0.001091153    1.836    0.455
        20 -10.8064    244.0980    237.4159   9.2840050710e+01  -1.2528124447e+01    0.7258025    0.3050021 -49.84  0.002932468    3.905    0.744
        21  -9.9895    240.3112    231.7731   9.2542964954e+01  -1.1125253040e+01     0.275538    0.2456666 -81.09  0.001075438    1.786    0.440
        22 -10.8447    235.3904    229.2282   9.3003410940e+01  -9.9753531371e+00    0.4356216    0.2454792 -45.44  0.001641479    2.027    0.507
        23 -10.1145    242.1718    247.9123   9.4992819795e+01  -1.3730215834e+01     0.275753    0.1981028 -32.13  0.001763683    1.453    0.312
        24  -9.7427    240.9534    241.2119   9.4072604577e+01  -1.2607711862e+01    0.7701958    0.5438867 -85.27  0.002885115    6.148    0.837
        25 -11.0469    232.8687    213.0144   9.0526311041e+01  -6.9716500284e+00    0.6062404    0.3374546 -56.35  0.002652261    2.824    0.646
        26 -10.9230    246.7796    233.0362   9.1582753247e+01  -1.2288366388e+01     0.550145    0.4372969 -68.36  0.003214378    2.245    0.555
        27 -10.8944    250.4208    244.9168   9.2992565431e+01  -1.4502323119e+01    0.4873788    0.2207214 -30.66  0.001765615    2.291    0.563
        28 -10.1514    248.5632    239.9094   9.2463623185e+01  -1.3539341553e+01    0.2857361    0.2232636 -43.11  0.001170337    1.579    0.367
        29 -11.3842    246.7054    226.0966   9.0357937564e+01  -1.1243239913e+01     0.483835     0.412536  68.21  0.003001639    1.847    0.459
        30 -11.4471    240.1532    220.9189   9.0622022267e+01  -9.4298037091e+00    0.7663713     0.399831 -44.38  0.003793323    2.079    0.519
        31 -10.2391    232.6604    247.5353   9.6673502720e+01  -1.2268747876e+01    0.3299296    0.1830031 -40.98  0.001579234    1.999    0.500
        32 -10.2574    224.8373    248.9457   9.8361728221e+01  -1.1277904893e+01    0.3476288    0.2738218  53.99   0.00216839    1.645    0.392
        33  -9.4880    224.7970    243.5924   9.7475788769e+01  -1.0487823164e+01    0.2087104    0.1865001 -56.22 0.0009579518    1.523    0.343
        34 -10.1827    210.6873    248.7161   1.0099009450e+02  -9.0145557085e+00    0.3068735      0.24263 -17.89   0.00194031    1.351    0.260
        35 -10.7148    193.4211    248.7457   1.0430291348e+02  -6.1877494485e+00    0.3910412    0.2938054 -67.69  0.002243902    1.946    0.486
        36 -10.7652    216.5950    233.8326   9.7369669134e+01  -7.6700048226e+00    0.4049692    0.3117955  57.28  0.002344528    1.660    0.398
        37  -9.5378    170.8078    235.0165   1.0659323049e+02   2.7140656434e-02    0.2092893    0.1541891  88.61  0.001077065    1.992    0.498
        38  -9.4644    201.9726    232.0249   9.9900239570e+01  -4.9140171586e+00    0.1969344    0.1624539  75.85   0.00104633    1.696    0.411
        39  -9.2950    158.3348    231.6634   1.0858731282e+02   2.8635763149e+00    0.1399051    0.1000911  71.98 0.0007051943    1.744    0.427
        40 -10.2507    229.6276    228.4560   9.3946494426e+01  -8.9402583599e+00    0.2879502    0.2120458 -55.56 0.0009711577    1.857    0.462
        41  -9.8438    211.8876    227.3480   9.7151835860e+01  -5.8280220688e+00    0.2804826    0.1833027 -43.73  0.001505194    1.666    0.400
        42 -10.3523    198.9317    226.8148   9.9607035052e+01  -3.5016773957e+00    0.3381809    0.2562451 -73.85  0.001230548    1.994    0.499
        43 -10.3716    206.8485    236.8196   9.9760596944e+01  -6.5287515587e+00    0.3322734    0.2659276  75.27  0.001887986    1.882    0.469
        44  -9.5608    223.4274    226.7294   9.4816408887e+01  -7.6573771293e+00    0.2263822    0.2064849  79.38  0.001200376    1.524    0.344
        45 -10.1156    205.9313    225.4461   9.7984559347e+01  -4.4864202228e+00    0.3154316    0.1958923 -53.13  0.001393251    1.997    0.499
        46  -9.4966    190.6396    226.0252   1.0112691172e+02  -1.8992487381e+00    0.1851264    0.1701687 -33.82 0.0008586047    1.177    0.151
        47 -10.7333    217.0649    223.0815   9.5389879447e+01  -5.9964597437e+00    0.4119153    0.2901353 -60.41  0.001539098    2.030    0.507
        48 -10.1211    219.5795    217.1270   9.3825745646e+01  -5.4229566148e+00     0.336065    0.2413671 -56.42  0.001296738    1.803    0.445
        49 -10.4680    217.3123    211.9872   9.3320390704e+01  -4.1472846248e+00      0.39841    0.3260585  68.17  0.002227156    1.659    0.397
        50 -10.4479    228.5567    221.8850   9.2970551811e+01  -7.7170711663e+00    0.4145155    0.2367914  48.74  0.001975054    2.024    0.506
        51  -8.8525    180.3955    223.2205   1.0272154130e+02   4.4870192257e-01    0.1811013    0.1315781 -60.75 0.0009450483    1.670    0.401
        52  -9.2693    186.3080    221.8458   1.0128351073e+02  -3.7111870856e-01    0.2580834     0.124357 -53.99  0.001075205    2.589    0.614
        53  -9.2835    201.8006    220.9466   9.8009133277e+01  -2.9853950257e+00    0.2517124    0.1684143 -47.67  0.001313097    1.655    0.396
        54 -10.1877    193.6980    219.6248   9.9400036737e+01  -1.3032264598e+00    0.4100606    0.2824817 -82.78  0.001814449    2.775    0.640
        55 -12.1928    246.6629    194.3824   8.4426386915e+01  -6.1193003287e+00     1.196356    0.6632234 -59.29  0.004858795    3.249    0.692
        56 -12.5572    234.7702    182.4274   8.4252497925e+01  -1.9560037289e+00     2.891422     1.356349 -59.76  0.008590228    5.329    0.812
        57 -12.1419    229.4951    143.9978   7.7230340697e+01   6.3337190676e+00     2.525971    0.5595842 -38.29  0.006278853    5.526    0.819
        58 -12.8018    245.1199    179.2916   8.1731204298e+01  -3.2203403539e+00     1.395602    0.9074029 -47.01  0.007190607    1.546    0.353
        59 -12.7276    236.0991    162.3196   7.9903179319e+01   1.5343784707e+00     2.798889     1.553212 -64.49   0.01024149    3.370    0.703
        60 -12.4602    235.0714    135.0222   7.4309217068e+01   6.9405978088e+00     2.020088    0.7788692 -54.95  0.006289728    3.847    0.740
        61  -9.7113    218.7081    248.3921   9.9419725257e+01  -1.0242256889e+01    0.2360021    0.1968517  65.83  0.001278295    1.730    0.422
        62 -11.8609    247.9257    216.9153   8.8462711605e+01  -1.0015322862e+01    0.6002293    0.3479909 -47.36  0.002146057    2.016    0.504
        63 -11.5987    245.2614    203.7502   8.6481520638e+01  -7.4668269282e+00    0.9698922    0.4892887 -57.85  0.003521529    4.216    0.763
        64 -11.4717    235.2596    146.9807   7.6832309728e+01   4.6132745744e+00     0.576014    0.3699686 -54.85  0.001752633    1.651    0.394
        65  -8.6060    168.2535    249.3671   1.0928228226e+02  -2.0219590025e+00    0.1216311   0.09714624  -1.27 0.0006962141    1.630    0.387
        66 -12.3458    244.4505    154.3958   7.6772322743e+01   1.4536568938e+00     1.891901    0.5185264 -48.11  0.005689553    4.099    0.756
        67 -13.0886    234.9904    200.6928   8.7796827664e+01  -5.2398048317e+00     3.896164     1.835683 -59.32    0.0112144    6.339    0.842
        68  -8.8630    138.2460    214.9690   1.1014699642e+02   9.7862985780e+00    0.1716191    0.1184997 -58.17 0.0004849195    1.540    0.351
        69  -9.2814    204.9222    212.8652   9.5929809019e+01  -2.1065954633e+00    0.2066708    0.1698373  85.54  0.001110984    1.740    0.425
        70  -9.6141    193.1696    210.2821   9.7832552170e+01   5.1008359947e-01    0.2513977    0.1841377 -76.23  0.001099489    2.060    0.515
        71  -9.6617    177.3784    211.2222   1.0126281892e+02   3.2728132139e+00    0.1941268    0.1337731 -60.35 0.0009480097    1.727    0.421
        72  -9.7631    206.5533    207.7297   9.4654417909e+01  -1.4716638621e+00    0.3283021    0.2308223 -47.74  0.001712144    1.533    0.347
        73  -9.7069    224.8238    207.4381   9.1013550621e+01  -4.6619810446e+00    0.2925913    0.1679012 -48.66  0.001394561    1.958    0.489
        74 -10.3243    211.8034    203.2054   9.2756231139e+01  -1.5993646727e+00    0.7254836    0.3858485 -64.20  0.002421166    4.441    0.775
        75  -9.8283    217.0690    204.8493   9.2029767741e+01  -2.8437811386e+00    0.2365312     0.193649 -36.66 0.0009496557    1.233    0.189
        76  -9.0955    183.1478    207.1873   9.9335875434e+01   2.9713982258e+00     0.188977    0.1674606  87.62 0.0007156312    1.330    0.248
        77  -9.4728    202.2549    204.3924   9.4893857643e+01  -6.8850147038e-02    0.2527104    0.1801352 -43.13  0.001239157    1.452    0.311
        78  -9.7280    197.2855    204.1092   9.5850549683e+01   9.0732538937e-01    0.3273006    0.1880568 -42.39  0.001158904    1.805    0.446
        79  -9.8635    187.3369    203.4698   9.7781130889e+01   2.9017783407e+00     0.300652    0.2083717 -84.69  0.001297102    2.513    0.602
        80  -9.6827    172.9807    203.5374   1.0080929294e+02   5.6237897615e+00    0.2616718    0.2001558 -68.36 0.0007217915    1.565    0.361
        81  -9.9378    222.7195    200.7980   9.0155849838e+01  -3.1241458652e+00    0.3714981    0.2387995  60.77  0.001523477    2.290    0.563
        82  -9.7085    215.4617    197.8358   9.1003068059e+01  -1.2811111964e+00    0.3494285    0.1312551 -48.35  0.001270812    2.990    0.666
        83  -9.8441    202.0540    197.3658   9.3597949042e+01   1.2950275933e+00    0.2672698     0.209347 -53.83 0.0008304237    1.410    0.291
        84  -9.5498    176.4345    197.6970   9.8999189121e+01   6.1398143025e+00     0.262407    0.1420562 -52.91  0.001112678    2.025    0.506
        85  -8.8912    170.0000    196.9592   1.0023876381e+02   7.5389935112e+00     0.235612   0.08320718 -48.42 0.0008044771    2.957    0.662
        86 -10.0856    184.7242    195.4063   9.6810571557e+01   4.9954357406e+00    0.3854014    0.1197242 -41.28  0.001208194    3.669    0.727
        87  -9.4834    209.2434    194.5266   9.1596632965e+01   4.8480388152e-01    0.2580625    0.1901558 -41.03  0.000654984    1.366    0.268
        88  -9.0208    146.3539    193.2299   1.0472852887e+02   1.2905270021e+01    0.2037559    0.1360871 -64.37 0.0005484546    1.666    0.400
        89  -9.3641    215.1193    191.8779   8.9908656831e+01  -1.1161191726e-01    0.2080904    0.1936474 -79.75 0.0008102298    1.284    0.221
        90  -8.9077    161.7144    192.3487   1.0117938850e+02   1.0120146162e+01    0.1491239    0.1143934  85.25 0.0004175171    1.655    0.396
        91  -9.2188    198.8356    191.0103   9.3021364759e+01   3.1380661237e+00    0.2298774    0.1670498 -72.50  0.001069577    1.961    0.490
        92  -9.3793    172.5143    190.9709   9.8569529035e+01   8.2905790506e+00    0.2239814    0.1453422 -50.32  0.001033254    1.603    0.376
        93  -9.4576    219.2634    194.4543   8.9599312238e+01  -1.3524715898e+00    0.2196935    0.1735885 -67.62 0.0008517773    1.685    0.406
        94 -10.3915    210.4445    175.6773   8.7580108474e+01   3.8991914750e+00    0.5218946    0.2204249 -51.72  0.001730158    2.787    0.641
        95  -9.9774    210.3342    187.8874   9.0071203656e+01   1.5437225313e+00    0.4057523    0.1413317 -46.72   0.00141455    2.986    0.665
        96  -8.8228    193.6728    188.3368   9.3563726202e+01   4.6693052984e+00    0.1470854    0.1163765  86.44 0.0007051749    1.725    0.420
        97  -9.4251    220.4567    187.0296   8.7901209543e+01  -1.9360407840e-01     0.214026    0.1333162 -40.44  0.001022415    1.572    0.364
        98  -9.5710    215.1541    186.7996   8.8895846125e+01   8.4035139092e-01    0.2366061    0.1859726 -54.29  0.000692166    1.404    0.288
        99  -9.6061    166.1924    186.2249   9.9036461904e+01   1.0543634621e+01    0.2075247    0.1756002  89.42  0.001037595    1.354    0.261
       100  -9.7760     77.7114    185.8406   1.1896508535e+02   2.6409512507e+01    0.2044236    0.1889907  38.81 0.0005668004    1.305    0.233
       101 -10.1258    197.9195    183.0561   9.1630968421e+01   4.8935527930e+00    0.4361832    0.2023852 -52.67  0.001653945    2.501    0.600
       102  -9.8436    197.7239    176.6404   9.0369032862e+01   6.2270025040e+00    0.3258418    0.1896276 -51.73 0.0008143788    1.834    0.455
       103  -9.6094    189.8757    184.7544   9.3648936968e+01   6.1392848831e+00    0.2571363    0.2079579 -45.62 0.0009150529    1.257    0.204
       104  -9.0768    173.6108    185.1781   9.7212527197e+01   9.2889853540e+00    0.2045928    0.1390613 -37.41 0.0008508874    1.611    0.379
       105  -9.2832    218.1130    183.1413   8.7580252172e+01   9.7850013882e-01    0.2745467    0.2003146 -43.98  0.001412462    1.360    0.265
       106 -10.2822    219.0336    177.5116   8.6258840040e+01   1.8802943021e+00    0.4111764    0.2045096 -40.81  0.001248081    1.962    0.490
       107  -9.3633    183.2996    182.4193   9.4578343245e+01   7.9294356736e+00    0.2508535    0.1798401 -67.97 0.0008746684    1.758    0.431
       108  -9.4483    176.7524    181.4285   9.5790565587e+01   9.4512798552e+00    0.3126654    0.1779724 -59.56  0.001265778    2.151    0.535
       109  -9.5590    190.8543    179.5169   9.2390925193e+01   7.0153173502e+00    0.3018788    0.1946799 -62.56  0.001308772    1.973    0.493
       110  -8.9084    214.7751    176.9232   8.6974682287e+01   2.8122875844e+00    0.1859067     0.114892 -40.53 0.0005276236    1.584    0.369
       111  -9.3042    150.3044    177.6698   1.0093254956e+02   1.5574805373e+01    0.1547944    0.1167616  83.45 0.0005961169    1.654    0.396
       112  -9.5099    182.5039    176.0468   9.3462905162e+01   9.4233462689e+00    0.2264839    0.1468637 -46.75 0.0007472017    1.557    0.358
       113  -9.2959    161.3265    175.6786   9.8047641339e+01   1.3807785487e+01    0.1561282    0.1183633  82.60 0.0006752967    1.685    0.407
       114 -10.0596    188.2589    172.1283   9.1425688380e+01   9.0726792683e+00    0.4059472    0.2054272 -46.78  0.001590911    1.985    0.496
       115 -10.1499    191.0761    166.1653   8.9580172424e+01   9.7421679723e+00    0.3932757    0.2704594 -29.55   0.00178116    1.682    0.405
       116 -10.0828    205.4095    169.3262   8.7277178799e+01   6.1659779001e+00    0.4157399    0.2416175 -59.65   0.00167851    2.246    0.555
       117  -9.0596    200.6138    171.2545   8.8659239474e+01   6.7414990813e+00    0.2055254    0.1373695 -35.05 0.0007292341    1.568    0.362
       118  -9.3898    211.9197    169.1566   8.5934651005e+01   4.8988573382e+00    0.2216092    0.1963665 -73.49 0.0007246572    1.291    0.226
       119  -9.8780    179.5183    168.5431   9.2559783355e+01   1.1630358537e+01    0.3164708    0.1483917 -47.18  0.001134866    2.143    0.533
       120  -9.1845    165.4411    167.5152   9.5460778712e+01   1.4765897539e+01    0.1502387    0.1472827  88.53 0.0001145423    1.009    0.009
       121 -10.0042    199.3695    164.7924   8.7557605644e+01   8.3179617772e+00    0.4121951    0.1662206 -44.55     0.001129    2.442    0.591
       122  -9.8404    216.0010    156.0079   8.2348104153e+01   6.6986641984e+00    0.3513421    0.2110197 -46.92  0.001075785    1.621    0.383
       123 -10.8873    212.7646    161.2531   8.4101633468e+01   6.3059286241e+00    0.9474551    0.2491326 -47.16   0.00273344    3.977    0.749
       124 -10.0831    211.8412    151.0098   8.2081119943e+01   8.5554159196e+00    0.3974824    0.2014699 -38.73  0.001599577    1.986    0.497
       125 -10.0228    215.3263    148.6740   8.0894977783e+01   8.3037942424e+00    0.4073523    0.2276495 -55.36   0.00135772    2.035    0.509
       126 -10.3999    205.2898    161.1828   8.5579909270e+01   7.8420850978e+00    0.4645995    0.2781537 -50.76  0.002034091    1.718    0.418
       127  -8.8274    172.2843    163.6491   9.3121193356e+01   1.4193676490e+01    0.1559549    0.1205195 -86.34 0.0005239596    1.657    0.397
       128  -8.8885    184.3035    159.6802   8.9642315110e+01   1.2528727031e+01    0.1538942     0.120907 -87.88 0.0007027778    1.629    0.386
       129  -9.6875    176.5261    158.5442   9.1092051443e+01   1.4414738682e+01    0.3162008    0.1497873 -46.46 0.0009526066    2.103    0.524
       130 -10.0158    197.1580    156.7836   8.6298257231e+01   1.0435905591e+01    0.4029718    0.2189355 -40.94   0.00165904    1.844    0.458
       131  -8.7203    191.5047    158.5256   8.7857365333e+01   1.1258202727e+01    0.1490396    0.1473287 -42.02 0.0002443745    1.014    0.014
       132  -9.7079    187.5796    155.1957   8.7967519866e+01   1.2792336357e+01    0.3633635    0.1461394 -42.70  0.001262696    2.504    0.601
       133 -10.0310    205.6701    153.9348   8.3942337744e+01   9.2437142644e+00    0.3388146    0.2626608 -62.68  0.001128377    1.431    0.301
       134  -9.4269    202.5998    151.2122   8.3968704730e+01   1.0446325517e+01     0.337645    0.1416789 -43.23  0.001224864    2.324    0.570
       135  -9.4055    192.6870    153.4807   8.6511505866e+01   1.2071043874e+01    0.2732239    0.1368239 -44.29  0.001065868    1.965    0.491
       136  -9.4122    145.3110    154.6479   9.7405557181e+01   2.1803390851e+01    0.1612194    0.1204397  87.90 0.0007044794    1.723    0.420
       137 -10.4747    157.1804    152.8969   9.4241969561e+01   1.9746027607e+01    0.2930471    0.2099132 -46.37   0.00115129    1.397    0.284
       138 -10.3407    207.9690    146.0300   8.1754475776e+01   1.0375965259e+01    0.6084441    0.2372468 -44.79  0.002160929    2.473    0.596
       139  -9.4671    191.3997    148.6499   8.5717790930e+01   1.3364468262e+01    0.3094187    0.1419731 -49.82  0.001133819    2.243    0.554
       140  -9.1897    196.4724    150.0571   8.4970333240e+01   1.1984289643e+01     0.233015    0.1465848 -43.63 0.0008997199    1.558    0.358
       141  -9.7926    176.0144    146.4651   8.8548791472e+01   1.7151548462e+01    0.2594525    0.2006694 -47.80  0.001052187    1.279    0.218
       142  -9.5332    200.4998    144.6648   8.2950136064e+01   1.2245572650e+01    0.3178404    0.1455733 -44.59  0.001196863    2.121    0.528
       143  -9.7831    155.5910    143.2792   9.2483269655e+01   2.2242567301e+01    0.3101667    0.1481665 -52.11  0.001139901    2.162    0.538
       144  -9.7463    214.2355    142.3534   7.9721954930e+01   9.7996666652e+00    0.3072133    0.1869199 -51.94  0.000832188    1.673    0.402
       145  -9.0606    194.3776    142.7922   8.3788519789e+01   1.3954626698e+01    0.2200367    0.1414084 -34.41 0.0009432757    1.694    0.410
       146 -10.0876    181.9481    142.0704   8.6260460043e+01   1.6811698625e+01    0.3877006    0.2122995 -56.67  0.001495148    2.103    0.525
       147  -9.0710    203.5956    140.8394   8.1472934085e+01   1.2369906021e+01    0.2148728    0.1369135 -54.98 0.0007415511    1.661    0.398
       148  -9.4583    197.7216    140.0138   8.2475307565e+01   1.3809281297e+01     0.316896    0.2087195  70.13  0.001323153    2.046    0.511
       149  -9.7630    198.5422    136.0370   8.1409453994e+01   1.4454763147e+01    0.3475735    0.2069055 -44.75  0.001130275    1.631    0.387
       150 -10.0101    198.1071    131.6104   8.0489050130e+01   1.5463388289e+01     0.354153    0.2154564 -36.95 0.0008967503    1.720    0.419
       151  -9.7920    187.5572    135.5560   8.3574519925e+01   1.6967244294e+01    0.3598738    0.1803932 -48.22 0.0008545966    1.986    0.496
       152  -9.5165    166.1107    139.8795   8.9279699467e+01   2.0738844832e+01    0.2462184    0.2123981 -79.11 0.0007721411    1.259    0.206
       153  -9.9876    218.7209    137.8880   7.7886641682e+01   9.7494224931e+00    0.3744111    0.2613076 -39.11  0.001504981    1.394    0.283
       154 -11.0986    172.0640    137.2957   8.7343756714e+01   2.0005096034e+01    0.5192568    0.3679906 -88.48  0.002166996    2.054    0.513
       155  -9.3141    192.7729    136.6338   8.2728685986e+01   1.5593726234e+01    0.3098501    0.1968901 -52.02 0.0008822904    1.596    0.374
       156  -9.2515    162.8397    135.8312   8.9096962459e+01   2.2339625154e+01    0.2184628    0.1813769 -73.78 0.0006747651    1.325    0.245
       157 -11.3211    220.7082    121.5231   7.3886325985e+01   1.2546343984e+01    0.7011166    0.2970356 -56.38  0.002288881    3.311    0.698
       158 -10.6892    221.2564    129.8470   7.5640310764e+01   1.0802603821e+01    0.6338176    0.2698879 -53.70  0.002208387    2.818    0.645
       159  -9.8188    142.7131    130.5388   9.2638104185e+01   2.7815887139e+01    0.2894625    0.1359839 -48.15  0.001074994    2.100    0.524
       160 -10.2636    200.0764    126.5946   7.8942966295e+01   1.6055135132e+01    0.5964801    0.2675905 -55.30  0.002035438    2.799    0.643
       161  -9.6245    171.6007    129.2506   8.5573366071e+01   2.1844606517e+01    0.2953112    0.1462801 -49.19 0.0009144943    2.038    0.509
       162  -9.6043    211.9913    128.5695   7.7078872795e+01   1.3042602780e+01    0.2949959    0.1957665 -58.11 0.0009073359    1.622    0.384
       163  -9.0830    192.0000    128.9961   8.1133866131e+01   1.7355578940e+01     0.257981   0.08561426 -43.43 0.0008033531    2.949    0.661
       164  -9.3849    186.1569    128.6792   8.2279539440e+01   1.8723371679e+01    0.2770999    0.2032811 -55.69 0.0009307302    1.394    0.283
       165 -10.3553    208.1550    136.7311   7.9652082502e+01   1.2228031948e+01    0.5806997    0.2439644 -52.67  0.001991944    2.760    0.638
       166 -10.0823    179.7008    132.3240   8.4510613458e+01   1.9390120066e+01    0.3684846    0.2412427 -46.62    0.0012717    1.504    0.335
       167 -10.0896    179.5302    123.9794   8.2587673383e+01   2.1192164060e+01    0.4421274    0.2333623 -48.37  0.001546623    1.893    0.472
       168  -9.3994    169.6604    123.8402   8.4722853625e+01   2.3432525141e+01    0.2275579    0.1394536 -53.65 0.0009422083    1.708    0.415
       169  -9.5612    146.4890    124.5031   9.0287118441e+01   2.8357668186e+01    0.1532624    0.1496299 -76.64 -9.154272e-05    1.001    0.001
       170 -10.4368    212.6703    121.9031   7.5443046241e+01   1.4218418512e+01    0.4127386    0.2176327 -37.45  0.001466902    1.959    0.489
       171 -11.2287    212.7167    116.2949   7.4157944599e+01   1.5309451586e+01    0.4596754    0.2297929 -57.38  0.001711481    2.476    0.596
       172  -9.4865    188.0387    122.8412   8.0516975179e+01   1.9515411025e+01    0.2863236    0.1889266 -58.15  0.001068891    1.652    0.395
       173  -9.5749    202.7992    120.8620   7.7084648053e+01   1.6608157729e+01    0.3021179    0.2374861 -75.51  0.001467685    1.454    0.312
       174  -9.4328    194.1333    120.7379   7.8773596824e+01   1.8574864582e+01    0.2710898    0.1992929 -55.42 0.0008376841    1.376    0.273
       175  -9.1198    184.1806    118.8410   8.0375665165e+01   2.1210511419e+01    0.2223419    0.1981156 -50.21 0.0008346416    1.104    0.094
       176  -9.6875    186.0686    114.6563   7.8981670582e+01   2.1636588137e+01    0.3628908    0.2188938 -44.74  0.001301878    1.631    0.387
       177  -8.8808    157.5000    119.5438   8.6465954645e+01   2.7047164042e+01     0.154242    0.1488127 -86.83  0.000115173    1.024    0.023
       178 -10.3458    140.3252    118.1699   9.0260452912e+01   3.1045246691e+01    0.3998089    0.1311853 -54.03  0.001090429    4.154    0.759
       179  -9.0076     18.9948    119.2188   1.2333959591e+02   4.8367825802e+01      0.13021   0.09996946  21.13 0.0005169784    1.641    0.391
       180  -9.7686    191.4882    114.0582   7.7730751806e+01   2.0523875005e+01    0.3658578    0.1493879 -40.69 0.0008400481    2.472    0.596
       181  -9.4961    194.6193    112.8218   7.6810321403e+01   2.0059101301e+01    0.3200592    0.1964756 -51.37  0.001117364    1.642    0.391
       182 -10.0549    225.1656    133.5450   7.5744914832e+01   9.2570072014e+00    0.3020839    0.2122283 -42.57 0.0008954477    1.341    0.254
       183  -9.4060    181.3846    114.7913   7.9993990078e+01   2.2675335560e+01    0.2191262     0.145091 -32.99 0.0009447848    1.697    0.411
       184  -9.3274    173.4942    113.9887   8.1494418902e+01   2.4633276092e+01     0.235388    0.1503506 -44.57 0.0008356736    1.555    0.357
       185  -8.9569    208.3699    112.8264   7.4166290761e+01   1.6953191536e+01    0.2091549    0.1386565 -33.44 0.0007331381    1.653    0.395
       186  -8.9766    140.3508    249.6797   1.1475024765e+02   2.7014392712e+00    0.1358168   0.08922619  67.78 0.0007048071    1.743    0.426
       187  -9.7396    176.8876    110.1990   7.9835082184e+01   2.4635011278e+01    0.3021941    0.2094928 -46.11  0.001384025    1.430    0.301
       188  -9.0921    155.2249    109.9826   8.4636119839e+01   2.9566141736e+01    0.2082959    0.1254539 -44.79 0.0008577042    1.657    0.396
       189  -9.9771    218.0642    108.8579   7.1502748037e+01   1.5561205712e+01    0.2737131    0.2086136  83.84   0.00135424    1.514    0.340
       190  -9.0225    201.4411    108.9678   7.4572892154e+01   1.9268531920e+01     0.233282    0.1430333 -43.85 0.0008347286    1.587    0.370
       191  -9.7328    189.7040    107.3002   7.6472875968e+01   2.2277343070e+01     0.520324    0.1390629 -39.57  0.001451042    4.015    0.751
       192  -9.4252    183.2339    108.6286   7.8114865410e+01   2.3498254228e+01    0.2988527     0.169227 -50.82  0.001226568    1.815    0.449
       193  -9.8280    160.5879    107.7493   8.2835167209e+01   2.8831070056e+01    0.3684401    0.1462791 -45.22  0.001273106    2.518    0.603
       194  -9.7290    133.8247    109.2441   8.9665631622e+01   3.4316438983e+01    0.2572525      0.16987 -89.84 0.0009559367    2.812    0.644
       195  -9.6351    205.6723    105.2104   7.2897403833e+01   1.9034876333e+01    0.2726237    0.2115202 -61.53 0.0009729477    1.305    0.234
       196  -9.8762    222.3546    104.3228   6.9736676499e+01   1.5469727826e+01    0.3333008     0.159927 -42.49  0.001124632    1.976    0.494
       197  -9.0537    218.4542    104.0191   7.0336162289e+01   1.6389068394e+01    0.2255555    0.1356089 -45.55 0.0007193548    1.576    0.365
       198  -9.4936    213.5102    104.0783   7.1215393874e+01   1.7481650115e+01    0.2295169    0.1394192 -43.59 0.0009545125    1.582    0.368
       199  -9.3696    200.8000    103.0313   7.3294354937e+01   2.0562978348e+01    0.2347554    0.1879375 -64.03 0.0007103764    1.272    0.214
       200  -9.1987    195.0082    102.9211   7.4374591294e+01   2.1913073493e+01    0.1904576    0.1574549 -47.98 0.0005878864    1.188    0.158
       201  -9.7030    167.0331    100.1291   7.9469039914e+01   2.8902524372e+01    0.3496875    0.2077392 -47.06  0.001495423    1.698    0.411
       202  -9.6783    160.2378     99.7502   8.0890376148e+01   3.0522130454e+01    0.2790222    0.1801908 -46.29 0.0009291159    1.559    0.358
       203  -9.4113    216.4929     99.4558   6.9634579200e+01   1.7678465170e+01    0.3473813     0.233989 -68.05 0.0009163967    1.723    0.420
       204  -9.3277    215.3458     93.7109   6.8514673671e+01   1.8993377711e+01    0.2914157    0.2625831 -63.83  0.001046074    1.041    0.039
       205 -10.3904    212.2443     95.4865   6.9456421735e+01   1.9370633154e+01    0.5172765     0.244791 -57.00  0.001906571    2.625    0.619
       206 -10.0403    210.6991     91.3657   6.8768555687e+01   2.0475801593e+01    0.2985893    0.2369844 -74.82 0.0009358468    1.311    0.237
       207  -9.2337    209.4462     99.0745   7.0781026754e+01   1.9340216335e+01    0.2237349     0.140275 -42.10 0.0007283667    1.563    0.360
       208  -9.7521    202.8179     97.6019   7.1634726337e+01   2.1130056476e+01    0.2986442    0.2014831 -50.49  0.001049804    1.452    0.311
       209  -9.6891    194.9362     96.9878   7.2963248188e+01   2.3062680431e+01      0.30053    0.2063216 -44.15 0.0009250563    1.439    0.305
       210  -8.7744    221.2512     97.6395   6.8415242591e+01   1.6950781097e+01    0.1499946    0.1033144 -67.40 0.0006056211    1.612    0.380
       211  -9.9439    149.7666     96.9911   8.2604026928e+01   3.3410291395e+01    0.2014521    0.1253485 -42.65 0.0008767249    1.622    0.383
       212  -9.0934    183.4727     95.9501   7.4958193706e+01   2.5918544997e+01    0.2306948    0.1455639 -44.50  0.000834351    1.578    0.366
       213  -9.0580    153.3016     95.6317   8.1421542167e+01   3.2892148229e+01    0.1572264    0.1181827 -79.38 0.0007033262    1.740    0.425
       214  -9.1756    206.7332     94.1183   7.0106463144e+01   2.0879584159e+01    0.2348034    0.1675197 -59.05 0.0007077632    1.428    0.300
       215  -9.5151    164.4736     93.5042   7.8344028029e+01   3.0776038805e+01    0.3103113    0.1484757 -40.96  0.001198176    2.129    0.530
       216  -9.6462    188.6774     92.4599   7.3068619325e+01   2.5365556091e+01    0.2655173    0.1362097 -40.98  0.001073938    1.961    0.490
       217  -9.0127    177.0000     92.9485   7.5531332916e+01   2.7991225988e+01    0.2465016   0.08509071 -40.84 0.0008004392    2.929    0.659
       218  -9.0941    203.3244     90.1386   6.9776200200e+01   2.2392812127e+01    0.2184526    0.1244104 -50.03 0.0009418444    1.751    0.429
       219  -9.5128    157.9702     89.9872   7.8881270196e+01   3.2927875125e+01    0.2399464    0.1821527 -75.74  0.001041457    1.649    0.394
       220  -8.3812    183.3097     89.3213   7.3347343058e+01   2.7199558962e+01      0.14694    0.1198775  14.44 0.0005004441    1.646    0.393
       221  -9.7082    213.5735     87.1416   6.7301770875e+01   2.0579266331e+01    0.4735737    0.2338348 -62.28  0.001703323    2.950    0.661
       222  -9.5451    150.6945     87.5053   7.9892853001e+01   3.5033068661e+01    0.2731022    0.1349487 -41.30  0.001085656    2.062    0.515
       223  -9.1155    197.6367     86.5127   6.9936492340e+01   2.4368319106e+01    0.2505022    0.1365008 -41.55  0.001067369    1.831    0.454
       224  -9.6359    188.3781     86.5338   7.1670063699e+01   2.6525586513e+01    0.2840433    0.1747731 -44.57  0.001007791    1.622    0.383
       225  -9.4868    217.6958     84.4715   6.6010635372e+01   2.0113715583e+01    0.3079241    0.1666446 -31.04 0.0009014909    2.299    0.565
       226  -9.7808    218.3548     68.1775   6.2208974399e+01   2.2719523156e+01    0.4715171    0.1284385 -37.91  0.001519948    3.783    0.736
       227  -9.1573    219.4024     74.7153   6.3526177783e+01   2.1400723531e+01     0.254809    0.1258797 -44.70 0.0006310379    1.934    0.483
       228  -9.4038    205.9610     84.5029   6.7981204083e+01   2.2795890479e+01    0.2422016     0.177981 -45.37  0.001104773    1.341    0.254
       229  -8.9798    200.5868     82.8585   6.8530477858e+01   2.4333188838e+01    0.2071375    0.1278852 -53.48 0.0009333779    1.660    0.398
       230  -8.8710    193.0000     82.0018   6.9691734781e+01   2.6255789809e+01    0.2356039   0.08234318 -39.56 0.0007960054    2.898    0.655
       231  -9.3317    163.6844     86.5111   7.6709423069e+01   3.2273886822e+01    0.2613544    0.1363809 -41.12  0.001065746    1.955    0.489
       232  -9.8658    159.1667     81.5326   7.6393084095e+01   3.4218097126e+01    0.2804154    0.2072159 -42.38 0.0009974239    1.389    0.280
       233  -8.2846    209.7756     80.9500   6.6501047584e+01   2.2539256272e+01    0.2712192    0.1938153 -47.43  0.001371352    1.361    0.265
       234  -9.8695    211.1652     76.3567   6.5204692789e+01   2.3008647373e+01    0.3580373    0.1985246 -32.68 0.0009626004    2.110    0.526
       235  -9.5355    200.9897     77.4873   6.7176628146e+01   2.5175231775e+01    0.2908648    0.1801195 -55.51  0.001070772    1.690    0.408
       236  -9.5859    166.5895     77.2836   7.3682735063e+01   3.3263553822e+01     0.278472    0.1383076 -43.22  0.001133536    2.061    0.515
       237  -9.1764    183.5938     76.8221   7.0170137051e+01   2.9368600280e+01    0.2097425    0.1307029 -51.97   0.00089526    1.684    0.406
       238  -9.1260    174.4589     77.0355   7.2007438730e+01   3.1473860997e+01    0.2219212    0.1437009 -40.88  0.000673288    1.590    0.371
       239  -9.3782    223.3983     75.7673   6.3152994282e+01   2.0320075453e+01    0.2404072    0.1723827 -36.07 0.0008384791    1.516    0.340
       240  -9.1259    157.3040     75.6622   7.5241854612e+01   3.5683341146e+01    0.1493781    0.1134787 -78.74 0.0003633446    1.671    0.402
       241  -8.9405    206.3430     74.1093   6.5470789267e+01   2.4504231611e+01    0.2115498    0.1184704 -51.21 0.0009350191    1.803    0.445
       242  -9.6827    163.3773     71.6549   7.2874680084e+01   3.4974904101e+01    0.3360804    0.1716544 -44.47  0.001400459    2.038    0.509
       243  -8.9850    150.3453     72.6608   7.5978422480e+01   3.7778009492e+01    0.1509106    0.1133966 -82.21 0.0006067348    1.780    0.438
       244 -10.2372    222.0476     70.8359   6.2253717780e+01   2.1445431596e+01    0.2418908    0.1850827 -53.57 0.0008773168    1.236    0.191
       245  -8.9657    170.4028     70.2022   7.1054373150e+01   3.3586238013e+01    0.2057887    0.1304331 -51.36 0.0008614892    1.699    0.411
       246  -9.4885    212.5362     65.7322   6.2536517116e+01   2.4449934516e+01    0.3462695    0.1362699 -36.72  0.001118323    2.714    0.632
       247  -9.0797    187.4071     68.6597   6.7426722166e+01   2.9848085809e+01    0.2618148    0.1318504 -43.61  0.000790048    2.008    0.502
       248  -9.1299    182.3826     68.1917   6.8229117179e+01   3.1108130465e+01    0.2074069    0.1263129 -51.13  0.000943176    1.735    0.424
       249  -9.1388    193.6374     67.2364   6.5975676502e+01   2.8614645412e+01    0.1887014    0.1369424 -30.14 0.0006540669    1.607    0.378
       250  -9.2711    163.8139     64.9652   7.1010241944e+01   3.5978340380e+01    0.2355196    0.1552484 -62.69  0.001075043    1.905    0.475
       251  -8.6033    220.0000     79.9630   6.4619530666e+01   2.0374247886e+01    0.4696585   0.07735177 -39.24  0.001158554    5.957    0.832
       252  -9.7615    192.0190     60.7803   6.4677778649e+01   3.0025965942e+01    0.4466907    0.1524221 -48.76  0.001518552    3.359    0.702
       253 -10.9423    192.5288     55.2049   6.3233343519e+01   3.0762160811e+01     0.571426    0.2563075 -43.75  0.002411702    2.259    0.557
       254  -8.5248    182.6622     62.3352   6.6703130649e+01   3.1985644236e+01    0.1509112    0.1056215 -77.63 0.0007051688    1.749    0.428
       255 -10.4054    176.2104    247.2686   1.0741744203e+02  -3.0337332234e+00    0.3151555     0.255644 -67.52  0.001903319    1.557    0.358
       256  -9.5296    153.1667     59.6887   7.1809705104e+01   3.9258180930e+01     0.247689      0.18532 -50.45 0.0008438231    1.456    0.313
       257  -9.6906    217.0000     57.9250   6.0099068651e+01   2.4652494897e+01    0.2110001   0.07529746 -38.17 0.0006748735    2.851    0.649
       258  -8.7808     25.6874     60.2805   1.0930618529e+02   5.9811512980e+01   0.09595457    0.0894523  85.45 0.0006981863    1.569    0.363
       259  -9.8521    158.2672     62.2895   7.1439867011e+01   3.7685281445e+01    0.2847536    0.1972823 -76.34  0.001183485    2.024    0.506
       260  -9.4733     95.3481     47.6749   8.2652870052e+01   5.2912292556e+01    0.1215784     0.104988 -88.19 0.0007049483    1.749    0.428
       261  -8.7169    181.3193     46.6800   6.3000378342e+01   3.4642514357e+01    0.1423062    0.1002458 -77.11  0.000704292    1.665    0.399
       262  -8.3592    200.3333     43.3080   5.9174601046e+01   3.0657826005e+01    0.1323945    0.1008788  37.41 0.0005242688    1.670    0.401
       263  -9.0783    173.4118     40.2197   6.2711860577e+01   3.7379426986e+01    0.1856722    0.1205946 -49.50 0.0009455785    1.674    0.403
       264  -9.1189    140.4984     40.5090   6.9137946403e+01   4.4844776221e+01    0.1331194    0.1219067  57.13 2.202998e-05    1.055    0.053
       265  -8.7057    185.4657     39.4795   6.0530283719e+01   3.4658329744e+01    0.1355598    0.1192282  80.17 0.0001379206    1.015    0.015
       266 -10.0833    168.6953     37.1192   6.2729345240e+01   3.8883201299e+01    0.2122199    0.1583086 -60.37  0.001167552    1.500    0.333
       267  -8.8725    201.4229     35.2225   5.7139205975e+01   3.1498924354e+01    0.1845262    0.1130436 -51.42 0.0009506159    1.671    0.402
       268  -8.9543    149.4652     34.0269   6.5460835596e+01   4.3674324240e+01    0.1820947    0.1331587 -28.89 0.0004591488    1.548    0.354
       269  -8.5380     26.6934     33.6918   1.0117173719e+02   6.4116463177e+01    0.1145184   0.06658278 -17.84 0.0002477691    1.611    0.379
       270  -8.9635    125.5176     30.4860   6.9491620009e+01   4.9313912015e+01    0.1281922    0.1148658  44.39 0.0008098923    1.043    0.041
       271  -9.6157    210.9394    218.5232   9.5766134026e+01  -4.1692261773e+00     0.245041    0.1909723 -58.92  0.001357559    1.631    0.387
       272  -8.5899    170.3186     29.6822   6.0526124418e+01   3.9435462459e+01    0.1344959   0.09552269 -77.51 0.0007040898    1.659    0.397
       273  -8.9671     42.3700     27.7490   9.3285571304e+01   6.3386613554e+01    0.1497518    0.0871066 -26.36 0.0003781143    1.518    0.341
       274  -9.5497    136.6414     24.7706   6.5394279012e+01   4.7595588315e+01    0.2095296    0.1250726 -22.91 0.0002651464    1.985    0.496
       275  -9.8754    118.4052     24.3355   6.9241051127e+01   5.1486692548e+01    0.2105563    0.1230457 -20.54 0.0007563864    1.992    0.498
       276  -8.8177    172.2994     24.6773   5.8925305702e+01   3.9568808639e+01    0.1313304   0.09312266 -75.75 0.0004218163    1.627    0.385
       277  -9.8145    176.9397    241.0821   1.0632312562e+02  -2.1129659373e+00    0.3412319    0.2149449 -75.45  0.001520187    2.995    0.666
       278  -9.1913     84.6597     21.7373   7.7175187289e+01   5.8108644408e+01     0.152807    0.1044213 -32.79 0.0006208651    1.617    0.382
       279  -9.5007    155.6940     16.5014   5.9521781288e+01   4.4256508114e+01    0.2062039    0.1175845 -29.03  0.001081559    2.046    0.511
       280  -9.0865    186.8521    247.6026   1.0539608920e+02  -4.9010320956e+00    0.1862265    0.1058604  48.78 0.0007413814    1.719    0.418
       281  -8.6316     23.5049     15.5005   9.6143611610e+01   6.6935343110e+01    0.1070417   0.07831281 -10.65 -8.038346e-05    1.001    0.001
       282  -9.3001     29.7353     12.9868   9.2735212847e+01   6.6643551402e+01    0.1464629    0.1062056 -11.63 0.0002568108    1.067    0.062
       283  -9.5431    140.4812     21.9662   6.3816096985e+01   4.7065172163e+01    0.1743935    0.0980222 -54.74 0.0008099845    2.544    0.607
       284  -9.5169    163.4527    247.2120   1.0990411881e+02  -8.2923097084e-01    0.1653759    0.1253181 -72.03 0.0009434473    1.686    0.407
       285 -10.2352    202.9997    243.3507   1.0158920316e+02  -6.9298603766e+00    0.3985899    0.2890511  83.67  0.001978007    2.722    0.633
       286  -9.5950    237.8545    244.7446   9.5245315826e+01  -1.2650605753e+01    0.1973334    0.1617835 -67.19  0.001204106    2.070    0.517
       287  -9.1560    184.6568    241.2271   1.0482382709e+02  -3.4744220090e+00    0.2818933    0.1403167  61.65 0.0009532991    4.460    0.776
       288  -9.3613    219.8587    240.1107   9.7819899273e+01  -9.1806587042e+00    0.1782229    0.1693237  54.84  0.000996432    1.340    0.253
       289 -10.8262    230.1369    236.5146   9.5264618426e+01  -1.0263698143e+01    0.3891189    0.2942577 -69.65  0.001320143    2.389    0.581
       290  -9.2859    228.0303    216.5216   9.2091775217e+01  -6.7494943745e+00    0.1976321    0.1663556 -27.46 0.0006123645    1.177    0.150
       291  -9.8589    225.7849    231.7065   9.5246549083e+01  -8.8320953283e+00    0.2068248     0.176052 -59.89 0.0007509504    1.608    0.378
       292 -10.7345    192.0137    236.9586   1.0268546338e+02  -4.0265952862e+00     0.584968    0.3718101  71.78  0.002496517    3.191    0.687
