#   1 NUMBER                 Running object number                                     
#   2 MAG_AUTO               Kron-like elliptical aperture magnitude                    [mag]
#   3 X_IMAGE                Object position along x                                    [pixel]
#   4 Y_IMAGE                Object position along y                                    [pixel]
#   5 X_WORLD                Barycenter position along world x axis                     [deg]
#   6 Y_WORLD                Barycenter position along world y axis                     [deg]
#   7 A_WORLD                Profile RMS along major axis (world units)                 [deg]
#   8 B_WORLD                Profile RMS along minor axis (world units)                 [deg]
#   9 THETA_WORLD            Position angle (CCW/world-x)                               [deg]
#  10 FWHM_WORLD             FWHM assuming a gaussian core                              [deg]
#  11 ELONGATION             A_IMAGE/B_IMAGE                                           
#  12 ELLIPTICITY            1 - B_IMAGE/A_IMAGE                                       
         1 -14.4854    155.6405     56.6690   8.1592837366e+01   3.9072279509e+01     1.399118     1.162887  51.01  0.002273441    1.151    0.131
         2 -14.9190    167.9137     41.5251   7.4892189209e+01   3.8237130895e+01     1.223804     1.092159   3.82  0.004197145    1.342    0.255
         3 -14.5027    183.9064     12.7215   6.4718889237e+01   3.7721691047e+01     2.643748    0.3227102  57.76  0.007827648    4.733    0.789
         4 -14.5296    182.5952      7.1902   6.3472178271e+01   3.8594971037e+01     1.755828    0.5391332  62.65  0.006003568    2.554    0.608
         5 -11.0194     21.8216    241.4765   1.4770370218e+02   2.2123451322e+01    0.1776839    0.1078903 -82.95 0.0009602919    1.384    0.278
         6 -19.9939     66.4606    171.2346   1.3194056865e+02   3.1760630389e+01     18.67715     6.608562 -65.46   0.07187369    2.661    0.624
         7 -10.4812    112.5191    196.6490   1.2527233068e+02   1.8558260875e+01    0.3635902    0.2600225   6.38  0.001541147    2.629    0.620
         8 -14.1858    179.6690    193.8990   1.1016493667e+02   6.3080890987e+00     1.609513    0.4746097  44.79  0.005208442    3.236    0.691
         9 -13.8894    165.5842    187.0026   1.1184433283e+02   1.0491504503e+01    0.6383559    0.5643458 -67.15  0.003027177    1.225    0.183
        10 -13.2567    169.9352    182.5074   1.1001923514e+02   1.0537262057e+01    0.5915925    0.3449031  42.50  0.001979971    1.656    0.396
        11 -12.5592    172.9761    188.9783   1.1063394664e+02   8.6082633181e+00    0.4346081    0.3628139  70.51  0.001338906    1.364    0.267
        12 -13.1478    175.9088    186.3077   1.0948568922e+02   8.5559677821e+00    0.4794952    0.3939725 -76.02  0.001407715    1.488    0.328
        13 -10.2096    103.5898    194.3646   1.2689766747e+02   2.0615515197e+01    0.3725377    0.2131465  27.52  0.001580534    2.497    0.599
        14 -11.3970    153.3095    193.5885   1.1575572324e+02   1.1566076113e+01    0.3100143    0.2541054  63.55 0.0007853459    1.249    0.200
        15 -13.5082    204.5208    176.3103   1.0151320387e+02   4.7500756141e+00     1.263278    0.5962942 -59.16  0.003916808    4.287    0.767
        16 -11.6554    201.5201    169.0301   1.0057813745e+02   6.7593821210e+00    0.4601355    0.2968718 -72.46  0.001493493    2.825    0.646
        17 -12.3842    204.4385    165.9576   9.9330276923e+01   6.7579972420e+00    0.6679059    0.4298795 -53.73  0.003016668    1.760    0.432
        18 -11.7147    153.3595    186.2181   1.1437597435e+02   1.3102589631e+01    0.2835049    0.2332681  61.75 0.0005987927    1.232    0.188
        19  99.0000     13.5742    239.2295   1.4890850182e+02   2.3458671312e+01    0.2231743   0.09067889 -83.75  0.001239787    2.112    0.527
        20  -9.2883    154.2849    239.6150   1.2303629118e+02   2.6124941118e+00    0.1307662   0.09506457  74.62 0.0007009399    1.740    0.425
        21 -10.6589    150.4494    180.2678   1.1388657191e+02   1.4959579944e+01    0.2012778    0.1441295 -64.28 0.0006405525    1.562    0.360
        22 -10.6458    136.7516    179.4027   1.1683205787e+02   1.7871020964e+01    0.2480345    0.1815837  35.74 0.0006188775    1.446    0.308
        23 -11.0680    198.9054    178.1278   1.0302556251e+02   5.5279590267e+00    0.3161954    0.2520978 -79.99  0.001046489    1.733    0.423
        24 -13.2091    194.0766    167.4281   1.0175729401e+02   8.6144720464e+00     0.791927     0.448903 -54.53  0.001745541    2.086    0.521
        25 -12.3996    126.5876    172.7703   1.1793956513e+02   2.1341611900e+01    0.5649362    0.3578454  60.66  0.001772326    1.766    0.434
        26 -12.9264    143.1055    174.6577   1.1446294213e+02   1.7665531240e+01    0.8460107    0.6400031 -21.94  0.003598874    1.812    0.448
        27 -13.1725    132.8671    168.7121   1.1567682713e+02   2.1044438786e+01    0.5270589    0.4586273  62.87   0.00137401    1.124    0.110
        28  -9.9862     19.4267    231.8505   1.4748209057e+02   2.4262695828e+01    0.2437009   0.07011893 -66.24  0.001149406    3.046    0.672
        29 -11.6736     34.6188    168.9064   1.3897022202e+02   3.6218221913e+01    0.3961025    0.2223109 -84.62  0.001509026    1.657    0.396
        30 -11.1477     13.4698    233.2457   1.4856482424e+02   2.4629195986e+01     0.142726   0.08362451 -85.21 0.0007686763    1.360    0.265
        31 -11.9555     19.5673    223.0102   1.4686082966e+02   2.6016979787e+01    0.1851186     0.162296 -81.76  0.001226316    1.425    0.298
        32 -12.5812    137.4108    171.2044   1.1510259013e+02   1.9577496361e+01    0.4604285    0.3463508 -50.19   0.00187664    1.360    0.265
        33 -11.6394    230.0943    165.8527   9.4385145871e+01   1.6653513169e+00    0.2155732    0.1971301 -62.72  0.000790139    1.269    0.212
        34 -11.7835    122.6704    165.6539   1.1750363928e+02   2.3733717738e+01    0.2976244    0.2445133  67.22  0.000213607    1.237    0.192
        35  99.0000     20.6540    219.3502   1.4641088990e+02   2.6646497433e+01    0.1907141   0.08643121 -85.36  0.001030408    1.921    0.479
        36  -9.8297      1.1695    165.8790   1.4594529513e+02   3.9977546479e+01    0.1354994   0.06642113 -79.10            0    1.570    0.363
        37 -11.8753      8.5666    175.4418   1.4524187304e+02   3.7251489882e+01    0.1998452    0.1648944  64.03  0.000825236    1.282    0.220
        38 -10.7232     14.3457    221.5798   1.4766985897e+02   2.6860006292e+01    0.1713748   0.07256401 -65.15 0.0005931564    2.220    0.550
        39 -10.6910    188.9777    154.3109   9.9938781217e+01   1.2359054018e+01    0.4149217    0.2673455  38.55   0.00182706    1.632    0.387
        40 -10.4270    170.2859    158.6452   1.0494903082e+02   1.5494432709e+01    0.1574184    0.1220395 -84.49 0.0007021888    1.670    0.401
        41 -10.5683     16.3125    156.4335   1.4171138534e+02   4.0863999763e+01    0.1826206     0.155799 -41.74 0.0008156953    1.492    0.330
        42 -10.0636      7.7572    221.1691   1.4877339267e+02   2.7613293950e+01   0.09653431   0.05739096  66.16 0.0002717548    1.342    0.255
        43 -11.0773    189.9984    157.5806   1.0045478531e+02   1.1468147242e+01    0.5769102    0.3602189  16.17  0.002130081    2.812    0.644
        44 -11.4684    174.3176    148.3622   1.0174638927e+02   1.6818485809e+01    0.4450945    0.3016701 -63.07  0.001643262    1.778    0.438
        45 -10.3893    119.1735    220.1994   1.2733032591e+02   1.2419376951e+01    0.2927825    0.1400604  38.55   0.00128962    2.065    0.516
        46 -10.0458    149.4657    215.4601   1.2032773586e+02   7.9029517082e+00     0.243047    0.1249317  33.23 0.0007299556    2.174    0.540
        47 -12.0345    152.5858    139.2306   1.0458938160e+02   2.3616414551e+01    0.3611943    0.2695133 -71.17   0.00111127    1.595    0.373
        48 -11.0538      1.4178    214.3673   1.4943473460e+02   2.9601703408e+01    0.1252304   0.07962681 -73.40 0.0008583676    1.430    0.301
        49 -10.8095    110.7470    211.7095   1.2789171090e+02   1.5622853883e+01     0.176163    0.1347825  79.01 0.0003123175    1.306    0.234
        50 -12.5377    106.0756    204.3767   1.2783798919e+02   1.7987252619e+01    0.3909935    0.3325237 -83.91   0.00125664    1.133    0.117
        51 -11.0967     18.3516    129.1864   1.3785625448e+02   4.6945031153e+01    0.2738015    0.1517968 -49.50 0.0008881174    1.691    0.409
        52 -12.1569    160.5750    127.7556   9.9948814110e+01   2.4355881401e+01    0.4644762    0.3242044 -56.76  0.001973486    1.523    0.343
        53 -10.3509    139.6473    249.8986   1.2727001834e+02   3.3766372433e+00    0.1633155    0.1475412  62.88 0.0006702175    1.116    0.104
        54 -11.9587      4.7110    120.5275   1.4026047340e+02   4.9889807275e+01    0.3437913    0.2035951  -8.92  0.001956477    2.640    0.621
        55 -10.7231    167.8897    112.8660   9.4524833026e+01   2.5820619899e+01    0.4242902    0.2735407 -82.78  0.001524813    2.732    0.634
        56 -13.7928    118.5736    110.0447   1.0591155448e+02   3.7382533259e+01    0.7030783    0.4952034  57.99  0.003225756    1.607    0.378
        57 -10.8268    205.4790    110.1516   8.6189872584e+01   1.7502250367e+01    0.3231744    0.2204407  45.07 0.0009273329    1.577    0.366
        58 -11.9733     14.8573    109.7121   1.3590201145e+02   5.1618466670e+01    0.3788736    0.1876725   2.63  0.001562983    3.374    0.704
        59 -10.0200    153.5229    202.0419   1.1721818674e+02   9.7936134332e+00    0.2056794    0.1424403 -54.34  0.001017972    1.565    0.361
        60 -11.7524      4.2700    112.0271   1.3922004468e+02   5.1807921840e+01    0.3543442    0.2296544 -12.50  0.002195567    2.155    0.536
        61 -10.0398    138.5640    200.0698   1.2011116089e+02   1.3050633041e+01    0.2350411    0.1653106  87.18   0.00110128    1.873    0.466
        62 -10.3220    133.7300    247.0648   1.2803415385e+02   4.8658277374e+00    0.1473635    0.1365706 -84.04 0.0003578221    1.222    0.182
        63 -10.1722    150.7414    245.3011   1.2452855464e+02   2.2586677186e+00    0.1532081    0.1326514  27.86 0.0003935684    1.237    0.191
        64 -11.3462    118.9749    240.2553   1.3001419390e+02   8.5762865766e+00    0.1781914     0.137582 -74.72 0.0005547389    1.414    0.293
        65 -10.8296     13.4564     59.7292   1.2614343220e+02   6.2171480400e+01    0.1824692    0.1541665 -38.42  0.000379907    1.114    0.103
        66 -10.1599    121.6386    198.5217   1.2355943246e+02   1.6517235053e+01    0.1386745    0.1269677  80.55 0.0001311849    1.042    0.041
        67 -12.9129    171.9224     34.0320   7.2122660925e+01   3.8220916854e+01     0.362641    0.3370194  18.89 0.0008691607    1.263    0.208
        68 -10.4785    135.1492     30.2704   7.7763266840e+01   4.7525274564e+01    0.2395223    0.1745109  76.93 0.0008191283    1.555    0.357
        69 -11.3894    125.0628    243.5252   1.2924801030e+02   6.9569352919e+00    0.1671005    0.1449329 -77.63 0.0004834078    1.272    0.214
