#   1 NUMBER                 Running object number                                     
#   2 MAG_AUTO               Kron-like elliptical aperture magnitude                    [mag]
#   3 X_IMAGE                Object position along x                                    [pixel]
#   4 Y_IMAGE                Object position along y                                    [pixel]
#   5 X_WORLD                Barycenter position along world x axis                     [deg]
#   6 Y_WORLD                Barycenter position along world y axis                     [deg]
#   7 A_WORLD                Profile RMS along major axis (world units)                 [deg]
#   8 B_WORLD                Profile RMS along minor axis (world units)                 [deg]
#   9 THETA_WORLD            Position angle (CCW/world-x)                               [deg]
#  10 FWHM_WORLD             FWHM assuming a gaussian core                              [deg]
#  11 ELONGATION             A_IMAGE/B_IMAGE                                           
#  12 ELLIPTICITY            1 - B_IMAGE/A_IMAGE                                       
         1 -12.4325     75.0139     51.3552   8.3266878873e+01   5.7354694890e+01     1.444853    0.8949464 -53.34  0.006823793    1.988    0.497
         2 -13.4249     42.5255     45.8533   9.4059269011e+01   6.2904388058e+01    0.8074724    0.6216132  54.97 0.0008557014    1.997    0.499
         3 -12.2089    124.9414     27.8945   5.9144862567e+01   5.0597728269e+01    0.7946247    0.5740983  31.70  0.003132799    1.392    0.281
         4 -12.7835    119.6132     37.9088   6.4192270302e+01   5.0530810697e+01    0.9895825    0.6701193  73.02  0.004518348    1.971    0.493
         5 -11.6473    145.8036     47.4440   6.1275456158e+01   4.2791482238e+01     1.120639    0.4451077 -25.13  0.003738404    3.124    0.680
         6 -12.2661    131.2332     14.9593   5.2989938592e+01   5.0521484478e+01     1.565191    0.6074631  56.52  0.006291131    2.171    0.539
         7 -12.7855    162.7657     28.5446   5.1752380056e+01   4.1014193373e+01    0.7743391    0.4985591  42.05 0.0008515457    1.623    0.384
         8 -11.9179    148.7341     22.1666   5.2149026301e+01   4.5361298493e+01      1.33707     1.045346  69.47   0.00716474    1.236    0.191
         9 -12.2497     60.9098     46.1455   8.6651070506e+01   6.0495381736e+01     1.411117    0.4945101 -45.23  0.005531067    2.687    0.628
        10  -9.5816      5.8156     33.8625   1.0670021756e+02   6.8250979303e+01     2.059959    0.2538755 -52.32  0.007876312    3.519    0.716
        11 -11.9281     26.2614     28.0778   9.4730255618e+01   6.7846910726e+01    0.5112091    0.4223357   2.04  0.003062296    1.246    0.197
        12 -11.5176     20.2483     22.0676   9.5261591789e+01   6.9430306250e+01    0.6874454    0.2111139 -47.04  0.003041584    2.616    0.618
        13 -12.6017     16.9087     13.4984   9.3278393055e+01   7.1145601942e+01    0.6862818    0.4373777 -30.22  0.003316646    1.207    0.171
        14 -12.1803     22.4716     11.7653   8.9506573486e+01   7.0910200855e+01    0.5256209     0.349728 -10.35  0.002399669    1.312    0.238
        15 -10.9214    178.5903     21.3993   4.7089385399e+01   3.7761430226e+01    0.6359922    0.3973359  22.56  0.002816603    2.332    0.571
        16 -11.2941    105.9707     20.3985   6.0987777702e+01   5.5898627236e+01    0.3465079    0.2615055 -19.89 0.0005837214    1.366    0.268
        17 -11.0617    198.5099     29.0215   4.6566259001e+01   3.1763824048e+01    0.5896257    0.3961101 -19.46  0.002426251    1.754    0.430
        18 -11.2111     14.2604     23.6269   9.8940959937e+01   6.9631251054e+01    0.3526561    0.2576408 -31.12 0.0002065724    1.024    0.023
        19 -10.8669    214.5459     23.1296   4.3102066030e+01   2.8488414637e+01    0.4669636    0.3506525  13.03  0.002452443    1.925    0.480
        20 -11.8190    137.8446     23.3693   5.4670782751e+01   4.7972489857e+01    0.7991337    0.6011866  47.59  0.002384295    1.220    0.180
        21 -10.5893     87.1875      7.6368   6.0801196671e+01   6.1308252432e+01    0.5651875     0.328256  54.68  0.002365326    1.698    0.411
        22 -11.2015     90.9118     20.6879   6.5425569586e+01   5.9102362034e+01    0.6141393    0.3752181 -22.97  0.002284559    1.651    0.394
        23 -11.0464     85.9436     14.3602   6.4196807505e+01   6.0854557349e+01    0.8276098    0.4618956  12.37  0.003360278    2.293    0.564
        24 -10.2002     50.2108      6.2884   7.3388330888e+01   6.8161082208e+01    0.2405042     0.172392  20.05 0.0004269918    1.218    0.179
        25 -10.4776     47.3535     19.0537   8.0932253870e+01   6.6880518569e+01    0.3199838    0.2472336 -12.18  0.001139347    1.060    0.057
        26 -12.3376     48.5841     12.9037   7.7432950631e+01   6.7567646641e+01    0.6787234    0.3127548  37.60  0.003438963    2.170    0.539
        27 -11.7273     36.2917     18.8378   8.5914719346e+01   6.8329316451e+01    0.6645745    0.3665658 -31.96  0.002764502    1.545    0.353
        28 -11.0408     32.5881     12.6631   8.4775318363e+01   6.9693690772e+01      0.23095    0.1926499  31.97 0.0005240761    1.593    0.372
        29 -11.9393     68.2442     18.0821   7.1953134894e+01   6.3744628611e+01      0.49821     0.426216   9.70   0.00184728    1.069    0.065
        30 -11.9895    237.9457     15.7346   3.9051220217e+01   2.3824901107e+01    0.5865405    0.3691356  66.76  0.002712509    1.593    0.372
        31 -11.3260    165.0748     17.8118   4.7988448037e+01   4.1643930135e+01    0.4700943    0.2872883  35.76  0.001395986    1.911    0.477
        32 -10.7235     22.3428      5.1097   8.6251495236e+01   7.1909645078e+01    0.2804383    0.1778196 -36.18 0.0005161241    1.470    0.320
        33 -10.2327    226.1022     15.3023   4.0002311481e+01   2.6620922600e+01    0.4230814    0.1784055 -41.10  0.001635054    2.101    0.524
        34 -10.2492    186.3715     15.0421   4.4210602319e+01   3.6463454381e+01    0.2860451    0.2204789  87.37 0.0004346289    1.232    0.188
        35 -12.2286    104.6355     12.7625   5.8207425042e+01   5.7028538855e+01    0.5081648    0.4434849 -28.69  0.001815436    1.287    0.223
        36 -11.4906    211.8470      9.8959   4.0022290724e+01   3.0637657919e+01    0.4523575      0.31509   8.37 0.0009579047    2.196    0.545
        37 -11.3743    192.4287      7.7003   4.1455476955e+01   3.5685234753e+01    0.5831676    0.4008846  15.36  0.002133395    2.093    0.522
        38  -9.1717     94.2634     12.2292   6.0783007613e+01   5.9355994376e+01    0.1630887    0.1518879  69.51 0.0004452961    1.331    0.249
        39  -9.2110     61.9967     11.9493   7.1424021004e+01   6.5583851059e+01      0.15509    0.1172713 -12.79 0.0005533999    1.192    0.161
        40 -10.1218     66.2035     10.0540   6.8907428490e+01   6.5082336241e+01    0.3318616    0.1904743  44.54 0.0009539074    1.707    0.414
        41  -9.7325     62.8977      6.6526   6.8471636480e+01   6.6043352272e+01    0.2849907    0.2000572   1.45  0.001223623    1.300    0.231
        42  -9.0613      4.5520     11.6610   9.9285249518e+01   7.2366472312e+01    0.2599129    0.1748912 -43.11  0.001817457    1.260    0.206
        43 -10.9638    242.4772      3.8059   3.6011699808e+01   2.4125469319e+01    0.3473869    0.2169394  75.29  0.002006817    1.526    0.345
        44 -10.0175    168.9928      9.6925   4.4912594979e+01   4.1465592517e+01    0.3737698    0.1667149  48.37  0.001557542    2.232    0.552
        45  -9.0931    163.1548      9.8282   4.5775278816e+01   4.2951324541e+01    0.2412257    0.1830189  22.12 0.0008324726    1.568    0.362
        46  -9.7936    163.5905      5.4413   4.4347089812e+01   4.3251221675e+01    0.3526626    0.2138592  29.63  0.001666061    2.070    0.517
        47 -11.1415    234.0699      6.8878   3.7343044342e+01   2.5695915080e+01    0.5267854    0.2651319  63.80  0.002222882    1.953    0.488
        48 -10.2975    228.1680      3.6611   3.7070640552e+01   2.7400947425e+01    0.3123112    0.2455473 -47.91  0.001940938    1.212    0.175
        49 -11.0607    218.8660      2.9930   3.7681174974e+01   2.9661341648e+01     0.344863    0.2561859 -42.03  0.001087307    1.327    0.247
        50 -10.5044    223.6861      1.9209   3.7024644933e+01   2.8628598244e+01    0.3558773    0.2151252  77.89  0.001069408    1.512    0.339
        51 -11.1774     40.8250      5.5814   7.7207431545e+01   6.9613970108e+01    0.4679452    0.2344048 -12.67  0.002305606    2.331    0.571
        52 -11.9485    246.8659      6.8108   3.6350059170e+01   2.2829334030e+01    0.5564179    0.4616703  29.88  0.003028508    1.745    0.427
        53 -10.5450    183.4449      4.8343   4.1671732507e+01   3.8237788871e+01    0.3861085     0.278568 -32.47  0.001642092    1.489    0.329
        54  -9.6763    153.4477      7.1625   4.6366069234e+01   4.5685808891e+01    0.6859456    0.1720337  67.68  0.002169201    3.621    0.724
        55  -9.4270     78.1926      7.3973   6.3475978950e+01   6.3140468389e+01    0.2571609    0.1813926  57.60  0.001453808    1.648    0.393
        56 -11.2349     75.3392      3.3879   6.2497806159e+01   6.4092667565e+01    0.6781373    0.2708224  45.81  0.003118448    2.144    0.534
        57 -10.6550    176.4646      5.5052   4.2694139852e+01   3.9952153906e+01    0.4240542    0.2382884  84.41  0.001046584    1.820    0.451
        58 -10.7260    115.5986      2.7945   5.1610595541e+01   5.5419071398e+01    0.8050935    0.3118078  50.69  0.003436074    2.091    0.522
        59  -9.9185    109.6746      1.6874   5.2451741015e+01   5.6895455162e+01    0.2741348    0.1586011  47.88  0.001072458    1.460    0.315
        60  -8.5465     31.2815      5.6728   8.1883142230e+01   7.0832357317e+01   0.09991186   0.08897707 -32.94 0.0004164221    1.600    0.375
        61 -10.6405    142.3488      2.9127   4.6693286474e+01   4.8868599896e+01    0.4281885    0.2678446  53.84  0.001389048    1.388    0.280
        62 -11.6952    133.5018      2.7595   4.8137404768e+01   5.1087220524e+01    0.4357724    0.2689433  56.20  0.001576849    1.382    0.277
        63 -10.8209    206.0887      2.5653   3.8715024538e+01   3.2795030299e+01    0.5538301     0.224192  84.44  0.002210861    2.698    0.629
        64  -9.5286    169.5942      2.9011   4.2780186804e+01   4.1945294145e+01    0.2609447    0.1419464 -65.39  0.001145129    2.278    0.561
        65  -9.7364    158.6597      2.1249   4.3988368658e+01   4.4803814831e+01     0.444483    0.1720229  49.64  0.001795742    2.397    0.583
        66 -10.3274     12.8377      1.9219   8.9896689957e+01   7.3278265781e+01    0.2427618    0.1493872   9.74 0.0008332354    1.559    0.359
        67 -11.1390      3.3177      1.7787   9.5469083888e+01   7.4046096464e+01    0.4090626    0.1664989  11.40  0.002185842    2.822    0.646
        68  -8.7979    152.0266      1.2047   4.4634040984e+01   4.6568070756e+01    0.1874807   0.09612084  67.64 0.0007912567    1.703    0.413
        69 -10.2131     82.2140      1.3100   5.9369156715e+01   6.2919944015e+01    0.1987879    0.1025613  51.23 0.0003317904    1.738    0.425
        70 -10.7860    105.3864      1.8743   5.3504573182e+01   5.7864675356e+01    0.3805536    0.2522063  77.49 0.0007017322    1.885    0.469
        71  -9.8131    215.0032    151.0732   7.5299861625e+01   7.6782858869e+00    0.2256329    0.2067042  -2.05 0.0007285784    1.012    0.011
        72 -10.2714    143.2790    249.5486   1.0689538201e+02   4.0464185554e+00     0.213159     0.174484  50.41   0.00147654    1.115    0.103
        73  -9.4412    234.3508    150.3629   7.1572849830e+01   4.0309858219e+00    0.2266399    0.1585973   2.98  0.001118512    1.661    0.398
        74  -9.6188    239.8396    146.8374   6.9834357360e+01   3.5760809102e+00    0.2157687    0.1740483  -0.84 0.0006734699    1.218    0.179
        75 -10.7874    249.5721    142.6414   6.7273959435e+01   2.4524700514e+00    0.6233385    0.2336867 -33.42  0.002454454    2.422    0.587
        76 -10.7106     33.0408    144.2287   1.1813178544e+02   4.1318413297e+01     0.301554    0.2391217  72.31  0.001072299    1.206    0.171
        77 -10.9535    133.4326    141.5059   9.1283029196e+01   2.6722094296e+01    0.3497835    0.2788975 -52.62 0.0004714975    1.268    0.211
        78 -10.1880     26.8329    139.7882   1.1919912313e+02   4.2948009515e+01    0.3298492     0.220581  50.40  0.001280536    1.573    0.364
        79 -11.6882     23.0547    135.0094   1.1962607995e+02   4.4406590951e+01    0.9606476    0.2987672  39.56  0.004150465    3.202    0.688
        80 -11.9704     29.9809    132.8769   1.1753644686e+02   4.4308364832e+01    0.4720617    0.3225642  85.57 0.0003894674    1.405    0.288
        81 -10.3843     39.1515    138.0873   1.1577272106e+02   4.2176824009e+01    0.2765339    0.2590092 -29.38  0.001840031    1.338    0.252
        82  -9.4719     79.3204    137.6711   1.0482964400e+02   3.7251045550e+01    0.2285362    0.1716481 -63.14  0.001195052    1.235    0.190
        83  -9.8898     81.8642    135.3688   1.0370203187e+02   3.7425835131e+01    0.3791414    0.1938705  27.09  0.001534757    2.516    0.603
        84 -10.1246     67.5368    135.5922   1.0769471101e+02   3.9428330420e+01    0.3701208    0.2069802 -43.24  0.001330537    2.044    0.511
        85 -10.2449     47.2632    135.8535   1.1328552291e+02   4.1852578243e+01    0.4631544      0.15831 -65.50  0.001480828    2.492    0.599
        86  -9.2706    192.4593    136.4893   7.6432822828e+01   1.5094603765e+01    0.1519034    0.1455702  -7.65 0.0001243873    1.014    0.014
        87  -9.3676    216.5452    135.4485   7.1421245223e+01   1.0133587350e+01    0.1481045    0.1352306  -8.80 5.385676e-05    1.028    0.027
        88 -10.0805     93.1635    135.1695   1.0055656200e+02   3.5677662170e+01    0.2421666    0.1753872  81.88 0.0006298865    1.709    0.415
        89 -10.4650     92.7292    129.6997   9.9552076402e+01   3.7065859703e+01    0.4595087    0.2825814 -72.97  0.001965918    1.963    0.491
        90  -9.1168    107.7092    145.9837   9.8835019342e+01   3.0596247007e+01    0.2082365    0.1903021 -72.32  0.000787549    1.065    0.061
        91  -9.8941     73.9723    132.7607   1.0540324902e+02   3.9223601196e+01    0.2718688    0.2589846   9.48  0.001617798    1.236    0.191
        92  -9.8300     61.7855    132.1835   1.0870429847e+02   4.1013164124e+01    0.4063102    0.3283839 -12.28  0.002246905    1.670    0.401
        93  -9.4099     66.0136    129.9795   1.0713115979e+02   4.0998669717e+01    0.2125175    0.1738689  84.30 0.0004350109    1.252    0.201
        94  -9.1946     38.8445    132.8009   1.1513423208e+02   4.3478781912e+01    0.1824194    0.1373856  75.92 0.0008659948    1.335    0.251
        95  -9.6219    103.6419    130.8303   9.6771945707e+01   3.4912122298e+01    0.2377322    0.2034485  27.12 0.0003689336    1.296    0.229
        96 -10.8171     10.6818    127.0981   1.2199647824e+02   4.7217114435e+01    0.5283242    0.1953109 -59.16  0.001870586    2.159    0.537
        97 -10.1233     81.9896    125.6775   1.0175434474e+02   3.9756431915e+01    0.4381249     0.279786 -28.55  0.001487104    2.234    0.552
        98  -9.1750    223.9852    126.9216   6.8047032003e+01   1.0084777595e+01    0.2200241    0.1732157 -63.11 0.0004934847    1.610    0.379
        99 -10.1040     23.0055    126.9685   1.1867566255e+02   4.6318533848e+01    0.1838688    0.1484162 -78.31 -0.005334738    1.008    0.008
       100 -10.8884      4.7675    120.1806   1.2284297516e+02   4.9216282465e+01    0.8639503   0.03816794 -59.10  0.002759051    4.903    0.796
       101 -11.4787      2.3220    112.1739   1.2265428590e+02   5.1218562106e+01     0.380621    0.2672411 -86.64  0.001392064    1.211    0.174
       102 -11.6024      3.6997    105.6741   1.2151122968e+02   5.2649264556e+01    0.4082233    0.3445896 -79.85  0.001917495    1.109    0.098
       103 -10.7225     55.8359    123.4231   1.0887547505e+02   4.3883931822e+01    0.5512006    0.4011627   5.53   0.00270851    1.913    0.477
       104  -9.9055     43.2515    116.0084   1.1128633467e+02   4.7088897132e+01    0.2899738    0.2076024  19.72   0.00162659    1.737    0.424
       105  -9.2498     49.9888    122.7676   1.1045646780e+02   4.4722993102e+01    0.2241141    0.1661562  15.23 0.0009000977    1.735    0.423
       106 -10.5242     45.5131    120.3353   1.1134912619e+02   4.5803785030e+01    0.4067124    0.2518223  72.72  0.001763782    2.047    0.511
       107  -9.8855     18.6600    124.6982   1.1958157928e+02   4.7201063591e+01    0.2822328    0.1270929 -66.05 0.0008200547    1.726    0.421
       108 -10.2057    239.3772    125.1934   6.5002387873e+01   7.2358460536e+00    0.2134026    0.1184925 -42.49 0.0009554217    1.728    0.421
       109 -11.9446    104.1338    122.2410   9.4702791375e+01   3.6863619938e+01     0.450662    0.4165949  16.19  0.001109255    1.196    0.164
       110  -9.2908     66.9676    124.4288   1.0583442099e+02   4.2223579779e+01    0.2799855    0.1924794   2.83  0.001315158    2.231    0.552
       111  -8.7300     94.2879    123.3282   9.7737314530e+01   3.8335064982e+01    0.1492538    0.1139954 -25.88 0.0007012876    1.615    0.381
       112  -9.1300    221.1891    120.4030   6.6984607234e+01   1.1820936163e+01    0.1924662    0.1451513  63.85 0.0006134714    1.609    0.379
       113  -9.4687    148.4005    119.8589   8.2334225021e+01   2.8356652362e+01    0.2971218    0.2102306   4.57  0.001009512    2.166    0.538
       114  -9.3315     72.0124    120.0608   1.0350320785e+02   4.2591241201e+01    0.2315968    0.1635548 -30.17  0.001125592    1.758    0.431
       115 -10.8674     33.1139    119.1288   1.1476340046e+02   4.7321335265e+01    0.3694491    0.2540167  71.07  0.001547482    1.621    0.383
       116  -9.6599    185.0281    119.0096   7.3683628839e+01   2.0169875282e+01    0.1970856     0.182274 -31.01 0.0009864633    1.058    0.055
       117  -9.7577    113.5346    115.9853   9.0557992255e+01   3.6560266875e+01    0.2706365    0.2215091  17.78 0.0005352967    1.432    0.302
       118 -10.6264    107.5887    112.1550   9.1278807863e+01   3.8591772980e+01     0.563749    0.3828771 -73.91  0.002391519    1.978    0.494
       119 -11.0405    102.7140    109.5605   9.2031511389e+01   4.0106091840e+01    0.7153258    0.5596187  19.09  0.003479592    1.518    0.341
       120  -9.3610     67.6422    114.3157   1.0362471985e+02   4.4589734539e+01    0.3434941    0.2413603  79.12   0.00166407    1.840    0.456
       121  -9.8075     66.9896    110.5081   1.0301877501e+02   4.5597967356e+01    0.3124198    0.2201385  37.27  0.001619025    1.560    0.359
       122 -11.0615     42.3539     94.1571   1.0742787398e+02   5.2410440773e+01     0.402779     0.307967 -87.84  0.001539091    1.482    0.325
       123 -11.4214     17.0966    100.9377   1.1682356677e+02   5.2930384389e+01    0.3654639    0.2694769  34.39 0.0004153911    1.639    0.390
       124 -11.8158     34.4279     93.9669   1.1002839465e+02   5.3208880051e+01     1.492892     1.036317 -53.77  0.008683421    1.201    0.167
       125 -12.3754     42.0637     85.4213   1.0560464625e+02   5.4478524055e+01     1.648335    0.5191582  20.32  0.005552041    4.888    0.795
       126 -11.6972      9.0959     96.6956   1.1869686013e+02   5.4427911153e+01    0.7690161    0.4398471  89.04  0.004187129    1.861    0.463
       127 -12.0450      7.2984     88.7979   1.1810469569e+02   5.6352855181e+01    0.5041313    0.4424131  33.01  0.001362917    1.440    0.305
       128 -11.5629     22.1273     94.8340   1.1423763219e+02   5.4006161116e+01    0.5379342    0.3516994  -4.96  0.003054828    2.065    0.516
       129 -12.3303     18.4125     89.7535   1.1458408530e+02   5.5453416003e+01    0.6724112    0.2824565 -45.55  0.001453926    2.154    0.536
       130 -12.5294     25.4991    107.5408   1.1525189743e+02   5.0746046941e+01    0.8472091    0.5330242 -21.37  0.003880105    2.198    0.545
       131 -12.0667     18.7511    106.1411   1.1708945775e+02   5.1588763854e+01    0.2972167    0.2355315 -37.76 0.0002500236    1.389    0.280
       132 -11.3133     22.6134    114.0386   1.1707409446e+02   4.9427371272e+01    0.4243955    0.2655179  -2.37  0.001838058    2.388    0.581
       133 -11.3025     28.3269    113.1222   1.1525941581e+02   4.9182420168e+01    0.3782395    0.2887497   9.26  0.001541144    1.706    0.414
       134  -9.3849    126.9672    113.6952   8.6285612010e+01   3.4366425763e+01    0.2229781    0.2048072  42.18 0.0009490293    1.108    0.097
       135 -11.2456     79.4290    108.3272   9.8707559749e+01   4.4329315143e+01     0.750785    0.4053989  37.13  0.002479059    1.991    0.498
       136 -10.2574     89.9776    104.4993   9.4548719181e+01   4.3538252885e+01    0.4498706    0.3535196  -6.94  0.001534712    1.619    0.382
       137 -10.3130     85.8843    103.8920   9.5650108505e+01   4.4359910261e+01    0.4541614    0.3126779 -13.25   0.00135237    2.148    0.535
       138  -9.7843     49.0230    112.3310   1.0889263489e+02   4.7361749573e+01    0.2471202    0.2333886  48.82 0.0009304389    1.206    0.171
       139 -10.9804    170.3149    110.4089   7.4658825946e+01   2.5310836891e+01    0.4934726    0.4279404   2.88  0.001660882    1.293    0.226
       140 -10.2303    175.5053    109.0476   7.3142296718e+01   2.4360971279e+01    0.2596708    0.2262495   9.86  0.001270609    1.273    0.214
       141  -9.9140    130.7077    109.8694   8.4274893063e+01   3.4429014478e+01    0.3221361    0.1839514  31.84  0.001228063    2.121    0.528
       142 -10.1680    120.3181    109.4190   8.6982839356e+01   3.6710196584e+01    0.3524215    0.2078651 -43.72  0.001460275    1.667    0.400
       143 -10.4622    157.4811    106.3842   7.6550192843e+01   2.9145146916e+01    0.4117177    0.2959534 -16.69  0.001507853    1.761    0.432
       144 -10.3637    143.3056    105.9731   7.9932649064e+01   3.2497501275e+01    0.3088859    0.2801228  82.56  0.001412194    1.232    0.189
       145 -11.9428    145.3968    100.6850   7.7934747691e+01   3.3139834980e+01    0.6253076    0.5453004  29.03  0.003087942    1.201    0.168
       146  -9.7078     60.8080     97.8218   1.0214563953e+02   4.9440884855e+01    0.2311722    0.1641991  56.93 0.0007354973    1.746    0.427
       147  -9.8762     57.2603     97.9600   1.0333561389e+02   4.9851031149e+01    0.2279958    0.2066602  26.73 0.0008045998    1.254    0.202
       148  -9.8772     82.8164    101.7096   9.6054177185e+01   4.5366917889e+01    0.3983393    0.1558065 -38.64  0.001274666    3.382    0.704
       149  -9.7265     50.6878    101.6634   1.0627207661e+02   4.9741176208e+01    0.3712616    0.2456777 -11.30  0.001816007    2.182    0.542
       150 -10.9110     52.1786     96.4914   1.0467417522e+02   5.0800857473e+01     0.683922    0.3039019 -68.28   0.00270081    2.571    0.611
       151  -9.3520    120.9202    101.3116   8.4620352665e+01   3.8401071075e+01    0.2235017    0.2074116  28.33  0.001154832    1.111    0.100
       152 -11.2229     67.3303     96.1793   9.9625320414e+01   4.8963896446e+01    0.5512225    0.4472807 -11.14  0.002398733    1.447    0.309
       153 -11.0300     89.8152     89.5120   9.0584637420e+01   4.7005571616e+01    0.8181137    0.4053485 -34.05  0.003071046    2.469    0.595
       154  -9.9517     77.3464     96.9584   9.6580181454e+01   4.7330303611e+01    0.4182234    0.2026622  42.97  0.001726866    2.291    0.564
       155 -10.5342     82.5778     93.3571   9.3958992617e+01   4.7343169944e+01    0.4232216    0.3099265  29.29   0.00108139    1.504    0.335
       156 -10.5864     76.7082     93.0058   9.5761263475e+01   4.8343695339e+01    0.5464765    0.3919047 -11.68  0.002063854    1.847    0.459
       157 -10.0895    210.7013     97.6263   6.3160452198e+01   1.8196045723e+01    0.3732703    0.3054893  22.23  0.001762899    1.415    0.293
       158 -10.1008     57.5226    102.9180   1.0434864029e+02   4.8639271148e+01    0.3917389    0.1885062 -61.18  0.001710394    1.882    0.469
       159 -10.0576    117.4541     93.0295   8.3247679530e+01   4.0937504366e+01    0.4786419    0.3050589  38.69  0.001381156    1.636    0.389
       160 -10.7149    121.0724     89.1526   8.1079373869e+01   4.1001798132e+01    0.4449852    0.3302379  30.64  0.001230385    1.465    0.317
       161 -10.6783    121.3094     85.0198   7.9767430952e+01   4.1815550677e+01     0.425626    0.3136437  41.76  0.001361211    1.380    0.275
       162 -10.3797    125.9829     93.5127   8.0995467946e+01   3.9016334083e+01    0.3988619    0.3262681  18.23  0.001320946    1.391    0.281
       163 -10.1880    122.4707     93.5406   8.1978142856e+01   3.9767902384e+01    0.3892171    0.2511013 -35.46  0.000856327    1.598    0.374
       164  -9.4831    160.6097     93.8616   7.2314902484e+01   3.0937070402e+01    0.3243766    0.2189535  69.71  0.001322848    1.913    0.477
       165  -9.1787    137.8062     93.4468   7.7807915575e+01   3.6392316663e+01    0.3070303    0.2108286  -0.25  0.001183552    2.315    0.568
       166 -11.3966    102.1058     89.7258   8.6818023429e+01   4.4723271533e+01    0.7793334    0.6367263 -22.80  0.003665482    1.302    0.232
       167 -10.3822    104.1186     77.6953   8.2550469370e+01   4.6897811170e+01    0.6462103    0.4108264 -32.31  0.002870122    1.633    0.388
       168 -11.2744    113.1732     85.3615   8.2209534573e+01   4.3464947817e+01    0.6415089    0.3658893 -36.76 0.0009946456    1.785    0.440
       169 -10.7744    152.2796     91.8578   7.3709812110e+01   3.3333190623e+01    0.3995982    0.3615658  88.26  0.001261656    1.241    0.194
       170  -9.5807    174.9345    246.8743   1.0063135880e+02  -5.7294712351e-01    0.2374159    0.1397624  40.99   0.00138008    1.371    0.271
       171  -9.8354     94.2341     76.3286   8.5221599088e+01   4.9072979642e+01     0.582139    0.3464309  32.39   0.00224073    1.846    0.458
       172 -10.8913     91.0533     47.9757   7.6436872329e+01   5.5077346409e+01    0.4220675    0.2543821 -27.46  0.001148309    1.687    0.407
       173 -10.2976     67.3658     82.0198   9.5915120044e+01   5.2210881077e+01    0.7202113    0.5270497   6.67  0.003720385    1.673    0.402
       174 -11.7196     85.4077     73.6453   8.7264970115e+01   5.1208518619e+01     0.734248    0.5026765  38.78  0.003080509    1.551    0.355
       175 -11.2477     79.7981     67.8802   8.7315939697e+01   5.3349156951e+01    0.6056854    0.5166216   3.59  0.003394518    1.206    0.171
       176 -10.9589     79.2174     83.0625   9.2188747518e+01   5.0202585205e+01    0.6175511    0.5002728 -70.14   0.00255653    1.450    0.310
       177 -11.7678     73.6545     77.7528   9.2519759056e+01   5.2235084376e+01     1.317136    0.6061476 -29.84  0.004481591    3.439    0.709
       178 -11.1604     91.3755     62.4720   8.1576253531e+01   5.2385428022e+01    0.6098317    0.3716979  53.63  0.002703663    2.068    0.516
       179 -11.9431     89.6938     57.5599   8.0410016233e+01   5.3627102986e+01     1.065608    0.6670471  55.88  0.004788503    2.124    0.529
       180 -13.0894     52.4124     73.5630   9.8874938849e+01   5.6028975863e+01    0.5551864    0.3201159 -58.72 0.0008093911    1.683    0.406
       181  -9.8772    199.9251     87.9308   6.2543095947e+01   2.2459559220e+01      0.22889    0.2195531 -47.34 0.0004110404    1.012    0.012
       182 -10.4416    183.5963     85.8710   6.5089852570e+01   2.6820710182e+01    0.7488254    0.3174266 -46.30  0.002572936    2.516    0.602
       183 -11.1786     57.9587     77.8709   9.8064675421e+01   5.4394666704e+01    0.5533783    0.2863108 -65.20 0.0004204872    2.404    0.584
       184  -8.2329    135.3144     86.3179   7.6346728444e+01   3.8424791548e+01    0.1615083    0.1246587   5.80 0.0007037536    1.649    0.394
       185 -10.4848    165.8120     83.5185   6.8145523256e+01   3.1654091407e+01    0.4534163    0.3664671 -57.80   0.00143778    1.347    0.258
       186 -11.4027    143.0524     84.0208   7.3662094513e+01   3.7080021575e+01    0.3995253    0.3606449  43.15 0.0006499367    1.109    0.098
       187 -10.2819    127.2301     82.5110   7.7353534485e+01   4.1026334545e+01    0.4485372    0.2781661 -42.27  0.001626571    1.595    0.373
       188  -9.8265    127.0205     76.9716   7.5679769718e+01   4.2175288808e+01    0.3651908    0.2534784 -59.96 0.0009967744    1.812    0.448
       189  -9.6437    124.2914     73.2231   7.5230043854e+01   4.3517366039e+01     0.292441    0.1930774  57.73   0.00108711    1.718    0.418
       190 -11.7127    122.4635     68.5205   7.4199530301e+01   4.4820255244e+01    0.6629698    0.4160673  41.10  0.002911347    1.609    0.378
       191  -9.3363    230.3325     73.6612   5.3933847782e+01   1.7655642535e+01    0.3184419    0.1608522 -54.05  0.001185162    2.268    0.559
       192 -11.7814      1.9508     71.4164   1.1710742911e+02   6.0546238467e+01      0.68332    0.1485905 -67.04   0.00263814    3.233    0.691
       193 -12.3433      6.4145     62.2674   1.1367280519e+02   6.2346646798e+01    0.6605578    0.3862488 -32.58  0.003297825    1.668    0.400
       194  -9.0411    170.6040     77.7949   6.5434280828e+01   3.1510278602e+01    0.2208776    0.1428978 -45.79 0.0003823768    1.579    0.367
       195  -9.4014      8.9820     76.2770   1.1544317989e+02   5.9111196026e+01    0.1651204    0.1268711 -56.56 0.0002234573    1.032    0.031
       196 -11.8046     13.9974     74.5840   1.1331425957e+02   5.9204343753e+01    0.4303936    0.3127543 -59.86  0.001649165    1.083    0.077
       197  -9.6462    139.0457     77.4838   7.2668519890e+01   3.9295930701e+01    0.2325888    0.1538463  49.22 0.0003647401    1.512    0.339
       198  -9.7687    192.4133     65.7353   5.7768069722e+01   2.8072102191e+01     0.291504    0.2393343 -88.20   0.00086964    1.339    0.253
       199 -12.1723    186.5833     70.4700   6.0154936072e+01   2.8762126226e+01    0.9955332    0.6597534 -35.19  0.003394775    1.494    0.331
       200 -10.0551    184.4210     61.2892   5.7905575218e+01   3.0807314716e+01      0.28211    0.2390924 -39.74  0.001203974    1.174    0.148
       201  -9.2505     63.5457     76.3915   9.5657890161e+01   5.3988950229e+01    0.2209684    0.1640752 -41.50  2.50895e-06    1.195    0.163
       202  -9.8371     66.3923     74.1958   9.4003593723e+01   5.4073901407e+01    0.2651649    0.2272388 -85.45 0.0009719815    1.513    0.339
       203  -9.4133    113.3777     75.3140   7.9011967731e+01   4.5486278900e+01    0.3965746    0.1318276  40.59  0.001226639    3.281    0.695
       204  -9.0585    151.1270     73.8380   6.8573999016e+01   3.7064779863e+01    0.2211535     0.181739  25.89  0.000526488    1.333    0.250
       205 -10.3277     15.7023     44.2918   1.0527675807e+02   6.5594079391e+01    0.8710808    0.2361516 -35.37  0.003051064    4.436    0.775
       206 -10.6851     22.1908     36.8335   9.9921167803e+01   6.6585536129e+01    0.4288314    0.2068399  36.37  0.002212377    2.723    0.633
       207 -10.2305     53.2436     49.2412   9.0840028590e+01   6.0962039060e+01    0.4248903    0.3373263 -77.01  0.002343627    2.007    0.502
       208 -12.0661     21.5839     46.6671   1.0338726517e+02   6.4698124811e+01    0.7010217    0.4766048  -7.73   0.00248847    1.587    0.370
       209  -9.1608    199.0636    244.4981   9.5819469705e+01  -4.0375762112e+00    0.1924489   0.09663807  38.40  0.001037015    1.613    0.380
       210 -11.8370     40.7518     70.6183   1.0241162499e+02   5.7954290629e+01    0.8201323    0.2739293 -49.62  0.003366514    2.348    0.574
       211 -11.4693     32.5349     71.8980   1.0583766461e+02   5.8441583726e+01    0.5536223    0.2788011  23.31  0.002356471    2.330    0.571
       212 -11.2288     41.0366     57.1229   9.8413423717e+01   6.0811622244e+01    0.4550883    0.3655362  67.62  0.001611816    1.892    0.471
       213 -11.7689     31.6097     58.8282   1.0273676775e+02   6.1362587225e+01    0.7718239    0.3512127   8.90  0.001243888    3.244    0.692
       214 -11.6168     28.3153     54.1731   1.0274715689e+02   6.2622728349e+01    0.8621288    0.4393164   4.61  0.004183751    2.667    0.625
       215 -11.4567     50.9719     61.3057   9.5787164440e+01   5.8828723998e+01    0.3258265    0.2982697  40.41 0.0009545669    1.343    0.256
       216 -11.3728     46.1327     58.6458   9.6849632664e+01   5.9943287517e+01    0.4377184    0.2489232 -46.42   0.00167655    1.485    0.327
       217 -11.2031     20.5511     55.3704   1.0631675493e+02   6.2974813401e+01    0.3426549    0.3223857  80.87 0.0008595118    1.387    0.279
       218  -9.7984    162.2137     70.8255   6.5142491312e+01   3.4849693773e+01    0.3189623    0.2677624 -74.03  0.001226472    1.374    0.272
       219 -10.2218     14.3138     67.3434   1.1170076673e+02   6.0797899393e+01    0.3266741     0.270267  -5.04  0.002147381    1.408    0.290
       220  -9.9325    172.4644     68.5022   6.2300534473e+01   3.2663685772e+01    0.4262319    0.2862479  26.61  0.001240102    1.964    0.491
       221 -10.0870    172.0472     65.2768   6.1419825196e+01   3.3310845878e+01    0.4213408    0.3555566 -73.45  0.001864887    1.319    0.242
       222 -10.4992    108.9236     80.7848   8.2062433407e+01   4.5294068586e+01     0.425038    0.3319021 -17.04  0.001309982    1.434    0.303
       223 -11.4063    219.8983     66.3890   5.3582020684e+01   2.1222612271e+01    0.6453127    0.3911062  57.48  0.002535734    1.709    0.415
       224  -9.3123    208.0241     68.4899   5.5935492427e+01   2.3754932974e+01    0.2226139    0.1449327  58.89 0.0009705911    1.571    0.363
       225 -11.1911     46.9121     74.1874   1.0106915129e+02   5.6518173949e+01    0.3071644    0.1830243 -51.03            0    1.414    0.293
       226  -8.7023     69.7794     66.9515   9.0549863446e+01   5.5119709462e+01    0.1825199    0.1043434 -45.17 0.0003393062    1.584    0.369
       227  -9.0332     64.3895     62.7584   9.1158698064e+01   5.6770134589e+01    0.3211862    0.1998137  51.36 0.0009621046    2.255    0.556
       228 -10.6730     59.4836     63.5498   9.3247152710e+01   5.7283472658e+01    0.5021834    0.1995119 -45.73  0.002071733    2.188    0.543
       229 -10.1973     57.3152     61.2933   9.3343070239e+01   5.8036221950e+01    0.2761798     0.212038  -5.46 0.0006089755    1.394    0.283
       230 -10.1975     21.2735     65.5401   1.0860441938e+02   6.0736304534e+01    0.2425833    0.2058665  77.64 0.0005737927    1.516    0.340
       231  -9.4439     25.9320     65.3460   1.0673991783e+02   6.0431890417e+01    0.1828176    0.1370158 -50.74 0.0004033381    1.073    0.068
       232  -9.4642     53.0948     65.9446   9.6403884489e+01   5.7596370641e+01    0.2545481    0.1828695  42.23  0.001399219    1.688    0.407
       233 -10.2096    105.6377     63.9245   7.7548652218e+01   4.9309654499e+01    0.5311903    0.3750407 -35.53  0.002568226    1.381    0.276
       234 -10.4711    105.9348     57.7459   7.5305730082e+01   5.0381011089e+01    0.3340755    0.3055138  69.88  0.001666864    1.315    0.240
       235 -11.3984    234.0634     61.2156   5.0346526539e+01   1.8704249533e+01    0.6101266    0.4435317  70.49  0.002752767    1.466    0.318
       236  -9.9689    198.9604     63.3441   5.5996205898e+01   2.6811545733e+01    0.5285736     0.314458  85.87  0.002073838    2.434    0.589
       237 -10.0379    232.9114     77.8036   5.4597082765e+01   1.6418261128e+01    0.3942802    0.2331226 -32.67  0.001651623    1.596    0.374
       238 -10.4427    159.0312     62.0991   6.3134876413e+01   3.7141068025e+01    0.5492914    0.2812728  41.31  0.002084337    2.160    0.537
       239 -11.4095    128.0445    241.6850   1.0884293139e+02   7.6723609172e+00     0.390819    0.3333274  48.26  0.002718318    1.074    0.069
       240 -11.4397    122.4852     58.8956   7.0945339239e+01   4.6552706150e+01     1.077898    0.5298114  35.33  0.003992415    2.437    0.590
       241 -10.5884    117.3583     56.0916   7.1388466515e+01   4.8195789323e+01    0.5982577    0.4575625  15.95  0.002504964    1.472    0.320
       242 -11.1785    112.9225     49.8488   7.0413090697e+01   5.0228672467e+01    0.6403975    0.4016952  34.89  0.002516082    1.654    0.395
       243 -12.4922    117.8090     43.9855   6.6914308753e+01   5.0054505621e+01     1.205284    0.6746059  66.16  0.004569312    2.477    0.596
       244  -9.5849     67.9853    240.4812   1.1993159771e+02   1.6650009283e+01    0.1722739   0.09299348  43.06  0.001024368    1.568    0.362
       245 -10.9270    136.2077     55.2615   6.6148420071e+01   4.3932972312e+01    0.8934391    0.4731362 -34.86  0.003661903    1.911    0.477
       246  -8.7286    221.6733    239.6690   9.0967432827e+01  -6.8700273480e+00      0.12574   0.07654937  10.47 0.0004950762    1.709    0.415
       247 -11.0667    148.8821    238.2066   1.0441554486e+02   4.8959772681e+00    0.4016243    0.1778087  38.37  0.001945627    1.874    0.466
       248 -10.8404    198.2460    232.6073   9.4155174539e+01  -2.3235169604e+00    0.3813571    0.2987736  34.12  0.002481256    1.142    0.124
       249  -9.6941     15.1447    233.7160   1.2869190407e+02   2.4055069661e+01    0.1908031    0.1224225 -84.01  0.001044232    1.403    0.287
       250 -11.2679    155.8724     42.0314   5.7374480664e+01   4.1024936658e+01    0.4936612    0.3969635 -37.12  0.001634118    1.291    0.225
       251 -11.6403    153.1039     36.0722   5.5966359541e+01   4.2544926698e+01    0.3137799      0.28628 -51.57 0.0004328713    1.165    0.141
       252 -11.1728    157.4854     55.5153   6.1386098301e+01   3.8600065932e+01    0.6306803    0.5195099 -75.81   0.00232666    1.418    0.295
       253 -10.4415    155.3021     49.9446   6.0057665805e+01   4.0016728993e+01    0.3505684    0.2694588  10.15 0.0007795864    1.597    0.374
       254  -9.7677    187.9031     55.5592   5.5641931191e+01   3.0811106792e+01    0.2556175    0.2378727  18.56  0.000614211    1.196    0.164
       255 -10.0630     66.9967     54.7062   8.7439975895e+01   5.7989664368e+01     0.312244    0.1869076 -50.51  0.001072014    1.754    0.430
       256 -10.8786    244.8376     51.1222   4.6627014311e+01   1.7735761065e+01    0.5012344    0.2475895  83.80  0.002047244    2.874    0.652
       257  -9.7821    237.2570     54.0202   4.8193668702e+01   1.9025896900e+01    0.2586464    0.2173954 -83.95 0.0006434765    1.196    0.164
       258 -10.5659    240.4606     50.4830   4.6968196470e+01   1.8802819303e+01    0.3913705     0.256822 -30.45  0.001680898    1.518    0.341
       259  -9.9055     59.5165     24.0140   7.8065917165e+01   6.4367294134e+01    0.3013832    0.1573973 -32.31 0.0009744519    1.778    0.438
       260 -10.1060     60.5792     20.1725   7.5884986882e+01   6.4747138014e+01    0.2729878    0.2319865 -68.53   0.00115669    2.079    0.519
       261 -10.1203    247.3478    231.5689   8.5118026990e+01  -9.6286448563e+00    0.2058717    0.1289917 -20.56  0.000774923    1.542    0.351
       262 -11.2305     60.6183     36.2075   8.2863434972e+01   6.2282449024e+01    0.3640721    0.2467117 -29.64 0.0009071204    1.323    0.244
       263 -11.1559     56.4633     30.9986   8.2375692626e+01   6.3751748405e+01    0.3740937    0.2652948  14.54  0.001569645    1.397    0.284
       264 -11.6307     48.9569     30.1512   8.5183349677e+01   6.4934873564e+01    0.5825462    0.3027141  23.66  0.002239892    2.117    0.528
       265  -9.5089    211.7066     53.1362   5.1287534567e+01   2.5202475331e+01    0.2578828     0.196421  86.53 0.0009871398    1.395    0.283
       266 -11.2744    201.6321     49.1054   5.1653272084e+01   2.8288563679e+01    0.7866082    0.4555321 -33.61   0.00354632    1.707    0.414
       267 -11.0292    173.6612     47.9293   5.5869010431e+01   3.5604551760e+01    0.6100788     0.437241  77.00  0.002831164    1.512    0.339
       268  -9.5046    176.6894     43.6724   5.4050611981e+01   3.5431600533e+01    0.3380519    0.2267865  80.50  0.001432592    1.682    0.405
       269  -9.4936    148.0845     60.7679   6.5145162624e+01   4.0106649275e+01    0.4510669    0.1333826  56.93  0.001290474    3.641    0.725
       270  -9.6394      2.1943     48.5740   1.1234219640e+02   6.5460548505e+01    0.2369498    0.2041261 -34.32  0.001783161    1.192    0.161
       271  -9.6816      5.3050     42.4848   1.0942873585e+02   6.6564635739e+01    0.4004069    0.2042728 -50.60   0.00163906    1.419    0.295
       272  -9.5104     23.4060    231.6632   1.2719493344e+02   2.3578847852e+01     0.187001   0.09239689  51.32 0.0008235748    1.573    0.364
       273  -8.5970    200.3225    241.3311   9.5112956546e+01  -3.8218972646e+00    0.1255499   0.08059309  11.79 0.0007049755    1.699    0.411
       274  -9.5754    167.6815    238.3179   1.0081666165e+02   1.8183982165e+00    0.1205384   0.08868813  60.72 0.0007040794    1.658    0.397
       275  -9.5114    108.3735    230.2054   1.1133342141e+02   1.2704972956e+01    0.1582118    0.1118686 -82.88 0.0009457713    1.639    0.390
       276  -9.3625    181.3102    228.3097   9.6719403966e+01   1.0638565354e+00    0.1275058   0.08900733  11.91 0.0005215333    1.622    0.383
       277  -9.1387    161.7124     47.9784   5.8130194435e+01   3.8672810857e+01     0.273632    0.2226329 -60.13 0.0005159976    1.350    0.259
       278  -9.9916    162.7786     43.7808   5.6593490278e+01   3.9005970426e+01    0.3903081    0.2410679  52.43  0.001756687    1.537    0.350
       279  -9.3684    194.0730     46.2764   5.2000375762e+01   3.0602918132e+01    0.3210817    0.1746627 -84.41  0.001141718    3.027    0.670
       280 -10.9167    139.2366     44.3471   6.1703939907e+01   4.4885014507e+01    0.5418671    0.2471417  44.30  0.002065828    2.197    0.545
       281 -11.0556     95.2422     41.5692   7.2620031727e+01   5.5300744072e+01    0.8201391    0.3671797  52.00  0.003257432    2.503    0.601
       282 -10.2384    189.0230     42.4334   5.1681844299e+01   3.2429417321e+01    0.3067141     0.197345 -38.90 0.0008465255    1.540    0.350
       283 -10.2273     86.0249     30.6821   7.1228083800e+01   5.8758520077e+01    0.4579637     0.237458 -18.83  0.001976305    2.271    0.560
       284 -10.7905     80.4999     39.9517   7.6913869766e+01   5.8380098454e+01    0.5656983    0.4071504  37.43  0.003065851    1.397    0.284
       285 -10.6931     77.7635     34.4386   7.5640043089e+01   5.9744000312e+01    0.4063564    0.2620326  37.71  0.001279696    1.530    0.347
       286 -10.5192     81.2875     30.9660   7.2952470785e+01   5.9619445259e+01    0.4585445    0.3405658 -64.19  0.002282094    2.323    0.570
       287 -10.2093    231.9677     39.5183   4.5275678009e+01   2.2251113537e+01    0.4652763    0.2127796 -62.58   0.00178156    2.900    0.655
       288  -9.3353    193.8045     38.9380   4.9970968999e+01   3.1682708281e+01    0.1995338    0.1882933  34.86 0.0003389939    1.182    0.154
       289 -11.1202    176.9527     36.4132   5.1822070076e+01   3.6349350023e+01    0.4345492    0.3590998 -17.53  0.002307193    1.355    0.262
       290  -9.8916    171.8148     32.9783   5.1618190086e+01   3.8122770886e+01    0.2851466     0.242502  58.29  0.001140628    1.120    0.107
       291  -9.9954    234.0129    223.1326   8.6010931727e+01  -6.6628619116e+00    0.2424526    0.1420553  19.75  0.001080732    1.592    0.372
       292 -10.8209    177.1632     29.7125   4.9776716004e+01   3.7147745668e+01    0.5089438    0.2488164  51.14  0.001422715    1.986    0.497
       293 -11.2290    183.1267     25.1390   4.7546418722e+01   3.6160757894e+01    0.5976905    0.3051542  51.36   0.00260276    1.932    0.482
       294  -9.4043    133.2978     36.9590   6.0489202519e+01   4.7392475609e+01    0.3742261     0.257181 -66.44  0.001668583    2.087    0.521
       295  -9.7648    206.9765     36.9906   4.7627669808e+01   2.8620386521e+01    0.2685735    0.2012288  61.72  0.001391244    1.324    0.245
       296  -9.3333     94.5885     36.1378   7.0684541050e+01   5.6263279954e+01    0.2632833    0.1833148  63.63  0.001275554    1.940    0.485
       297 -10.9137    138.1125     33.8427   5.8306442009e+01   4.6621224553e+01    0.5742847    0.3511273 -54.51  0.001618256    2.132    0.531
       298  -8.5780    209.3351    223.3294   9.0564981022e+01  -2.8277699028e+00    0.1330819   0.08521618   9.76 0.0007052037    1.726    0.421
       299 -12.2250    106.1100     32.6055   6.5832063941e+01   5.4326376994e+01    0.5286473    0.3197574  16.84  0.001706118    2.168    0.539
       300 -12.4062    113.2370     25.0230   6.0928193677e+01   5.3702019559e+01     0.916241    0.4103465  54.32  0.003570203    2.069    0.517
       301 -10.1234    240.4989     32.4968   4.2705224048e+01   2.1208041528e+01    0.4735397    0.2051275 -38.38  0.002139796    2.006    0.501
       302  -9.2513    237.3271     32.7370   4.3078072143e+01   2.1899505501e+01    0.1730608    0.1545498  48.89 0.0004788246    1.348    0.258
       303  -9.4890    216.1780     32.9254   4.5426296917e+01   2.6880091562e+01     0.315093    0.1914238   3.97  0.001259038    3.172    0.685
       304  -9.6319      9.9734    217.7361   1.2878799422e+02   2.7569387092e+01    0.1530206    0.1084287  69.98 0.0006664158    1.050    0.048
       305  -8.4723     70.5098     34.4416   7.8296747545e+01   6.1001546787e+01    0.2473191    0.1705657 -13.55 0.0007387441    1.454    0.312
       306  -9.8763     67.8072     32.1549   7.8360544155e+01   6.1809255352e+01    0.3627298    0.2652805  -4.30  0.001961045    1.341    0.254
       307 -10.6182    188.9033     28.4888   4.7704099264e+01   3.4274892668e+01    0.5446413    0.3395794   9.16  0.002287278    2.654    0.623
       308 -10.3753    165.0529    212.2688   9.7434654922e+01   6.4073972208e+00    0.2678674    0.1848969  49.71  0.001455672    1.412    0.292
       309  -9.5129    221.6960     29.5672   4.3948921429e+01   2.5969909180e+01    0.2174894    0.1650216 -19.91  0.000478348    1.549    0.354
       310  -9.4827     99.3550     30.0999   6.6794438233e+01   5.6127609824e+01    0.3074689    0.2415148 -82.60   0.00123794    2.049    0.512
       311  -9.3109     97.5306     26.4756   6.5857540139e+01   5.6994343699e+01    0.1890506    0.1720675 -74.52 8.807534e-05    1.478    0.324
       312  -9.1699     40.9412     28.9367   8.8212427587e+01   6.6146416482e+01      0.35929    0.1226679 -34.54  0.001445884    2.897    0.655
       313 -10.2519    230.6646     27.1446   4.2412729853e+01   2.4145196875e+01    0.3563672    0.2005053 -39.48  0.001034555    1.624    0.384
       314  -9.2199     66.1768     28.4512   7.7397721952e+01   6.2643976363e+01    0.2453657    0.1173512  35.13  0.001133993    2.101    0.524
       315  -9.7691    250.5399     26.6251   4.0430281870e+01   1.9712441559e+01    0.2534994    0.1127386 -33.58 0.0006455985    2.069    0.517
       316  -9.2304    204.5187    208.5081   8.8924714528e+01   1.2114764305e-01    0.1321936    0.1123155  19.58 -3.473304e-05    1.029    0.028
       317  -9.7178    153.2975    207.8505   9.9160001849e+01   9.2549677001e+00    0.2490275      0.16583  47.79  0.001163816    1.377    0.274
       318 -10.1663     86.0581     23.9295   6.8354357467e+01   5.9673058894e+01    0.1974436     0.167302  12.93            0    1.033    0.032
       319  -9.7625     60.9965    206.9358   1.1838708210e+02   2.4018581801e+01    0.1879504    0.1469373  69.79 0.0004419975    1.037    0.035
       320  -9.5818    238.5122    204.4630   8.1855106924e+01  -4.8983635489e+00     0.247635    0.1150468 -32.79  0.001204485    2.143    0.533
       321  -9.8375      4.7218    204.4022   1.2904554622e+02   3.0676203037e+01    0.2172069    0.1112132 -74.12  0.001347823    1.716    0.417
       322  -9.0389     44.9018     24.2103   8.4380982410e+01   6.6424751559e+01    0.1732058    0.1562472 -18.01 0.0006541695    1.280    0.219
       323 -10.4721     16.6316    202.9690   1.2676765851e+02   2.9857580959e+01     0.290621    0.1117656 -75.54  0.001538077    2.210    0.548
       324 -10.9967    245.1809    200.9059   8.0008731524e+01  -5.4576927903e+00     0.273501    0.1581123  30.95  0.001182519    1.593    0.372
       325  -8.4921    207.2750    201.3426   8.7094338815e+01   7.4178621284e-01    0.1358436   0.09393211   3.07 0.0004331421    1.620    0.383
       326 -10.8927      6.1787    198.5727   1.2846976371e+02   3.1724523386e+01    0.2575934    0.1357706 -67.28  0.001606931    1.837    0.456
       327  -8.5331      1.3147    200.2968   1.2945659899e+02   3.1799484733e+01   0.09580898   0.07390714 -63.66 0.0003661779    1.604    0.377
       328  -9.1341    223.2722     22.0449   4.1915758872e+01   2.6510181416e+01    0.1835868    0.1595815 -67.76 0.0005917628    1.025    0.024
       329 -10.3532    234.2927    196.9490   8.1197653769e+01  -3.1733816571e+00    0.3865147    0.2633104  14.53  0.001562195    1.402    0.287
       330  -9.9083     74.1150     19.5370   7.0479132736e+01   6.2510183819e+01    0.2604901    0.1840105  30.55 0.0007374833    1.299    0.230
       331  -8.4950    195.3424    199.6662   8.9132752958e+01   3.1129045768e+00    0.1294779    0.1081858  73.08 0.0007050748    1.758    0.431
       332  -8.7166     83.6918    195.7084   1.1241512767e+02   2.3229459806e+01    0.1157494    0.1038407 -21.57 0.0002942765    1.581    0.368
       333 -12.2361      4.8192    184.4929   1.2792722957e+02   3.4768235897e+01    0.6074369    0.4047211  76.06  0.003521498    1.161    0.139
       334  -9.4737    211.3215     18.9048   4.2368337695e+01   2.9771585078e+01    0.1787518    0.1635243 -59.65 0.0003592427    1.098    0.089
       335  -9.9424    239.7071    184.7724   7.7849394479e+01  -2.3024014246e+00    0.2536483    0.1761922   9.35 0.0007516652    1.429    0.300
       336  -9.2231    205.4744     17.3477   4.2598545290e+01   3.1392643783e+01    0.2318075    0.1183972  71.18 0.0008165246    1.831    0.454
       337  -9.6134    191.8862     16.4810   4.3935105483e+01   3.4903799406e+01    0.4021816    0.2037933  43.49  0.001710455    2.380    0.580
       338  -9.9190    213.5278    184.4927   8.2656471808e+01   2.2974239392e+00    0.1385545    0.1204402   8.73 0.0008099917    1.002    0.002
       339  -8.9996    182.5450     12.4825   4.3959531077e+01   3.7710052253e+01    0.2649366    0.1328068  46.67   0.00114654    2.154    0.536
       340  -8.9667    174.2415     15.6323   4.5982184222e+01   3.9512752676e+01    0.1933811    0.1149001  59.06 0.0004872658    1.523    0.343
       341  -9.9689    250.1242    178.9323   7.4857685201e+01  -3.1679915838e+00    0.3568181    0.1467091 -24.22  0.001432836    2.801    0.643
       342  -9.7047     27.7252    176.3630   1.2261150173e+02   3.4438471420e+01    0.2808169    0.1728729 -77.36  0.001693634    1.371    0.271
       343 -10.0974     52.1527    173.8932   1.1692489755e+02   3.2308160647e+01    0.4281607    0.1934898  89.34  0.001728207    2.973    0.664
       344  -9.7562    231.5302    175.3930   7.7426727319e+01   5.2110909799e-01    0.3816101    0.1222927  41.80  0.001407117    3.088    0.676
       345  -9.8183    169.8529    191.3999   9.2871890457e+01   9.2185417200e+00    0.3665457    0.1944966  29.13 0.0009829761    2.122    0.529
       346  -9.6991    247.3179    174.0078   7.4338742357e+01  -1.9838560944e+00    0.3925609     0.157301  26.84  0.001350296    4.022    0.751
       347  -9.9218     39.2432    173.4147   1.1980300204e+02   3.3899376563e+01    0.2437358    0.1545441  82.90   0.00108667    1.442    0.307
       348 -10.9334     35.1867    170.0889   1.2039116260e+02   3.5086399758e+01    0.3633161    0.2243167 -86.46  0.001581273    1.414    0.293
       349 -10.2490      8.7227    157.1181   1.2522735638e+02   4.0444121135e+01    0.3099072    0.1628444 -64.86  0.001029221    1.656    0.396
       350 -11.8392      9.5337    167.0749   1.2580462791e+02   3.8152263749e+01    0.5100958    0.3407561  88.94  0.002279412    1.166    0.143
       351 -11.3647     13.7551    159.3614   1.2427261441e+02   3.9532485931e+01    0.4353735    0.2312867 -74.73  0.001393638    1.511    0.338
       352  -9.1089    197.8795    167.8657   8.2361930730e+01   8.0940408930e+00    0.1855463    0.1757222 -65.27 0.0008422074    1.296    0.228
       353  -9.7577    188.9277    164.0255   8.3402547439e+01   1.0583933487e+01    0.2867593    0.1881966 -12.36  0.001049607    2.074    0.518
       354  -8.5152    156.4688    166.4754   9.1046023221e+01   1.6659320964e+01    0.1478276    0.1405626  37.25  0.000179921    1.007    0.007
       355  -8.5994    152.4190    166.5245   9.1983818666e+01   1.7456183413e+01    0.1462868     0.140342  28.44 8.721439e-05    1.030    0.029
       356 -10.4658     18.8456    165.0209   1.2360167910e+02   3.7816050338e+01    0.2767407    0.2319461 -45.89  0.001773579    1.561    0.359
       357 -10.2116    205.1102    163.0181   7.9867334122e+01   7.5339488971e+00    0.2656426    0.2005387  29.48   0.00055857    1.294    0.227
       358  -8.7058     40.6921    164.3162   1.1853278196e+02   3.5821912130e+01    0.1330164   0.08097415  70.96 0.0004145906    1.631    0.387
       359 -10.4920     27.9670    161.8839   1.2124838430e+02   3.7685233409e+01    0.3812673    0.1972048 -63.43  0.002061531    1.719    0.418
       360  -9.5927     79.2728    160.4152   1.0865024912e+02   3.1814075707e+01    0.2409479    0.1588019  88.64  0.001163075    1.721    0.419
       361  -9.4935    215.1291    158.3203   7.6880990204e+01   6.3880061647e+00    0.2628745    0.1842573 -21.78 0.0008819776    1.450    0.310
       362  -9.4938    223.9482    156.7075   7.4858636215e+01   4.9545835059e+00    0.2003689    0.1784029  13.36 0.0006385036    1.073    0.068
       363 -10.2547     21.7382    155.6538   1.2210596966e+02   3.9693822432e+01    0.3572978    0.1899252  27.83  0.001958115    2.273    0.560
       364 -11.9572     22.8326    149.1803   1.2121262800e+02   4.1096418626e+01    0.5991918    0.3132534 -39.69  0.001951942    2.830    0.647
       365 -10.7174     15.3791    147.7579   1.2287444238e+02   4.2054414479e+01    0.3088696    0.2408389  67.30  0.001131747    1.235    0.190
       366 -11.8493     12.9395    138.6777   1.2260177971e+02   4.4350749072e+01    0.7671989    0.4057295 -85.72  0.004188916    1.635    0.389
       367 -10.5006    104.3433    154.0199   1.0123933442e+02   2.9303720333e+01    0.3626126    0.2852763 -62.50  0.001890953    1.254    0.203
       368 -11.0309     31.7020    153.3540   1.1949552045e+02   3.9299253557e+01    0.4382452    0.2820269  83.60  0.002514713    1.444    0.308
       369  -9.3363     74.6924    153.3361   1.0871273976e+02   3.4154768551e+01    0.2754793    0.1932905  81.80  0.000933652    1.553    0.356
       370  -9.4840     70.7322    151.5843   1.0945729988e+02   3.5129777487e+01    0.2069222    0.1359677  37.23 0.0007691949    1.617    0.381
       371 -12.0375      4.2576    147.8726   1.2551515598e+02   4.2869779261e+01     0.741366    0.3873837 -85.04  0.003944493    1.538    0.350
       372 -10.9606      4.8640    141.8302   1.2487119412e+02   4.4205749585e+01    0.3098084    0.2328201  59.44  0.001060938    1.356    0.263
       373 -12.1914      3.7355    137.2096   1.2474506182e+02   4.5342345415e+01    0.3093116    0.1832286 -65.31 0.0002336354    1.410    0.291
       374 -11.3804     63.0085    150.4735   1.1127852721e+02   3.6432024252e+01    0.4311536    0.3968773 -13.39  0.002325614    1.404    0.288
       375 -11.2390     46.9359    147.9306   1.1504994132e+02   3.8985910422e+01     0.729747    0.3105851 -65.08   0.00330518    2.003    0.501
