#   1 NUMBER                 Running object number                                     
#   2 MAG_AUTO               Kron-like elliptical aperture magnitude                    [mag]
#   3 X_IMAGE                Object position along x                                    [pixel]
#   4 Y_IMAGE                Object position along y                                    [pixel]
#   5 X_WORLD                Barycenter position along world x axis                     [deg]
#   6 Y_WORLD                Barycenter position along world y axis                     [deg]
#   7 A_WORLD                Profile RMS along major axis (world units)                 [deg]
#   8 B_WORLD                Profile RMS along minor axis (world units)                 [deg]
#   9 THETA_WORLD            Position angle (CCW/world-x)                               [deg]
#  10 FWHM_WORLD             FWHM assuming a gaussian core                              [deg]
#  11 ELONGATION             A_IMAGE/B_IMAGE                                           
#  12 ELLIPTICITY            1 - B_IMAGE/A_IMAGE                                       
         1 -14.3971    162.9266     57.1179   7.0004677508e+01   3.7094077906e+01      1.61669      1.32443  22.71  0.004081077    1.355    0.262
         2 -14.5595    176.3392     42.2883   6.2916334825e+01   3.5852007123e+01     1.129856     0.999972  -0.77  0.003591907    1.238    0.192
         3 -15.1792    201.3013      9.6185   5.0020112735e+01   3.3339007258e+01     3.067463     1.101753  63.59   0.01037423    2.461    0.594
         4  -9.7494    167.8521    245.7362   1.1010399306e+02   2.8043748129e+00    0.1386047    0.1163961  51.92  0.000553568    1.280    0.219
         5 -14.1940    246.7353    240.1013   9.5687194742e+01  -8.1419387660e+00     1.424513     0.596239 -27.36  0.007851983    2.541    0.606
         6 -17.7590     64.1809    231.1707   1.2742350997e+02   2.0092341411e+01     8.719377     6.366967 -88.31    0.0630904    1.325    0.245
         7 -11.7250    242.1631    184.8397   8.6779053649e+01  -8.9567092183e-01    0.1808981    0.1639264  -4.04 0.0004629122    1.236    0.191
         8 -11.4571     33.4970    184.3423   1.2957589480e+02   3.2708884323e+01    0.1815918    0.1430723  87.09 0.0002013646    1.066    0.062
         9 -11.4965    189.1487    178.4247   9.5299494830e+01   9.4003960500e+00    0.4431008     0.355322 -78.31  0.001568311    1.951    0.488
        10 -11.5633    188.2109    173.7961   9.4583425179e+01   1.0356874432e+01    0.3495851    0.2671745  88.81  0.001096579    2.276    0.561
        11 -19.1125     43.0583     97.5438   1.1590717087e+02   5.1443678702e+01      15.7071    0.8605776 -62.14   0.02540699   15.341    0.935
        12  -9.9962    207.4566    170.9578   9.0260974854e+01   7.2104513172e+00    0.3242135    0.1135812 -47.95  0.001025494    4.463    0.776
        13 -10.5165    195.5151    172.5794   9.2893949441e+01   9.1828408359e+00    0.2476059    0.2239096   1.61 0.0008963106    1.051    0.048
        14 -12.1046    230.6761    167.9321   8.5393988725e+01   3.4462685831e+00    0.3648775    0.1864999 -45.91  0.001614733    2.497    0.599
        15  99.0000     11.5602    206.1726   1.3524732323e+02   3.0481792097e+01    0.2945639    0.1734722  59.64  0.002059161    1.348    0.258
        16 -11.7018    124.0611    161.0670   1.0608516070e+02   2.4907259255e+01    0.2753571    0.2431875 -74.04 0.0004507261    1.179    0.152
        17 -13.3593    133.8380    145.4544   1.0070700508e+02   2.6400034376e+01     1.435571    0.3706343 -54.04   0.00364801    5.512    0.819
        18 -11.8168    129.4925    140.0593   1.0061380290e+02   2.8393556530e+01    0.3839241    0.3254689  50.51 0.0008458004    1.175    0.149
        19 -11.2416    188.9973    154.4963   9.0438533802e+01   1.3570149206e+01    0.4269459    0.2274254  44.03  0.001861498    1.829    0.453
        20 -11.5175    126.1599    153.8595   1.0423250451e+02   2.6055496064e+01    0.2231915    0.1915938  77.04 0.0007019769    1.259    0.206
        21 -11.8215    174.4280    148.8307   9.2235605332e+01   1.7567869957e+01     0.352022    0.2858839 -54.71  0.001151611    1.395    0.283
        22 -11.4373    161.2309    148.8766   9.5118623315e+01   2.0252773770e+01    0.3319641    0.2348978 -68.78  0.001499942    1.978    0.495
        23 -12.5860    144.3373    146.8661   9.8528072622e+01   2.4051096813e+01    0.6817154    0.3402846 -63.11  0.002321157    3.370    0.703
        24 -12.5567    141.7241    139.8413   9.7619585394e+01   2.6035946853e+01    0.5117427    0.3182068 -44.15  0.002114688    1.637    0.389
        25 -11.6402    121.6825    150.3082   1.0461352495e+02   2.7638814599e+01    0.2856283    0.1952018  45.23 0.0006444771    1.431    0.301
        26 -11.1574    223.0212    198.1773   9.2631353309e+01   4.3255619866e-01    0.2063934    0.1669156 -13.43 0.0004392243    1.196    0.164
        27 -12.9113    136.0000    129.4951   9.6656240709e+01   2.9382201368e+01     1.311841    0.2433057 -50.05  0.002838244    6.916    0.855
        28 -11.0291    159.3486    194.7149   1.0426256810e+02   1.2048354192e+01    0.2252457    0.1936954  60.44 0.0006596608    1.262    0.207
        29 -11.9999    160.3139    127.4166   9.0405350037e+01   2.4721205512e+01    0.4449943     0.336378 -62.98  0.001252249    1.601    0.375
        30 -11.9336    118.0798    128.1037   1.0085049545e+02   3.3191739991e+01    0.3500278    0.2889391 -16.23 0.0007196979    1.482    0.325
        31 -11.5722    106.5348    123.7100   1.0289515411e+02   3.6299306521e+01     0.295998    0.2471653 -37.28 0.0007243679    1.259    0.206
        32 -10.5768    127.0065    123.3078   9.7450008957e+01   3.2520961605e+01    0.2073886    0.1896174  44.17 0.0002265331    1.106    0.096
        33 -11.8021    122.2023    122.2402   9.8429930245e+01   3.3699122540e+01    0.4366678    0.2888757 -16.71  0.001753921    2.451    0.592
        34 -10.8169    112.9141    117.9038   9.9843173462e+01   3.6437487019e+01    0.2681992    0.2092459  43.17 0.0006587012    1.317    0.241
        35 -10.8825    231.2603    113.7030   7.3176060026e+01   1.1784624798e+01    0.2546601    0.2266269   2.61 0.0007689788    1.117    0.104
        36 -11.5414    167.9416    112.9868   8.5071298890e+01   2.5891324791e+01    0.4101949    0.3167433 -87.01  0.001242521    1.837    0.456
        37 -11.6013    153.9865    239.3357   1.1179506076e+02   5.8323538560e+00    0.2532109    0.1762651 -53.79 0.0009695915    1.841    0.457
        38 -11.4627    134.7198    106.1175   9.1139515200e+01   3.4620324556e+01    0.5671861      0.15415 -45.34  0.001619227    3.658    0.727
        39 -12.0782    118.1982    109.7974   9.6423742225e+01   3.7217502384e+01    0.4051022    0.3036359  83.59  0.001840246    1.869    0.465
        40 -10.9710    205.3649    110.1336   7.6774733050e+01   1.7955931491e+01    0.3308104    0.2724502  34.50 0.0009496112    1.257    0.205
        41  -9.6293    166.4919    235.5484   1.0900816141e+02   4.4169049752e+00    0.1208269   0.09666289  37.56 9.731857e-05    1.031    0.030
        42 -10.2893    149.7937     81.8096   8.0505751313e+01   3.6067215370e+01    0.2316669    0.2085476   5.87 0.0005804467    1.177    0.150
        43 -10.9563     85.4001     77.0998   9.6959201910e+01   5.0332955758e+01    0.2371925    0.2073708  43.18 0.0003495983    1.257    0.205
        44 -10.2320    101.9399     71.8256   9.0150091650e+01   4.8409696697e+01    0.2726076    0.2143574  65.15  0.001354563    1.621    0.383
        45 -10.2484    164.5377    187.0861   1.0189068067e+02   1.2452255356e+01    0.2077434    0.1677576  40.77 0.0006772879    1.128    0.114
        46 -11.9118    235.7175    247.6367   9.8651368122e+01  -7.4136763960e+00    0.2283014    0.1601354  32.00  0.001018181    1.271    0.213
        47 -13.3327    181.0424     35.4208   6.0066378496e+01   3.5551117825e+01    0.6088673    0.4002222  39.00  0.001132596    1.702    0.413
        48 -10.6377     13.5207     59.8709   1.1828117344e+02   6.2373230974e+01     0.176293    0.1731172  27.87  0.000408364    1.294    0.227
