#   1 NUMBER                 Running object number                                     
#   2 MAG_AUTO               Kron-like elliptical aperture magnitude                    [mag]
#   3 X_IMAGE                Object position along x                                    [pixel]
#   4 Y_IMAGE                Object position along y                                    [pixel]
#   5 X_WORLD                Barycenter position along world x axis                     [deg]
#   6 Y_WORLD                Barycenter position along world y axis                     [deg]
#   7 A_WORLD                Profile RMS along major axis (world units)                 [deg]
#   8 B_WORLD                Profile RMS along minor axis (world units)                 [deg]
#   9 THETA_WORLD            Position angle (CCW/world-x)                               [deg]
#  10 FWHM_WORLD             FWHM assuming a gaussian core                              [deg]
#  11 ELONGATION             A_IMAGE/B_IMAGE                                           
#  12 ELLIPTICITY            1 - B_IMAGE/A_IMAGE                                       
         1 -16.4546    236.7471     17.3972   4.1832028057e+00   2.8000512234e+01      2.66327     1.522547 -50.28   0.01987916    1.248    0.199
         2 -10.5229    103.0472      8.2821   1.3420759074e+01   5.6200136345e+01    0.1872658    0.1428437  78.80  0.000972425    1.101    0.092
         3 -10.9386    118.5827      3.3688   9.6566739217e+00   5.2956596907e+01    0.2475855    0.1281333  72.49  0.001116343    1.609    0.379
         4 -10.4101      8.4304      1.8594   4.6140681792e+01   7.7274747708e+01    0.2540806    0.1315544  24.71  0.001300067    1.895    0.472
         5  -9.8705     26.6659    249.3251   8.7776486339e+01   1.6681291280e+01    0.1369489    0.0716082  47.57 0.0007051179    1.713    0.416
         6 -13.2726    248.7468    235.5424   3.9574570219e+01  -2.3072319156e+00    0.7174162    0.1402205 -37.95  0.003258231    3.651    0.726
         7 -13.2374    242.8920    246.7823   4.1978839608e+01  -3.2783877405e+00    0.5075005    0.1578184 -31.06  0.002755146    2.560    0.609
         8 -13.5803    143.5418    247.4830   5.9927108211e+01   5.3324084543e+00     1.274974    0.4751886  43.98   0.00409655    6.344    0.842
         9 -12.3202     84.3319    229.8421   7.1640664453e+01   1.5031900776e+01    0.9320095    0.1940958  38.21  0.002873583    4.271    0.766
        10 -12.2118     73.8931    223.3012   7.3622264771e+01   1.7571536244e+01    0.6637269    0.3139794  40.82  0.002945309    2.030    0.507
        11 -12.6673     94.5316    235.9158   6.9775260186e+01   1.2679379168e+01    0.6786169    0.3018872  36.53  0.002784136    2.061    0.515
        12 -12.1572     50.7136    249.7887   8.1926853581e+01   1.4417978956e+01    0.6517014    0.2580069  24.47  0.002975693    2.008    0.502
        13 -12.3969     62.0918    232.0914   7.7588617187e+01   1.6943882892e+01    0.8691902    0.4696316  51.44  0.004008965    2.079    0.519
        14 -12.2682     81.6073    236.5437   7.3054046256e+01   1.3958966225e+01    0.7772462    0.2370642  36.51  0.002988131    2.788    0.641
        15 -15.2143    119.7627    245.7306   6.4954672457e+01   8.1071669275e+00      2.89361     1.118894  35.56   0.01293583    2.461    0.594
        16 -11.7102    159.7347    244.9510   5.6219821754e+01   4.1140855739e+00    0.2042771    0.1334404  29.02 0.0008518462    1.570    0.363
        17 -12.8433     72.4543    240.1873   7.5713927182e+01   1.4189357182e+01    0.8963279    0.3860656  36.41  0.004100107    1.995    0.499
        18 -10.7243      4.4777    243.7495   9.2895360350e+01   1.9612738035e+01    0.2888944    0.1415064  59.79  0.001292392    1.961    0.490
        19 -12.2479    140.0973    239.8181   5.9662441834e+01   6.9835033069e+00    0.2576173    0.1420015  31.50  0.001021951    1.739    0.425
        20 -12.2596     53.6434    240.0956   8.0447544831e+01   1.6109608246e+01     1.680811   0.09376774  35.43  0.004808796    4.973    0.799
        21 -12.5645    145.3657    241.7195   5.8779436002e+01   6.1057111874e+00    0.3104151    0.1825937  35.73 0.0009728577    1.856    0.461
        22 -12.2596     89.3613    249.9930   7.2547900878e+01   1.0521382987e+01    0.7904118    0.1709398  26.46  0.002783148    3.374    0.704
        23  -9.6496     20.6838    248.3762   8.9178511450e+01   1.7377766268e+01    0.1385796   0.06979611  50.01 0.0007029261    1.802    0.445
        24 -11.1862    225.3987    240.8076   4.3804675867e+01  -1.1957637390e+00    0.1561028   0.07049931 -29.95 0.0009558529    1.733    0.423
        25 -10.6314     38.2640    240.9301   8.4396875953e+01   1.7392166025e+01    0.2566815    0.1358561  41.84  0.001239048    1.643    0.391
        26 -12.6520    243.6189    235.2096   4.0261711416e+01  -1.8836877626e+00    0.2206373   0.09928687 -27.55  0.001234649    1.692    0.409
        27 -10.2685    151.6537    237.3190   5.6847238266e+01   6.1872198010e+00    0.1136891   0.09168842  43.32   0.00051562    1.728    0.421
        28 -10.1034      6.4925    236.0041   9.2103103879e+01   2.1104801104e+01    0.1727166    0.1195532 -87.92  0.001024587    1.565    0.361
        29 -11.2235    237.3908    234.7600   4.1112002657e+01  -1.3490376569e+00    0.1519637   0.06794516 -30.20 0.0009515638    1.691    0.409
        30 -12.4949    110.8426    232.7456   6.5433290810e+01   1.1482020620e+01     0.304922    0.1937869  32.73  0.001074052    1.474    0.321
        31 -12.3441    124.3943    231.7003   6.2107304561e+01   1.0154486219e+01    0.2647123    0.1946878  48.14  0.001504496    1.780    0.438
        32 -12.1112    142.3225    233.8963   5.8374724717e+01   7.7718890041e+00     0.250721    0.1752326  41.18  0.001302024    1.786    0.440
        33 -11.7655    104.3568    229.1747   6.6556359940e+01   1.2912767767e+01    0.2464862    0.1852707  51.46  0.001051562    1.656    0.396
        34 -12.3298    108.4877    247.9507   6.7813455516e+01   8.8991251160e+00    0.8797062    0.2845172  41.03  0.003245934    3.769    0.735
        35 -10.1385      6.4128    230.2169   9.1883174068e+01   2.2373905984e+01    0.1738078     0.106584  72.30 0.0007282454    1.671    0.402
        36 -11.8217    131.3141    234.5500   6.0906327429e+01   8.8621755082e+00    0.2386422    0.1041556  28.23  0.001012381    2.003    0.501
        37 -10.5094     39.7668    228.9917   8.3162777942e+01   1.9823512483e+01    0.2658603     0.132813  36.25  0.001275769    1.677    0.404
        38 -11.1557     48.6965    229.9289   8.0891250070e+01   1.8760111565e+01    0.5690722    0.1734022  39.67   0.00216872    2.755    0.637
        39 -13.2055     96.7043    245.7526   7.0346093081e+01   1.0549689273e+01     1.497126    0.3744733  38.16   0.00518994    3.840    0.740
        40 -13.7889     68.2094    249.1812   7.7589505505e+01   1.2833064983e+01     2.634513   0.08416438  27.98  0.007290354    5.362    0.814
        41 -11.5703     34.3722    249.0621   8.5883077736e+01   1.6064063250e+01    0.2412248     0.160699  46.18  0.001319223    1.357    0.263
        42 -10.7038     85.6357    222.6666   7.0484048287e+01   1.6388228482e+01    0.2792661    0.1618974  49.38   0.00130821    2.038    0.509
        43 -11.0309     53.6484    221.8776   7.8874902099e+01   2.0045315901e+01    0.4041655    0.2235964  36.25   0.00197001    1.577    0.366
        44 -12.0006    248.8768    250.0278   4.1554122833e+01  -4.0909095783e+00    0.2500956    0.1514777   0.05  0.001986795    1.380    0.275
        45 -10.8682     62.6437    220.4379   7.6315685994e+01   1.9425079943e+01    0.3199613     0.167905  45.93  0.001457754    1.947    0.486
        46 -12.0184    240.1985    219.3120   3.8462790668e+01   4.5982076403e-01    0.2662409   0.09412594 -30.56  0.001409799    2.386    0.581
        47 -10.9217      2.1412    220.6317   9.2583678769e+01   2.4841402273e+01    0.4352557    0.1497585  61.56  0.001692454    3.118    0.679
        48 -12.8776    247.6205    217.1663   3.7094319002e+01   1.3570959935e-01    0.3075453    0.1342566 -36.15  0.001949638    1.702    0.412
        49 -10.0773     14.4954    217.9551   8.9178139382e+01   2.4528649638e+01    0.1865059     0.127289 -86.17  0.001023598    1.567    0.362
        50 -10.4349     86.1694    214.7610   6.9389003466e+01   1.8027544120e+01    0.2376996    0.1244981  54.83 0.0009484935    2.793    0.642
        51 -10.6564      1.9593    213.0088   9.2310696468e+01   2.6622429264e+01    0.2454804    0.1764663 -88.41  0.001009736    1.433    0.302
        52 -11.8628    250.0074    210.9981   3.5855764207e+01   7.5267470018e-01    0.2200292    0.1060141 -35.98  0.001231461    1.538    0.350
        53 -10.4153     56.8638    211.6502   7.7005678054e+01   2.2043786725e+01    0.3221328    0.1086917  42.82  0.001145761    2.913    0.657
        54 -10.8234     68.0324    211.2765   7.3873250984e+01   2.0903043238e+01    0.4005307      0.16894  45.35  0.001555505    2.559    0.609
        55 -10.6458    240.4808    206.9862   3.6579407093e+01   2.1053106807e+00    0.1357184   0.08216251 -52.80 0.0008103228    2.587    0.613
        56 -10.3959      7.0852    206.4107   9.0594406852e+01   2.7827347841e+01    0.2739539    0.1457175  73.24  0.001236792    1.995    0.499
        57 -10.4137      1.3064    206.1081   9.2184522385e+01   2.8309400994e+01    0.2493283    0.1004804 -70.34  0.001067886    2.486    0.598
        58 -10.1248     13.4029    205.1670   8.8751830646e+01   2.7651858308e+01    0.1898935    0.1175571  76.95 0.0009464164    1.711    0.415
        59 -11.9493    249.9232    200.1758   3.4244452195e+01   2.2038728230e+00    0.2454644    0.1066056 -35.20  0.001517465    1.681    0.405
        60 -10.8656      4.2787    197.9696   9.0954415269e+01   3.0090439643e+01    0.3321676    0.1569766  81.00  0.001438368    2.305    0.566
        61 -11.8448    246.5836    192.2756   3.3480976788e+01   3.5804230926e+00     0.206551   0.07900032 -42.16  0.001143694    2.122    0.529
        62 -10.3900      3.7712    189.2359   9.0638936888e+01   3.2314011688e+01    0.2406769    0.1582302 -89.81  0.001238418    1.533    0.348
        63 -11.3186    249.4839    185.0047   3.1966808117e+01   4.3141638738e+00    0.1681026   0.07741875 -38.17    0.0009126    1.607    0.378
        64 -10.7792      1.9845    178.0126   9.0553178342e+01   3.5318657023e+01    0.4020253    0.1878371  86.05  0.001679776    2.274    0.560
        65 -11.2473    248.7653    176.3684   3.0698668485e+01   5.5825585216e+00     0.205706    0.1084932 -57.52 0.0009569057    4.249    0.765
        66 -11.9691    245.9923    157.7409   2.8032103648e+01   8.4998583046e+00    0.2029641     0.108641 -46.03  0.001278382    1.646    0.393
        67 -11.0913    250.5050    157.0533   2.7371921020e+01   8.1132846274e+00    0.1719037   0.07857442 -39.43  0.001037842    1.605    0.377
        68  -9.8932     10.6241    155.8033   8.6109437390e+01   4.0673621266e+01    0.2087292    0.1290191  83.95 0.0009461829    1.719    0.418
        69 -10.5376      4.3590    155.0812   8.8249568126e+01   4.1284922381e+01    0.3212294     0.127901 -77.05  0.001224817    2.415    0.586
        70 -12.3178    247.9582    144.7609   2.5643833079e+01   1.0127798101e+01    0.4328322     0.177539 -53.38  0.001964573    3.652    0.726
        71 -11.9489    243.7063    140.4601   2.5417174417e+01   1.1231696397e+01    0.2675629    0.1144174 -46.13  0.001391459    1.963    0.491
        72 -12.0305    243.9743    148.7237   2.6779352919e+01   1.0014286079e+01    0.2048234    0.1099551 -46.85  0.001277648    1.640    0.390
        73  -9.3736     13.3205    145.3239   8.4160126100e+01   4.3352480138e+01    0.1573914   0.09985022 -38.36 0.0007045981    1.677    0.404
        74 -10.3022      2.5170    142.9910   8.7963636121e+01   4.4699866065e+01    0.2212076    0.1354639 -78.89 0.0007301925    1.579    0.367
        75 -11.5855    248.6959    135.5022   2.4007248278e+01   1.1351196752e+01     0.246121    0.1379276 -51.74  0.001095018    1.781    0.438
        76 -11.8914    248.2490    130.1832   2.3157846066e+01   1.2152479478e+01    0.2953978    0.1686327 -53.38  0.001315768    1.806    0.446
        77 -11.1615      4.5256    137.0620   8.6691819872e+01   4.6213511429e+01    0.3741741    0.1353634 -76.57  0.001340832    2.650    0.623
        78 -11.6979    242.3505    134.2403   2.4513881837e+01   1.2286545281e+01    0.2425767    0.1482916 -45.63  0.001112989    1.339    0.253
        79 -11.8995    232.9109    134.2944   2.5647790985e+01   1.3450374141e+01    0.2714099    0.1830076 -63.50   0.00166632    1.991    0.498
        80  -9.9921     10.4022    133.7969   8.4080492574e+01   4.6739911021e+01    0.2138277    0.1211381 -60.13 0.0009420376    1.650    0.394
        81 -10.6273    193.6497    132.1683   3.0721209393e+01   1.9276267511e+01     0.166273    0.1543185 -50.70  0.001059831    1.149    0.129
        82 -11.2265      2.6518    127.7543   8.6557847397e+01   4.8886538625e+01    0.2860311    0.2077994  74.92 0.0008688067    1.453    0.312
        83 -12.4062    239.0538    124.8109   2.3257319935e+01   1.4052999964e+01    0.4331111    0.2135668 -48.75  0.001915075    1.776    0.437
        84 -11.6940    247.4059    112.9062   2.0290337373e+01   1.4666999710e+01    0.2451661    0.1595517 -36.13  0.001010372    1.232    0.188
        85 -11.3743    248.9511    124.3456   2.2090389643e+01   1.2885263711e+01    0.2520375    0.1213005 -40.52 0.0009127611    1.525    0.344
        86 -12.1614    247.3831    119.1926   2.1374916702e+01   1.3797231433e+01    0.3391106    0.1708887 -48.83  0.001356587    1.687    0.407
        87 -10.6336    227.0400    125.0134   2.4711231114e+01   1.5601632577e+01    0.1781373    0.1195192 -59.29  0.001130585    1.687    0.407
        88 -10.3930      7.8407    125.1813   8.4171146126e+01   4.9287332317e+01    0.2126775    0.1533808 -48.28 0.0006470355    1.342    0.255
        89 -11.8691      4.7226    122.4679   8.5167950873e+01   5.0224646953e+01        0.455    0.1693313 -43.79   0.00163184    2.710    0.631
        90 -10.2523     16.0000    121.9552   8.0375050847e+01   4.9600477961e+01    0.2452348   0.08178427 -72.27   0.00080271    2.944    0.660
        91 -10.1465      1.4697    120.4933   8.6325741612e+01   5.0947479999e+01    0.1421697    0.1339016 -56.50 0.0008098449    1.012    0.012
        92 -11.1765      3.8447    116.4541   8.4878518395e+01   5.1926261186e+01    0.2455716    0.1592029 -65.96 0.0007253747    1.439    0.305
        93 -11.6939    231.1065    115.2974   2.2469617598e+01   1.6482887612e+01    0.2846195    0.1758448 -49.28  0.001540594    1.379    0.275
        94 -11.9491      5.4979    110.8206   8.3480293670e+01   5.3370218259e+01    0.3076436    0.2506136 -61.95 0.0009398535    1.161    0.139
        95 -12.3585    240.8721    109.8074   2.0421641319e+01   1.5949158668e+01    0.3079757    0.1720064 -44.00  0.001261214    1.352    0.260
        96 -11.9778    247.9329    107.1569   1.9244490552e+01   1.5389816974e+01    0.2792319    0.1664468 -57.50  0.001851591    1.722    0.419
        97 -11.7837    247.1212    102.7006   1.8550635803e+01   1.6103614449e+01    0.2358868    0.2212077 -83.64  0.001785934    1.345    0.257
        98 -11.6941    237.7473    102.6566   1.9473264076e+01   1.7373434142e+01    0.2300407    0.1123064 -46.72 0.0009958835    1.606    0.377
        99 -10.4850    230.1549    103.2006   2.0371086600e+01   1.8362825366e+01    0.1595705    0.1086961 -55.42 0.0007839283    1.353    0.261
       100 -12.4689    208.2536     99.7466   2.2251006330e+01   2.2184974791e+01    0.4316601    0.1431066 -44.74  0.001917942    2.470    0.595
       101 -11.9715    248.9315     97.7953   1.7528682648e+01   1.6526920237e+01    0.2472517    0.1141263 -46.71  0.001088694    1.646    0.392
       102 -11.7277    242.6710     98.4848   1.8240930241e+01   1.7274458666e+01    0.2327017    0.1385145 -53.53 0.0009863196    1.481    0.325
       103 -10.6520    235.5879     95.7724   1.8451680871e+01   1.8633334017e+01    0.1624508   0.07725822 -46.93 0.0009455489    1.645    0.392
       104 -10.9222    242.0150     93.2766   1.7380939186e+01   1.8072536162e+01    0.1513855    0.1159433 -49.38 0.0008365877    1.052    0.049
       105 -12.3136    249.5214     86.8089   1.5570751317e+01   1.7901963589e+01    0.3210161    0.1520659 -32.37  0.001880725    2.056    0.514
       106 -12.6572    249.8516     79.6214   1.4295672142e+01   1.8786657684e+01    0.4647184    0.1234956 -37.03  0.002128354    3.081    0.675
       107 -10.6493    244.6600     88.2837   1.6254692834e+01   1.8374821269e+01    0.1065445   0.06502829 -60.75 0.0004403659    1.632    0.387
       108  -9.7684    244.2921     71.6221   1.3341460470e+01   2.0590688114e+01    0.1135456   0.05851795 -56.99 0.0005642869    1.741    0.425
       109 -10.0680     88.3618     69.3087   3.8124164631e+01   5.1291216700e+01    0.1496123    0.1136314  15.75 0.0007040111    1.742    0.426
       110 -12.0344    232.9397    244.2483   4.3117633011e+01  -2.2284778002e+00     0.256911   0.09273187 -28.23  0.001406709    2.374    0.579
       111 -10.0258    122.1943     55.6446   2.5215003639e+01   4.6003445382e+01    0.2014419    0.1146358  51.35 0.0009493697    1.738    0.425
       112 -10.1021    112.9441     55.7630   2.7234316570e+01   4.8093366049e+01    0.1878546     0.108625  57.27  0.000879243    1.618    0.382
       113  -9.9512    106.6795     52.6612   2.7707419036e+01   5.0002277165e+01    0.1393152    0.1066189  25.83 0.0005042775    1.713    0.416
       114 -10.3344     89.9810     48.4858   3.0623653549e+01   5.4461909080e+01    0.2231682    0.1277626  55.66  0.001034606    1.597    0.374
       115  -9.9607    125.2062     47.6069   2.2246112080e+01   4.6480393874e+01    0.1942547     0.112694  53.72 0.0009505483    1.686    0.407
       116 -10.2512    115.2181     47.6133   2.4212329632e+01   4.8776929224e+01    0.1994592    0.1141375  52.55 0.0009528193    1.678    0.404
       117 -10.5221     72.0079     44.0000   3.4572330302e+01   5.9171316042e+01    0.2400015   0.07283827  51.20 0.0008052828    2.962    0.662
       118 -11.9239    209.9744     40.5606   1.0203881515e+01   2.9938804937e+01     0.286879    0.1593633 -81.98  0.001734959    1.929    0.482
       119 -10.4542    107.9643     40.5142   2.3473606432e+01   5.1443772172e+01    0.2149538    0.1216852  61.73  0.001035502    1.599    0.375
       120 -10.0066     90.0025     60.0000   3.4567317386e+01   5.2591855030e+01    0.2422666   0.07667083  51.07 0.0008020535    2.940    0.660
       121 -10.1790     80.8148     62.5991   3.8339681345e+01   5.4137568639e+01    0.2148426    0.1302823  57.73 0.0009537927    1.735    0.424
       122 -10.3700    111.9371     33.5174   2.0382260496e+01   5.1414583723e+01    0.2080177    0.1175024  64.34 0.0008454638    1.581    0.367
       123  -9.9645    127.5053     31.5137   1.7063099378e+01   4.8027180529e+01    0.1298629    0.1123333  89.32 3.239788e-05    1.001    0.001
       124 -10.5996     85.8051     29.2932   2.4715913531e+01   5.8081860005e+01    0.2187404    0.1600608  79.36  0.001157176    1.414    0.293
       125 -10.8694    104.0554     30.8136   2.1047698948e+01   5.3601003982e+01     0.211571    0.1669969 -87.52 0.0009365521    1.263    0.208
       126 -10.7131     91.4851     26.8507   2.2396456774e+01   5.7042285291e+01    0.2256843    0.1725294  86.40 0.0009324704    1.338    0.253
       127 -10.2024    122.9572     22.7089   1.5092039284e+01   5.0081435172e+01    0.1872159    0.1474177  80.43 0.0007190428    1.101    0.091
       128 -11.1704    104.5965     21.6544   1.7800098683e+01   5.4520169410e+01     0.261554    0.1479418  70.90 0.0009198296    1.574    0.365
       129 -10.4958     96.8289     18.3551   1.8120867654e+01   5.6714516720e+01    0.1951457    0.0985833  58.41 0.0009456231    1.689    0.408
       130 -10.5220    115.5033     16.0176   1.4100603636e+01   5.2522654433e+01    0.2130113    0.1468419  74.75 0.0008480543    1.247    0.198
       131 -10.3770      5.6463     13.6737   5.6203877869e+01   7.5888261846e+01    0.1338082   0.08378287  -6.50 0.0007046837    1.768    0.434
       132 -10.3401    128.2083     12.6141   1.1326002310e+01   4.9890247921e+01    0.1800324    0.0956313  64.12  0.000948869    1.675    0.403
       133 -11.5648    153.3768    249.1188   5.8077541654e+01   4.0798758114e+00    0.2295723    0.1471672  23.53 0.0008012151    1.415    0.293
       134 -12.3962     83.6792    244.8443   7.3397421033e+01   1.2094990168e+01    0.6933742    0.2723395  31.46  0.002471935    2.051    0.512
