#   1 NUMBER                 Running object number                                     
#   2 MAG_AUTO               Kron-like elliptical aperture magnitude                    [mag]
#   3 X_IMAGE                Object position along x                                    [pixel]
#   4 Y_IMAGE                Object position along y                                    [pixel]
#   5 X_WORLD                Barycenter position along world x axis                     [deg]
#   6 Y_WORLD                Barycenter position along world y axis                     [deg]
#   7 A_WORLD                Profile RMS along major axis (world units)                 [deg]
#   8 B_WORLD                Profile RMS along minor axis (world units)                 [deg]
#   9 THETA_WORLD            Position angle (CCW/world-x)                               [deg]
#  10 FWHM_WORLD             FWHM assuming a gaussian core                              [deg]
#  11 ELONGATION             A_IMAGE/B_IMAGE                                           
#  12 ELLIPTICITY            1 - B_IMAGE/A_IMAGE                                       
         1 -11.7703    204.5414     38.3736   4.1471288348e+01   2.9600698064e+01     1.173557    0.8168882 -30.48  0.006424991    1.565    0.361
         2 -10.4149    214.0584     28.4749   3.8065396450e+01   2.8667594655e+01    0.4544139    0.3490137  30.06  0.001066822    1.926    0.481
         3 -11.2846    220.3980     21.6642   3.5903409038e+01   2.8061926430e+01      0.70024    0.5601531 -66.80  0.002975033    1.057    0.054
         4  -9.7800    243.4204      2.3226   3.0097925674e+01   2.5309145574e+01    0.5372249    0.2141472  78.35  0.002742426    2.355    0.575
         5  -9.6684    108.5062    239.2588   1.0480259408e+02   1.0149481344e+01    0.3064841    0.1684342  28.79  0.001518391    1.960    0.490
         6 -14.3650     36.3736    238.0647   1.1912329667e+02   2.0091212095e+01    0.9809756    0.8067941  87.43  0.003492201    1.194    0.163
         7 -13.9243     39.9658    247.3605   1.1907166298e+02   1.7869773293e+01    0.9994784    0.4514624  41.65  0.002670964    1.826    0.452
         8 -14.1820      2.1710    204.6288   1.2370544755e+02   3.0535253159e+01      1.67515    0.2700088 -71.36  0.006177782    4.283    0.767
         9 -14.3032     30.4825    248.1921   1.2086198742e+02   1.8798225602e+01    0.5764701     0.336766  56.15  0.003485108    1.328    0.247
        10 -15.3830     15.6513    216.3359   1.2172406071e+02   2.6774572809e+01     1.890138    0.7320061  65.93  0.008868396    2.593    0.614
        11 -14.4741     24.4622    238.9834   1.2141655891e+02   2.1237805654e+01    0.6896936    0.3126758  44.89  0.002674605    1.787    0.440
        12 -14.6909     20.4089    248.5979   1.2268964743e+02   1.9820818551e+01    0.4557652     0.405919  28.72  0.003568491    1.608    0.378
        13 -15.9876      7.5813    223.8265   1.2371127573e+02   2.6000259741e+01     2.337468     1.674814  10.97    0.0151304    2.309    0.567
        14 -15.2388     12.8864    232.7335   1.2320053271e+02   2.3680328842e+01     0.827656    0.2764405  34.08  0.004111954    2.830    0.647
        15  -7.6957    243.1928    238.6144   7.8419855435e+01  -9.7676708529e+00    0.1556757   0.08996709  19.75 0.0003443099    1.559    0.358
        16  -8.5971     99.7222    233.5253   1.0596060635e+02   1.2556209533e+01    0.3023912   0.09696621 -54.56  0.001186877    3.411    0.707
        17 -10.4516     84.6173    231.4922   1.0889200182e+02   1.5165462519e+01    0.4661205    0.3056892 -87.08  0.001712168    1.724    0.420
        18 -10.0997    116.8232    230.6176   1.0200455347e+02   1.0500393651e+01    0.3140403    0.1949245  43.90  0.001686507    1.395    0.283
        19  -8.0655    132.3434    229.3172   9.8544061586e+01   8.2874212617e+00    0.1306846   0.09983099   1.97 -3.573885e-05    1.717    0.417
        20  -7.8889    203.2561    227.2189   8.3775360821e+01  -2.6282374202e+00    0.1813451    0.1493349  69.10  0.001052707    2.066    0.516
        21  -8.3622    119.2847    226.3166   1.0091656200e+02   1.0938462066e+01    0.1234189    0.1018467  -5.26 0.0001524079    1.584    0.369
        22  -7.7097     66.2877    225.9523   1.1215828310e+02   1.8829414059e+01    0.1700309    0.1402391  73.34  0.000316443    1.063    0.059
        23  -9.3658    111.9014    224.2395   1.0223082171e+02   1.2509241363e+01    0.2539828     0.222291  42.76 0.0004712076    1.065    0.061
        24  -7.5625     66.6307    222.2565   1.1172528487e+02   1.9552654479e+01    0.1567894    0.1115422 -66.61 0.0004281519    1.474    0.322
        25  -9.6886    223.1941    220.3044   7.8843345399e+01  -4.5457128056e+00    0.2175678    0.1830421  -1.25 0.0002223544    1.066    0.062
        26  -9.3518    191.1862    220.8131   8.5046145204e+01   2.5001764495e-01    0.2222173    0.1900986  -4.62 0.0003445207    1.102    0.093
        27  -7.8799     78.1716    221.1592   1.0914780137e+02   1.8191896949e+01    0.1831397    0.1309034  66.09 0.0004591971    1.316    0.240
        28  -7.0473    148.2949    220.6552   9.3880275666e+01   7.2922202860e+00    0.1319546    0.1020795  69.35  0.000703167    1.667    0.400
        29  -7.5096     82.9716    218.0060   1.0775555926e+02   1.8167131284e+01    0.1532042    0.1333214  68.80 0.0003296051    1.032    0.031
        30  -8.2577    134.3894    222.1743   9.7090302461e+01   9.2987622199e+00     0.172949    0.1286816 -72.49 0.0009376858    1.697    0.411
        31  -7.8149     98.7592    214.0515   1.0378800047e+02   1.6637672927e+01    0.1737466    0.1582298  85.51 0.0002980114    1.106    0.096
        32  -8.7528     75.6876    212.6973   1.0875210856e+02   2.0342660549e+01     0.268585    0.2149709 -19.40  0.001004895    1.901    0.474
        33 -16.9436      7.3276    239.4097   1.2454415182e+02   2.2916972952e+01      1.75803     0.860139  47.72   0.01095722    1.636    0.389
        34  -9.0881     58.2468    211.3817   1.1244650601e+02   2.2987964069e+01    0.2530259    0.1300775  47.29  0.001279188    1.724    0.420
        35  -8.9067    189.0426    210.2925   8.3646863042e+01   2.3554278820e+00    0.2149338    0.1871574 -35.24 0.0002256325    1.251    0.201
        36  -7.7565    101.4926    210.9983   1.0277312418e+02   1.6857390479e+01    0.1836945    0.1320862 -63.15 0.0003827442    1.480    0.324
        37  -7.6833    118.4750    208.9073   9.8648596147e+01   1.4562576699e+01    0.2288575    0.1372337 -62.54 0.0004884004    1.889    0.471
        38  -8.4556    115.8175    203.3918   9.8428982442e+01   1.6163486630e+01    0.2183066    0.1988408 -61.75 0.0002271725    1.174    0.148
        39 -10.0537    123.9506    205.9614   9.6966117482e+01   1.4263194353e+01    0.2218962    0.1880024  62.15  0.001261197    1.197    0.165
        40  -8.7842    119.0411    205.0297   9.7939604974e+01   1.5280115652e+01    0.4756359     0.239587  25.97 0.0003125181    2.576    0.612
        41  -8.0270    128.6107    206.7091   9.6029164134e+01   1.3322643454e+01    0.2425411    0.1524123  54.13 0.0008145283    1.691    0.409
        42  -8.1822    159.9483    205.6357   8.8917541624e+01   8.1402376768e+00    0.2306257    0.1846944 -25.52 0.0007433165    1.361    0.265
        43  -8.9159     62.2966    201.9304   1.1055340241e+02   2.4558571726e+01    0.3306383    0.1977338  74.58  0.001649658    1.825    0.452
        44  -7.2808     85.6514    201.7187   1.0516230383e+02   2.1308507634e+01    0.1277335    0.1077884 -13.09 0.0007013794    1.645    0.392
        45  -8.5817    193.8924    198.1600   8.0452405342e+01   3.6532160481e+00    0.3319946    0.1814233 -57.63  0.001345193    3.014    0.668
        46  -7.8836    108.8971    198.0601   9.9226265892e+01   1.8461902609e+01    0.2056901    0.1703023  70.14  0.001136899    1.237    0.192
        47  -8.2250     78.7248    198.2296   1.0632382305e+02   2.3114930885e+01    0.2115576    0.1779803  42.51            0    1.196    0.164
        48  -7.4098     97.7007    196.2867   1.0159637545e+02   2.0667015037e+01    0.1417549   0.09962524  67.57            0    1.554    0.357
        49  -7.5654     90.0792    196.5085   1.0342734142e+02   2.1807583250e+01     0.199977    0.1297408  37.66 0.0005963773    1.498    0.333
        50  -7.2053    151.6898    195.2471   8.8911135976e+01   1.1636113066e+01    0.1364847    0.1075857  63.29 0.0001760137    1.509    0.337
        51  -7.0635    115.2848    192.3014   9.6820202750e+01   1.8662720199e+01    0.1357707    0.1123605 -13.73 0.0002449508    1.555    0.357
        52  -8.9265     75.0971    189.6402   1.0606887507e+02   2.5614980350e+01    0.4276212    0.1891141 -50.38  0.001515393    2.516    0.603
        53  -7.8195     67.6260    190.6633   1.0799117181e+02   2.6425446175e+01     0.181309    0.1194521 -82.05 0.0009265893    1.536    0.349
        54  -8.3578     63.9719    191.0521   1.0890880954e+02   2.6830860331e+01    0.1980516     0.173646  79.32            0    1.009    0.009
        55  -9.5804     90.7993    189.4331   1.0224890465e+02   2.3312015948e+01    0.2453453    0.2168373  84.31 0.0002192263    1.085    0.078
        56  -7.8002     18.2749    190.3957   1.1936819299e+02   3.2228112315e+01    0.2374693     0.085697  38.82  0.001111936    2.514    0.602
        57  -9.2692     18.1902    187.1113   1.1912809936e+02   3.2988891186e+01    0.3967288    0.1890924 -70.09  0.001760082    1.807    0.446
        58  -9.5732     56.3653    187.4545   1.1029413783e+02   2.8670065732e+01    0.3636279    0.2810004   2.44  0.001989592    1.923    0.480
        59  -8.9882     80.7128    187.0945   1.0436284868e+02   2.5390071746e+01    0.3485137     0.238114  28.10  0.001253321    1.657    0.397
        60  -8.8997    188.3900    185.4458   7.9131272017e+01   6.9244964948e+00    0.2655037    0.2331352 -57.43 0.0001732563    1.367    0.268
        61  -8.4392     78.2680    182.5206   1.0431849126e+02   2.6828865665e+01    0.2396174    0.1800925 -70.90 0.0005025711    1.293    0.227
        62  -9.4716     38.7234    179.0733   1.1360003601e+02   3.2766430952e+01    0.4257521    0.2474506  63.08  0.002178398    1.742    0.426
        63  -8.0669     49.2189    183.0075   1.1149824597e+02   3.0611118875e+01    0.2720376    0.1512157  75.16 0.0003445229    2.066    0.516
        64  -9.2408     50.6387    180.2771   1.1083784339e+02   3.1089294738e+01    0.2550565    0.1600145  62.48 0.0008237871    1.605    0.377
        65  -8.6327     43.7682    180.1967   1.1250123358e+02   3.1926183935e+01    0.2090009    0.1904144 -83.85 0.0003062679    1.132    0.117
        66  -9.1797     46.5087    177.1340   1.1148450603e+02   3.2339331961e+01    0.3637813    0.2168912 -82.70  0.001355275    1.623    0.384
        67  -7.8827     91.0222    181.3167   1.0097462138e+02   2.5169504243e+01    0.3046428    0.1755421  88.11  0.001187312    2.711    0.631
        68 -10.5227     63.1978    179.6279   1.0766124748e+02   2.9637129889e+01    0.5362957    0.4645429  41.06  0.002642442    1.234    0.190
        69  -9.7509     68.6161    173.6499   1.0548182642e+02   3.0340483717e+01    0.3124665    0.2796878  -1.19 0.0009376613    1.431    0.301
        70  -7.9734    109.6465    179.0691   9.5982386558e+01   2.2623424188e+01    0.1995095    0.1813621 -69.79 0.0004737575    1.109    0.099
        71  -7.5539     22.6060    177.7965   1.1732177001e+02   3.4738358989e+01    0.1764908    0.1010631 -89.45 0.0009301177    1.585    0.369
        72  -7.5686     76.6070    176.2582   1.0382847396e+02   2.8569008998e+01    0.1873212    0.1236386 -54.96 0.0003034017    1.524    0.344
        73  -9.1401      1.7299    172.3127   1.2173144318e+02   3.7825095857e+01    0.4757022    0.1716517 -80.81  0.002146881    2.340    0.573
        74  -9.4323    175.5096    172.4526   7.9237766063e+01   1.1828579596e+01    0.3147779    0.2782198  21.43 0.0007453331    1.114    0.102
        75  -7.9971     53.1486    174.0896   1.0946237373e+02   3.2270401994e+01    0.2335348    0.1380182  80.43  0.001085865    1.943    0.485
        76  -7.5364    124.2304    173.1159   9.1305660685e+01   2.1408626099e+01    0.2000701    0.1680255  69.47 0.0004666837    1.297    0.229
        77  -8.2948     90.3081    173.0658   9.9844031913e+01   2.7244846418e+01    0.1967015    0.1746242 -74.93 0.0002893791    1.092    0.084
        78  -8.7405     24.8940    165.7314   1.1560424920e+02   3.7401349813e+01     0.224772    0.1557674 -80.55 0.0003943764    1.223    0.183
        79  -9.9918     23.0549    169.9392   1.1647811162e+02   3.6563672651e+01    0.3403137    0.2197535   7.98  0.001813755    2.344    0.573
        80  -8.1976     37.5502    169.6312   1.1285278286e+02   3.5167521425e+01    0.3509265    0.1224915 -62.13  0.001444044    2.430    0.589
        81  -9.3313     19.0955    163.2549   1.1680468058e+02   3.8533549526e+01    0.3549485    0.2233764  -0.70  0.001459311    2.605    0.616
        82 -10.6022     13.8268    158.3850   1.1765605001e+02   4.0159682923e+01    0.8509853    0.2750091 -62.74  0.003343054    2.457    0.593
        83 -10.1949     10.9638    168.0089   1.1922852475e+02   3.8097286438e+01      0.38033    0.2272131  85.39 0.0003372011    1.485    0.326
        84  -9.5790      6.7512    170.0053   1.2039163664e+02   3.7970194737e+01    0.2639299    0.1891226  68.67 0.0002688345    1.260    0.207
        85 -10.2793      3.8922    163.2305   1.2053087918e+02   3.9787448525e+01    0.4854912    0.4194467  64.84  0.001867636    1.207    0.172
        86  -8.0034     75.1476    170.1840   1.0329209155e+02   3.0253715669e+01    0.1950292    0.1871915 -57.31 0.0003362122    1.156    0.135
        87  -9.0807     43.8202    169.3555   1.1123684029e+02   3.4535616128e+01    0.2541505    0.2048955  75.28 0.0003466633    1.148    0.129
        88  -8.6125     89.5091    165.4865   9.8783198095e+01   2.9204028013e+01    0.4142525    0.2444694  65.10  0.001633988    2.238    0.553
        89  -8.1638     85.2157    165.1875   9.9861026709e+01   2.9955101441e+01    0.2019426    0.1601079  71.43 0.0004989111    1.322    0.244
        90  -7.4114     43.9722    163.2569   1.1044370868e+02   3.6011938095e+01    0.1725162    0.1468745 -53.92 0.0002429188    1.264    0.209
        91  -7.7925    106.8371    163.8513   9.3964204350e+01   2.6693107334e+01    0.1962634    0.1667601  78.30            0    1.258    0.205
        92  -8.6956     78.0737    164.0759   1.0156366415e+02   3.1317620499e+01    0.2254366    0.2062474  42.17 0.0004326683    1.161    0.139
        93  -7.9406     53.2921    162.7048   1.0792427063e+02   3.5040971295e+01    0.2886101    0.1386986  46.26  0.001270287    2.119    0.528
        94  -8.7346     96.9385    163.2067   9.6430209044e+01   2.8542591621e+01    0.4212384     0.200266  38.96  0.001146044    2.085    0.520
        95  -7.5525     28.5171    162.5159   1.1434796918e+02   3.7831204920e+01    0.1318548    0.1091709  89.95 -2.779911e-05    1.027    0.027
        96  -9.8291     65.7450    160.0350   1.0421324119e+02   3.4080681903e+01    0.3498898    0.2535917 -40.95  0.001123212    1.599    0.374
        97  -9.4843     84.0626    158.3387   9.8992625296e+01   3.1816128066e+01      0.34975     0.311226  83.69 0.0004984477    1.103    0.093
        98  -9.1089     87.7038    155.0295   9.7412524469e+01   3.2055881522e+01    0.3727285    0.3139794 -62.66   0.00166996    1.140    0.123
        99  -7.6617    172.1619    158.9601   7.7110594332e+01   1.5233920951e+01    0.2026554    0.1693379  -8.98 0.0003952782    1.318    0.241
       100  -9.1107     31.3124    156.0382   1.1288096384e+02   3.9141527802e+01    0.1982609    0.1844628  -3.70 0.0002859528    1.373    0.272
       101  -9.7594      3.6794    155.4915   1.1994037484e+02   4.1639481080e+01    0.5304286    0.1890349 -63.24  0.002450326    2.242    0.554
       102  -9.2547      8.8053    154.9936   1.1860724557e+02   4.1376278379e+01    0.1934233    0.1597957  66.42 0.0002527835    1.205    0.170
       103  -8.0897     51.5676    157.0677   1.0759438618e+02   3.6650036599e+01    0.2219661    0.1922534   0.67 0.0006406023    1.485    0.327
       104  -7.3216     98.5314    153.5138   9.4188957053e+01   3.0631177783e+01    0.1490104    0.1427909 -81.61 7.312503e-05    1.005    0.005
       105  -8.4180     80.3723    151.6653   9.8812731600e+01   3.4039739167e+01    0.2655362     0.231117  -9.82 0.0005837164    1.421    0.296
       106  -8.0090     23.2337    157.5616   1.1516764923e+02   3.9540001240e+01     0.250813    0.1282859  70.16  0.000800811    2.259    0.557
       107  -8.6695    111.5194    149.8811   8.9967234532e+01   2.9203127860e+01    0.2567648    0.2133912  52.29 0.0004023468    1.227    0.185
       108 -10.9365     68.6606    144.9317   1.0089725435e+02   3.7446635581e+01     0.777973    0.4845547  65.65  0.003045974    2.037    0.509
       109  -9.1923     62.5177    136.5691   1.0117260002e+02   4.0389547973e+01    0.3082266    0.2541769  72.39 0.0006273928    1.298    0.230
       110  -9.4694     15.3957    145.0353   1.1587759665e+02   4.3273200199e+01    0.3743135    0.1757955 -62.26  0.001275239    1.757    0.431
       111 -10.0453      6.2273    145.7842   1.1840245719e+02   4.3785217897e+01    0.4625332    0.2196484  64.54  0.002186771    2.413    0.586
       112  -9.6045      7.2174    141.0414   1.1766561697e+02   4.4861693224e+01    0.2774644    0.2143562 -37.79  0.001754742    1.537    0.349
       113  -8.3890    242.6047    144.8447   6.0675685051e+01   4.5318012487e+00    0.2867552    0.1462473  30.72  0.001231623    2.745    0.636
       114  -7.3894    134.2375    145.0089   8.2984657767e+01   2.5965364217e+01    0.2102197    0.1292348 -48.56 0.0007219459    1.613    0.380
       115  -7.4286    118.4837    145.1900   8.7112242837e+01   2.9017224333e+01    0.2027913    0.1482303 -67.31 0.0004219263    1.525    0.344
       116  -8.7379     86.2436    143.8461   9.5691299115e+01   3.5058230137e+01     0.431853    0.2073037 -42.43  0.001626407    2.404    0.584
       117  -9.2764     99.1678    142.6774   9.1824744975e+01   3.3170149038e+01    0.4461036    0.3416206 -14.21  0.001503838    1.769    0.435
       118  -7.9583     82.0321    142.2905   9.6582540399e+01   3.6114788171e+01    0.2020787    0.1900561  41.12 0.0004647104    1.130    0.115
       119  -7.9073     25.5103    138.8087   1.1232360694e+02   4.3948762741e+01    0.2493944     0.162862  81.19  0.001116686    1.606    0.377
       120  -7.7128    242.3028    138.6193   5.9403297035e+01   5.6354642458e+00    0.1374449   0.09802458 -60.48 0.0005472617    1.777    0.437
       121  -8.3303    188.0190    137.9908   6.8993623344e+01   1.6264396113e+01    0.2177164    0.2042006 -35.75  0.001187208    1.026    0.026
       122 -10.0107    109.9073    137.7480   8.7780096085e+01   3.2418907270e+01    0.2613963    0.2384656 -55.36 0.0002503803    1.069    0.065
       123  -8.5195     83.0822    137.9200   9.5409144150e+01   3.7035473992e+01    0.2273755    0.1910989  74.68  0.001176681    1.294    0.227
       124  -7.2225    131.2528    136.9667   8.1898716035e+01   2.8422143174e+01    0.1947289     0.132663 -49.59 0.0003312726    1.452    0.311
       125  -7.0859     52.7320    137.3024   1.0419042160e+02   4.1457420489e+01    0.1382972    0.1014036  77.78  0.000693571    1.527    0.345
       126  -9.7265     12.8348    136.6262   1.1563842581e+02   4.5527286247e+01     0.382645    0.2371366 -37.96  0.001122353    1.918    0.479
       127  -7.4247     28.9921    134.1927   1.1069158971e+02   4.4776984572e+01    0.1556782    0.1053055  26.30 0.0004739856    1.730    0.422
       128  -9.5871      9.4283    132.2212   1.1609541419e+02   4.6848985176e+01    0.2875446    0.1950329 -65.89  0.001140123    1.213    0.176
       129  -8.3243    110.3733    131.7728   8.6285272889e+01   3.3762451159e+01    0.3269613    0.2257737  -4.90 0.0009487262    2.397    0.583
       130  -7.7016    126.8371    147.2253   8.5372876355e+01   2.6920562910e+01    0.2019673    0.1790217   4.80 0.0003647504    1.287    0.223
       131  -8.2217    245.4884    130.5008   5.7183522741e+01   6.4417974337e+00    0.1354264    0.1151736 -34.49 0.0008105747    1.007    0.007
       132  -7.5917     15.4539    129.4969   1.1402646134e+02   4.7075257031e+01    0.1314376    0.1043157 -63.52 0.0001098087    1.106    0.096
       133  -7.6829    124.5168    127.0078   8.1280389016e+01   3.2095413107e+01    0.2203745    0.1386886 -72.75 0.0005136013    2.447    0.591
       134  -7.4294      1.4828    125.5077   1.1762191882e+02   4.8989966983e+01    0.1261756   0.09881472 -70.28 4.350512e-05    1.049    0.047
       135  -8.3081     13.6034    122.2016   1.1362880278e+02   4.8996547172e+01    0.1842187   0.09428956 -61.24  0.000471554    1.563    0.360
       136  -7.1294    131.7179    121.3382   7.7957812320e+01   3.1894391321e+01    0.1584234    0.1251173 -84.07 0.0003811595    1.624    0.384
       137  -7.5941     64.5277    120.7492   9.7445443223e+01   4.4061488316e+01    0.1867364    0.1334165 -73.11 0.0003749967    1.470    0.320
       138  -8.0710      6.0000    119.0120   1.1552306663e+02   5.0281330833e+01    0.2159565   0.05888693 -71.81 0.0008023708    2.942    0.660
       139  -9.0216    247.7319    115.4144   5.3619741552e+01   8.5540883202e+00    0.2637728    0.1388311 -45.46  0.001263056    1.682    0.405
       140  -7.4101    104.4302    120.4809   8.5262191880e+01   3.7573226226e+01    0.1532804    0.1469257 -58.71 5.218808e-05    1.023    0.023
       141  -7.7452     50.3165    110.3800   9.9839634585e+01   4.8437748988e+01    0.1735924    0.1305268  40.46 0.0005453918    1.481    0.325
       142  -8.7390    249.6196    106.1693   5.1371073562e+01   9.7249187942e+00    0.1923511    0.1121301 -29.77  0.000943559    1.700    0.412
       143  -8.0287      8.7961    105.5133   1.1279776568e+02   5.3354139736e+01    0.2616827    0.1069345 -45.11  0.001194169    2.289    0.563
       144  -8.1805     69.4622    103.4966   9.1874836661e+01   4.7536565156e+01    0.1461608    0.1330507 -41.97 0.0008093522    1.023    0.023
       145  -8.5429    246.5281    100.4935   5.0553551516e+01   1.1226660146e+01    0.1344845    0.1138587 -44.72 8.656462e-05    1.003    0.003
       146  -8.4795     99.3902     96.4134   8.0375084573e+01   4.4051557574e+01    0.2461485    0.2414158  -1.24  0.000458294    1.034    0.033
       147  -8.2786     43.0316     92.9561   9.8454846903e+01   5.3437127232e+01    0.1990879    0.1797306 -49.40 0.0003922957    1.045    0.043
       148  -6.9819     93.6587     89.2713   8.0081514155e+01   4.6692606169e+01    0.1453597    0.1193988  78.90  0.000303006    1.610    0.379
       149  -8.3317     38.8012     82.9357   9.7557363347e+01   5.6195253122e+01    0.2020078    0.1831664  -1.54 0.0002753271    1.182    0.154
       150  -7.9699     80.9427     77.8629   8.0762928393e+01   5.1396780830e+01     0.324789    0.2095849  -6.76  0.001351544    2.379    0.580
       151  -7.4690     11.4754     75.4377   1.0642076630e+02   6.0176356607e+01    0.1265948   0.09947999 -47.47 0.0002008417    1.037    0.035
       152  -9.1764     22.8666     69.7965   1.0047554049e+02   6.0596248729e+01    0.2269183    0.1819811 -40.12  0.001441813    1.036    0.035
       153  -7.6079    144.0117     65.9613   5.9197988582e+01   4.0162841833e+01    0.1772493    0.1695932  60.77 0.0003904851    1.021    0.020
       154  -7.6782     31.3561     61.2804   9.4528565503e+01   6.1633817965e+01    0.1772779    0.1113942 -58.92 0.0006379363    1.640    0.390
       155  -7.1157     88.4368     60.5349   7.2500079723e+01   5.3359268311e+01     0.142434    0.1300455  -0.13 0.0006854698    1.027    0.027
       156  -7.0899     52.3699     59.2556   8.5175520787e+01   5.9567605735e+01    0.1365392   0.09410311  -8.22 0.0004225739    1.640    0.390
       157 -11.1504    196.5091     43.4354   4.3732660178e+01   3.0811150870e+01    0.5228104    0.4277881 -46.80  0.001807771    1.192    0.161
       158  -8.3772    204.1528    244.0099   8.6335478545e+01  -5.2169313032e+00    0.1739354    0.1455518  11.85 0.0003041478    1.075    0.070
       159 -10.0011     99.5250    241.4859   1.0689575092e+02   1.1071250381e+01    0.4323042    0.2492394  26.15  0.002180509    2.046    0.511
       160  -7.3243     54.0208     47.0270   8.0095818728e+01   6.1586423363e+01    0.1530623    0.1316845  -5.37  0.000945601    1.027    0.027
       161  -7.7750     60.1712     40.0532   7.4910689726e+01   6.1806392919e+01    0.1970435    0.1518096  -1.34 0.0004965245    1.247    0.198
       162  -8.3135     19.1560     40.1440   9.3114041768e+01   6.6889841780e+01    0.1846027    0.1297068 -24.69 0.0005691843    1.206    0.171
       163  -9.2787     97.4970    238.4926   1.0698194541e+02   1.1933222160e+01    0.2806793    0.1483278 -52.15  0.001030805    2.236    0.553
       164  -7.8184    231.4954     24.2478   3.5499299080e+01   2.5339168549e+01     0.145225    0.1172079 -26.36 0.0002268978    1.522    0.343
       165  -7.0752     47.3685     22.2783   7.2520625882e+01   6.6414492927e+01    0.1299208   0.08219577   8.43 0.0003948893    1.684    0.406
       166  -7.6748    243.2190     18.7586   3.3411203475e+01   2.3528464609e+01     0.141097    0.1297568  80.40 0.0003038833    1.327    0.246
