#   1 NUMBER                 Running object number                                     
#   2 MAG_AUTO               Kron-like elliptical aperture magnitude                    [mag]
#   3 X_IMAGE                Object position along x                                    [pixel]
#   4 Y_IMAGE                Object position along y                                    [pixel]
#   5 X_WORLD                Barycenter position along world x axis                     [deg]
#   6 Y_WORLD                Barycenter position along world y axis                     [deg]
#   7 A_WORLD                Profile RMS along major axis (world units)                 [deg]
#   8 B_WORLD                Profile RMS along minor axis (world units)                 [deg]
#   9 THETA_WORLD            Position angle (CCW/world-x)                               [deg]
#  10 FWHM_WORLD             FWHM assuming a gaussian core                              [deg]
#  11 ELONGATION             A_IMAGE/B_IMAGE                                           
#  12 ELLIPTICITY            1 - B_IMAGE/A_IMAGE                                       
         1 -13.4494    192.2293    129.3696   3.0907656999e+01   1.7007428466e+01     2.257143     1.252664 -40.79  0.001036462    1.641    0.391
         2 -13.9660    207.4353     99.3814   2.1277482463e+01   1.9427331551e+01     3.435157     1.534847 -41.59   0.01443781    1.924    0.480
         3 -14.5887    243.0675     59.9022   7.7421213758e+00   1.8561950241e+01     3.766639     2.697483 -83.12   0.01498647    1.528    0.346
         4  -9.1543    201.4916     32.4540   5.1641830445e+00   3.1153550653e+01    0.2802618    0.1185195 -33.53  0.001210586    2.166    0.538
         5  -8.2393    245.3436     11.7085   3.5707978007e+02   2.4278739331e+01    0.2136162   0.09708611 -44.64 0.0007346617    1.602    0.376
         6  -9.2495    243.6625      4.1216   3.5556003678e+02   2.5445841135e+01    0.1890591     0.143443 -65.21 0.0003663994    1.081    0.075
         7  -7.9007    222.9701    225.5253   4.3667854883e+01  -3.4828071375e+00    0.1645236   0.08133493  11.43 0.0008099694    2.553    0.608
         8 -12.0471    248.8329    249.0247   4.3026390186e+01  -9.0954749016e+00     1.558534    0.9498554  26.02   0.01155175    1.556    0.357
         9  -8.3051    240.4782    218.2720   3.9634482294e+01  -4.6104245135e+00    0.1952534   0.09042946 -30.06  0.001106822    1.915    0.478
        10  -7.7635    169.4596    214.9585   5.1926537721e+01   5.2430541897e+00    0.1586388    0.1157727 -77.27 0.0008092502    2.580    0.612
        11  -8.3371    248.0000    205.0248   3.6270234481e+01  -3.7842253115e+00    0.2856823    0.1180522 -39.81  0.001486244    2.394    0.582
        12  -9.0912    250.3844    201.5387   3.5315536847e+01  -3.6099213526e+00    0.2026136    0.1243055 -26.49  0.001315554    1.337    0.252
        13  -9.0922    123.9936    205.9880   6.0360911785e+01   1.3798867306e+01    0.1942426    0.1710087  39.09  0.001176013    1.021    0.020
        14  -9.0856    197.5093    204.2231   4.4732211899e+01   2.9069240344e+00    0.2735752    0.2282396  51.44  0.001357619    1.643    0.391
        15  -8.2493    243.9565    200.8091   3.6183123030e+01  -2.7469720954e+00    0.1869664    0.1439302 -50.53  0.001037328    2.022    0.505
        16  -9.6125    218.6802    198.6959   3.9976278700e+01   7.9716357304e-01    0.2155172    0.1822363 -11.42 0.0002979015    1.097    0.088
        17  -7.8436    225.2919    193.5935   3.7954954735e+01   6.5392888551e-01    0.2052868    0.1100993  39.75   0.00110878    2.076    0.518
        18  -9.0063    198.9591    192.0378   4.2349795235e+01   4.6415143122e+00    0.2115567    0.1740272  33.68 0.0004867659    1.300    0.231
        19  -8.3231    173.0172    190.9982   4.7256099753e+01   8.8417455257e+00    0.2005871    0.1700191  79.68  0.001134875    1.731    0.422
        20  -8.7618    227.9968    185.7465   3.6098745591e+01   1.4468978214e+00    0.2083655    0.1727466   7.96 0.0001968104    1.149    0.130
        21  -9.3757    223.8642    184.0299   3.6476051027e+01   2.2818548120e+00    0.2180904    0.2048267 -10.02 0.0002978395    1.285    0.222
        22  -8.1221    166.8660    186.3462   4.7715252703e+01   1.0695237769e+01    0.1854554    0.1715888 -45.28 0.0007196642    1.201    0.167
        23  -9.2413    248.9812    185.0415   3.2654142731e+01  -1.2194390898e+00    0.1934529    0.1554045  22.15 0.0004810003    1.367    0.268
        24  -8.3024    211.9971    183.6605   3.8458076022e+01   4.0540454143e+00    0.2120721    0.1780268 -55.12  0.001011015    1.609    0.379
        25  -8.3913    201.8192    183.9522   4.0354102299e+01   5.5376188928e+00    0.2223774    0.1762031 -53.85  0.001303757    1.618    0.382
        26  -8.4465    243.3687    182.3210   3.3020640818e+01  -1.1701843540e-01    0.2530249    0.1502189 -33.70  0.001299519    1.440    0.306
        27  -8.7141    246.7983    180.5928   3.2183416546e+01  -3.1767886032e-01    0.1965587     0.112125  41.42   0.00061614    2.139    0.532
        28  -8.8709    192.8210    179.0568   4.1138742828e+01   7.7783987625e+00    0.3049101    0.2246107 -61.30  0.001615274    1.927    0.481
        29  -7.2533    221.3000    179.6640   3.6104500216e+01   3.3215365054e+00    0.1133588   0.09866887 -60.11 0.0002919192    1.658    0.397
        30  -7.6487    123.3302    179.6739   5.6470422423e+01   1.9426311813e+01     0.149827    0.1086649  68.65 0.0004468286    1.706    0.414
        31  -8.3405    210.3967    177.5941   3.7612384264e+01   5.2738200515e+00     0.232463     0.157039   0.74 0.0008958923    1.711    0.415
        32  -9.6623    231.3802    175.9483   3.3741197698e+01   2.4496743265e+00    0.2621603    0.2087916 -24.74 0.0008678681    1.092    0.084
        33  -8.2507    183.6857    177.1012   4.2557727596e+01   9.6150545893e+00    0.2069551    0.1685537 -54.00  0.000918898    1.444    0.308
        34  -7.8684    164.4528    177.4850   4.6615723537e+01   1.2790647923e+01    0.1385879    0.1285093   1.70 0.0002388139    1.019    0.019
        35  -8.5998    250.6139    173.8959   3.0390219160e+01   1.3624979130e-01    0.2355874   0.09361424 -35.28  0.001152863    2.076    0.518
        36  -9.1352    236.7019    169.3815   3.1659171979e+01   2.6919639557e+00    0.2368379    0.2063109 -81.01 0.0009996782    1.934    0.483
        37  -8.9039    247.6434    169.1744   2.9953947414e+01   1.2096761368e+00    0.3045334    0.2657622  13.64  0.002065632    1.276    0.216
        38  -7.6350    241.0535    172.7001   3.1608308387e+01   1.5892456432e+00    0.3106857    0.2091272  34.59  0.001926663    1.666    0.400
        39  -8.3986    242.8050    169.4255   3.0727038149e+01   1.8325528450e+00    0.2143161     0.145195 -17.09 0.0008102168    1.343    0.255
        40  -7.6939     47.9814    171.9625   7.5210982029e+01   3.2641503392e+01     0.168912    0.1452605  71.40 0.0004732806    1.007    0.007
        41  -9.3896    224.2023    169.8144   3.3756287647e+01   4.4428273456e+00    0.3716135    0.2150811 -22.51  0.001923753    1.760    0.432
        42  -8.2801    206.9248    170.7117   3.6919088954e+01   6.9569698473e+00    0.2310141    0.1720477 -63.89  0.001073634    2.047    0.511
        43  -9.2644    183.7318    169.2173   4.1030590599e+01   1.1050905377e+01    0.3804654    0.1817031 -36.11  0.001210199    2.127    0.530
        44  -8.1052    143.4239    171.2257   5.0164528801e+01   1.7750475112e+01    0.1958598    0.1401328 -63.91 0.0009387704    1.653    0.395
        45  -9.7403    192.0739    167.7035   3.9096790063e+01   9.9110035233e+00    0.3126779    0.1954656 -45.20 0.0004112036    1.609    0.378
        46  -7.8311    170.2937    169.6791   4.3883684278e+01   1.3293670666e+01    0.1333913    0.1134293  88.67 0.0003730555    1.611    0.379
        47  -7.7038    147.6488    169.3308   4.8826211466e+01   1.7395416221e+01    0.1486195     0.114352  75.52 0.0007047496    1.773    0.436
        48  -9.9854    216.5892    166.3221   3.4365110830e+01   6.1676314492e+00    0.5093159    0.3390904 -63.81 0.0005683927    2.719    0.632
        49  -8.0623    180.8620    249.1874   5.4623425879e+01  -1.4329598273e+00    0.1633103    0.1101745  10.15 0.0007213295    1.355    0.262
        50 -13.3537    237.3358     88.7109   1.4760071348e+01   1.5348647378e+01     0.519735    0.3722884 -37.42 0.0005322308    1.171    0.146
        51 -12.2042    250.3600    141.8331   2.4289955544e+01   4.8968910564e+00    0.3293124    0.1580164 -33.44 0.0008964454    1.704    0.413
        52 -12.6965    239.4746    140.9021   2.5641009698e+01   6.6938689646e+00    0.5656939    0.3716952 -26.87 0.0003711141    1.343    0.255
        53 -14.0070    248.3951    134.0391   2.2995903989e+01   6.3826787141e+00     2.405483    0.6977581 -31.41  0.004198935    3.816    0.738
        54 -13.5553    241.1643     80.7489   1.2554515178e+01   1.5860884121e+01     1.241735    0.4544177  59.09   0.00448958    3.244    0.692
        55 -12.8593    229.3219    118.0948   2.2306170183e+01   1.2073800382e+01    0.5144742    0.4080228 -51.53  0.003076025    1.249    0.199
        56 -12.4261    228.1205    111.2239   2.0966497799e+01   1.3424166621e+01    0.4619175    0.3152925 -49.43 0.0002832831    1.366    0.268
        57 -13.3894    249.2630    110.3690   1.7999423331e+01   9.8953799546e+00     1.209587    0.2861761 -35.27  0.004126778    3.624    0.724
        58 -13.0988    235.0852    107.1709   1.9122611559e+01   1.2832045874e+01    0.4820717    0.3621422  17.48  0.001524614    1.858    0.462
        59 -14.1457    243.3811     98.9597   1.6285299280e+01   1.2662941492e+01     0.888768    0.6081313 -23.46  0.003680338    1.531    0.347
        60 -13.1160    244.4766     87.3506   1.3636072142e+01   1.4253791143e+01     0.500157    0.3930331 -23.96  0.001013969    1.347    0.257
        61 -13.4596    239.9700    112.3985   1.9611254513e+01   1.1141994129e+01    0.5758105    0.3937259  51.77  0.001861873    1.793    0.442
        62 -12.5228    241.6572    107.1245   1.8260419139e+01   1.1685824590e+01      0.25389    0.2377365 -44.93 0.0003371896    1.163    0.140
        63  -8.4949    152.4521    165.9732   4.7077891735e+01   1.7232280241e+01    0.2157831    0.1411103 -48.29 0.0005991337    1.556    0.357
        64  -8.4959    207.3270    162.5022   3.5232335616e+01   8.2902991999e+00    0.3138573    0.1667497 -50.02  0.001427107    2.188    0.543
        65  -8.3300    204.6674    160.3390   3.5276255311e+01   9.1042208998e+00    0.2186535    0.1273468 -41.84  0.001078438    1.611    0.379
        66  -8.1032    196.6242    164.2707   3.7549244126e+01   9.7594507358e+00    0.2016174    0.1651492 -75.67  0.001092839    1.812    0.448
        67  -7.7339    197.4901    169.4686   3.8413165910e+01   8.6957995477e+00    0.1332182    0.1201197 -14.43 0.0008095239    1.035    0.033
        68  -9.5271    191.4249    158.5116   3.7374266220e+01   1.1695912250e+01    0.4546924    0.2263208 -26.95   0.00147223    2.580    0.612
        69  -9.1796    168.4660    159.2888   4.2198923242e+01   1.5672629484e+01    0.2929483    0.2262933 -82.81  0.001296636    1.921    0.479
        70  -8.2639    159.4826    159.9694   4.4299025448e+01   1.7190654611e+01    0.2173189    0.1407732 -46.60 0.0006692948    1.542    0.351
        71  -9.4758    178.8235    158.3470   3.9839205039e+01   1.3970271650e+01    0.4097865    0.2152267  55.27  0.001637057    2.685    0.628
        72 -10.0017    196.8698    156.9023   3.6010725290e+01   1.1040733535e+01    0.4056185    0.2012556 -41.58 0.0007945409    1.878    0.468
        73  -9.1770    202.8204    155.8970   3.4707218152e+01   1.0196462237e+01    0.4448083     0.191175  50.44  0.001767599    3.028    0.670
        74  -8.4633    153.4528    156.5233   4.4955910680e+01   1.9039021999e+01    0.1434387    0.1426959 -70.82 0.0001928054    1.054    0.052
        75  -9.6619    175.9698    152.4078   3.9186948638e+01   1.5652973279e+01    0.2805742    0.1904495 -27.51 0.0009441025    1.590    0.371
        76 -10.8474    182.1450    134.5304   3.4013323465e+01   1.7991070603e+01    0.5220139    0.2885356 -39.57  0.002287246    1.701    0.412
        77 -10.5528    184.0882    150.4842   3.7133545536e+01   1.4523050166e+01    0.6703981    0.2576898 -49.99  0.002360667    2.995    0.666
        78  -9.9975    182.8383    142.0738   3.5562446403e+01   1.6383071101e+01    0.3970183    0.2817394 -31.85  0.001579997    1.387    0.279
        79 -10.4558    187.6824    146.7159   3.5621244516e+01   1.4578683849e+01     0.464451    0.3658103 -84.99  0.001507056    1.888    0.470
        80 -13.2921    223.8867    139.8189   2.7780496138e+01   9.3934782661e+00     3.463805    0.9442669 -44.78   0.01154312    3.708    0.730
        81  -8.7635    162.8878    150.0111   4.1469105501e+01   1.8612429116e+01    0.2549617    0.2195152  35.45  0.001159098    1.185    0.156
        82  -8.8001    196.1096    243.7088   5.1085559922e+01  -2.5970792099e+00    0.2202177     0.124695  -9.12  0.001224842    2.162    0.537
        83  -8.7629    155.0001    149.5041   4.3129650801e+01   2.0239169547e+01    0.2250517    0.1462812  40.97  0.001023226    1.561    0.360
        84  -9.5556    133.5542    148.0534   4.7962800846e+01   2.4721544650e+01    0.3447312    0.2543397 -46.74   0.00127543    1.361    0.265
        85 -12.2006    249.9762     74.1394   1.0188437888e+01   1.5229573526e+01    0.4028372     0.236954 -35.30 0.0003547781    1.421    0.296
        86 -13.5989    245.5039     69.0437   9.5224469600e+00   1.6790266762e+01     3.681942     1.074832  49.28   0.01280752    5.470    0.817
        87  -8.0540    155.2823    145.6557   4.2233863344e+01   2.1007802928e+01    0.1494515    0.1191999 -84.23 0.0007013829    1.638    0.390
        88  -8.9404    141.3295    142.7652   4.4897471627e+01   2.4401148709e+01    0.3927442    0.1219703 -40.65  0.001087865    4.019    0.751
        89 -10.1645    175.0850    139.6978   3.6605239315e+01   1.8352435728e+01    0.3741069    0.3292321 -80.80  0.001918866    1.357    0.263
        90  -7.3874     24.7010    142.2619   7.8936602669e+01   4.2900317299e+01    0.1414971   0.08981029  62.35 0.0001951555    1.511    0.338
        91 -10.3951    192.7452    148.0211   3.4928892486e+01   1.3403774008e+01    0.5764033       0.3027 -35.71  0.002560085    1.829    0.453
        92  -8.1293    155.4933    140.5170   4.1049224877e+01   2.2069744178e+01    0.1495435    0.1451373 -31.14 -1.572889e-05    1.014    0.013
        93  -8.5274    166.0990    139.1006   3.8371181998e+01   2.0250035556e+01    0.2363256    0.2031316 -10.70 0.0009764258    1.286    0.223
        94  -8.8227    155.4646    135.4473   3.9904905065e+01   2.3167846812e+01    0.2815938    0.1404352 -55.65  0.001034383    2.344    0.573
        95 -10.4441    178.5275    130.2286   3.3747039062e+01   1.9560293625e+01     0.478054    0.3054435 -17.35  0.001984938    2.265    0.558
        96  -8.0400    176.0415    244.9123   5.4953227022e+01  -2.3274469371e-01    0.1857576    0.1210229  -0.79  0.001121354    1.693    0.409
        97  -9.9333    166.1780    125.6046   3.5218145725e+01   2.3036896166e+01    0.5010229    0.2588674 -54.07  0.001931738    2.173    0.540
        98  -7.5020     25.2969    131.7058   7.7614598490e+01   4.5670192554e+01    0.1456182   0.09261506  65.15 0.0003283497    1.564    0.361
        99  -8.6424    153.0161    129.8011   3.9150814687e+01   2.4895853830e+01    0.2756757     0.216437 -47.38 0.0007898227    1.233    0.189
       100  -8.3313    146.9970    129.7146   4.0545434370e+01   2.6169819027e+01     0.215897    0.2081706  39.68  0.001150733    1.074    0.069
       101  -7.5168    173.3420    129.3009   3.4586370271e+01   2.0798128443e+01    0.1506102    0.1172045   0.69 0.0007037442    1.674    0.403
       102 -12.9011    230.4313    101.3526   1.8451642660e+01   1.4617646809e+01    0.8536907    0.5487114 -54.64  0.001458901    1.567    0.362
       103  -8.7920    175.5666    124.4192   3.2979348393e+01   2.1324837658e+01    0.2920024    0.2448344  14.16  0.001501363    1.417    0.294
       104 -10.1189    176.8506    119.3054   3.1493548439e+01   2.2078840644e+01    0.5051064    0.3415821 -13.82  0.002145436    2.168    0.539
       105  -8.2957    143.4813    125.4753   4.0377444086e+01   2.7853911834e+01    0.1547101    0.1504969 -48.28 5.766041e-05    1.029    0.028
       106  -7.8892    132.4843    124.5042   4.2899931766e+01   3.0393776047e+01    0.1565498    0.1523165 -64.96 9.293709e-05    1.017    0.016
       107  -8.3479    157.4319    120.2559   3.5834240861e+01   2.6017238235e+01     0.301608    0.1452486 -39.34  0.001000114    2.101    0.524
       108  -8.6821    152.1273    120.7539   3.7166208725e+01   2.7050836194e+01    0.2960454    0.2075139 -16.95  0.001233489    2.038    0.509
       109  -9.5282    170.8734    116.6284   3.2048262101e+01   2.3883940525e+01    0.3298343    0.2867632  34.30  0.001728642    1.268    0.212
       110  -8.5967    140.4809    116.4177   3.8863775837e+01   3.0529448749e+01    0.3263337    0.1518607 -46.06 0.0008406855    2.085    0.520
       111  -8.1710    152.4990    113.1079   3.5152862141e+01   2.8620094369e+01    0.2433362    0.1488611 -45.16 0.0005909501    1.566    0.361
       112  -7.9373    176.4645    111.4705   2.9644304497e+01   2.3713721304e+01    0.1503351    0.1398068 -42.96 0.0001099759    1.026    0.026
       113  -8.6952    182.2281    108.8371   2.7881673517e+01   2.2987440481e+01    0.3549288    0.1953552 -32.57   0.00146698    1.914    0.478
       114  -8.7486    178.8075    105.9397   2.7802389765e+01   2.4287260963e+01    0.4052472     0.205366 -43.88  0.001653125    1.815    0.449
       115  -8.9010    169.1178    108.0806   3.0259686416e+01   2.5991555508e+01    0.4630272      0.24545 -27.39  0.001680162    2.589    0.614
       116  -8.7528    160.9935    109.2925   3.2278577119e+01   2.7543413488e+01    0.2197884    0.2098144  73.40  0.001175743    1.089    0.081
       117  -9.3041    154.7332    106.8692   3.3024443747e+01   2.9447962643e+01    0.3712203    0.2602865 -34.69  0.001021222    1.488    0.328
       118  -8.1580    128.8130     97.1875   3.6666140825e+01   3.7429431133e+01    0.2190389    0.1904975 -19.79 0.0006445613    1.344    0.256
       119  -8.7779    174.2783    100.6762   2.7323731295e+01   2.6309265645e+01    0.4671443    0.1937566 -37.81  0.001678511    2.351    0.575
       120  -9.2759    164.8940     93.9212   2.7388516470e+01   2.9763303329e+01    0.3528419    0.2397246 -44.12 0.0009621339    1.380    0.275
       121  -7.8167    154.9692     95.5271   2.9915887039e+01   3.1742582228e+01    0.2267053    0.1547888  55.17   0.00101007    1.531    0.347
       122  -8.3648    187.3086     92.2051   2.2756721084e+01   2.4999060388e+01    0.2973298    0.1782522 -53.01  0.001319094    1.662    0.398
       123  -8.4675    176.7376     92.5818   2.4736427649e+01   2.7304399474e+01    0.3291701    0.1583641 -50.37 0.0009748305    2.108    0.526
       124  -8.8167    181.8734     89.4266   2.2977473429e+01   2.6725718277e+01    0.3771739    0.2903714 -87.40 0.0009432622    1.521    0.342
       125 -13.0465    217.6675    111.3996   2.2527364860e+01   1.5334750097e+01     1.943637    0.9521291 -26.49  0.003638607    2.479    0.597
       126  -7.8048    150.6232     87.7815   2.8693050165e+01   3.4326496222e+01    0.2373227    0.1365954 -50.37 0.0009575895    1.726    0.421
       127  -8.9552    187.4941     86.4813   2.1243923693e+01   2.5990757775e+01    0.4099423    0.1331157 -38.32  0.001375484    2.783    0.641
       128 -10.3315    185.9012     79.1163   1.9568622975e+01   2.7654030780e+01    0.6053342    0.2741934 -44.44  0.001288442    1.985    0.496
       129  -9.9227    189.5126     77.0003   1.8432811125e+01   2.7193789733e+01    0.3843276    0.2265005 -48.72  0.001483734    1.555    0.357
       130 -13.1481    226.3934     92.4798   1.6973679574e+01   1.6819660500e+01    0.7963222    0.7304671 -31.72  0.005069143    1.156    0.135
       131  -8.2616    175.8208     80.2934   2.1595180847e+01   2.9783474370e+01    0.2844099    0.1740009 -29.49  0.001226111    1.806    0.446
       132  -9.1482    157.9761     74.7607   2.3367902886e+01   3.5059626843e+01    0.3751223    0.2172056 -38.80 0.0007322429    1.671    0.401
       133  -8.6150    175.3739     75.2762   2.0291489447e+01   3.0783421342e+01    0.2143722    0.1265246 -46.76 0.0009368183    1.566    0.361
       134  -7.8096    128.5968     73.7728   2.9643224366e+01   4.2409129873e+01    0.2331217    0.1399227 -51.83 0.0007972375    1.720    0.418
       135  -9.1244    191.9754     71.7506   1.6673371817e+01   2.7517849740e+01    0.2791804    0.1893445 -40.47  0.001103086    1.335    0.251
       136  -8.3045    170.3065     70.6497   1.9875102993e+01   3.2806251722e+01    0.2881217    0.1613343 -48.76 0.0008017532    1.699    0.412
       137  -7.9433    164.4634     71.4728   2.1165229921e+01   3.4076209513e+01    0.1547922    0.1372276 -66.84 1.093477e-05    1.057    0.054
       138  -7.9112    175.1500     69.2127   1.8638073241e+01   3.1889953547e+01    0.4430677    0.0686411 -39.70  0.001109466    4.890    0.795
       139  -8.8466    146.5716     68.5941   2.3846985065e+01   3.8989434400e+01    0.4783282    0.2673121 -62.52   0.00179397    2.366    0.577
       140  -8.0868    182.6101     67.2390   1.6885410282e+01   3.0447127191e+01    0.2056367    0.1364159 -28.09 0.0009511065    1.657    0.397
       141  -8.1117    171.8761     62.6840   1.7328202132e+01   3.3780676174e+01    0.2517954    0.1927909 -31.68  0.000725002    1.373    0.271
       142  -7.8613    132.5948     58.8413   2.3783368295e+01   4.4215601768e+01     0.222218    0.1340344 -49.63 0.0009380313    1.687    0.407
       143 -10.0554    192.0419     54.4707   1.2063612483e+01   3.0255852032e+01    0.6184948    0.3539592 -11.78  0.002315465    3.369    0.703
       144  -8.6878    192.6899     49.3504   1.0605953444e+01   3.0868790604e+01    0.2878045     0.133975 -48.82  0.001222222    1.943    0.485
       145  -9.4815    183.6826     53.1201   1.2826639185e+01   3.2444601167e+01     0.407258    0.1953402 -49.68  0.001702026    1.962    0.490
       146  -9.5331    153.2114     52.2906   1.7434561402e+01   4.0114572167e+01    0.3938833    0.2035872 -38.86  0.001229238    1.852    0.460
       147  -8.3067    124.8642     53.9065   2.3904654393e+01   4.7000428300e+01    0.2096238    0.1724824 -71.19 0.0003606131    1.289    0.224
       148  -8.6383    148.4878     51.0452   1.7911077114e+01   4.1509057810e+01    0.2268511    0.1451424 -35.44  0.001026822    1.576    0.365
       149  -8.7466    188.2470     49.1677   1.1122948817e+01   3.1946699854e+01    0.2249733    0.1486973  23.27  0.000948548    2.789    0.642
       150  -9.8240    202.4180     46.7158   8.7551930776e+00   2.8995228295e+01    0.2799384      0.22529  -7.45  0.001288951    1.710    0.415
       151  -9.6765    196.9994     44.4822   8.7906983753e+00   3.0562796551e+01    0.3640719    0.1923022 -21.98  0.001531366    2.502    0.600
       152  -8.9798    185.7442     43.6386   9.9217785835e+00   3.3348449064e+01     0.301097    0.1674518 -37.26 0.0008583202    1.661    0.398
       153  -8.5743    178.8128     49.6226   1.2527662547e+01   3.4152043227e+01    0.2466479    0.1557746 -43.57 0.0009968092    1.440    0.305
       154 -14.6309    238.4759    125.9164   2.2685100697e+01   9.2369191938e+00     1.923244     1.375308  11.36  0.003980632    1.902    0.474
       155  -9.0302    189.4850     42.5106   9.1497300344e+00   3.2612278948e+01    0.2045792    0.1273789  87.49 0.0008251258    1.716    0.417
       156  -7.8475    163.2918     44.3530   1.3275508551e+01   3.8784867742e+01    0.1414688    0.1143751  24.08 0.0003149216    1.679    0.404
       157  -8.4651    113.2984     43.4888   2.2961465395e+01   5.1591712154e+01    0.2635046    0.1336463 -34.96  0.001067307    2.023    0.506
       158  -8.3591    173.5294     40.7054   1.0691896005e+01   3.6750424587e+01    0.2550618    0.1409074 -27.58  0.001115857    1.997    0.499
       159  -8.4062    214.1283    231.0741   4.6041005963e+01  -3.1401418361e+00    0.3120426    0.1558564  -2.26  0.001416647    3.234    0.691
       160  -8.9699    215.6523     26.3335   2.3621726613e+00   2.8734864007e+01     0.379537    0.2287573 -11.02  0.001765367    2.765    0.638
       161 -10.5804    208.8590     35.0185   5.1055278656e+00   2.9138093012e+01    0.4520194    0.2861509 -36.70  0.002427699    1.453    0.312
       162 -12.5288    250.0307    120.6408   2.0041034170e+01   8.1893298862e+00    0.6519515    0.1869544 -35.88  0.001357011    2.848    0.649
       163  -8.6096    201.6939    239.8650   4.9535803294e+01  -2.7768797368e+00    0.2097441    0.1256319  18.44   0.00130363    1.459    0.315
