#   1 NUMBER                 Running object number                                     
#   2 MAG_AUTO               Kron-like elliptical aperture magnitude                    [mag]
#   3 X_IMAGE                Object position along x                                    [pixel]
#   4 Y_IMAGE                Object position along y                                    [pixel]
#   5 X_WORLD                Barycenter position along world x axis                     [deg]
#   6 Y_WORLD                Barycenter position along world y axis                     [deg]
#   7 A_WORLD                Profile RMS along major axis (world units)                 [deg]
#   8 B_WORLD                Profile RMS along minor axis (world units)                 [deg]
#   9 THETA_WORLD            Position angle (CCW/world-x)                               [deg]
#  10 FWHM_WORLD             FWHM assuming a gaussian core                              [deg]
#  11 ELONGATION             A_IMAGE/B_IMAGE                                           
#  12 ELLIPTICITY            1 - B_IMAGE/A_IMAGE                                       
         1 -16.4848     33.1692    132.6388   1.3210941247e+02   4.5075317798e+01     5.135744     3.799684  31.65   0.03062071    1.576    0.366
         2 -10.5180    177.3885     31.4837   6.7184654965e+01   3.6979352267e+01     0.639212    0.4166509  40.60  0.003248611    1.834    0.455
         3 -12.4139      7.9685      5.4837   1.0743950251e+02   7.1541998526e+01     1.309457    0.8342984   4.73  0.009734163    1.299    0.230
         4  -7.9872    227.4582     28.0856   6.0208614442e+01   2.5567016871e+01    0.1800745    0.1186099 -40.54  0.001026584    1.592    0.372
         5 -13.7339    243.4014    232.5650   1.0063462736e+02  -1.1689218482e+01     3.123543     1.144973 -35.66  0.004489261    2.695    0.629
         6  99.0000     36.4102    188.6735   1.3859039849e+02   3.1380961152e+01     2.109475    0.5069246  40.50  0.008063322    3.582    0.721
         7 -16.8582    105.8761    229.1683   1.2827741439e+02   1.2304373540e+01     2.959636     2.439788 -32.94    0.0170271    1.686    0.407
         8 -15.2559     63.2215    202.5535   1.3420786250e+02   2.4769769816e+01     1.960391    0.9114086 -71.06  0.008870489    2.102    0.524
         9  99.0000     46.5295    200.3854   1.3761841908e+02   2.7470880322e+01     1.435214     0.837617  38.53  0.007737684    1.789    0.441
        10 -15.3095     84.6806    212.7200   1.3072984527e+02   1.9282991785e+01     1.218138     0.810992  63.06  0.006421835    1.437    0.304
        11 -18.2901     71.0032    242.4627   1.3688800300e+02   1.5029028291e+01     6.086117     2.677964  47.36   0.03013863    1.891    0.471
        12 -16.1764     79.9966    235.2265   1.3436477207e+02   1.5172187488e+01     1.251529    0.5254803  51.30  0.005685076    2.113    0.527
        13 -11.6738      1.6918    211.2623   1.4754346757e+02   2.9878243564e+01    0.1956069    0.1148975 -84.96  0.001247845    1.324    0.245
        14 -11.1008     22.5077    210.9971   1.4356102340e+02   2.7869994429e+01    0.1610923   0.08744177 -51.96 0.0008471642    2.362    0.577
        15 -11.3080     15.8971    210.3719   1.4479854619e+02   2.8696098761e+01    0.1369064     0.112827   9.92 0.0009138869    1.970    0.492
        16 -11.1276     53.6386    208.2388   1.3692947935e+02   2.4773687103e+01    0.1641436    0.1282541 -87.81 0.0003542871    1.110    0.099
        17  -8.3701     21.6273    206.6131   1.4337954449e+02   2.8925210426e+01       0.1153   0.09337707 -82.17 0.0007797973    1.180    0.152
        18  -9.5402     20.0667    203.0901   1.4340169636e+02   2.9866705922e+01     0.249368    0.2182756  36.02  0.001769707    1.501    0.334
        19  -8.0325    194.3083    198.1820   1.0384284735e+02   2.2692521929e+00      0.35546    0.2443119 -80.49   0.00144073    2.941    0.660
        20  -8.0273    158.2410    195.7633   1.1127489058e+02   9.7635213133e+00     0.203053    0.1704584  17.08 0.0006537038    1.320    0.243
        21  -7.8493    193.5811    191.7897   1.0273348804e+02   3.6403005497e+00    0.1940213    0.1389977 -54.98 0.0009307527    1.627    0.385
        22 -10.8645      6.3035    186.4099   1.4484473721e+02   3.4900586458e+01     0.124544   0.08433653 -73.98 0.0007927984    1.234    0.190
        23 -12.2117     42.4855    183.3420   1.3662570589e+02   3.1929655498e+01     0.219679     0.188204 -83.71  0.001121218    1.077    0.071
        24 -10.1958     20.8096    184.8521   1.4163190736e+02   3.3914071844e+01   0.09806351   0.08542594 -77.50 0.0006573679    1.203    0.168
        25 -12.6258     44.5212    177.4272   1.3544377653e+02   3.3093515568e+01    0.2483646     0.212562  62.00   0.00137958    1.182    0.154
        26 -11.5534     52.9887    182.4995   1.3408087687e+02   3.0841401059e+01    0.2171337    0.1718026 -84.80  0.001277394    1.100    0.091
        27 -12.3336     50.9507    178.8787   1.3410154198e+02   3.1963938235e+01    0.3786854    0.2185061 -47.18  0.001479169    2.029    0.507
        28  -8.2805     92.8229    181.9644   1.2438969744e+02   2.5106528660e+01    0.1884638    0.1653408  82.16            0    1.067    0.063
        29  -7.6922    156.2973    180.6628   1.0878668842e+02   1.3414260650e+01    0.1552674    0.1210246  83.48 0.0007031924    1.655    0.396
        30  -7.8346    181.5363    179.6371   1.0285697383e+02   8.4758784143e+00    0.2521721    0.1399286  42.76  0.001046676    1.764    0.433
        31  -9.1022    103.8448    176.4741   1.2072817074e+02   2.4533803826e+01     0.502208    0.3312726 -78.87   0.00224015    1.801    0.445
        32  -9.7406    104.1915    171.0731   1.1966889169e+02   2.5773661399e+01    0.4185725    0.2857937  59.24  0.001561239    1.567    0.362
        33  -8.6884     63.2240    179.8076   1.3128401792e+02   3.0129479258e+01    0.1201108   0.08963205  70.69 0.0006350676    1.316    0.240
        34 -10.0882     38.1008    174.8799   1.3665155761e+02   3.4438411137e+01    0.3241223    0.1516536  44.52  0.001138134    2.162    0.537
        35 -12.5366     31.0084    174.5234   1.3827183598e+02   3.5288678207e+01    0.2256449    0.2197428 -67.22 0.0006511216    1.295    0.228
        36  -7.7942     93.4949    174.2646   1.2293772566e+02   2.6850811980e+01     0.219199    0.1357315 -54.26 0.0009988036    1.595    0.373
        37  -9.3448     96.2864    169.4010   1.2137836892e+02   2.7559437110e+01    0.3884806      0.32744 -11.77  0.001988609    1.590    0.371
        38  -8.5368    196.9482    171.9047   9.7915176420e+01   6.9237009568e+00    0.2910708    0.2120128 -32.65 0.0007269204    1.408    0.290
        39  -9.3534    175.2938    171.9962   1.0264043601e+02   1.1371835303e+01     0.288334    0.2701759 -46.37 0.0006551613    1.090    0.083
        40  -8.3919     61.7991    173.3186   1.3071478315e+02   3.1892192362e+01    0.1594342    0.1321698 -61.19 0.0003363269    1.198    0.165
        41 -11.1473     48.1601    171.5591   1.3382101479e+02   3.4065559191e+01    0.2158536    0.1729614 -76.82 0.0003036715    1.081    0.075
        42  -9.7539     24.8866    172.7587   1.3949663667e+02   3.6324603862e+01    0.1080839   0.06359234 -66.10 0.0005761666    1.440    0.306
        43 -14.2899     81.5628    199.5652   1.2969128963e+02   2.2759778362e+01     2.877348     1.657436  21.61    0.0121166    2.782    0.641
        44  -8.9627    143.7124    169.7757   1.0956087655e+02   1.8442429039e+01    0.3353573    0.2009864  43.00  0.001167107    1.629    0.386
        45  -8.2891    155.3803    168.5621   1.0650788413e+02   1.6297900220e+01    0.2824533    0.1930622 -44.53 0.0006868102    1.505    0.336
        46 -11.2295     23.7934    168.9010   1.3933151634e+02   3.7337654921e+01    0.2216939    0.1597603  54.38            0    1.431    0.301
        47  -9.0767     39.4544    167.3281   1.3539640820e+02   3.6092912425e+01    0.3625528      0.19172  67.67  0.001435393    2.334    0.572
        48  -8.2144     76.7274    167.6060   1.2607679584e+02   3.1149491266e+01    0.1874325    0.1268881  50.99 0.0007782125    1.503    0.335
        49 -10.8569     16.2989    216.5663   1.4518080799e+02   2.7320934544e+01    0.1130299    0.1055328 -79.43 0.0008417444    1.434    0.303
        50  -8.7162    250.0649    156.7879   8.4674213277e+01  -3.8567674889e-01     0.227087    0.1729236 -33.30 0.0003829064    1.171    0.146
        51  -9.7660    104.6716    154.9273   1.1643616506e+02   2.9610560040e+01    0.4170049    0.3610725   2.44  0.001260675    1.440    0.306
        52  -7.8569    136.6817    154.7660   1.0810356413e+02   2.3383489706e+01    0.2196317     0.143799 -58.90 0.0004616137    1.635    0.388
        53  -7.9375    114.3845    152.7302   1.1341434863e+02   2.8331606331e+01    0.2441256    0.1781552  80.64  0.001068247    1.764    0.433
        54  -9.2082    218.2752    150.2081   8.8917450526e+01   6.8897972406e+00    0.2382939    0.2307262 -72.64 0.0002367583    1.109    0.098
        55  -9.3268     82.4407    163.8490   1.2396819563e+02   3.1190770512e+01    0.2648112    0.2430594 -76.92 0.0009855736    1.034    0.033
        56  -9.6621     99.3417    161.2914   1.1909011431e+02   2.9008458471e+01    0.7258407     0.224462  42.84  0.002327245    3.182    0.686
        57  -8.4596    133.8645    145.0509   1.0664420955e+02   2.6249783782e+01    0.3171732    0.2205722 -57.64 0.0008733862    1.499    0.333
        58  -7.9650    104.3084    144.9707   1.1446063359e+02   3.2097627455e+01    0.2302028    0.2014286  77.97 0.0003728606    1.210    0.174
        59  -7.5187    132.6202    138.7023   1.0549305344e+02   2.7995519971e+01    0.1632991     0.127684   1.02 0.0007022732    1.760    0.432
        60  -8.6537    100.0856    144.5380   1.1552060199e+02   3.2966083156e+01    0.3232615    0.1503562  38.25  0.001226098    2.227    0.551
        61  -8.9387    161.2192    127.7700   9.5735815788e+01   2.4143445168e+01    0.5452156    0.3471007  87.11  0.001842328    3.094    0.677
        62  -8.3915     97.5603    164.8377   1.2022006855e+02   2.8452558558e+01    0.2319073    0.1749135  52.43 0.0005944867    1.332    0.249
        63  -7.9328    167.5147    126.5165   9.3963568439e+01   2.2967636944e+01    0.1584893    0.1537708 -86.21 0.0008101675    1.023    0.023
        64  -9.3603    168.7339    114.7897   9.0749253068e+01   2.5162161888e+01    0.3419433      0.26395 -73.32  0.001014833    1.547    0.354
        65  -7.4314    130.7184    115.3108   1.0019946195e+02   3.3729398333e+01    0.1556178    0.1248971 -87.33 0.0001875986    1.567    0.362
        66  -8.5617    116.8387    109.0086   1.0232078966e+02   3.8046861596e+01    0.3092254    0.2170145  35.46 0.0006444805    1.488    0.328
        67  -8.1779    135.0408    106.0079   9.6600277342e+01   3.4789230183e+01    0.2491644    0.1948612 -84.91 0.0008341819    1.670    0.401
        68  -9.2295    196.6586    107.1876   8.3050401931e+01   2.0103221474e+01    0.2945959     0.256041  61.14 0.0005857457    1.162    0.139
        69  -8.4658     49.9556    165.6272   1.3257011491e+02   3.5282215728e+01    0.1630298    0.1446504  54.55  0.000171221    1.209    0.173
        70  -7.2370    223.7175     96.3483   7.5779505706e+01   1.5919924110e+01    0.1511552    0.1028842 -68.12 0.0005275604    1.647    0.393
        71  -8.7082    110.3471    157.5149   1.1546523532e+02   2.7937109785e+01    0.2490216    0.2374684  68.12 0.0004180164    1.038    0.037
        72  -8.7784    156.0092     77.9798   8.3777889322e+01   3.5337324209e+01    0.2243036    0.2136677  62.76 0.0003195235    1.011    0.011
        73  -8.3094    146.0120     76.5272   8.5638024734e+01   3.7987792542e+01     0.383185    0.2086667 -17.16  0.001272382    3.532    0.717
        74  -8.9072    233.2023     76.6797   6.9981518723e+01   1.7186452876e+01    0.2447915    0.2122713  83.99 0.0003123847    1.130    0.115
        75  -7.9188     95.1804     77.1970   9.9621933999e+01   4.8811237819e+01    0.1893429    0.1727325  74.06  0.001058638    1.361    0.265
        76  -8.0334     81.6597     76.9846   1.0385216576e+02   5.1243516182e+01    0.2012208    0.1682545 -36.01 0.0009891443    1.160    0.138
        77  -8.3013    126.5587     66.9705   8.7576875914e+01   4.4129567432e+01    0.2389091    0.1800982  47.93 0.0005244809    1.252    0.202
        78  -8.8808    163.5274     64.4806   7.8448400202e+01   3.5770036840e+01    0.1471724    0.1366819  69.03 6.492632e-05    1.008    0.008
        79 -11.0155    160.9953     52.6220   7.5655137747e+01   3.8193311401e+01    0.4470901    0.4171838  29.60  0.001357246    1.194    0.163
        80  -7.8232    149.5033     50.0032   7.7192796208e+01   4.1362330814e+01     0.189924    0.1255687   5.77 0.0008096708    2.466    0.594
        81 -11.5260    173.5145     46.9349   7.1844239788e+01   3.5923600208e+01    0.7726239    0.5978776  43.19  0.003171409    1.404    0.288
        82 -11.4267    174.8109     38.0073   6.9275665838e+01   3.6795561855e+01    0.9777731    0.5573999  62.71  0.004740107    1.547    0.353
        83  -9.6094     19.3657    215.0235   1.4448353070e+02   2.7330942914e+01    0.1138322   0.07082259  39.72 0.0006780126    1.726    0.421
        84 -11.0335      8.9292    210.4304   1.4613463655e+02   2.9374640974e+01     0.274788    0.1568866  53.49  0.001708541    1.585    0.369
