#   1 NUMBER                 Running object number                                     
#   2 MAG_AUTO               Kron-like elliptical aperture magnitude                    [mag]
#   3 X_IMAGE                Object position along x                                    [pixel]
#   4 Y_IMAGE                Object position along y                                    [pixel]
#   5 X_WORLD                Barycenter position along world x axis                     [deg]
#   6 Y_WORLD                Barycenter position along world y axis                     [deg]
#   7 A_WORLD                Profile RMS along major axis (world units)                 [deg]
#   8 B_WORLD                Profile RMS along minor axis (world units)                 [deg]
#   9 THETA_WORLD            Position angle (CCW/world-x)                               [deg]
#  10 FWHM_WORLD             FWHM assuming a gaussian core                              [deg]
#  11 ELONGATION             A_IMAGE/B_IMAGE                                           
#  12 ELLIPTICITY            1 - B_IMAGE/A_IMAGE                                       
         1 -13.7195     68.2768    144.1826   1.0319047494e+02   3.7514133499e+01     2.930526     1.357772  82.50  0.002726194    5.375    0.814
         2 -13.6726    215.6326     32.1342   4.1984445678e+01   2.6849050659e+01     1.091798     0.800409 -43.28  0.004223041    1.190    0.160
         3 -13.2883    222.0406     26.1393   3.9882901929e+01   2.6091134744e+01    0.7206227    0.5595223  36.88  0.001476289    1.650    0.394
         4 -13.6038    238.6484     10.3566   3.4869612713e+01   2.4166718590e+01    0.7635248    0.5750641 -48.30  0.002582763    1.076    0.071
         5 -10.5234      2.1585      4.1248   9.8851047256e+01   7.7758931909e+01    0.2993552   0.08565205 -62.78  0.001119512    3.818    0.738
         6 -11.9308     34.0833    237.7894   1.1932597352e+02   2.2381329532e+01    0.4519377    0.1770552  76.75  0.002040817    3.011    0.668
         7 -14.9616     90.0607    246.1103   1.0891773377e+02   1.4604672729e+01     5.315864     2.210205  28.44   0.02720591    2.291    0.563
         8 -10.9009     37.3166    223.6098   1.1800089286e+02   2.4526205169e+01    0.2606623    0.1190829  56.60  0.001252024    1.791    0.442
         9 -12.2217     45.5382    217.5133   1.1594224728e+02   2.4749453539e+01     0.523655    0.2861755  43.94  0.002363011    1.382    0.276
        10 -11.7752     40.6787    235.0336   1.1790396345e+02   2.2159733723e+01    0.2653627    0.1786938  66.58 0.0005741331    1.305    0.234
        11 -10.6668     61.8049    235.2265   1.1370769374e+02   1.9766762742e+01    0.2609685    0.1579821  73.83  0.001185114    1.774    0.436
        12 -11.4739     37.8691    230.8220   1.1825323530e+02   2.3186445339e+01    0.2244528     0.216176  16.09 0.0003918874    1.466    0.318
        13 -10.5262    192.8277    193.2515   8.2128255872e+01   7.8715355296e+00    0.4263223     0.303699 -50.30    0.0025385    1.995    0.499
        14 -11.7720     55.1211    181.4641   1.1104796392e+02   3.0813810114e+01    0.3622339    0.2746743 -28.05  0.001395252    1.971    0.493
        15 -11.7051     61.3152    175.3671   1.0890786786e+02   3.1354261167e+01    0.2880617    0.2536122 -17.17 0.0008691272    1.530    0.346
        16 -12.7951     79.6561    158.6405   1.0209567529e+02   3.2537900634e+01     1.166301    0.6307651  58.60  0.001125891    2.069    0.517
        17 -15.7069      4.5806    176.2355   1.2307469187e+02   3.7031066507e+01     6.867902      1.51883 -80.59   0.02634164    4.056    0.753
        18  -8.7943    157.3968    160.2250   8.3319884348e+01   1.9004051137e+01    0.1778008    0.1316384 -56.74  0.000544753    1.668    0.400
        19 -12.1451     32.7709    155.9857   1.1460389418e+02   3.9025620621e+01    0.4620325    0.2552334  78.67  0.002336983    1.815    0.449
        20 -10.9977     28.0270    156.5117   1.1594456821e+02   3.9376187023e+01    0.1952845    0.1714202 -69.77  0.000656037    1.266    0.210
        21  -9.2742    124.9479    153.9191   8.9622377762e+01   2.6086098698e+01    0.2108549    0.1644585  73.54   0.00044597    1.583    0.368
        22  -9.7938    134.0000    146.8843   8.6074295956e+01   2.5853587430e+01    0.3847385   0.08266202 -48.49  0.001055135    4.969    0.799
        23 -10.5263     94.9911    144.1579   9.5646585178e+01   3.3404111580e+01    0.3092668    0.2777866  56.25 0.0009894724    1.037    0.035
        24  -9.4875     98.3693    140.8463   9.4124133523e+01   3.3583289096e+01    0.2933505    0.2022932 -22.61 0.0005366947    2.216    0.549
        25 -11.8991     82.8525    142.6786   9.8783809666e+01   3.5702621619e+01    0.2917205    0.2596232 -54.64 0.0003459352    1.217    0.178
        26 -14.5971      6.7747    238.9010   1.2456442248e+02   2.4817928025e+01     1.975532     1.279599 -86.48   0.01505499    1.644    0.392
        27  -9.9250     77.8463    138.1449   9.9472651550e+01   3.7538761415e+01    0.2183944    0.1771361  68.26 0.0004247876    1.224    0.183
        28 -12.9951     25.3822    209.5932   1.1981189242e+02   2.8361109301e+01    0.3839015    0.3571671 -50.66 0.0008359604    1.516    0.341
        29  -9.1433    159.1938    135.2464   7.7812983173e+01   2.3235173539e+01    0.1904218    0.1720561 -87.23 0.0006933998    1.352    0.261
        30 -10.6015    106.7780    131.6333   9.0017981709e+01   3.4172632652e+01    0.3613123    0.3434319  67.41  0.001279205    1.027    0.026
        31 -10.0326    159.8807    129.0914   7.6285611394e+01   2.4245549911e+01    0.3021317    0.2061543 -21.75  0.001403667    1.763    0.433
        32 -10.5030     94.3927    128.5283   9.2891492739e+01   3.7094040729e+01    0.2798656    0.2465909  -6.07 0.0007998063    1.385    0.278
        33 -11.7260     66.9093    127.4430   1.0097262904e+02   4.1735552466e+01    0.5142781     0.297258 -78.37  0.002269474    1.977    0.494
        34 -11.1613     72.0639    165.3293   1.0499461112e+02   3.2129624678e+01    0.2447845    0.2342524  60.12 0.0004239712    1.131    0.116
        35  -9.6840    114.9662    125.0811   8.6380125635e+01   3.4091663321e+01    0.2383214    0.1876357  -5.27  0.001131611    1.716    0.417
        36  -9.4948    105.1446    120.2149   8.8033499623e+01   3.7057636272e+01    0.2060269    0.1966891  14.91 0.0003524623    1.134    0.118
        37  -9.4002    168.0768    113.0660   7.0734500246e+01   2.5485453986e+01    0.2336165    0.1827768 -75.68  0.001127775    1.740    0.425
        38  -9.7900    205.3088    110.3054   6.3159426493e+01   1.8193722984e+01    0.2855176     0.184874  43.16  0.001045049    1.623    0.384
        39 -10.1170     55.0559     95.4627   9.8903740304e+01   5.1338393111e+01    0.2155797    0.1417951  31.33 0.0005720707    1.609    0.378
        40 -13.3541     58.5647    161.7461   1.0815683794e+02   3.4733199436e+01    0.4852504    0.3145655 -43.31  0.001579811    2.015    0.504
        41  -8.6478     83.7318     89.0039   8.7003728929e+01   4.8313161450e+01    0.1822843    0.1294187 -53.68 0.0003026948    1.389    0.280
        42  -8.9726     24.8499     82.8000   1.0839647842e+02   5.7899061110e+01    0.1769172    0.1434738  69.23 0.0002791175    1.277    0.217
        43  -9.4411    161.6579     81.6935   6.3718803378e+01   3.2559474066e+01    0.1553327    0.1177114  18.25 0.0003479052    1.687    0.407
        44 -15.2388     35.8077    198.8676   1.1693655417e+02   2.9400270395e+01     2.673608     1.417237  57.14   0.01091523    1.576    0.365
        45 -10.1721     13.3947     60.0574   1.0940269107e+02   6.4438566802e+01    0.2089105    0.1874574  40.49 0.0004162521    1.255    0.203
        46 -12.8094     15.4753    214.7810   1.2211546575e+02   2.8325378187e+01    0.5052025    0.3378128  65.92  0.003535751    1.194    0.163
        47 -12.3978    199.2322     46.4479   4.7585165348e+01   2.8890406619e+01     1.197701    0.8290119  57.13  0.006238068    1.534    0.348
        48 -13.0883    208.5067     36.5065   4.3837097686e+01   2.7965489732e+01    0.6365312    0.5619004   8.53   0.00274147    1.363    0.266
        49 -12.9785     30.2251    247.6863   1.2047160999e+02   2.1130997972e+01    0.9903628    0.3784844  35.60  0.005826551    1.887    0.470
        50  -9.9925     95.0347     42.0174   6.6956599555e+01   5.5721396937e+01    0.3634916    0.2056518 -44.22  0.001317483    1.835    0.455
        51 -13.7965     10.1646    206.9681   1.2294595122e+02   3.0294084681e+01    0.8838417    0.5966063  13.93  0.003958955    1.983    0.496
        52  -9.4543    131.0035     38.4829   5.6096963457e+01   4.7328640860e+01    0.2267527    0.1461434  64.41 0.0004655166    1.537    0.349
        53  -9.1117    131.4678     30.8799   5.3154529382e+01   4.8266451897e+01    0.2082938    0.1459201 -31.49 0.0004079122    1.462    0.316
        54 -12.1500     54.0799    240.2677   1.1554802081e+02   1.9810528118e+01    0.4250789    0.3232243  -4.29  0.001679922    2.173    0.540
        55  -9.8134    189.4989     15.4746   3.9851049320e+01   3.4926044188e+01    0.1368102    0.1227831 -65.92 0.0001569574    1.009    0.009
