#   1 NUMBER                 Running object number                                     
#   2 MAG_AUTO               Kron-like elliptical aperture magnitude                    [mag]
#   3 X_IMAGE                Object position along x                                    [pixel]
#   4 Y_IMAGE                Object position along y                                    [pixel]
#   5 X_WORLD                Barycenter position along world x axis                     [deg]
#   6 Y_WORLD                Barycenter position along world y axis                     [deg]
#   7 A_WORLD                Profile RMS along major axis (world units)                 [deg]
#   8 B_WORLD                Profile RMS along minor axis (world units)                 [deg]
#   9 THETA_WORLD            Position angle (CCW/world-x)                               [deg]
#  10 FWHM_WORLD             FWHM assuming a gaussian core                              [deg]
#  11 ELONGATION             A_IMAGE/B_IMAGE                                           
#  12 ELLIPTICITY            1 - B_IMAGE/A_IMAGE                                       
         1 -13.0618    136.6222    122.8958   3.1718884070e+01   3.0078398327e+01     5.666622     1.951739 -57.68    0.0124388    7.075    0.859
         2 -14.5811    207.5759    174.8505   2.7954649391e+01   8.1018021307e+00     4.471014     2.913917 -59.41   0.02241997    2.805    0.643
         3 -14.4331    175.2428    162.1429   3.1573402619e+01   1.5110906738e+01     4.010918     2.258045 -54.89   0.01805151    2.349    0.574
         4 -14.0690    250.1091    113.1453   9.8934361682e+00   1.1135877672e+01      6.29745    0.5981764 -34.64   0.01222447   13.072    0.924
         5 -13.1694    213.1213     81.8945   7.6199844871e+00   2.1913378682e+01     6.013432      2.66178 -17.08    0.0101114   18.610    0.946
         6 -13.2898    223.4826     70.0737   3.7319305366e+00   2.1668201606e+01     5.816617     2.660937 -14.85  0.003183851   15.209    0.934
         7 -14.6382    210.8539    115.9781   1.5602642843e+01   1.7000341608e+01     3.692348     2.192672  48.62   0.01955616    1.960    0.490
         8 -15.4168    242.3544    131.4910   1.4435244656e+01   9.6650404801e+00     3.122011     2.332022  17.10    0.0206799    1.609    0.378
         9 -14.6573    244.1892     73.3682   2.4015636895e+00   1.7535672961e+01     6.974211     2.107667 -54.19   0.02118636    6.238    0.840
        10 -10.0946    213.1197     16.6848   3.5221311509e+02   3.0469662220e+01    0.3126053    0.2139751  48.90  0.001266987    2.032    0.508
        11 -11.5927    221.2154     14.3775   3.5119994570e+02   2.9062472776e+01    0.5874789    0.3151096  66.12  0.003171696    2.111    0.526
        12 -10.9677    221.2713      9.9870   3.5020139427e+02   2.9513464436e+01    0.4394884    0.2907366  63.36  0.001981615    1.834    0.455
        13 -11.6957    232.6528      3.5059   3.4824521703e+02   2.7937439617e+01    0.7814907    0.3995928  60.36  0.004474518    2.526    0.604
        14 -10.3409    235.6572      6.7303   3.4880520203e+02   2.7041681242e+01    0.2362827    0.2035774  13.31 0.0006562549    1.816    0.449
        15 -11.9370    241.6467      4.1252   3.4801231601e+02   2.6186564722e+01    0.6051528     0.291294  67.95  0.001406803    2.438    0.590
        16 -10.2223    207.5367     10.1485   3.5099464069e+02   3.2338599856e+01    0.2251034    0.2078356 -51.37 0.0005686231    1.259    0.206
        17  -9.3487    120.2873      9.2149   3.5882271370e+02   5.3627312196e+01    0.2838677    0.2649083 -14.37  0.001002409    1.262    0.207
        18  -8.5450    100.0265     10.2842   2.7533924849e+00   5.8832457761e+01    0.1956756    0.1636772  75.88 0.0003467786    1.077    0.072
        19  -9.3801    171.5195      2.9758   3.5144426411e+02   4.1218053395e+01    0.2623536    0.1506417 -73.76  0.001369972    1.581    0.367
        20 -13.3689    192.8423    192.6416   3.3732033914e+01   7.3634723693e+00     3.189014     2.146098  70.73   0.01097506    7.061    0.858
        21 -10.0205    249.6387    249.5927   3.3071405477e+01  -6.0361263924e+00    0.3400932    0.1968049   2.59  0.002609546    1.321    0.243
        22 -11.1336    245.0416    245.3338   3.3163985956e+01  -5.1939997453e+00    0.4453712    0.2416901  17.80  0.002538892    1.555    0.357
        23 -10.6245    218.0021    247.5220   3.7719441594e+01  -2.9180288296e+00      0.32602    0.1630977   7.93  0.001091321    1.935    0.483
        24  -8.8497    227.3172    247.6779   3.6231406115e+01  -3.8297029020e+00   0.08625909   0.07463876  12.44 0.0005092715    1.665    0.399
        25  -8.0972    190.3646    244.1965   4.2032770304e+01   3.4100213179e-01    0.1261811   0.09844519 -33.54 0.0002979197    1.560    0.359
        26 -10.3067    245.5048    232.9618   3.1328931494e+01  -3.8954227936e+00    0.2756471    0.1529628 -22.15  0.001966724    1.435    0.303
        27  -9.0664    240.6066    184.3743   2.4375624533e+01   2.5387108296e+00     0.237857     0.202747 -59.02 0.0009554325    2.093    0.522
        28 -10.4364    238.2680    228.5156   3.1772264211e+01  -2.7052046243e+00    0.3662395    0.2263167  39.19  0.001720287    2.449    0.592
        29  -8.8498    243.3695    228.7048   3.1024270247e+01  -3.2173380544e+00    0.1682294     0.142224  26.34  0.001002727    1.840    0.456
        30 -10.6054    230.9187    184.4126   2.5845072545e+01   3.6803592958e+00    0.3706501    0.2346191 -22.54  0.001005827    1.308    0.235
        31 -10.0666    236.7338    185.2234   2.5097611191e+01   2.8772518246e+00    0.3987429    0.2537001 -54.20   0.00217484    2.977    0.664
        32  -8.8576     90.7386    184.5554   5.5720007748e+01   2.4042914895e+01    0.2911407    0.2186492 -16.13  0.001216018    1.719    0.418
        33  -9.3440     14.4666    199.9492   7.7537465506e+01   2.9421755051e+01    0.2104101    0.1680284  25.81     0.001322    1.300    0.231
        34 -11.9485    198.9992    178.5415   3.0132351222e+01   8.7254062298e+00    0.4736605    0.3864397 -52.77  0.001718715    1.645    0.392
        35  -8.0610     29.3260    178.3045   7.2286619123e+01   3.3174064206e+01    0.1306204    0.1015655 -35.29 0.0004665337    1.645    0.392
        36 -12.3804    189.5747    169.7453   3.0243485189e+01   1.1534221038e+01     1.009716      0.67991  -4.99   0.00295187    1.703    0.413
        37 -10.1908    148.1207    166.0981   3.8182841553e+01   1.8865783889e+01    0.3119403    0.2600517 -19.54 0.0009389592    1.217    0.179
        38  -9.6770    204.5118    160.2044   2.5738055410e+01   1.0851904502e+01    0.2292384    0.1934919 -35.44 0.0004565344    1.212    0.175
        39  -9.4228     69.6215    226.1172   6.5586698587e+01   1.7988395128e+01    0.2048645      0.17165  21.22 0.0004170327    1.199    0.166
        40  -9.3763    114.4643    155.9747   4.4654018433e+01   2.6822649998e+01     0.277132    0.2313425  83.40 0.0008127643    1.447    0.309
        41 -10.5505    133.0000    140.9994   3.6757302641e+01   2.6833883212e+01    0.6947652    0.2199713 -53.02    0.0020845    3.701    0.730
        42 -11.3896    135.6378    153.3369   3.8666354375e+01   2.3672193066e+01    0.5073056    0.4092755  52.77  0.001914171    1.352    0.260
        43 -11.4810    133.9945    147.5004   3.7883046269e+01   2.5229117863e+01    0.7614621    0.3985425 -54.79 0.0009416998    2.119    0.528
        44  -9.7273    203.8488    152.6435   2.4375078340e+01   1.2178408788e+01     0.324342    0.2475845 -10.52  0.001112507    1.291    0.225
        45  -8.2159     14.3140    152.6779   7.5037926495e+01   4.1059857579e+01    0.1522188   0.08481614  57.26 0.0002497013    1.658    0.397
        46  -9.8310    227.2140    191.8686   2.7698561874e+01   3.1039358635e+00    0.2177464    0.1837642 -12.89 0.0005745354    1.209    0.173
        47 -10.3943     67.9902    144.1398   5.6410617304e+01   3.7305569847e+01    0.7757156    0.3924974  56.76  0.002889188    2.411    0.585
        48 -10.9048    152.4448    140.2935   3.1940202796e+01   2.3317169099e+01    0.5227444     0.291337 -26.05  0.001323107    2.491    0.599
        49 -10.4199      3.9804    137.6072   7.7508060442e+01   4.5786051916e+01    0.2417783    0.2339706 -72.12 0.0003712951    1.160    0.138
        50  -7.7270     14.3809    143.2443   7.4352755369e+01   4.3555092711e+01    0.1355578    0.1004346 -33.97 0.0006939221    1.642    0.391
        51  -8.2046    108.0562    129.6890   4.1049180411e+01   3.4182107003e+01    0.2082136    0.1932799  34.84  0.000430746    1.078    0.072
        52  -7.9120    207.2646    226.6706   3.6557354014e+01   7.4603125065e-01   0.09169623   0.08567205  -0.07 0.0001665966    1.573    0.364
        53  -8.3343    113.2133    125.8178   3.8673245569e+01   3.4109962038e+01    0.2737799    0.1839141 -54.69  0.001205101    1.525    0.344
        54 -13.0422    174.7543    114.3523   2.1313504702e+01   2.4040126228e+01     1.629894    0.9622657  44.63  0.005058564    1.834    0.455
        55 -11.8295    158.7160    113.5891   2.4350948095e+01   2.7447686037e+01    0.8922964     0.649681  -0.15  0.004051926    2.005    0.501
        56 -10.7768    157.7649    108.1747   2.3203367472e+01   2.8708478800e+01    0.4136522    0.2670249 -46.36 0.0005373799    1.488    0.328
        57 -11.4579    174.4735    106.2821   1.9416560602e+01   2.5579829372e+01    0.4113131    0.3916912 -85.54 0.0007229142    1.128    0.114
        58 -10.9757    169.7911    106.2202   2.0287467330e+01   2.6557886409e+01    0.6189547    0.2459563 -36.32  0.001655818    2.536    0.606
        59  -8.2517     81.9283    121.2980   4.7406994252e+01   4.1057896172e+01       0.2084    0.1975565  41.70 0.0003442896    1.059    0.056
        60  -8.9389    122.0771    119.5970   3.4708794176e+01   3.3780892836e+01    0.2851394    0.2187257 -40.77 0.0004033221    1.335    0.251
        61 -11.5103     65.6832    108.1634   5.0286549916e+01   4.7211068062e+01     1.125489    0.8556341 -54.59  0.005370815    1.302    0.232
        62 -12.0205     52.6007    112.4426   5.6241397301e+01   4.7997750606e+01    0.9185388    0.7202874 -39.79  0.001866416    1.390    0.281
        63 -12.6013     44.1333    109.0378   5.8960897699e+01   5.0025840725e+01     1.146006    0.9460279 -17.80   0.00433795    1.417    0.295
        64 -11.7257     35.8905    108.9899   6.2324070019e+01   5.0991857618e+01    0.6277837      0.45586   3.75  0.001198719    1.641    0.391
        65 -12.5031      5.5017    108.3904   7.4855918943e+01   5.3621716052e+01     1.033938    0.6978558 -81.85  0.004103627    1.331    0.249
        66  -9.3748    148.8413    113.0894   2.6396749500e+01   2.9609980160e+01    0.2529767    0.2153158  44.18 0.0005401701    1.217    0.179
        67 -12.5732    230.2240     71.9360   3.4498183472e+00   2.0167766353e+01     1.240331    0.4552273 -29.28  0.002925328    2.826    0.646
        68 -11.4498    210.3833    102.0577   1.2587491623e+01   1.9308884787e+01    0.5753334    0.2804874 -28.58  0.001270302    2.150    0.535
        69 -10.1581     57.8787    101.3006   5.1763184893e+01   5.0242093119e+01    0.6212071    0.4873852 -56.15 0.0002786129    1.247    0.198
        70 -10.0973    142.1853    105.5179   2.5997923820e+01   3.2588700183e+01    0.4427021    0.3171202  67.79  0.001710163    1.691    0.409
        71  -8.5099    240.1474    221.7432   3.0469698811e+01  -2.0991050397e+00    0.1486911    0.1183687  17.21  0.001180733    1.469    0.319
        72 -12.9975    244.8436    179.2948   2.2887603991e+01   2.7194015607e+00     1.529367     1.214888 -49.11  0.002690469    1.859    0.462
        73  -9.0583    182.1471    101.2884   1.6818108807e+01   2.4904386566e+01    0.2437387    0.1755938 -29.98 0.0006941951    1.382    0.277
        74  -8.8888    201.3009     98.9210   1.3183740663e+01   2.1513296861e+01    0.2188485    0.1922813  41.36 0.0005724334    1.318    0.241
        75  -9.6884    196.6431     97.8117   1.3625029486e+01   2.2597687848e+01    0.2495093    0.1528097 -45.05  0.001022659    1.462    0.316
        76  -9.5267    120.9794     95.4722   2.8632203337e+01   3.9403784499e+01    0.2472028    0.2080613 -48.55 0.0005022601    1.178    0.151
        77  -9.4036    155.7253     93.3702   1.9772243983e+01   3.2006393533e+01    0.5571744    0.3254331 -28.23  0.002304746    2.056    0.514
        78  -8.9974    218.2025     93.3037   9.5736128819e+00   1.9243252918e+01     0.292219    0.1455835 -37.26  0.001196673    1.663    0.399
        79  -9.5626    134.7811     91.2989   2.3884963438e+01   3.7156840269e+01    0.2594611    0.2456858 -27.53 0.0003080893    1.125    0.111
        80  -8.3752    110.2504     92.0090   3.0682232113e+01   4.2549310691e+01    0.2138508    0.2002598 -54.02 0.0002294701    1.067    0.062
        81  -8.5705    201.1692     90.3704   1.1194451840e+01   2.2918784736e+01    0.2197339    0.1553411 -33.86 0.0002684999    1.289    0.224
        82  -7.6300    165.2669     93.3118   1.7864472771e+01   2.9907245030e+01     0.139562    0.1149768  -2.31 0.0001894353    1.543    0.352
        83 -11.2227    183.6400     78.7168   1.0906200022e+01   2.8422801079e+01    0.8291152    0.3850085 -43.50  0.003489061    1.916    0.478
        84 -10.7197    179.3797     68.2033   8.7944321682e+00   3.1048436885e+01    0.8386359    0.3969397 -22.43  0.002055713    3.258    0.693
        85  -8.4862    151.0388     80.5212   1.7173185841e+01   3.5472504743e+01    0.2196376    0.1875734 -46.51  0.001148386    1.121    0.108
        86  -8.1518    139.9329     78.8029   1.9043238358e+01   3.8404687815e+01    0.2048618    0.1184089  53.79 0.0008174814    1.753    0.429
        87  -9.1953    133.8954     77.8502   2.0140095598e+01   4.0020041357e+01    0.2406781    0.2183317  14.31  0.001245003    1.311    0.237
        88  -9.5138    194.1238     75.8529   8.6544085771e+00   2.6646679217e+01    0.3264781    0.1951058  66.30  0.001614442    1.909    0.476
        89  -7.8395    209.7166     73.3477   6.0369618985e+00   2.3848577142e+01    0.1387742   0.08479258 -57.38 0.0007016902    1.648    0.393
        90  -8.9514     88.6586     72.4050   3.1438852317e+01   5.1631019043e+01    0.2495966    0.2423092 -59.78 0.0004358941    1.040    0.039
        91  -9.5031    200.8700     69.1669   6.1125484436e+00   2.6260077639e+01    0.3978024    0.2549854 -41.06 0.0007978044    1.335    0.251
        92  -8.8608    133.5470     71.9670   1.8411388869e+01   4.1212077794e+01    0.2302693    0.1488024 -38.01 0.0009619473    1.565    0.361
        93  -9.8545    204.5086     67.9280   5.3643152474e+00   2.5694339053e+01    0.4928245    0.3180881 -10.66  0.002162914    2.391    0.582
        94  -8.9543    185.0952     67.3751   7.7494637917e+00   2.9906160076e+01    0.3039773    0.1914478 -20.26 0.0008582353    2.021    0.505
        95  -8.5303    173.1913     64.8071   8.8082921753e+00   3.2990079891e+01    0.1814828    0.1698066  10.04 0.0004246453    1.310    0.237
        96  -7.9881    125.0234     60.9418   1.6840514034e+01   4.5297889720e+01    0.1837462     0.167003 -53.55 0.0004464813    1.093    0.085
        97  -9.3918    163.7990     59.3004   8.7293957364e+00   3.6055137904e+01    0.2606946    0.1931499   0.98 0.0009316768    2.055    0.513
        98  -9.3809    144.5578     58.6248   1.1906876902e+01   4.0842438020e+01    0.5081887    0.2650562 -29.06   0.00182213    2.199    0.545
        99  -9.1154    179.9355     58.8018   6.1895512609e+00   3.2367145529e+01    0.1892133    0.1807422 -35.00 0.0004321484    1.182    0.154
       100 -10.3762    156.6460     57.4674   9.3704206621e+00   3.8063783950e+01     0.408251    0.2805335 -17.53  0.001442393    1.904    0.475
       101  -8.9422    173.2660     83.8152   1.3917528952e+01   2.9834677743e+01    0.4315193    0.1820866 -29.31  0.001458121    2.968    0.663
       102  -8.8225    208.9943     55.3404   1.8153129455e+00   2.6562574393e+01    0.3185632    0.2038386  -9.45  0.001412897    2.491    0.599
       103  -9.9707    196.0353     55.3792   3.2523145744e+00   2.9287938721e+01    0.4081696    0.3113513  26.06  0.001402198    1.936    0.483
       104 -10.2142    200.2704     48.8600   1.1378958712e+00   2.9276791422e+01    0.4159669    0.2696751  38.97   0.00169589    2.276    0.561
       105 -10.3309    184.8937     52.3156   3.7968778544e+00   3.2187863373e+01    0.4459192    0.2931719 -48.47   0.00149462    1.339    0.253
       106  -9.8039    179.0525     52.8468   4.6902219082e+00   3.3445598437e+01    0.2653891    0.2391787 -85.60  0.001594201    1.104    0.094
       107  -8.8187    192.3853     51.1511   2.5917343035e+00   3.0678114648e+01    0.1983694    0.1772826  65.99 0.0004128664    1.275    0.215
       108  -9.2011    159.8817     50.2364   6.6868106414e+00   3.8379639673e+01    0.2313614    0.2124925 -24.50 0.0006066062    1.248    0.198
       109  -9.8240    148.3006     49.4927   8.3538044321e+00   4.1349293255e+01    0.3625385    0.2554992  -9.90  0.000837052    2.019    0.505
       110 -11.2474    247.8972     44.0206   3.5596712714e+02   2.0641911896e+01    0.6083366    0.4155453 -26.89  0.002921409    1.499    0.333
       111  -7.7850    117.9782     43.9622   1.2519207082e+01   4.9889259165e+01    0.1733477    0.1638682 -83.50            0    1.028    0.027
       112  -8.4996    192.9567     39.7238   3.5956717229e+02   3.2086523456e+01    0.1844293    0.1529587 -76.77 0.0004240686    1.124    0.110
       113  -8.9161    166.4162     38.3312   2.2315944479e+00   3.8459984045e+01    0.2644713    0.2085249  28.67 0.0007581181    1.744    0.427
       114  -9.1520    189.9963     36.1621   3.5893628709e+02   3.3207050522e+01    0.2264809    0.1689926 -43.90 0.0003890018    1.192    0.161
       115  -8.9174    197.3820     35.9341   3.5815907667e+02   3.1590324369e+01    0.2086693     0.176541  81.89 0.0004433983    1.244    0.196
       116  -7.6460    177.4310     35.5145   9.7110773817e-02   3.6190456541e+01    0.1338968    0.1195955 -64.64 0.0002983095    1.064    0.060
       117  -9.9901    172.8874     27.6403   3.5837042809e+02   3.8250386972e+01    0.4242887    0.2796093  13.83  0.001939086    2.729    0.634
       118  -9.7831    178.9228     23.6338   3.5663504284e+02   3.7287902147e+01    0.3612764     0.245704 -47.85  0.001647155    1.285    0.222
       119  -8.0498    101.4682     26.5882   9.5531734191e+00   5.6601542239e+01    0.1448463    0.1314469  75.96 0.0001073133    1.026    0.025
       120  -8.1301     85.2994     25.9278   1.3655192567e+01   6.0769534832e+01    0.1833676    0.1813064 -63.68 0.0003939475    1.083    0.076
       121  -8.1450    186.3078     25.3055   3.5640603457e+02   3.5373283229e+01    0.1196833    0.1003705  37.16 0.0007017434    1.608    0.378
       122 -10.1328    199.8684    219.9152   3.6842382638e+01   2.4895892389e+00    0.2323028    0.1754278   8.76 0.0005159865    1.088    0.081
       123  -9.3747    220.7825    215.9590   3.2647232258e+01   6.3960478357e-01    0.2255356    0.2174411  63.95    0.0011147    2.025    0.506
       124  -9.7680    215.6490    212.4637   3.2954236781e+01   1.6729064493e+00    0.2297824    0.2001342  43.78 0.0008305808    1.880    0.468
       125  -8.2296    236.9945    218.4959   3.0457292597e+01  -1.3951253234e+00    0.1463276   0.09004654  23.64    0.0010178    1.565    0.361
       126  -8.8466    225.3879    219.0515   3.2373907442e+01  -2.5288298307e-01     0.175509    0.1361946  26.81 0.0007606292    1.549    0.355
       127  -8.2445    162.1573    218.1088   4.3780539558e+01   7.4359177974e+00    0.1535336    0.1368514  29.87 0.0004430777    1.301    0.231
       128  -8.5355    142.6380    214.3651   4.7355630884e+01   1.0659805518e+01    0.1881136    0.1545787 -64.30 0.0007182632    1.660    0.398
       129 -14.1336    242.3767     93.6375   6.8083112383e+00   1.5053993864e+01     1.522858     1.002293 -47.66  0.006550208    1.326    0.246
       130  -9.1729    243.0264    206.8072   2.7715517006e+01  -5.9338910405e-01    0.3155372    0.2582613  62.23  0.002033896    3.204    0.688
       131  -9.1024    214.0910    206.0384   3.2192695532e+01   2.7212827491e+00    0.2197053    0.1821134  34.09  0.001097196    1.606    0.378
