#   1 NUMBER                 Running object number                                     
#   2 MAG_AUTO               Kron-like elliptical aperture magnitude                    [mag]
#   3 X_IMAGE                Object position along x                                    [pixel]
#   4 Y_IMAGE                Object position along y                                    [pixel]
#   5 X_WORLD                Barycenter position along world x axis                     [deg]
#   6 Y_WORLD                Barycenter position along world y axis                     [deg]
#   7 A_WORLD                Profile RMS along major axis (world units)                 [deg]
#   8 B_WORLD                Profile RMS along minor axis (world units)                 [deg]
#   9 THETA_WORLD            Position angle (CCW/world-x)                               [deg]
#  10 FWHM_WORLD             FWHM assuming a gaussian core                              [deg]
#  11 ELONGATION             A_IMAGE/B_IMAGE                                           
#  12 ELLIPTICITY            1 - B_IMAGE/A_IMAGE                                       
         1 -13.3885    246.3162     24.2090   3.8282263028e+00   2.2768198214e+01    0.7293209    0.4245118 -64.76  0.004424815    1.469    0.319
         2 -12.4962    247.8060     17.9761   2.5378630897e+00   2.3220781657e+01    0.4541847    0.2697145 -79.90  0.002820953    1.504    0.335
         3 -11.7615      2.8900     10.2217   5.8159528145e+01   7.2488396460e+01    0.2114891    0.1274974 -24.91  0.001393135    1.318    0.241
         4 -12.4688    147.9600    228.3296   6.3344203864e+01   5.4029361987e+00    0.3806357    0.2384061 -53.69  0.001950206    1.835    0.455
         5 -10.5765    150.5147    249.9613   6.5941531509e+01   1.1373910512e+00    0.1682675    0.1271061 -46.06 0.0005354318    1.543    0.352
         6 -10.5677     80.8542    250.1142   8.0322515814e+01   1.1481276589e+01    0.1812253    0.1591731  57.51 0.0008163098    1.089    0.082
         7 -11.2706     74.5958    249.1982   8.1501028004e+01   1.2521346876e+01    0.2453806    0.2068942 -79.72   0.00109748    1.278    0.218
         8 -11.5638     76.1722    244.3581   8.0717994645e+01   1.3253921905e+01    0.3244967    0.1779843 -72.93  0.001673579    2.021    0.505
         9 -16.1957     56.8816    234.2515   8.3755109879e+01   1.7888747240e+01     4.590195     3.199442 -27.66    0.0223608    2.603    0.616
        10 -16.0411      4.1762    239.0468   9.4382941305e+01   2.2825929015e+01     1.137856     0.515573 -75.11  0.006584038    1.991    0.498
        11 -17.1345      6.6850    222.5398   9.3016775217e+01   2.5992993706e+01     2.049023      1.33617  74.08   0.01068796    1.229    0.186
        12 -12.6676     98.4488    226.7141   7.4002822908e+01   1.3610048838e+01    0.5423301    0.3136385  43.61  0.002742411    1.525    0.344
        13 -13.1900    109.0568    228.4319   7.1878758935e+01   1.1621341757e+01     0.726965    0.2700863  35.06  0.002883817    2.503    0.601
        14 -11.0196    167.5120    223.9985   5.8473167782e+01   3.0206067635e+00    0.1941708    0.1326965 -44.71 0.0005807701    1.591    0.372
        15 -14.0732     44.6227    174.9517   8.0373293333e+01   3.2999769553e+01     1.007948    0.8108742  50.04  0.005943312    1.252    0.201
        16 -11.2658    133.4073    191.6638   6.0626705112e+01   1.5404047839e+01    0.2776677    0.1450693 -58.54  0.001129742    2.173    0.540
        17 -10.6119     48.6577    188.1487   8.0929714802e+01   2.9314781379e+01    0.2095517    0.1626726  57.52 0.0003959902    1.221    0.181
        18 -16.6075      7.5789    142.1431   8.6395995509e+01   4.4542605109e+01     13.59666     3.379091 -81.19   0.03481804    6.890    0.855
        19 -10.8885    175.0322    182.2226   4.9302186140e+01   9.8086510658e+00    0.2336838     0.172405  69.07  0.001082825    1.971    0.493
        20 -11.3036     99.0424    180.9347   6.7253102334e+01   2.3820428435e+01    0.3103155    0.2792842  59.63 0.0006471751    1.074    0.069
        21 -15.7689      9.7882    206.6225   9.1395299332e+01   2.9161783923e+01     0.896667    0.6429012  22.62  0.005728371    1.810    0.448
        22 -15.6480     12.8987    243.8738   9.3044691612e+01   2.0995061873e+01     1.132183    0.4704623 -70.79  0.006089575    2.270    0.559
        23 -11.2867    180.8808    170.8624   4.5740172451e+01   1.1033020922e+01    0.2361871    0.1991784  -4.81  0.001241793    1.274    0.215
        24 -10.0250    198.0000    168.9900   4.1800181323e+01   8.2145516061e+00    0.2321251   0.07772013 -43.11 0.0004370234    2.851    0.649
        25 -11.6883     72.3758    166.9347   7.1952005058e+01   3.1383206447e+01    0.5352025    0.2706257 -78.89  0.001487006    2.663    0.625
        26 -13.7398     76.3774    153.1747   6.8526651210e+01   3.4235793023e+01    0.9311808     0.625776 -81.69 0.0009500289    1.731    0.422
        27 -12.3957     61.4680    163.3835   7.4347373288e+01   3.3778159374e+01    0.4187605    0.3243796 -13.32  0.001554496    1.771    0.435
        28 -12.4825     66.6244    158.9754   7.2241523366e+01   3.4183754417e+01     0.359445    0.3171999 -42.95  0.002023687    1.224    0.183
        29 -13.6698     63.2845    147.1833   7.1205480970e+01   3.7603647438e+01    0.5195904     0.471222 -44.70  0.001142039    1.149    0.130
        30 -10.8601     53.9536    160.4795   7.5961217778e+01   3.5471208662e+01    0.2512228    0.1778442 -86.80 0.0003479582    1.446    0.309
        31 -13.8779      5.4215    178.5515   9.0314149554e+01   3.5973536666e+01    0.6454304    0.3797928 -68.65 0.0009183912    1.465    0.317
        32 -11.4655    133.8260    145.8976   5.1384790096e+01   2.5807321250e+01    0.9715142    0.2388828 -54.17  0.002211033    5.831    0.829
        33 -12.8585     83.5554    146.4155   6.5223194542e+01   3.4821187677e+01    0.6911877    0.5286921 -14.43  0.001781609    1.737    0.424
        34 -11.4706     82.1869    140.4222   6.4430623911e+01   3.6529457724e+01    0.3139566    0.2299156  53.35 0.0008472453    1.483    0.326
        35 -11.5821     23.1510    147.2697   8.2678291345e+01   4.2049731220e+01    0.3279182    0.2234066  25.86   0.00125704    1.711    0.416
        36 -14.4020     69.7076    144.7034   6.8898641685e+01   3.7335235909e+01     2.050469     1.081525  79.36  0.003308745    4.747    0.789
        37 -10.8232     29.3091    142.6649   8.0332379109e+01   4.2628757225e+01    0.3201556    0.1856304  49.24   0.00109413    1.909    0.476
        38 -16.1883     32.3159    185.4403   8.4586139636e+01   3.1823780216e+01     5.236001     2.135821  82.43   0.01730704    4.053    0.753
        39 -11.6066     99.5160    134.2028   5.8075497236e+01   3.5141161104e+01    0.5569026    0.3509925  -5.56  0.001944571    3.240    0.691
        40 -11.0334    105.7453    130.3272   5.5409378483e+01   3.4938605177e+01    0.3867132    0.3284727  13.19  0.001276507    1.344    0.256
        41 -10.4725    109.4410    126.7215   5.3510432532e+01   3.5098119971e+01    0.2652371    0.2193228  23.84  0.000752277    1.324    0.245
        42 -10.7325     18.5320    134.2739   8.2328195376e+01   4.5641538325e+01    0.2387517    0.1136845 -74.20 0.0006361374    1.885    0.470
        43 -12.3491     86.1655    132.9748   6.1704482290e+01   3.7729920987e+01    0.2929842    0.2680857 -53.23 0.0004438816    1.049    0.047
        44 -11.2727     66.8918    124.8217   6.5838490436e+01   4.2683320447e+01    0.2855742    0.1898239 -51.16 0.0006708388    1.392    0.282
        45 -10.0666     47.8643    128.8381   7.2571737032e+01   4.4132296135e+01    0.1855165    0.1558431  79.81 0.0003458289    1.295    0.228
        46 -10.4563    115.8529    122.8491   5.0771428737e+01   3.4755904528e+01    0.4195477    0.1097392 -51.02  0.001124637    4.020    0.751
        47 -11.3478     96.1483    122.0713   5.6255813936e+01   3.8657527081e+01    0.3138355    0.2591321   3.30 0.0007583612    1.442    0.306
        48  -9.9998     60.5422    121.6975   6.7188227609e+01   4.4320634233e+01    0.1872445    0.1334323 -71.79 0.0009177825    1.479    0.324
        49 -12.1576     37.0928    161.4635   8.0660387408e+01   3.7170923899e+01    0.4870331    0.2500173  59.82  0.002151468    2.319    0.569
        50  -9.9299    106.3017    116.5491   5.1917093150e+01   3.8071979351e+01    0.1948958    0.1500407  26.34 0.0004183275    1.427    0.299
        51 -10.3061    205.3647    110.1979   2.7438587340e+01   1.8117226322e+01    0.2265369    0.1963913  43.53 0.0006694386    1.279    0.218
        52 -11.1439     52.8540    110.0882   6.7219364881e+01   4.8117959531e+01    0.2172184    0.1911322  89.39  0.001053721    1.283    0.221
        53 -11.6391     35.3898    106.1917   7.2323212438e+01   5.0982644335e+01    0.2690257    0.2032192 -63.68   0.00144814    1.216    0.177
        54 -11.2704     24.6473    104.7692   7.5734761761e+01   5.2294155975e+01    0.3503667    0.2026866 -48.64   0.00182824    1.488    0.328
        55 -10.9472    127.9877    102.9639   4.2321881391e+01   3.6654859795e+01    0.2421567    0.1917264 -86.57 0.0007565283    1.644    0.392
        56 -10.6991     54.6761     95.3114   6.3133591594e+01   5.1339619636e+01    0.1349583    0.1089295  74.18 0.0002577733    1.656    0.396
        57 -11.4129     46.7974     91.6361   6.5035347244e+01   5.3138592734e+01    0.2202417    0.1703026  35.75 0.0004899879    1.441    0.306
        58  -9.9856     82.3300     86.2709   5.1158780351e+01   4.9150281807e+01    0.2213734    0.1158709  49.36 0.0008909988    2.297    0.565
        59 -12.6276    196.8417     60.2045   1.6959252872e+01   2.8495152787e+01    0.4569468    0.3589844  54.35 0.0008565678    1.364    0.267
        60 -13.4700    208.2092     52.5750   1.3622580502e+01   2.7052670250e+01    0.7746898     0.719653 -71.17  0.002875839    1.129    0.114
        61 -13.8182    219.4008     44.5081   1.0488482083e+01   2.5723855676e+01    0.6595256    0.5982631  71.35  0.001558751    1.258    0.205
        62 -11.1392     22.4629     48.2965   6.2633012252e+01   6.4572622332e+01    0.1943889    0.1401105  39.29  0.001086605    1.813    0.449
        63 -14.5836     27.7636    232.1581   8.9493070790e+01   2.1806032714e+01     1.023313    0.5165246 -85.38  0.001105004    1.884    0.469
        64 -13.3699    127.1881    229.2657   6.8004308492e+01   8.5831237701e+00    0.5238398    0.3134482  44.98  0.002643032    1.524    0.344
        65 -10.2839     60.5041     21.0464   3.5919965390e+01   6.3758271399e+01    0.1849448     0.144014  27.80 0.0004057884    1.110    0.099
