#   1 NUMBER                 Running object number                                     
#   2 MAG_AUTO               Kron-like elliptical aperture magnitude                    [mag]
#   3 X_IMAGE                Object position along x                                    [pixel]
#   4 Y_IMAGE                Object position along y                                    [pixel]
#   5 X_WORLD                Barycenter position along world x axis                     [deg]
#   6 Y_WORLD                Barycenter position along world y axis                     [deg]
#   7 A_WORLD                Profile RMS along major axis (world units)                 [deg]
#   8 B_WORLD                Profile RMS along minor axis (world units)                 [deg]
#   9 THETA_WORLD            Position angle (CCW/world-x)                               [deg]
#  10 FWHM_WORLD             FWHM assuming a gaussian core                              [deg]
#  11 ELONGATION             A_IMAGE/B_IMAGE                                           
#  12 ELLIPTICITY            1 - B_IMAGE/A_IMAGE                                       
         1 -14.0390    168.4674     45.1462   7.1297078271e+01   3.7537465578e+01     1.093492     1.009466  -4.97  0.003836204    1.317    0.241
         2 -14.3667    187.0468     12.2675   6.0386578897e+01   3.7070746411e+01      2.01744     1.066279  68.95  0.007302667    1.597    0.374
         3 -10.1424    146.1498    244.4477   1.2053679093e+02   2.2448112986e+00     0.360192    0.1560344 -44.34    0.0015539    2.781    0.640
         4 -19.9297     63.7958    171.0775   1.2834429618e+02   3.1885773482e+01     19.75365     5.099403 -64.79   0.06097465    3.844    0.740
         5 -10.6804    164.7188    187.2909   1.0680631476e+02   1.0310223581e+01    0.2450394    0.2224504  84.33 0.0004605259    1.233    0.189
         6 -11.5000    136.1766    185.4341   1.1302642618e+02   1.6263992199e+01    0.3404267    0.2454526  23.72 0.0009527798    1.677    0.404
         7 -10.5750     13.8408    239.7774   1.4581830137e+02   2.2277750226e+01    0.1718594   0.06717393 -79.17 0.0008829224    2.220    0.550
         8 -10.2599    160.4234    238.7262   1.1674769936e+02   8.6021052161e-01    0.2684272    0.1919302  47.23  0.001483771    1.313    0.239
         9 -10.4141     29.2891    183.3840   1.3812453717e+02   3.3062426599e+01    0.2050622    0.1601216  66.28 0.0001447607    1.223    0.183
        10  -9.9462    185.5119    169.0159   9.8470497940e+01   1.0062702743e+01    0.3357709    0.2235282 -61.28 0.0009126454    1.836    0.455
        11 -11.2475    189.2218    178.5385   9.9682440037e+01   7.3420122759e+00    0.4282612    0.3795149  78.68   0.00130483    1.355    0.262
        12 -10.4288    188.3790    174.1643   9.8948984080e+01   8.4116801519e+00    0.3421375    0.2848859 -88.07  0.001065809    1.553    0.356
        13  -9.5566    162.6390    180.3120   1.0588366274e+02   1.2233437286e+01    0.1570847    0.1198157  78.87 0.0007041648    1.749    0.428
        14  -9.3827      3.5034    180.1553   1.4345873595e+02   3.6224589114e+01    0.1656954   0.08808693  86.36 0.0008978453    1.688    0.408
        15 -10.4176    225.5327    177.0416   9.2129171961e+01   8.0186769234e-01    0.2167154       0.1283 -41.07  0.001023541    1.572    0.364
        16 -10.7209    239.0016    176.5028   8.9565795077e+01  -1.4458203988e+00    0.1777961    0.1226722  70.57 0.0008106783    2.600    0.615
        17 -10.0781    195.5595    172.6908   9.7131947066e+01   7.2951448526e+00    0.3052664    0.2437471 -43.72 0.0009764937    1.226    0.184
        18  -9.8853     10.7137    174.6125   1.4139338345e+02   3.6896031065e+01    0.1255688    0.1030146  76.62  0.000190517    1.155    0.134
        19  -9.7033    207.6716    171.3002   9.4379085268e+01   5.2178088630e+00    0.3606107    0.2075638 -59.76  0.001442622    2.439    0.590
        20  -9.9894    229.6664    166.3197   8.9150035905e+01   2.0621623120e+00     0.137669    0.1108448 -75.75  0.000320919    1.698    0.411
        21 -10.8819     28.1655    235.5517   1.4297879768e+02   2.1555543333e+01    0.1957172    0.1106543 -68.74  0.001056416    1.689    0.408
        22 -10.5713     15.1664    163.9332   1.3929310925e+02   3.9016964010e+01    0.3035359     0.194043  -7.56  0.001602207    2.720    0.632
        23 -12.0947     22.4836    220.7911   1.4292361836e+02   2.5316233575e+01    0.2398997    0.1440139 -70.27  0.001317141    1.519    0.342
        24 -10.2221    140.1452    162.9050   1.0757482835e+02   2.0707394738e+01    0.2390471    0.2099498  85.68 0.0004683785    1.234    0.190
        25 -11.2538    131.4805    160.0211   1.0910126151e+02   2.3119615943e+01    0.3665214    0.2276837  37.54  0.001071364    1.684    0.406
        26 -13.1598    133.9740    146.3400   1.0548199741e+02   2.5852950262e+01     1.583171    0.3985452 -54.57  0.003631925    5.608    0.822
        27  -8.9628    177.9560    156.0233   9.7276856903e+01   1.4401292672e+01    0.1779055    0.1740693  45.24 0.0003516185    1.045    0.043
        28 -11.1238    188.7012    154.1619   9.4549704541e+01   1.2543710638e+01    0.5922211    0.3779586  46.01  0.002640425    1.621    0.383
        29 -11.4891    151.7929    151.3409   1.0222920518e+02   2.0982038374e+01    0.6280226    0.3854613 -83.39  0.002022981    3.518    0.716
        30 -13.2167    144.4170    145.1147   1.0260030529e+02   2.3969385961e+01     1.143814    0.6797727 -71.82  0.004040451    2.734    0.634
        31 -11.7985    174.9166    217.9234   1.1028226179e+02   2.1851412677e+00    0.3661322    0.2085331 -52.71  0.001682923    2.022    0.506
        32 -10.6148    164.1893    151.9186   9.9450204435e+01   1.8222763634e+01    0.3181301    0.2524821  65.12 0.0008148547    1.420    0.296
        33  -9.2969      5.7419    150.4202   1.4009174222e+02   4.2950385440e+01    0.1386425    0.1181571 -16.53 0.0009436922    1.580    0.367
        34  -9.8909    174.4954    149.0994   9.6481599592e+01   1.6642650259e+01    0.2973271    0.2291335  55.51 0.0006440859    1.377    0.274
        35 -11.7484    184.1480    210.5086   1.0700640123e+02   1.9395131490e+00    0.3624944    0.2332095 -45.71 0.0009968884    1.636    0.389
        36 -12.1136    135.2520    122.1299   9.9372240918e+01   3.1169137911e+01     0.801783    0.2277699 -47.77  0.002288743    3.520    0.716
        37 -10.9649    160.5366    127.4420   9.4532361374e+01   2.4447909437e+01    0.4377228    0.3261645 -68.89  0.001340822    1.587    0.370
        38 -10.8197    114.0237    117.3396   1.0380294107e+02   3.6619718595e+01    0.2780382    0.2221771 -57.41 0.0004028741    1.271    0.213
        39 -10.4353    188.7461    213.0238   1.0650834138e+02   6.4348677829e-01    0.1940141    0.1784889 -21.14 0.0005583118    1.101    0.091
        40 -10.0873    231.2365    113.7896   7.7560707380e+01   1.1668404492e+01    0.2379349    0.2269223  86.94 0.0007834688    1.124    0.110
        41 -10.5504    168.2174    113.2434   8.9264403454e+01   2.5731321248e+01    0.4310096    0.3085755 -83.74  0.001182742    1.939    0.484
        42 -10.6420    134.6687    106.5067   9.5478497108e+01   3.4705015999e+01    0.5962406    0.1565944 -44.77  0.001667822    3.781    0.736
        43 -10.1139    205.2979    110.2739   8.1139334003e+01   1.7886601935e+01    0.3460262    0.2292127  39.58  0.001162571    1.801    0.445
        44 -11.4553     11.6080    205.8171   1.4387109337e+02   2.9711161247e+01    0.2143926     0.182184  45.49  0.001012668    1.430    0.301
        45 -11.0950    159.6115    194.8168   1.0940305276e+02   9.6880285245e+00    0.3347046    0.2657495 -77.84 0.0009797333    1.564    0.361
        46 -11.6218    207.1330    192.7382   9.8872261841e+01   1.1618562591e+00    0.3193869    0.2345148 -13.07   0.00161583    1.558    0.358
        47 -10.1574    150.8086    239.8491   1.1890500971e+02   2.2958519891e+00    0.2348735    0.2136412 -68.24 0.0006303563    1.260    0.206
        48  -9.6081    146.7079     82.0049   8.5828505911e+01   3.6834160392e+01    0.2067264    0.1963981 -43.70 0.0004832644    1.080    0.074
        49  -9.5118     12.2447    191.4955   1.4258401004e+02   3.2867838031e+01    0.3364727    0.1354149 -69.58 0.0008480793    1.985    0.496
        50 -13.4163    156.2350     59.5830   7.7497886561e+01   3.8364671964e+01     1.319886    0.9280269  50.16  0.001018542    1.364    0.267
        51 -12.4370    173.0407     37.5331   6.8548806092e+01   3.7451135766e+01    0.4100551    0.3807969  61.29  0.000877855    1.138    0.121
        52  -9.3330    159.1800    247.8542   1.1837833634e+02  -5.4398478115e-01    0.1735173    0.1446048  14.03 0.0007754525    1.286    0.223
        53  -9.8290     13.5035     59.9323   1.2188432217e+02   6.2326534453e+01    0.1718193    0.1565306  21.45 0.0004210767    1.404    0.288
        54 -11.5133    141.6916    189.4205   1.1248095961e+02   1.4306866031e+01    0.3268132    0.2719124 -63.49  0.001688993    1.256    0.204
