#   1 NUMBER                 Running object number                                     
#   2 MAG_AUTO               Kron-like elliptical aperture magnitude                    [mag]
#   3 X_IMAGE                Object position along x                                    [pixel]
#   4 Y_IMAGE                Object position along y                                    [pixel]
#   5 X_WORLD                Barycenter position along world x axis                     [deg]
#   6 Y_WORLD                Barycenter position along world y axis                     [deg]
#   7 A_WORLD                Profile RMS along major axis (world units)                 [deg]
#   8 B_WORLD                Profile RMS along minor axis (world units)                 [deg]
#   9 THETA_WORLD            Position angle (CCW/world-x)                               [deg]
#  10 FWHM_WORLD             FWHM assuming a gaussian core                              [deg]
#  11 ELONGATION             A_IMAGE/B_IMAGE                                           
#  12 ELLIPTICITY            1 - B_IMAGE/A_IMAGE                                       
         1 -13.2539      8.9574    152.3615   1.3823042283e+02   4.1391912156e+01     3.895738     1.081866  84.94   0.01360873    5.072    0.803
         2 -12.3527    215.7905     18.4435   5.5503105143e+01   2.8511197527e+01     1.111241    0.8231385  31.76  0.005925713    1.562    0.360
         3  -9.2523    199.2332     23.4801   5.8852923717e+01   3.2142134165e+01    0.2640593    0.1536412 -36.59 0.0005981062    1.672    0.402
         4 -12.3815    243.5079    241.2631   1.0104968437e+02  -4.9429011969e+00    0.4898162    0.3951603  10.02 0.0006150655    1.342    0.255
         5  -9.8411     26.0380    249.6571   1.3953245206e+02   2.2253636496e+01    0.2671793   0.09199794  34.74  0.001324384    2.480    0.597
         6 -10.4072      8.5453    250.4727   1.4228201525e+02   2.3729921217e+01    0.6928395   0.06850863  41.82  0.003622834    3.259    0.693
         7 -10.9706     13.2762    248.3612   1.4149194167e+02   2.3628857116e+01    0.7777252    0.1151057  46.26  0.004178345    2.932    0.659
         8  -8.3785     36.2497    241.8466   1.3755316363e+02   2.2449547050e+01    0.1880733   0.05754336  59.74 0.0009718573    2.942    0.660
         9 -10.9998      8.5156    236.4868   1.4188060871e+02   2.5883090043e+01    0.3282089    0.1598832  62.43  0.001476592    1.490    0.329
        10  -9.5438    115.5900    230.8310   1.2257544090e+02   1.4622405458e+01    0.3420244   0.04806323  40.53  0.001141861    4.574    0.781
        11  -9.5479    104.5999    230.2900   1.2458793937e+02   1.6208534010e+01    0.2238507   0.09964357  45.55  0.001239288    1.750    0.429
        12  -9.1751    227.7029    249.9943   1.0488660021e+02  -3.6559248904e+00    0.1555256    0.1074851  17.87 0.0007841346    1.055    0.052
        13 -10.3336     88.9679    226.0327   1.2714672419e+02   1.8941130033e+01    0.5325541   0.04298705  41.57  0.001731297    5.205    0.808
        14  -8.6936    104.0042    249.0018   1.2634608728e+02   1.3528307378e+01    0.1853778    0.1116976 -64.32  0.001278103    2.163    0.538
        15  -9.8407    155.4019    218.6235   1.1353030161e+02   1.0566576442e+01    0.2075534    0.1667373  36.49 0.0003737643    1.056    0.053
        16  -8.4744    248.0138    214.2327   9.6061818822e+01  -2.9537075586e+00    0.1565052   0.07649551  33.98 0.0008922836    1.681    0.405
        17 -11.3787     10.2738    207.2287   1.4058068294e+02   3.0633956022e+01    0.5328334    0.2987887  27.79  0.003106914    2.040    0.510
        18 -11.4415     28.0065    223.3727   1.3811882670e+02   2.6248658146e+01    0.2399315      0.22124 -86.98 0.0007357613    1.431    0.301
        19  -9.4713     51.0275    197.7115   1.3227270060e+02   2.8448899177e+01     0.185103    0.1811518  44.75 0.0009788729    1.355    0.262
        20 -10.5485     62.9902    184.4688   1.2866882732e+02   2.9626071679e+01     0.233555    0.2091115 -60.93 0.0005380246    1.336    0.252
        21  -9.5986      4.0646    184.2892   1.4083014637e+02   3.5348687123e+01    0.2801699    0.1269045  59.77   0.00112476    1.779    0.438
        22 -10.3749     56.6713    191.7762   1.3065160542e+02   2.8942370248e+01    0.2711937    0.2282244 -32.07  0.001282941    1.729    0.422
        23  -9.6935     73.6432    172.9131   1.2510706844e+02   3.0628557795e+01    0.2156326    0.1915584  76.20 0.0004133973    1.054    0.052
        24 -11.9044     60.1827    170.0867   1.2789422892e+02   3.2853709375e+01    0.4486978    0.2565812 -46.88  0.001618478    2.245    0.555
        25  -7.7768     32.3290    173.3165   1.3440590043e+02   3.5118853727e+01    0.1040949   0.08241428 -45.35 0.0007045956    1.680    0.405
        26 -10.6728     81.6636    164.4831   1.2221221587e+02   3.1310195252e+01    0.5375516    0.4623859  49.35  0.003464776    1.090    0.082
        27  -9.6412    248.1997    163.0640   8.6592051086e+01   2.7902034807e+00     0.275758    0.2001736  31.59 0.0004673115    1.327    0.247
        28  -9.5253    248.6272    158.1057   8.5509847640e+01   3.3343910172e+00    0.2329688    0.1803181  12.55  0.000337642    1.081    0.075
        29 -12.5721     34.4752    215.5466   1.3657626350e+02   2.6955525439e+01    0.7126849    0.5182865  56.28  0.003117743    1.072    0.067
        30  -9.0501    104.0230    160.7397   1.1630692133e+02   2.8829436917e+01    0.1953531    0.1823169 -77.66 0.0003445736    1.123    0.109
        31  -8.8228      5.7327    222.6392   1.4190696561e+02   2.8367588403e+01    0.1427385   0.08095389 -84.07  0.001074389    1.654    0.395
        32  -7.7257    170.0184    156.2993   1.0018163398e+02   1.8011722634e+01    0.1864432    0.1617826  26.48   0.00032697    1.028    0.027
        33  -8.9857    248.8280    153.0570   8.4429990321e+01   3.9344376278e+00    0.2087396     0.164136  19.81 0.0003793179    1.152    0.132
        34 -10.3255    216.7907    151.4559   8.9697645360e+01   9.8618930678e+00    0.2467219    0.2106673  21.64 0.0004642208    1.111    0.100
        35  -9.0610     95.4600    149.4884   1.1665015128e+02   3.2505704731e+01    0.2764898    0.2242442  68.77 0.0009586294    1.281    0.220
        36 -10.7390     83.7209    148.0618   1.1941627113e+02   3.4529141296e+01    0.2658691    0.2254692 -52.60 0.0005875173    1.256    0.204
        37 -10.8033     67.6737    143.3247   1.2287858744e+02   3.7705189777e+01    0.6785049    0.3559925  72.58  0.002672092    2.859    0.650
        38 -10.4184     64.4891    142.9409   1.2365666942e+02   3.8183108060e+01    0.5444177    0.3225071  87.66 0.0007467001    2.040    0.510
        39 -12.9988     43.4905    204.3674   1.3422429175e+02   2.8026581535e+01      3.12447    0.8038135  53.63   0.01321586    3.613    0.723
        40  -8.7334    102.8837    145.3989   1.1407776383e+02   3.2227227119e+01    0.2208051    0.1875459 -47.02  0.000311445    1.254    0.203
        41  -8.1080     98.5370    145.5229   1.1521218278e+02   3.2885667034e+01    0.1335751    0.1275603  61.11 0.0003786221    1.016    0.016
        42  -8.1230     34.4228    144.7879   1.3156668970e+02   4.0966313901e+01    0.1724727   0.09374479 -63.14 0.0009523528    1.706    0.414
        43  -7.9705    108.0101    135.4921   1.1093377624e+02   3.3520692247e+01    0.1947042    0.1255304  10.35 0.0008098258    2.479    0.597
        44  -8.8766    235.8776    133.5418   8.2354691904e+01   8.8265788021e+00    0.2313866    0.1775701 -23.94 0.0004252359    1.237    0.192
        45  -8.1423    221.4432    132.9277   8.4739480461e+01   1.1682344870e+01    0.2085919    0.1281288 -30.02  0.001015223    1.571    0.363
        46  -9.2159     94.7927    132.3428   1.1386948967e+02   3.6355630721e+01    0.2371973    0.2154675 -26.43   0.00059281    1.231    0.188
        47  -8.3830     55.8394    130.5025   1.2427228243e+02   4.2009028923e+01     0.272171    0.1598111 -89.73  0.001133809    1.973    0.493
        48  -8.1168    105.4935    122.8488   1.0905946842e+02   3.6713178423e+01    0.1944731    0.1396295 -52.20 0.0003492323    1.400    0.286
        49  -7.7581     28.9866    123.2133   1.3080416061e+02   4.6290745658e+01    0.1366768   0.09747933  29.43 0.0003201563    1.588    0.370
        50  -9.2112      1.8794    223.4707   1.4257353358e+02   2.8547864896e+01     0.221751   0.08665248  88.62  0.001401173    2.298    0.565
        51 -10.5191      7.4656    116.1062   1.3607749990e+02   4.9416058570e+01    0.2055593    0.1907987  65.57  0.001023375    1.217    0.178
        52  -8.2883    167.7968    113.2790   9.0869953591e+01   2.6233074893e+01    0.3532832    0.2295697 -63.03  0.001398076    2.504    0.601
        53  -8.5201    242.3199    222.6594   9.8381628987e+01  -3.0074419838e+00   0.09645101    0.0862783  31.06 0.0007049885    1.716    0.417
        54  -7.7105    190.5797    109.6225   8.5010785415e+01   2.1832091536e+01    0.1483611    0.1363254  12.74 1.603632e-05    1.023    0.022
        55 -10.5741      2.4282     90.0753   1.3520423257e+02   5.5611634846e+01     0.341922    0.1567278 -74.04  0.001841541    1.690    0.408
        56  -8.9046    176.1129     87.1217   8.1930833938e+01   2.8987377334e+01    0.2240575    0.2089916   7.88 0.0003206232    1.013    0.012
        57  -7.5680    138.7838     87.6643   9.0951830638e+01   3.7571265076e+01    0.1517733    0.1164272  -8.79 0.0003426781    1.517    0.341
        58  -9.7067    232.1931     78.1457   6.9500937279e+01   1.7332427615e+01    0.2417859    0.2218687   0.95 0.0002763372    1.049    0.047
        59  -8.2344    159.9920     79.0000   8.3117816954e+01   3.4251420548e+01    0.2526768   0.08793946  51.17            0    2.856    0.650
        60 -10.5690      2.6720     75.7808   1.3354042995e+02   5.8886841015e+01    0.3725829    0.1517234 -63.14  0.001929524    1.809    0.447
        61  -9.2524    236.6617     74.1935   6.7851593912e+01   1.6889924098e+01    0.2496179    0.2299874  16.78  0.000766262    1.105    0.095
        62  -7.4939    175.3931     60.5339   7.4120453886e+01   3.3469491758e+01    0.1532825    0.1437397   6.44 7.103979e-05    1.037    0.036
        63  -7.7873    118.5273     70.5200   9.1267457722e+01   4.5360382058e+01    0.1536663    0.1448901  -2.22 5.191756e-05    1.001    0.001
        64 -10.3793    130.8615     48.0175   7.9990021574e+01   4.6551030546e+01    0.2513386    0.2336746  -6.92  0.001338789    1.052    0.050
        65 -10.7477    197.3771     39.0890   6.3766871531e+01   3.0808389486e+01    0.6024677    0.3344605 -46.78  0.002569237    1.948    0.487
        66 -11.4435    201.9225     33.7859   6.1552217626e+01   3.0293403957e+01    0.6244068    0.4963602  76.89  0.003298685    1.321    0.243
        67  -9.1940    226.1996     29.5189   5.7409890520e+01   2.4808002025e+01    0.3573004    0.2320284 -11.10  0.001073144    1.723    0.420
        68  -8.4802     89.3130    245.8123   1.2868079860e+02   1.5853693359e+01    0.1621206    0.1088477  63.86 0.0009185051    1.405    0.288
