#   1 NUMBER                 Running object number                                     
#   2 MAG_AUTO               Kron-like elliptical aperture magnitude                    [mag]
#   3 X_IMAGE                Object position along x                                    [pixel]
#   4 Y_IMAGE                Object position along y                                    [pixel]
#   5 X_WORLD                Barycenter position along world x axis                     [deg]
#   6 Y_WORLD                Barycenter position along world y axis                     [deg]
#   7 A_WORLD                Profile RMS along major axis (world units)                 [deg]
#   8 B_WORLD                Profile RMS along minor axis (world units)                 [deg]
#   9 THETA_WORLD            Position angle (CCW/world-x)                               [deg]
#  10 FWHM_WORLD             FWHM assuming a gaussian core                              [deg]
#  11 ELONGATION             A_IMAGE/B_IMAGE                                           
#  12 ELLIPTICITY            1 - B_IMAGE/A_IMAGE                                       
         1 -10.2924    231.2841     16.4327   1.2794299686e+01   2.4296653719e+01    0.8010311    0.3607457 -43.53  0.003690328    2.019    0.505
         2 -10.2993    237.3439     12.4007   1.1305479131e+01   2.3327494102e+01    0.9267706    0.5339086 -59.45  0.004812464    1.637    0.389
         3  -9.4050    120.2516      8.8814   2.6686631633e+01   5.3107744810e+01    0.3311072    0.2955244 -82.74  0.001514961    1.355    0.262
         4  -7.6985    179.5432      6.4820   1.5944584887e+01   3.8378441926e+01    0.1390767    0.1204354  65.34 5.119047e-05    1.078    0.072
         5  -7.4783    209.9744      3.7666   1.1804920143e+01   3.0895154969e+01    0.1730682   0.09883786  73.91  0.000339271    1.553    0.356
         6  -8.6983     48.3729    243.6209   9.5699246167e+01   1.9123111300e+01    0.1777705    0.1143597  61.01  0.000448009    1.142    0.124
         7  -8.9509    140.6484    249.2974   7.9938897560e+01   4.5402733679e+00     0.218745    0.1557613  56.99  0.001404447    1.267    0.211
         8  -8.4162     62.3439    248.7839   9.3724818649e+01   1.6432962942e+01     0.236159    0.1250946  78.14  0.001245544    1.890    0.471
         9 -13.1204     31.4275    246.7337   9.8647450489e+01   2.0617054076e+01     1.379419    0.9792562 -67.23  0.006713488    1.780    0.438
        10 -12.8756     52.9775    229.9908   9.3936380888e+01   2.0985164664e+01     2.096052     1.367657  86.96  0.002936357    1.357    0.263
        11  -9.0554     76.8109    234.1609   9.0018776954e+01   1.6999605012e+01    0.2259464    0.1603547  87.84 0.0005441237    1.346    0.257
        12  -8.6393    108.9500    233.9687   8.4061547841e+01   1.2170744016e+01    0.2069899    0.1213417  64.72   0.00113175    1.733    0.423
        13  -8.5637    186.2785    229.9622   6.8764074496e+01  -3.7287932853e-01    0.3839617    0.1731852 -52.15  0.001677558    3.471    0.712
        14  -9.3570    140.8872    229.1839   7.7374444379e+01   7.6664288514e+00    0.3307556    0.1815518  63.76  0.001405756    2.408    0.585
        15  -7.3781     84.7144    228.7079   8.8056130945e+01   1.6839308424e+01   0.09922783    0.0945887  23.30 0.0002536471    1.539    0.350
        16  -8.4522    161.2122    225.2195   7.2868270093e+01   4.7514230511e+00    0.1724474    0.1357543  58.59 0.0004223838    1.304    0.233
        17  -8.4258    236.7525    231.6971   5.9802750029e+01  -8.9438911177e+00    0.1486503    0.1274243  31.88  0.000777252    1.346    0.257
        18 -10.5213    131.3930    231.4769   7.9500936122e+01   8.9053789448e+00    0.3586276    0.2946501  77.75 -9.745726e-05    1.303    0.233
        19  -7.9757    152.8568    222.3761   7.4091145146e+01   6.6961551316e+00    0.1910184     0.105806  35.10 0.0009394296    1.706    0.414
        20  -9.4448    154.3625    217.5029   7.3075600380e+01   7.2397792335e+00    0.6707506    0.2499382  46.14  0.002764273    2.295    0.564
        21  -9.8679    108.2349    212.1767   8.1636493141e+01   1.6245479198e+01    0.3416245     0.157976  56.93  0.001454218    2.235    0.553
        22 -10.3185    120.3731    213.6590   7.9372831248e+01   1.3924645745e+01    0.4248092     0.236057  34.16   0.00207083    1.931    0.482
        23 -14.6485     10.2705    207.1204   9.9919739011e+01   3.0161841474e+01     4.675228     1.988828 -75.98   0.02767658    1.975    0.494
        24  -7.2806     99.3062    210.3446   8.3215908589e+01   1.8051435042e+01    0.1150101    0.1029238  -9.71 0.0004005809    1.692    0.409
        25 -10.3478    124.1151    205.8174   7.7529986140e+01   1.4749559072e+01    0.5807333    0.2659757  50.11  0.001602355    1.971    0.493
        26  -9.3404    133.3680    203.9740   7.5335639951e+01   1.3450705335e+01    0.3468578    0.1951159  58.53  0.001615473    1.908    0.476
        27  -8.4605     73.0373    204.6236   8.7864666040e+01   2.3176570132e+01    0.2184918    0.1452124  85.61 0.0006250172    1.457    0.314
        28  -7.6814     90.5051    202.5052   8.4065977568e+01   2.0995295024e+01    0.2260365    0.1166429 -78.89  0.001031967    2.443    0.591
        29  -7.2467     68.3997    203.4448   8.8671567146e+01   2.4069434003e+01    0.1230586   0.09936935  74.28 0.0001018407    1.018    0.018
        30  -8.6073    101.4962    202.0311   8.1725629890e+01   1.9334169790e+01    0.1901945    0.1255955 -66.07  0.001040357    1.613    0.380
        31  -7.7453    128.5821    196.7905   7.5259245604e+01   1.5694072408e+01    0.1811536    0.1292258 -74.76 0.0004693915    1.672    0.402
        32  -7.2795    157.6558    195.2778   6.8840436735e+01   1.0538864224e+01    0.1407116    0.1027701  66.92 0.0007006047    1.629    0.386
        33  -7.8698     98.8583    195.6443   8.1443232759e+01   2.1058511936e+01    0.1896882    0.1030021  51.84 0.0001812896    1.662    0.398
        34  -7.2168     93.0359    195.2726   8.2632919638e+01   2.2072829441e+01    0.1541486    0.1044507  45.33  0.000256792    1.363    0.266
        35  -8.7510     59.2465    194.1995   8.9574662771e+01   2.7218923894e+01    0.4254922    0.2415733  35.16  0.002312879    1.964    0.491
        36  -8.0268     70.4274    188.7482   8.6642828678e+01   2.6843230433e+01    0.1969423    0.1369431 -63.61  0.000727872    1.471    0.320
        37 -10.4636     63.8496    176.8924   8.6665357676e+01   3.0321477535e+01     1.271717    0.6881515 -57.83  0.006556968    1.868    0.465
        38 -10.4039     48.1635    177.1669   9.0126618955e+01   3.2269890043e+01     1.163109    0.4557449  46.69  0.005496907    2.351    0.575
        39 -10.4838     57.1932    183.1521   8.8833452084e+01   2.9837780231e+01    0.5571734    0.3121029  80.09  0.002851619    1.933    0.483
        40 -10.0066     53.1475    182.7693   8.9654253493e+01   3.0437479038e+01    0.5564698     0.258242  70.98  0.002415756    2.745    0.636
        41  -7.9156    188.7151    187.9624   6.1068439876e+01   5.7912913277e+00     0.244238    0.1551528  74.54 0.0009026893    3.564    0.719
        42 -14.8972     11.1473    246.9977   1.0180751759e+02   2.2789743392e+01     2.293573    0.5477536 -67.48  0.004858308    3.999    0.750
        43  -9.7704    143.2330    179.6773   6.9223897394e+01   1.6333253837e+01    0.2708339    0.2368185 -62.24 0.0004515594    1.245    0.197
        44  -8.8554     70.8206    178.8696   8.5365038391e+01   2.8921816881e+01    0.2806708    0.2586156 -52.56  0.001293806    1.372    0.271
        45  -8.1353    148.7144    177.1557   6.7548849201e+01   1.5759482943e+01    0.2447789     0.192291  42.01  0.000463922    1.178    0.151
        46  -8.5152     89.1073    174.3560   8.0630460401e+01   2.7167956916e+01    0.1918168    0.1587792  56.37  0.000547424    1.132    0.116
        47  -6.9938     77.3072    174.3615   8.3322506438e+01   2.8975785133e+01    0.1270042    0.1020935 -35.28 0.0007039676    1.737    0.424
        48  -8.2412     34.6272    173.0197   9.2614850280e+01   3.4725587733e+01    0.2955365    0.1569172  76.46  0.001555618    1.927    0.481
        49  -8.5612    103.1790    171.8590   7.7003299379e+01   2.5392816300e+01    0.2187248    0.1747991  76.21  0.001108487    1.239    0.193
        50  -9.4681     86.9492    168.3784   8.0244527290e+01   2.8837399103e+01    0.3971679    0.2280459 -60.75 0.0003684269    1.709    0.415
        51  -9.5258     82.2765    156.2304   7.9477478367e+01   3.2321197861e+01    0.4363004    0.2985524 -63.19  0.001325609    1.395    0.283
        52 -11.0602     69.4359    135.5548   7.9295180736e+01   3.9021176980e+01    0.9711636    0.5041008  88.85  0.003402141    3.742    0.733
        53 -11.5886     57.3909    131.5206   8.1815784880e+01   4.1562036311e+01     0.779971    0.6021041  78.61  0.004462203    1.343    0.255
        54 -12.2401     69.8823    148.0920   8.1256709450e+01   3.6027023807e+01     1.623496    0.8298138 -87.14  0.006236169    3.073    0.675
        55  -8.7920     59.0514    169.6889   8.6861702237e+01   3.2556449657e+01    0.2940152    0.1691386  58.05  0.001143029    1.712    0.416
        56  -8.6891    247.3153    167.7667   4.5857076345e+01  -2.1140943109e+00    0.2527858    0.1573244 -44.25  0.001268602    1.868    0.465
        57  -9.7113     70.0912    168.8424   8.4228517817e+01   3.1248871038e+01    0.3540664    0.2923453 -34.84  0.001935382    1.667    0.400
        58  -7.2086     32.3188    168.2536   9.2647728917e+01   3.6015846191e+01    0.1054041   0.08728991 -50.20 0.0003683822    1.534    0.348
        59 -13.6384      3.3316    247.5126   1.0300020962e+02   2.3495877675e+01    0.2943627    0.2925785  59.91  0.002175168    1.941    0.485
        60  -8.6696     50.7872    163.0549   8.7939691637e+01   3.5087195071e+01     0.312821    0.1608579  61.89 0.0008829313    2.125    0.530
        61  -7.3156     35.4617    163.4834   9.1469037741e+01   3.6738959804e+01    0.1233854   0.09880042  88.82 0.0001303252    1.002    0.002
        62 -15.5319      5.0690    241.2841   1.0247814131e+02   2.4389757780e+01     2.363988     1.230427  28.11  0.008547953    3.241    0.691
        63 -11.7115    115.3101    227.4284   8.2102312674e+01   1.2282982867e+01    0.7323259     0.464076  62.43  0.004160902    1.515    0.340
        64  -8.4172    229.4783    153.7946   4.6036260991e+01   3.4436665614e+00    0.2357944    0.1927393  39.09 0.0006585944    1.235    0.190
        65  -9.6095     53.6754    146.5012   8.5074488387e+01   3.8524619673e+01    0.5499749    0.2096668 -56.47   0.00235956    2.356    0.576
        66  -9.1151     48.5308    145.9843   8.6280657983e+01   3.9258623894e+01    0.3296558     0.201158  59.03  0.001355949    1.730    0.422
        67  -8.4569     60.4964    154.0233   8.4460523875e+01   3.5924662032e+01    0.2540576    0.1598298  59.51 0.0008606742    1.634    0.388
        68  -8.9643     57.0945    151.5338   8.4940161464e+01   3.6935519828e+01    0.3095534    0.1942184  54.43 0.0008575433    1.615    0.381
        69  -7.8211     51.3036    154.0030   8.6677543959e+01   3.7083586115e+01    0.1801924    0.1398003 -78.68 0.0003076606    1.114    0.102
        70  -9.5503     89.0574    150.8932   7.6910561325e+01   3.2482031017e+01    0.4702331    0.3492223 -21.37  0.001526513    2.090    0.521
        71  -7.6638    240.8104    150.6009   4.3316981061e+01   1.7416531007e+00    0.1900631    0.1336301  55.70 0.0009600336    1.730    0.422
        72  -8.9214    134.0158    147.9992   6.5203711132e+01   2.4862575914e+01    0.5010806    0.2040029 -58.00  0.001623839    3.238    0.691
        73 -11.3862    123.9358    228.2240   8.0532438204e+01   1.0712911254e+01    0.8148838    0.3613225 -56.93  0.003919876    2.698    0.629
        74  -8.1940     95.7863    144.8595   7.4122580338e+01   3.2763583215e+01    0.2068691    0.1917858 -44.43 0.0004475631    1.201    0.168
        75  -9.6668     74.1082    164.3514   8.2669532796e+01   3.1687368319e+01    0.2688822    0.2667621 -54.98 0.0007375703    1.277    0.217
        76  -9.0749     26.6114    138.8205   9.0789185491e+01   4.3190323495e+01    0.2813363    0.2044004  55.37  0.001183628    1.434    0.303
        77  -8.9934     29.0905    135.3128   8.9742137333e+01   4.3761941669e+01    0.2197535    0.1962274 -87.39 0.0007053077    1.120    0.107
        78  -8.0113    103.0184    137.4044   7.0798322652e+01   3.3228391095e+01     0.399815    0.2262613 -31.88  0.001508044    2.830    0.647
        79  -9.7657     90.5142    136.4049   7.3876026260e+01   3.5611206200e+01    0.2685592     0.242096 -66.87 0.0003006535    1.062    0.059
        80  -9.0083    155.1037    134.2263   5.7054787944e+01   2.3322819287e+01    0.3899056    0.2677593 -36.50  0.001070614    1.567    0.362
        81  -9.5191     46.3147    131.5324   8.4764281510e+01   4.2870037541e+01    0.3489759    0.1840243  58.47   0.00131487    2.303    0.566
        82 -10.0708     40.4419    129.0118   8.5942198327e+01   4.4092588301e+01    0.3883461    0.2555496 -77.43  0.001448641    1.368    0.269
        83  -8.6544    114.9761    235.2752   8.3074287366e+01   1.0979200104e+01    0.1824974    0.1331746  49.43  0.000553509    1.108    0.098
        84 -10.2234     20.3600    126.0403   9.0813795799e+01   4.6649606351e+01     0.405993    0.1873835  30.12  0.002128714    2.520    0.603
        85  -9.9362     23.3044    121.1712   8.9405176254e+01   4.7516806784e+01    0.3152817    0.2159686  70.47  0.001906186    1.573    0.364
        86  -8.5412     99.0224    124.4544   6.9115588254e+01   3.6938957827e+01    0.2694908    0.2123851 -53.57 0.0005689738    1.225    0.184
        87  -7.9139    149.1863    170.3602   6.6161903166e+01   1.7034898580e+01    0.2095188    0.1274816  52.25            0    1.623    0.384
        88  -9.2972     47.2670    123.0713   8.3166749107e+01   4.4738929666e+01    0.2671858    0.2050127  67.24  0.001577423    1.405    0.288
        89  -7.6964    112.1486    128.8113   6.6565013585e+01   3.3515994960e+01    0.2044768    0.1822526  -8.65  0.001062986    1.346    0.257
        90  -8.9162      4.2440    121.2559   9.4408527684e+01   4.8912987701e+01    0.2755154    0.1594515 -31.54  0.001572758    2.444    0.591
        91  -7.8440    132.9674    119.5271   5.8937366750e+01   3.1365435508e+01    0.2333583    0.1522151  45.77 0.0003734789    1.523    0.343
        92  -9.0727     62.5565    118.5314   7.8072131916e+01   4.3950416414e+01    0.3283708    0.2222919  60.50  0.001688329    1.734    0.423
        93 -10.0536     61.2082    114.8042   7.7734652093e+01   4.4997369889e+01    0.2257544    0.2081145 -72.40 0.0002596986    1.044    0.042
        94 -10.3678     12.2196    129.1595   9.3256721417e+01   4.6583025134e+01    0.4423497    0.2415751 -56.61  0.002580337    1.643    0.391
        95  -7.4898    108.0376    117.9683   6.5167840319e+01   3.6776795408e+01    0.1762027    0.1687272 -66.21 0.0003149286    1.014    0.013
        96  -9.7831     75.2941    125.1759   7.5791034659e+01   4.0620703157e+01     0.449118    0.2595925  25.63  0.001547576    2.238    0.553
        97  -7.9152     72.3963    116.3358   7.4823977017e+01   4.3113966674e+01    0.1994341    0.1523212 -30.58 0.0005377296    1.551    0.355
        98  -8.9339      2.8406    113.5751   9.3918953235e+01   5.0712819862e+01    0.2123396    0.1846441 -82.17   0.00129371    1.143    0.125
        99  -9.0468     51.9982    111.0148   7.9679871019e+01   4.7010958167e+01    0.2214898    0.1441824 -35.67  0.001137661    1.794    0.443
       100  -8.4500    118.3436    110.1718   6.0431744385e+01   3.6502364721e+01    0.3423805    0.1776172  63.36  0.001061076    3.432    0.709
       101  -7.8682     28.6643    108.3407   8.6018813992e+01   4.9998545661e+01    0.1279086   0.08577847  75.43  0.000705092    1.758    0.431
       102  -9.0994    119.4608    102.6101   5.8142767516e+01   3.7933247690e+01    0.4272249    0.3045412 -80.43   0.00180365    2.073    0.518
       103  -8.1563     29.3067     99.2472   8.4292159247e+01   5.2016777167e+01    0.2013568    0.1534579  -0.33   0.00124721    1.701    0.412
       104  -7.5249      2.6604     89.7066   9.0878015681e+01   5.6004618973e+01    0.1194396   0.06678078 -45.42 0.0007028046    1.651    0.394
       105  -7.1168    138.6506     78.7396   4.6180098652e+01   3.8544057047e+01    0.1589236    0.1194962  20.59 0.0005016475    1.606    0.377
       106  -8.0894    205.0652     75.6632   3.1340984857e+01   2.2448504734e+01    0.2039756    0.1819522  58.18 0.0003276496    1.128    0.113
       107  -8.3729    131.7861     75.9613   4.7094515073e+01   4.0676281224e+01    0.2524906    0.2132274  45.84 0.0003434758    1.169    0.144
       108  -7.3331    217.7929     72.3446   2.8398340349e+01   1.9840452057e+01    0.1903452    0.1330792  52.05 0.0009033652    1.475    0.322
       109  -7.6373     28.1684     70.3437   7.8731024895e+01   5.8494504231e+01    0.1548764     0.108477  36.37 0.0008507606    1.743    0.426
       110  -8.7278    101.9821     63.8816   5.1610085065e+01   4.9386355927e+01    0.2291718    0.1986561 -29.64  0.001245824    1.120    0.107
       111  -7.8818    143.9449     59.6604   3.8921542801e+01   4.0665846624e+01    0.2162696    0.1889184  55.63 0.0005059194    1.125    0.111
       112 -10.4011    187.2102     55.5462   2.8872251211e+01   3.0223009918e+01    0.7015628    0.2669949  57.84   0.00247653    2.453    0.592
       113 -11.4510    199.3740     46.5644   2.4383618505e+01   2.8394561670e+01    0.9062936    0.8595422  51.50  0.004448266    1.125    0.111
       114 -11.2485    208.3101     38.4377   2.0918219319e+01   2.7228587969e+01    0.6726271    0.6125157  38.57  0.001444143    1.258    0.205
       115  -7.1113    170.6542     55.7466   3.1974330766e+01   3.4497897212e+01     0.156561    0.1120842  33.98 0.0004034649    1.586    0.370
       116  -7.1772     99.0415     48.2333   4.7090302465e+01   5.2716173514e+01    0.1723725    0.1141475  42.17 0.0003040055    1.484    0.326
       117  -8.4791    221.8097     40.2145   1.9625744215e+01   2.3607670001e+01    0.2177475    0.1752823 -67.81 0.0006996698    1.189    0.159
       118  -8.2608    150.3650     39.8543   3.1081527664e+01   4.2065085353e+01    0.2290373    0.1920456  66.58 0.0003250692    1.178    0.151
       119 -10.2684    106.7425    243.0204   8.5432841300e+01   1.0983834226e+01    0.2644941    0.2092609 -55.09  0.000983429    1.652    0.395
       120  -7.3713     90.3493    246.6860   8.8727408684e+01   1.2860205382e+01    0.1255668   0.06829132  64.32 0.0007046727    1.723    0.420
       121  -8.5256    187.0382     17.6889   1.8132162450e+01   3.5266564206e+01    0.2197957    0.2074773 -18.92 0.0003105672    1.224    0.183
       122  -7.9904     79.5854    244.6962   9.0444723665e+01   1.4758409559e+01    0.1829583    0.1009915  61.12  0.000702927    1.513    0.339
       123  -8.2803     71.6619    242.9552   9.1682797581e+01   1.6171167382e+01     0.257721   0.09202553 -63.65   0.00129254    3.035    0.671
