#   1 NUMBER                 Running object number                                     
#   2 MAG_AUTO               Kron-like elliptical aperture magnitude                    [mag]
#   3 X_IMAGE                Object position along x                                    [pixel]
#   4 Y_IMAGE                Object position along y                                    [pixel]
#   5 X_WORLD                Barycenter position along world x axis                     [deg]
#   6 Y_WORLD                Barycenter position along world y axis                     [deg]
#   7 A_WORLD                Profile RMS along major axis (world units)                 [deg]
#   8 B_WORLD                Profile RMS along minor axis (world units)                 [deg]
#   9 THETA_WORLD            Position angle (CCW/world-x)                               [deg]
#  10 FWHM_WORLD             FWHM assuming a gaussian core                              [deg]
#  11 ELONGATION             A_IMAGE/B_IMAGE                                           
#  12 ELLIPTICITY            1 - B_IMAGE/A_IMAGE                                       
         1 -10.9594     33.5248     62.3247   1.0110182918e+02   6.0656758757e+01     2.711587    0.8397695 -33.72  0.007200222    7.021    0.858
         2 -11.1990     23.6960     32.3342   9.5700110603e+01   6.7467151020e+01     1.640817    0.4379262 -39.51  0.005465296    3.291    0.696
         3  -9.0509     40.8866     20.3185   8.2531917802e+01   6.7620664627e+01    0.3376797    0.1535518 -38.28 0.0009190695    2.006    0.501
         4 -10.7992     37.2620      9.3033   7.8926590930e+01   6.9652322172e+01    0.8821234     0.310143 -39.93  0.002620411    2.920    0.658
         5 -10.6212     26.5823     11.2960   8.5211884441e+01   7.0650956343e+01    0.9268948    0.3498573  31.37  0.004605651    2.742    0.635
         6 -10.0780     18.4882      5.1118   8.6425127440e+01   7.2383924038e+01     0.515138    0.3660795 -56.48  0.003154759    2.504    0.601
         7  -9.5246      2.3265     14.4727   9.9829349595e+01   7.2184487702e+01    0.4177254     0.222807 -64.27  0.001735239    2.709    0.631
         8 -10.4937      5.4822      5.1121   9.3877878131e+01   7.3502040815e+01    0.5426279    0.3491066  -6.29  0.001886748    1.397    0.284
         9 -10.0862      7.4186     28.2427   1.0225297920e+02   6.9427111095e+01    0.2996978    0.2653325  64.19  0.001002387    1.763    0.433
        10  -9.5153     77.7683      4.2592   6.0517621370e+01   6.3516453253e+01    0.4830894     0.303308  -2.45  0.001553088    1.677    0.404
        11 -10.2026     73.5728     17.7428   6.8104299263e+01   6.2845320103e+01     1.068089    0.2220875 -31.71  0.003032537    4.638    0.784
        12  -8.5343     72.1982      8.2290   6.4193061825e+01   6.4187804386e+01    0.1724838    0.1448468  21.91 0.0004558813    1.049    0.046
        13 -10.1408     69.5694     40.3017   7.9159751523e+01   6.0269558480e+01     1.050775    0.3844359 -37.78  0.003668891    2.609    0.617
        14  -9.7103    103.1904     20.7062   6.0269178323e+01   5.6486604917e+01    0.8953084    0.3537568 -19.34  0.002022946    3.222    0.690
        15  -9.8166     60.7414     31.7570   7.9075303723e+01   6.3058215184e+01    0.8875602    0.3746655 -29.11  0.002897664    2.572    0.611
        16 -10.3022     62.9038      3.3800   6.5118680845e+01   6.6381886751e+01    0.5251504    0.4013226   0.11  0.002483929    1.169    0.145
        17  -9.7148     63.2105     21.4287   7.3590389993e+01   6.4178905175e+01    0.4395269    0.3191186 -53.22  0.002101067    2.112    0.526
        18 -10.0883     64.5560     12.8471   6.9104205063e+01   6.5047913806e+01    0.4292744    0.2854421 -26.42  0.001534309    1.480    0.324
        19  -9.1133     46.8334     19.8763   7.9653458025e+01   6.6893019743e+01    0.4743733    0.2156924 -23.33  0.002142395    2.539    0.606
        20 -10.0005     52.7083     13.8505   7.4278161705e+01   6.6861544577e+01    0.4914337    0.3002702  24.19  0.001830804    1.573    0.364
        21  -9.2911     96.0938     14.9932   5.9862083769e+01   5.8665219296e+01    0.6114383     0.298615 -10.33  0.001971534    2.696    0.629
        22  -9.4911     91.5011     26.3746   6.5948054495e+01   5.8273387537e+01     0.539117    0.2335382 -41.37   0.00184771    2.709    0.631
        23  -9.8027    153.2083     26.8623   5.1512917374e+01   4.3784468408e+01    0.4131313    0.2617199  -2.51  0.001856234    2.197    0.545
        24  -8.5708    120.0128     16.4886   5.4507392728e+01   5.3104960912e+01    0.3807971    0.2134911   9.05  0.001612336    2.608    0.617
        25  -8.7287    112.4905     15.5369   5.5871075706e+01   5.4959522793e+01    0.3291876     0.209657 -25.50  0.001068374    1.673    0.402
        26  -9.0851    114.0649     10.1311   5.3406960570e+01   5.5135256426e+01    0.3789837    0.2128559  31.12 0.0002895827    1.928    0.481
        27  -9.7904     10.3641     18.7914   9.7167846938e+01   7.0917913116e+01    0.6507794    0.2569713 -17.12  0.002561037    4.402    0.773
        28  -9.6710    131.6745     18.4848   5.2763614904e+01   5.0092177130e+01     0.400912    0.3354459  21.89 0.0007251716    1.254    0.202
        29  -8.7410     89.2846      2.6724   5.6435819094e+01   6.1314580640e+01    0.4302334    0.3027659  45.74  0.002253005    1.231    0.188
        30  -8.0613     80.4814     12.5300   6.3443365882e+01   6.2137953077e+01    0.2418341    0.1644167 -50.97  0.001261886    2.193    0.544
        31  -9.5556     85.2926     13.1610   6.2220865200e+01   6.1111402023e+01    0.4257702    0.2579462 -49.01  0.001819458    2.449    0.592
        32  -8.0924     84.7650      6.8544   5.9578382092e+01   6.1866128230e+01    0.4320143    0.1999516  21.56  0.001669117    3.128    0.680
        33  -8.7942    125.3585     13.0437   5.2084735051e+01   5.2182356850e+01     0.325391    0.2030849 -48.43  0.001085782    1.957    0.489
        34  -8.7431    126.9634      8.9902   5.0281906385e+01   5.2184317254e+01    0.2967531    0.1733256  43.73 0.0006994381    1.591    0.372
        35  -9.5655    125.0865      5.0707   4.9212740476e+01   5.2987715038e+01    0.4080805    0.2998078  39.22  0.001597049    1.283    0.221
        36  -8.8070    133.4523     11.4266   4.9914416412e+01   5.0376054712e+01    0.3685921    0.1756946 -41.92    0.0010935    2.405    0.584
        37  -9.7518    137.1803     10.2086   4.8806158850e+01   4.9576202113e+01     0.507438    0.2136434  35.59  0.001882471    3.135    0.681
        38  -9.4286    110.7479      5.5748   5.2364175258e+01   5.6320304024e+01    0.5199146    0.2749361  11.29  0.002275494    2.623    0.619
        39  -9.1783    115.2045      4.2064   5.0867581276e+01   5.5405051672e+01    0.3210184    0.2198531 -42.24 0.0006851056    1.728    0.421
        40  -8.6245    101.9411      7.7709   5.5320554758e+01   5.8114262762e+01    0.3489963    0.1765428 -26.41 0.0009947262    2.089    0.521
        41  -8.6862    104.1527      2.1486   5.2482288156e+01   5.8115762747e+01    0.2736363    0.1868135  34.83 0.0008597437    1.342    0.255
        42  -8.7464     95.8308      2.8384   5.4786221668e+01   5.9899281544e+01    0.2619334    0.2240547 -22.05 0.0006503877    1.304    0.233
        43  -9.8118    132.5139      4.9237   4.7790350344e+01   5.1201077034e+01    0.5161152    0.2201982  43.17  0.002174085    2.316    0.568
        44  -8.4137    155.7721      9.2047   4.5435042041e+01   4.5028626675e+01     0.362275    0.1664685 -34.82   0.00160687    2.259    0.557
        45  -8.5474    237.6724      5.0884   3.5668215627e+01   2.5550334599e+01    0.2141493    0.1595743  79.23 0.0003522564    1.280    0.219
        46  -8.5870     97.5416      5.9758   5.5681126727e+01   5.9248609168e+01    0.2697093    0.1709908  23.74 0.0008552468    1.625    0.385
        47  -9.6241     15.8689     70.5232   1.1006767515e+02   6.0251938856e+01     0.646341    0.2486164 -46.76  0.001187061    2.073    0.518
        48 -10.2960    187.4476    246.0364   9.6304514096e+01  -2.5960838352e+00    0.2804614    0.1924025  29.10  0.001514925    1.195    0.163
        49 -10.2794    139.4811     93.8952   7.5671526445e+01   3.6036450792e+01     1.141447    0.6008692 -47.03  0.002845068    1.933    0.483
        50 -10.0608    117.2024    125.4965   8.9950038143e+01   3.3751867229e+01    0.7485283    0.5003847 -89.47  0.002312276    2.439    0.590
        51  -9.1178    140.3456     82.4493   7.2081593494e+01   3.8140488152e+01    0.5480691    0.2658017 -41.86   0.00133895    2.047    0.512
        52  -8.3650    140.0532     75.6984   7.0094315493e+01   3.9504035520e+01    0.3202969    0.2054345 -53.30 0.0005346244    1.775    0.437
        53 -10.6837    122.9088     92.4398   7.9662512419e+01   4.0023224414e+01    0.9343178    0.7222176 -42.77   0.00251756    1.270    0.212
        54  -8.9611    125.7514     83.7691   7.6305003515e+01   4.1205451689e+01    0.6566724    0.3237824  29.67  0.002122527    3.253    0.693
        55  -9.5804    139.6372    104.7920   7.8687287967e+01   3.3701760130e+01    0.4836624    0.3465766  81.13  0.001685238    2.050    0.512
        56 -10.3984    108.9550    113.0323   8.9200827867e+01   3.8257673490e+01     1.209182    0.5068766 -52.03  0.002189017    2.367    0.577
        57 -10.6551    108.7656     99.9892   8.5826838705e+01   4.1279999339e+01    0.9641523     0.638318  64.10  0.004061863    2.050    0.512
        58 -10.1699    130.2426    118.0282   8.4625263087e+01   3.2820621990e+01    0.6568862    0.3589298 -55.64  0.001355385    2.017    0.504
        59 -11.0737    133.6397    109.3252   8.1467451795e+01   3.4037479019e+01     2.315532    0.5185645 -48.77  0.005531432    5.067    0.803
        60 -11.2223    121.1470    109.8216   8.4958404302e+01   3.6571145850e+01     1.394091     0.750877 -50.41  0.003409052    1.853    0.460
        61  -9.7735    127.8830    102.5764   8.1170229023e+01   3.6764851814e+01    0.5053214    0.4526724 -69.09  0.001315679    1.196    0.164
        62  -9.8744     41.8754    122.6207   1.1106414423e+02   4.5841089650e+01    0.6506923    0.3121285 -88.42  0.002482349    3.149    0.682
        63  -9.9310     27.4652    122.9324   1.1528491858e+02   4.7132537577e+01    0.6089237    0.2935939  69.47  0.002098393    3.061    0.673
        64  -9.6702    201.5289    122.1792   6.9368712482e+01   1.6050988626e+01    0.2661472    0.2503844 -24.81 0.0002438605    1.020    0.019
        65  -9.0348    145.4089    123.9105   8.2220109303e+01   2.8253323279e+01    0.3269676    0.2102697  50.62 0.0009330024    1.606    0.377
        66 -10.0443    140.5308    118.2508   8.2017808678e+01   3.0566156102e+01    0.6049228    0.3748458 -61.34  0.001179334    1.995    0.499
        67  -8.9209    141.2055    112.6085   8.0383284137e+01   3.1658612860e+01    0.3655325    0.2550338 -49.77  0.001621031    1.443    0.307
        68  -9.1249    129.4760    123.8152   8.6268438287e+01   3.1666621227e+01    0.3220068    0.2278136 -74.29  0.001365987    1.868    0.465
        69  -8.4330    157.8561    122.1104   7.8748117010e+01   2.5890848556e+01    0.3430604     0.242135 -73.78  0.001023491    2.015    0.504
        70  -8.4921    246.0165    122.7422   6.1769700458e+01   6.7172685437e+00    0.1625811    0.1215179  49.18 0.0006145974    1.515    0.340
        71  -8.0492    206.7848    118.8712   6.7558569143e+01   1.5511926999e+01    0.2291487    0.1988893  -6.73 0.0004884648    1.237    0.192
        72  -7.9606    165.1333    117.3031   7.5827811611e+01   2.5257019825e+01    0.3625234    0.1808075 -60.80  0.001095672    3.540    0.718
        73  -8.4157      1.4206    116.4372   1.2186806037e+02   5.0530796960e+01    0.3209856   0.09898681 -78.78  0.001170062    2.864    0.651
        74 -10.4156     14.9544    110.7609   1.1727177967e+02   5.1015597281e+01    0.9221157    0.4586287  89.99  0.003391046    2.263    0.558
        75 -11.0702     20.8272     99.5402   1.1377604404e+02   5.3251745183e+01     1.628358    0.6489471 -80.39  0.005845018    3.193    0.687
        76  -9.5842    199.1189    248.3634   9.4487098656e+01  -4.6868183465e+00    0.2993113    0.1881016 -19.43  0.001777387    1.930    0.482
        77 -10.1884     49.1386     54.4161   9.2368510241e+01   6.0612543118e+01    0.4949475     0.430261  51.64  0.003078797    1.524    0.344
        78  -9.8755     55.1077     44.3858   8.6386482242e+01   6.1743282673e+01     1.077113     0.553973  -2.56  0.003452518    5.214    0.808
        79 -10.7686     55.0433     69.5873   9.4863305974e+01   5.6752491822e+01    0.9630913    0.5872645 -66.85  0.002718161    2.121    0.529
        80  -9.8303     62.7769     60.9273   8.9241290988e+01   5.7510953149e+01    0.6569564    0.2804957  30.02  0.002405813    2.674    0.626
        81  -9.9398     34.4695     90.7062   1.0759671116e+02   5.4209460201e+01    0.5930731    0.2751243 -77.32  0.001747931    2.945    0.660
        82 -10.2358     36.8170     81.0176   1.0463595300e+02   5.6227513402e+01    0.9035107    0.4245901 -17.37  0.003112346    4.741    0.789
        83  -7.9298    152.5604    115.0185   7.8197871986e+01   2.8598002737e+01    0.2426007    0.1536784 -44.19  0.000469032    1.564    0.361
        84 -10.1969     91.9649    113.1198   9.4167452525e+01   4.1315344884e+01     0.594929    0.4233964  83.88  0.001856447    1.986    0.496
        85  -9.0422     93.1786    103.4810   9.1407715872e+01   4.3374156071e+01    0.6453344    0.4333979  10.38  0.002740794    2.239    0.553
        86  -9.7803     93.6250     97.4897   8.9688964826e+01   4.4675718274e+01    0.4869378    0.3707837  25.58  0.001971343    1.476    0.323
        87  -8.8491     96.1220     90.9221   8.7094533431e+01   4.5704052319e+01    0.5003936    0.3158995 -17.19  0.001967361    2.509    0.602
        88  -9.6042     81.6191     99.2652   9.3910651559e+01   4.6290118233e+01    0.7707655     0.314459 -54.85  0.001930424    2.363    0.577
        89 -10.2332     78.2447    112.9474   9.8252136401e+01   4.3570452112e+01    0.5714793    0.3445677 -78.28  0.001663175    2.314    0.568
        90  -8.1702     77.8338    105.7622   9.6709697690e+01   4.5352405502e+01    0.3517736    0.2346511 -16.18  0.001527018    2.268    0.559
        91 -10.3392     65.7007    110.2182   1.0150967180e+02   4.6029722548e+01    0.9694505     0.589299 -79.45  0.002919401    2.125    0.529
        92  -8.8229     59.4559    109.4985   1.0330730569e+02   4.7019238063e+01    0.5237858    0.2438247 -71.30  0.001626864    2.649    0.623
        93 -10.5338     63.0102     95.8172   9.9084793921e+01   4.9820734189e+01    0.8278429    0.5038784  89.05  0.002794395    3.104    0.678
        94  -9.0704     65.2021     85.8959   9.5820406513e+01   5.1813557335e+01    0.7404348    0.4154166 -14.13  0.002667134    3.638    0.725
        95  -7.3191    167.4755    114.4412   7.4555347536e+01   2.5311911395e+01     0.155639     0.152859 -69.86 0.0001697533    1.038    0.036
        96  -8.9335     56.8487    113.7311   1.0497541464e+02   4.6317791643e+01    0.2626532    0.2168752  23.05   0.00131798    1.416    0.294
        97  -8.2782    158.8968    111.8720   7.5861412524e+01   2.7819680929e+01    0.2682714    0.2229956 -43.05 0.0005026549    1.190    0.160
        98  -9.6573     36.3307    111.2505   1.1084780214e+02   4.9148860102e+01    0.3079344     0.205737  83.57  0.001547711    1.731    0.422
        99 -10.5382     25.4553     77.9335   1.0808553949e+02   5.7909315420e+01    0.6725956    0.4572829  74.01  0.002068869    2.101    0.524
       100  -8.1928    203.5310    111.5325   6.6356570506e+01   1.7598943219e+01    0.3233529    0.1501571  51.14  0.001233627    2.255    0.556
       101  -7.9327    149.9312    110.2781   7.7589646324e+01   3.0205440672e+01    0.2178662    0.2112072  41.83 0.0004406358    1.043    0.041
       102  -9.6142    149.3869    103.0247   7.5760847254e+01   3.1861458813e+01    0.6093452    0.3049896 -46.75 0.0009715085    2.022    0.506
       103  -8.6024    149.7125     97.0490   7.4018861050e+01   3.3022735999e+01    0.4190933    0.2768905  18.76  0.001613039    2.320    0.569
       104 -10.8228     44.6880    102.3561   1.0655592633e+02   5.0449614023e+01    0.8230124    0.4405829  70.85   0.00290752    3.656    0.726
       105  -8.8000     39.9496    106.8267   1.0893354582e+02   4.9862769692e+01      0.24059    0.1538422  85.51 0.0003558447    1.958    0.489
       106  -9.6554     35.3699    105.4551   1.1013653267e+02   5.0632832015e+01    0.2740942    0.1551961 -31.46 0.0008882611    2.267    0.559
       107  -9.7109      5.7090    103.7519   1.1913002148e+02   5.3247516270e+01    0.3769886    0.3353717  57.79  0.001592468    1.326    0.246
       108  -8.1115    166.1113    103.9039   7.2072903284e+01   2.7777234504e+01    0.2363782     0.207979 -72.86  0.000459938    1.255    0.203
       109  -8.3275     73.9718    102.8197   9.7219477598e+01   4.6631100622e+01    0.2638719    0.1872391 -54.40 0.0007184537    1.286    0.222
       110  -8.6014    159.0184    101.2090   7.2962539828e+01   2.9992623903e+01    0.3182926     0.217296 -47.11 0.0004402988    1.473    0.321
       111  -9.3619    239.5377     96.7599   5.6763349241e+01   1.2317585810e+01    0.2437322    0.2091812 -13.07 0.0006448916    1.271    0.213
       112  -9.5432    242.7006     92.5716   5.5328844103e+01   1.2341822614e+01    0.2851171    0.1883585  34.44  0.001382068    1.986    0.496
       113 -10.2873      4.5271     87.3978   1.1721185008e+02   5.7093929059e+01     1.289536     0.390796 -71.39  0.003947746    2.709    0.631
       114 -10.7213    161.9867    249.3242   1.0153247601e+02   9.0811875696e-01    0.5373629    0.2307784  42.43  0.002676763    1.882    0.469
       115 -10.3922    172.0279    247.4194   9.9387035458e+01  -3.8895309029e-01    0.3145994    0.2486189  35.15  0.002116922    1.034    0.033
       116  -8.6316    226.0100    244.9542   8.9127965812e+01  -8.2005237591e+00    0.1576004    0.1364927  45.79 0.0005025581    1.643    0.391
       117  -9.7782     17.1518     61.2931   1.0744311262e+02   6.2182376326e+01    0.7816536    0.2121792 -59.02  0.003206841    2.719    0.632
       118 -10.8852     21.9322     53.5755   1.0342553979e+02   6.3469635807e+01    0.8089292    0.4640177 -86.19  0.003157401    3.916    0.745
       119 -10.0170     13.0526     45.7108   1.0506320636e+02   6.5696765190e+01    0.6726424    0.3336568 -13.87  0.002174999    2.529    0.605
       120 -10.2326      4.9098     41.7278   1.0763868329e+02   6.6966787134e+01    0.7548525     0.295429 -62.38  0.002765675    2.233    0.552
       121  -9.8390    108.3727    250.4172   1.1175688992e+02   8.9944097885e+00    0.2106617    0.1280922  41.56 0.0002865345    1.351    0.260
       122  -7.3400    234.0022    241.0050   8.7097356598e+01  -8.8541752839e+00    0.1414856    0.1082271  12.14 0.0004559144    1.011    0.011
       123  -8.4640    250.1903    238.9019   8.3971357417e+01  -1.0818309254e+01    0.1589051    0.1324705   9.34 0.0004933117    1.247    0.198
       124  -8.3165    111.0601    236.7092   1.0979754651e+02   1.0936414170e+01    0.1765306    0.1318693  46.53 0.0002593751    1.112    0.100
       125  -9.5633      6.9015     32.5003   1.0393255973e+02   6.8659153696e+01    0.2669533    0.1803909 -14.78  0.000910314    1.443    0.307
       126  -8.3975    221.3434    228.7126   8.7345138894e+01  -5.4610355377e+00    0.1802241    0.1572041  17.30 0.0003452316    1.193    0.162
       127  -8.4785    157.4491     91.1202   7.0501606361e+01   3.2383343416e+01    0.3229209    0.1943826 -39.53   0.00133487    1.649    0.393
       128  -9.0314    150.1166     90.0239   7.1915865409e+01   3.4345458892e+01    0.4630485    0.2273217 -33.35  0.001676071    2.257    0.557
       129  -9.6044    110.7079     90.1231   8.2463456181e+01   4.3066399547e+01    0.7670286    0.3709779  30.59  0.002663853    2.856    0.650
       130  -9.0387    248.6763     87.3309   5.3298156514e+01   1.1945769388e+01    0.2375162    0.1614695  -9.30    0.0011315    2.075    0.518
       131  -9.0657     83.3308     64.8786   8.3202159226e+01   5.3465872163e+01    0.6149817    0.3737312  -2.49  0.002371199    2.961    0.662
       132 -10.3504     85.3254     86.5897   8.9281801214e+01   4.8565296568e+01    0.5413197    0.4297198  74.56 0.0009619804    1.697    0.411
       133  -9.5716     87.2235     78.8183   8.6362849959e+01   4.9927574689e+01    0.5624963    0.3885608  13.50  0.001765999    1.874    0.466
       134 -10.1839     47.8694     84.4206   1.0149277707e+02   5.4311718003e+01    0.5763484    0.3890126 -77.03  0.001695714    1.799    0.444
       135  -9.2019     48.3425     77.5073   9.9562075864e+01   5.5821807012e+01     0.676973    0.3961449  -4.74  0.003020081    2.658    0.624
       136  -7.6416    174.3900     88.2348   6.5965154864e+01   2.8839940888e+01    0.2279222    0.1399035 -47.86  0.000676544    1.667    0.400
       137  -8.8981    242.2124     85.4070   5.3719544734e+01   1.3596576533e+01    0.1836106     0.133508  79.61 0.0005990324    1.665    0.400
       138  -7.4892    116.3122     85.3073   7.9409205752e+01   4.2929715369e+01    0.1552995    0.1210106  -0.18 0.0007024932    1.621    0.383
       139 -10.3276    103.9869     82.5820   8.2218265712e+01   4.6014312555e+01    0.5719767    0.3328746 -55.69 0.0008471891    1.984    0.496
       140  -9.5699    105.8144     70.9930   7.8007596599e+01   4.8003743937e+01    0.8084077    0.5867921 -14.24  0.003493769    1.665    0.399
       141  -9.4651    109.7978     63.7366   7.4406378265e+01   4.8553828381e+01    0.4014474      0.27511 -54.11 0.0007226544    1.725    0.420
       142  -9.0288    110.3923     58.5729   7.2464465476e+01   4.9357578291e+01    0.4828265    0.2900398  24.11    0.0013654    2.251    0.556
       143  -8.8680    157.7241     83.2059   6.8152190845e+01   3.3844297595e+01    0.4278774    0.1963153 -41.55 0.0009216188    2.153    0.536
       144  -7.9325    170.3307     83.0781   6.5359615652e+01   3.0789445772e+01    0.2296056    0.1930454 -44.28  0.001132956    1.177    0.150
       145  -8.3862    164.0034     87.7870   6.8067863935e+01   3.1449762237e+01    0.4168585    0.2239531 -57.92  0.001467711    2.591    0.614
       146  -8.0944     63.5776     81.7261   9.5250639552e+01   5.2975378463e+01    0.2686836    0.1187896 -49.56   0.00092518    1.984    0.496
       147  -8.6946    149.9836     80.2142   6.9060390804e+01   3.6281591100e+01    0.4580829    0.2193634 -37.30  0.001410597    2.107    0.525
       148  -8.9210    119.0350     80.5781   7.7191051661e+01   4.3319717021e+01     0.354833    0.2804156 -63.69 0.0006930092    1.493    0.330
       149  -8.3527    119.8917     75.9047   7.5488747089e+01   4.4064325599e+01    0.3251929    0.2027065  37.06  0.000869952    1.706    0.414
       150  -8.9241    114.9400     72.7894   7.5899732248e+01   4.5744426589e+01     0.408913    0.2545976 -44.27 0.0009499128    1.612    0.380
       151  -7.6022    116.4842     68.5223   7.4070217614e+01   4.6226537356e+01     0.264857    0.1354004  36.68  0.001014307    2.199    0.545
       152  -9.2072     74.1760     79.3051   9.0887102645e+01   5.1968608500e+01    0.6122492    0.2353132 -50.86  0.001757768    2.440    0.590
       153  -8.2971     68.7631     79.5349   9.2823822166e+01   5.2729604724e+01    0.3116693    0.1403572 -42.04  0.001267417    2.120    0.528
       154  -8.2122    166.4579     78.3245   6.4808823074e+01   3.2610950030e+01    0.3509176    0.1472703 -39.11  0.001237437    2.333    0.571
       155  -9.9503     81.6271     72.4936   8.6263764171e+01   5.2216724669e+01    0.4489435    0.3224335 -69.99 0.0009150584    1.957    0.489
       156  -7.9830    184.6264     77.9896   6.1074260676e+01   2.8184037229e+01    0.2195705    0.1878109 -36.21 0.0005626115    1.164    0.141
       157  -8.7741    156.9268     76.6592   6.6398184206e+01   3.5257318797e+01     0.293527    0.2202641 -48.62 0.0005644677    1.370    0.270
       158  -9.4271    127.4139     75.2876   7.3231522882e+01   4.2510235510e+01     0.391055    0.2591775 -53.31 0.0008094743    1.704    0.413
       159  -8.8514    129.5365     68.9727   7.0655811636e+01   4.3212709813e+01     0.520636    0.3119142  18.56  0.001853279    2.932    0.659
       160  -8.3242    130.3372     64.6952   6.9058805127e+01   4.3799779679e+01    0.2862777    0.2202278 -36.87 0.0007194022    1.309    0.236
       161  -8.9692    203.1400     74.2078   5.6779242332e+01   2.4307124294e+01    0.3613146    0.2260581 -34.85 0.0008127645    1.563    0.360
       162  -8.2213    162.7405     72.7719   6.3967471264e+01   3.4524208904e+01    0.3061725    0.1996249 -47.11  0.001217706    1.579    0.367
       163  -7.7659    175.4489     72.5006   6.1287379164e+01   3.1411603950e+01    0.1530586    0.1460807 -71.46 7.853303e-05    1.038    0.036
       164  -8.1552    169.4878     71.0318   6.2049633114e+01   3.3150916719e+01    0.2306917    0.1490524 -38.40  0.000552052    1.538    0.350
       165  -9.3546    146.9730     68.5919   6.6216384819e+01   3.9140964515e+01    0.6669749    0.3081805 -40.96  0.001403296    2.167    0.538
       166  -8.0945    156.8631     69.7330   6.4326906128e+01   3.6513813335e+01    0.3526154    0.1992904 -37.63  0.001453806    1.770    0.435
       167  -9.7064     94.8501     68.4093   8.0571919012e+01   5.0671447228e+01    0.4087693    0.2650358 -50.69 0.0007962408    1.651    0.394
       168  -9.4324     97.5270     58.4969   7.6338935913e+01   5.2028763434e+01    0.8121489    0.5183931 -20.96  0.003678231    1.837    0.456
       169  -9.2626    138.1480     66.2330   6.7587368969e+01   4.1685192766e+01    0.4002385    0.2026407 -42.48  0.001216748    2.013    0.503
       170  -8.2404    139.4863     61.5098   6.5740750977e+01   4.2184565992e+01    0.2799506    0.2030195  21.34  0.001263313    1.715    0.417
       171  -9.0205    121.1694     66.0707   7.1953913493e+01   4.5646635022e+01    0.3757893    0.2546305 -54.59 0.0006476957    1.747    0.428
       172  -8.0169    121.8969     61.1803   7.0124991129e+01   4.6359854964e+01    0.2712907    0.2150956  39.94 0.0006505391    1.246    0.198
       173  -7.3490    170.7160     65.2910   6.0116350338e+01   3.3817357009e+01    0.1518064    0.1158755 -70.95 0.0001899582    1.534    0.348
       174  -7.2340    178.2656     64.6591   5.8489604624e+01   3.2026234360e+01    0.1557729    0.1121293 -64.39 0.0002153674    1.598    0.374
       175  -8.5587    157.5529     63.1413   6.2162838121e+01   3.7471706242e+01    0.2825309    0.2285108 -74.22 0.0007309004    1.440    0.305
       176  -8.4042     10.0716     60.6512   1.1015864166e+02   6.2757683640e+01    0.3047227    0.1820805  88.37  0.001567642    2.535    0.606
       177  -7.7559    152.5978     60.7644   6.2495064390e+01   3.9099690161e+01     0.214278     0.137616 -46.28 0.0003981899    1.633    0.388
       178  -9.9019     73.1680     59.1942   8.4828845161e+01   5.6278051654e+01    0.5498127    0.2610251 -51.32 0.0008417357    2.329    0.571
       179  -9.4811     75.1514     50.6961   8.1081008706e+01   5.7541567264e+01     0.790964    0.4140471  16.13  0.002888269    3.473    0.712
       180  -7.8831    164.4317     60.2862   5.9868171364e+01   3.6218903143e+01    0.2115517    0.1378683 -46.41 0.0009370628    1.584    0.369
       181  -8.8024    146.6693     59.2729   6.3343330609e+01   4.0810872313e+01    0.2559452    0.2244413 -71.52 0.0006286963    1.269    0.212
       182  -8.8875    130.2066     56.8996   6.6509075627e+01   4.5173002646e+01    0.5714463    0.2617463 -28.13  0.001708989    2.559    0.609
       183  -9.0402     87.7034     57.6525   7.9234391006e+01   5.4061904471e+01    0.6681388    0.2804865 -47.90  0.001549712    2.652    0.623
       184 -10.3949     85.4625     48.2949   7.6582360718e+01   5.6141529738e+01    0.5179953    0.4032514 -88.09  0.002377929    2.251    0.556
       185  -9.0643    138.9381     56.7127   6.4307505509e+01   4.3118510602e+01    0.2797507    0.2096586 -43.99 0.0005386389    1.390    0.281
       186  -9.1620    118.1014     55.5981   6.9254576573e+01   4.8177454741e+01    0.3545811    0.2806963 -87.53  0.000800811    1.769    0.435
       187  -7.2351    157.5050     55.5654   5.9827211517e+01   3.8715188402e+01    0.1490902    0.1436713  68.92 9.126433e-05    1.012    0.012
       188  -8.0436    147.5683     54.1996   6.1514262762e+01   4.1409451952e+01    0.3511059    0.1547402 -22.98  0.001156209    3.222    0.690
       189  -9.1892    162.8270     53.1453   5.8007997822e+01   3.7751319628e+01    0.4203673      0.23822 -34.43  0.001062347    1.796    0.443
       190  -7.9977    152.6272     52.7973   5.9973853871e+01   4.0370420867e+01    0.2933993    0.1472449 -29.28  0.001150355    2.165    0.538
       191  -9.2832    120.9086     47.5821   6.5694632642e+01   4.8839950755e+01    0.5301062     0.302671 -20.06 0.0008831876    2.148    0.534
       192  -7.3878    172.4435     50.5063   5.5403668862e+01   3.5713260067e+01    0.1463242    0.1411214  82.85 0.0001114725    1.013    0.013
       193  -8.2199    157.3199     49.0474   5.7823850994e+01   3.9762705898e+01    0.2047926    0.1963094 -57.09 0.0006226522    1.070    0.065
       194  -8.9811    139.4515     40.2922   5.8704994737e+01   4.5488330467e+01    0.5301619    0.2496196 -34.89   0.00151059    2.166    0.538
       195  -8.7852    141.9780     48.4905   6.0891959458e+01   4.3672778060e+01    0.3386529    0.2019717 -41.08 0.0008303619    1.742    0.426
       196  -9.4702    130.5805     46.2419   6.2787216529e+01   4.6776559590e+01    0.7690439    0.3380683 -22.19  0.001853261    3.155    0.683
       197  -8.6429    111.8948     46.9525   6.7913458064e+01   5.0971400057e+01    0.3247812    0.2327929 -50.98  0.001509699    1.653    0.395
       198  -8.5067    113.5116     41.9829   6.5654100497e+01   5.1373101905e+01    0.5210418    0.2922964  22.22  0.002012546    2.702    0.630
       199  -8.0836    149.9542     47.9955   5.8998341562e+01   4.1769175470e+01    0.2485107    0.2107294 -37.50 0.0004815721    1.219    0.180
       200  -9.0713    148.3306     41.4943   5.7221168168e+01   4.3115915814e+01    0.5451244    0.2719852 -51.59  0.002084233    2.577    0.612
       201  -8.7943    144.0559     36.5622   5.6469369413e+01   4.4858392639e+01    0.2618117    0.2108909 -37.20 0.0005735445    1.306    0.234
       202  -9.0820    105.5624     51.9785   7.1557011049e+01   5.1522297058e+01     0.593479    0.2926063 -29.40  0.001848436    2.219    0.549
       203  -9.4468    188.2530    233.6814   9.4318475049e+01  -9.7894517288e-01    0.2300061     0.215709  40.08 0.0009322706    1.271    0.213
       204  -9.0409    220.0833    211.3131   8.4580338052e+01  -2.8483519712e+00    0.2714762    0.2347526  62.20  0.001683011    1.738    0.424
       205 -10.0039     10.5189    207.6166   1.2677862164e+02   2.9460529197e+01    0.5215924    0.3361394  26.47   0.00342078    2.095    0.523
       206  -8.8293    208.1658    205.6009   8.5803666456e+01  -3.2358625587e-02    0.2516944     0.192595  40.44  0.001187419    1.322    0.244
       207  -9.8486     76.3257     32.2713   7.3427408079e+01   6.0371111619e+01     0.430907    0.2970462  52.52  0.001078375    1.750    0.428
       208  -9.4059     71.0983     26.3077   7.2780781937e+01   6.2159972094e+01    0.3741824    0.3073739  -3.07  0.002055717    1.083    0.077
       209  -9.6821     79.5746     23.9516   6.8775243283e+01   6.0936478912e+01    0.5244116    0.2689983  27.61  0.001852899    2.277    0.561
       210  -9.1951     84.9039     21.6706   6.6040039143e+01   6.0197703458e+01    0.2873917    0.2350326  45.27 0.0007309956    1.253    0.202
       211  -8.9323     40.0431     34.7901   8.9081147570e+01   6.5361362390e+01    0.3968897    0.3135929  25.60  0.002567344    1.401    0.286
       212  -9.9491     37.8115     42.1899   9.2865126695e+01   6.4269331963e+01    0.3475845    0.2812952  81.49  0.001654744    2.210    0.548
       213 -10.1671     35.9108     38.0063   9.2167159105e+01   6.5246561548e+01    0.3567875    0.2100044 -39.65 0.0003624419    1.426    0.299
       214  -9.3191    110.3085     32.8765   6.3116851314e+01   5.3382510562e+01    0.4857644    0.2231532 -38.00  0.002028743    2.296    0.564
       215  -8.8948    104.9091     40.9691   6.7694577817e+01   5.3415064739e+01    0.3225188    0.2331102 -53.27 0.0007922054    1.749    0.428
       216  -8.5500    106.5452     36.2683   6.5444898017e+01   5.3746625374e+01    0.3517585    0.2179983  27.59  0.001307839    1.830    0.454
       217 -10.4935     90.1835     38.1979   7.1134690730e+01   5.6870148859e+01     1.101792    0.3593327  36.22  0.003435344    4.132    0.758
       218  -8.8617    153.4732     40.4399   5.5847170253e+01   4.1970560045e+01    0.3745662     0.217821 -43.13   0.00166174    1.812    0.448
       219  -7.9524    123.1982     40.4016   6.2551821173e+01   4.9381982220e+01    0.3635118    0.1851068  22.12  0.001144893    4.044    0.753
       220  -8.3242    153.6101     34.7962   5.4002858320e+01   4.2693354479e+01    0.2830537    0.1182453 -37.52 0.0004962632    2.416    0.586
       221  -8.4916    136.2837     26.6708   5.4701504056e+01   4.8034988989e+01    0.3135882    0.1902776 -39.58  0.001330988    1.775    0.437
       222  -8.6052    132.8572     35.8713   5.8651151578e+01   4.7705666977e+01    0.2906568    0.2003385 -41.52 0.0004896006    1.561    0.359
       223 -10.8027    134.0188     31.0315   5.6702305215e+01   4.8053730722e+01     0.272737    0.2515133  14.32  0.001576331    1.118    0.105
       224  -8.8586    118.8915     34.9225   6.1646063313e+01   5.1150127372e+01    0.3112276     0.197861 -33.05 0.0006715987    1.633    0.388
       225  -9.2542    101.1181     32.0165   6.5349242737e+01   5.5511278978e+01    0.4837889     0.219947 -34.31  0.001315708    2.235    0.553
       226  -9.7794    123.9936    205.9994   1.0324987698e+02   1.4604278129e+01    0.1913468    0.1683004  53.66            0    1.001    0.001
       227 -10.4159    239.5060    204.1188   7.9753937493e+01  -4.8790588440e+00     0.226453    0.1910645  21.43  0.001491764    1.197    0.165
       228  -7.1830    131.7612    203.9927   1.0127833909e+02   1.3670590156e+01    0.1608095    0.1156578 -56.05 0.0005166378    1.544    0.352
       229  -9.0024    209.1823    201.0491   8.4778921469e+01   5.0558717207e-01    0.2139646    0.1727349  31.13 -0.0006383859    1.159    0.137
       230  -8.8125    192.5044    195.0069   8.6943538824e+01   4.4214236686e+00    0.3790957    0.2335379 -64.02  0.001583617    3.080    0.675
       231  -8.6527     45.3892     15.7400   7.8349328381e+01   6.7681246257e+01     0.225863    0.1901004 -39.11  0.001180042    1.525    0.344
       232 -10.1511     46.2985     29.7155   8.4240253487e+01   6.5447658003e+01    0.4308372    0.2652204 -50.74  0.001100785    2.026    0.506
       233  -8.5686     42.0052     28.0370   8.5431354355e+01   6.6268573532e+01    0.1923467    0.1474429 -11.86  0.000348551    1.119    0.107
       234  -8.0531    189.6751    190.3444   8.6644037692e+01   5.7414691611e+00    0.2782114    0.1930566 -63.30  0.001328437    2.181    0.541
       235  -8.1337    209.8303    196.1893   8.3750359509e+01   1.1650694268e+00    0.1840844    0.1670001  26.60 0.0003267636    1.163    0.140
       236 -10.2471    177.3617    191.7144   8.9443707411e+01   7.7655458969e+00    0.2430723    0.2387599   0.04 0.0004662309    1.121    0.108
       237  -7.8101    236.3285    191.9230   7.8016835512e+01  -2.6230344611e+00    0.1773555    0.1442943 -10.12 0.0001726858    1.084    0.077
       238  -8.3018     92.7715     20.4296   6.3092842374e+01   5.8751385475e+01    0.3018315    0.1752852  27.38 0.0009745459    1.867    0.464
       239  -7.5874    214.4765     30.4740   4.3808779318e+01   2.7966249956e+01    0.1358618    0.1212824 -76.09 0.0008095664    1.020    0.019
       240  -8.2603    129.5974    191.0062   9.9729133704e+01   1.6666013422e+01    0.1961615    0.1720715  49.83 0.0001660707    1.042    0.040
       241  -9.3053    144.3526     26.1140   5.2905091645e+01   4.6100041688e+01    0.3525097    0.2067288 -26.86  0.001643882    1.840    0.457
       242  -8.2925    128.4910     25.8866   5.6086128578e+01   5.0027206562e+01    0.2445972    0.2061456 -77.16 0.0006258172    1.421    0.296
       243  -8.5002    164.9201     22.0960   4.8056305524e+01   4.1365126049e+01    0.2070094    0.1888761  69.29 0.0004249801    1.023    0.023
       244  -9.6025    118.9226     21.3470   5.6582655975e+01   5.2831796975e+01     0.302063    0.2705921 -11.13 0.0006856319    1.175    0.149
       245  -7.0951    216.6852    190.3330   8.1324130044e+01   9.1416088182e-01    0.1224097    0.1102144 -88.18 0.0007046245    1.685    0.407
       246  -8.7661    111.3818     21.2483   5.8362635322e+01   5.4588290877e+01    0.3156533    0.1911621 -21.85  0.001103474    1.770    0.435
       247  -7.0720    222.9954    187.7292   7.9633010809e+01   2.3970228562e-01    0.1548658    0.1087971  33.85 0.0001826414    1.363    0.266
       248  -9.1950     62.2058    185.3510   1.1427797637e+02   2.8485685641e+01    0.2209554    0.1881458  83.94 0.0004022043    1.039    0.038
       249  -8.7464    198.5098    176.0613   8.2053772352e+01   6.6218489584e+00    0.2438995    0.1924058  36.97  0.000302875    1.227    0.185
       250  -7.4003    184.2778    173.6756   8.4501670979e+01   9.7921547735e+00    0.1364384    0.1165132 -88.79 0.0006990803    1.587    0.370
       251  -8.3973      1.5205     28.3046   1.0526516885e+02   6.9744320337e+01    0.2074009    0.1019192 -48.19 0.0005685669    1.479    0.324
       252  -7.7947    139.8126     18.0350   5.1021993027e+01   4.8137932274e+01    0.2173689    0.1402912 -54.33  0.000456194    1.879    0.468
       253  -8.6635     62.9829    169.9444   1.1224459124e+02   3.1922054068e+01    0.1917673    0.1682721  88.47 0.0003043207    1.043    0.041
       254  -8.0092    230.3285    168.1471   7.4333555393e+01   2.1037055349e+00    0.1980244    0.1152815 -43.13 0.0009421313    1.806    0.446
       255  -7.5825    126.1666    168.1367   9.6575676393e+01   2.2206066241e+01    0.1924506     0.163147  70.03 0.0003959489    1.223    0.182
       256  -7.0324    217.7516    152.3214   7.3261653434e+01   7.1398957379e+00    0.1338544    0.1105646 -60.99 0.0001738813    1.531    0.347
       257  -7.3545    189.4580     15.5027   4.2792503954e+01   3.5887339013e+01    0.1351219     0.121506  84.05 0.0001763895    1.040    0.039
       258  -8.6586    133.8255    146.9790   9.0474485965e+01   2.5495237974e+01    0.7402858    0.2061606 -55.62  0.001829137    5.250    0.810
       259  -7.1929    156.2553    148.0425   8.5282026893e+01   2.0661711274e+01    0.1839279    0.1318723 -43.88 0.0001995102    1.416    0.294
       260  -8.6657     68.3236    145.6659   1.0738600194e+02   3.7017588372e+01    0.2974741    0.2417193 -66.15  0.001187689    1.134    0.118
       261  -8.9593     65.3215    143.6528   1.0786756660e+02   3.7913982862e+01    0.2966308    0.2250961 -77.06   0.00112706    1.222    0.182
       262  -8.9025    238.3018    145.3783   6.8062642307e+01   4.4137804531e+00    0.2249939    0.1586017   2.71  0.001123228    1.719    0.418
       263  -8.6552    112.4186    134.0494   9.3196403413e+01   3.2656658325e+01    0.3802039    0.2698671  75.66  0.001030884    1.870    0.465
       264  -9.9720    133.6547    131.6955   8.7076574297e+01   2.9005632812e+01    0.6347013    0.4117619  51.58  0.002692714    1.614    0.380
       265  -8.8816     82.9331    131.2743   1.0076265004e+02   3.8400148174e+01    0.5823925    0.3404073  82.75  0.002144909    3.056    0.673
       266  -8.1886    142.8832    132.0326   8.4826584117e+01   2.6995076567e+01    0.3644184    0.2232665  70.40   0.00130554    2.716    0.632
       267 -10.0416     71.2196    125.7650   1.0303670138e+02   4.1483861402e+01    0.5751648    0.3588699 -84.10   0.00142149    2.032    0.508
       268 -10.0280     65.8540    129.2576   1.0524721616e+02   4.1366794854e+01    0.5276351    0.3950298 -40.17  0.002798548    1.475    0.322
       269 -10.0755     58.1848    124.4971   1.0660585539e+02   4.3524987490e+01    0.6060572    0.3699133  78.72  0.002130419    2.259    0.557
       270  -9.8012     98.5434    128.5590   9.5797871457e+01   3.6482428413e+01    0.6352503    0.3886932  75.02  0.002116393    2.785    0.641
       271  -8.5884    164.2908     94.4318   6.9879702435e+01   3.0094270929e+01    0.2990983    0.2407508 -56.50 0.0006696741    1.314    0.239
       272  -8.3945    126.1452    129.2831   8.8456620102e+01   3.1093746285e+01     0.290316    0.2027418 -79.36 0.0008877645    1.998    0.500
