#   1 NUMBER                 Running object number                                     
#   2 MAG_AUTO               Kron-like elliptical aperture magnitude                    [mag]
#   3 X_IMAGE                Object position along x                                    [pixel]
#   4 Y_IMAGE                Object position along y                                    [pixel]
#   5 X_WORLD                Barycenter position along world x axis                     [deg]
#   6 Y_WORLD                Barycenter position along world y axis                     [deg]
#   7 A_WORLD                Profile RMS along major axis (world units)                 [deg]
#   8 B_WORLD                Profile RMS along minor axis (world units)                 [deg]
#   9 THETA_WORLD            Position angle (CCW/world-x)                               [deg]
#  10 FWHM_WORLD             FWHM assuming a gaussian core                              [deg]
#  11 ELONGATION             A_IMAGE/B_IMAGE                                           
#  12 ELLIPTICITY            1 - B_IMAGE/A_IMAGE                                       
         1 -14.8132     68.4029    144.3516   1.1262325025e+02   3.7208941842e+01     5.137148     2.392829  68.69   0.00439094    3.933    0.746
         2 -14.4923    198.3817     32.4610   5.2426050663e+01   3.1272010520e+01     2.308128     1.530088  25.99  0.008475162    2.043    0.511
         3 -14.5141    210.3767     18.4988   4.6974752848e+01   2.9869149652e+01     1.739221     1.195441  21.61  0.008383071    2.035    0.509
         4 -14.1470      5.5863     16.6788   1.0413278438e+02   7.0966791115e+01     3.041883    0.4980747 -49.98   0.01231655    3.436    0.709
         5  -9.7434    155.3247     10.9955   5.2120334955e+01   4.4973765587e+01    0.1878697    0.1823115  -2.12  0.000405149    1.100    0.091
         6 -10.7785     41.9889      3.2850   8.0107167011e+01   6.9453055587e+01     0.170256    0.1331547   1.38  0.000600946    1.074    0.069
         7 -10.2240     57.4702      2.4916   7.3310540374e+01   6.7246004995e+01    0.1246511   0.09867263   2.96  9.33134e-05    1.012    0.012
         8 -11.1569    155.0089     49.8183   6.5383389236e+01   4.0125108863e+01    0.4069207    0.2910634 -79.86  0.001160348    1.939    0.484
         9 -10.3082    174.2898    249.7964   1.0570044458e+02   4.9944496467e-01    0.2438638     0.164878  63.76  0.001501448    1.919    0.479
        10 -15.6670    105.5248    247.7144   1.1730268777e+02   1.1454552953e+01     6.833144     2.217582  38.54   0.03046468    3.018    0.669
        11  -9.2413    167.6561    188.6871   9.7813857960e+01   1.0859133877e+01    0.1383868    0.1031437  12.46  0.000704678    1.707    0.414
        12 -13.1809     40.1282    244.7796   1.2779029013e+02   2.0555326341e+01    0.3717395    0.2203373  85.46 0.0005195176    1.439    0.305
        13 -16.4658      9.5774    244.2023   1.3239489767e+02   2.3930847557e+01     2.842111     1.869982  32.32   0.02163342    2.231    0.552
        14 -11.0754    208.2135    182.7981   8.8789105158e+01   4.1254136580e+00    0.4191435     0.309787  15.64  0.001594511    1.399    0.285
        15 -12.1120     69.6706    181.0419   1.1719425558e+02   2.8906342622e+01    0.4155022    0.2614542 -45.40  0.002223583    2.222    0.550
        16 -11.8567     74.0296    175.6673   1.1562895210e+02   2.9448961678e+01    0.2844157    0.2172882 -54.80   0.00088459    1.503    0.335
        17  -9.7585     99.5037    180.6014   1.1080285084e+02   2.4578810983e+01    0.2270396    0.1882256  50.78 0.0006578208    1.174    0.148
        18 -12.3238     82.8269    165.2914   1.1231327077e+02   3.0436640932e+01    0.6300799    0.4267286  79.96 0.0009971191    1.555    0.357
        19 -12.6408     89.0574    158.5326   1.0987991837e+02   3.0988948790e+01     1.192786    0.6267803 -66.33  0.002649227    1.900    0.474
        20 -13.5198     70.3358    161.9509   1.1468286944e+02   3.2958345100e+01    0.5471553    0.4590267 -31.27  0.001114734    1.704    0.413
        21 -14.6433     50.0897    231.2872   1.2534276851e+02   2.1684913553e+01     1.654311     1.351851 -72.97   0.01301291    1.524    0.344
        22 -10.9539    195.4383    169.7422   8.8661568189e+01   8.7220442403e+00    0.4054377    0.2955509 -46.41  0.001557775    1.544    0.352
        23 -10.7105    137.1380    170.8091   1.0106048233e+02   2.0019056640e+01    0.2210682    0.1857798  69.71  0.001230893    1.205    0.170
        24 -10.2567    145.8033    168.3580   9.8724995149e+01   1.8855712317e+01    0.1920179    0.1772238 -89.08 0.0004945581    1.130    0.115
        25 -11.3902     32.7262    165.2926   1.2335122062e+02   3.6717099275e+01    0.2945983    0.1568149 -85.32  0.001276168    1.645    0.392
        26 -10.4805    189.3539    155.2073   8.6832139857e+01   1.2515857919e+01    0.3259344    0.2723516  42.68   0.00174708    1.157    0.136
        27 -10.9859    133.7238    144.2056   9.6702347467e+01   2.6248349974e+01     1.073188     0.245761 -54.03  0.002508871    6.331    0.842
        28 -11.7387     53.9635    147.7779   1.1660015990e+02   3.8262678153e+01    0.5115297    0.2414513 -61.28  0.002513289    1.860    0.462
        29  -9.9744    174.8745    148.7482   8.8433814196e+01   1.6779214653e+01    0.2731167    0.1964752 -71.78 0.0008614315    2.004    0.501
        30 -10.3955     41.7511    147.5912   1.1946155204e+02   3.9695856696e+01    0.2438267    0.1847285  82.00 0.0007908271    1.160    0.138
        31 -11.0445     44.4580    144.4846   1.1844097094e+02   4.0107282526e+01    0.3024048    0.2135141  58.52  0.001394094    1.412    0.292
        32 -10.6547     87.6695    146.3177   1.0822608475e+02   3.3961888152e+01    0.2500758    0.1967478  66.47   0.00106971    1.260    0.206
        33 -12.3719     90.3770    142.6674   1.0692699264e+02   3.4372424437e+01    0.2672301    0.2507067 -54.32 0.0004020201    1.190    0.160
        34 -10.9271    102.9167    142.2236   1.0374752237e+02   3.2403334439e+01    0.5414627    0.3495663 -27.70  0.002306823    2.563    0.610
        35 -10.2208    111.8959    131.6758   9.9384801458e+01   3.3203608707e+01    0.3237531    0.2515823   1.38 0.0009612753    1.920    0.479
        36 -10.2001    105.8378    130.7857   1.0073583793e+02   3.4500212380e+01    0.3063793    0.2576198 -86.68  0.001190387    1.231    0.188
        37 -12.0193    193.5824    194.1891   9.3699115212e+01   5.0855328764e+00    0.7978348    0.5407937 -63.16  0.003941748    2.386    0.581
        38 -11.0904     99.1652    128.4130   1.0195922803e+02   3.6207103240e+01    0.3040453    0.2336936 -38.23 0.0007951242    1.471    0.320
        39 -11.0436     47.2083    172.2704   1.2096932409e+02   3.3618569693e+01    0.3030612    0.2119183 -78.38  0.001159236    1.232    0.189
        40 -11.3506    135.3201    122.3239   9.1391863657e+01   3.0681776555e+01    0.6938342     0.138849 -50.08   0.00156505    6.022    0.834
        41 -11.7216     67.1396    128.5104   1.1036617725e+02   4.1059503180e+01    0.3159508     0.271805  79.76  0.001487637    1.137    0.121
        42 -10.3276    160.2817    128.0016   8.6855891179e+01   2.4087772772e+01    0.2250423    0.2089314 -42.83  0.001181154    1.085    0.079
        43 -10.3447    125.7197    127.0966   9.4897681025e+01   3.1588646755e+01    0.3318737    0.2151382 -88.78 0.0008722547    2.644    0.622
        44 -16.6108      6.6514    211.2418   1.3139111380e+02   3.0002262547e+01     7.625207     1.235907 -73.90   0.02741909    4.511    0.778
        45 -12.4630     29.3537    121.1950   1.1918904049e+02   4.6971625563e+01    0.3850101    0.2864722 -12.65  0.002347803    2.038    0.509
        46 -11.8746     46.4978    115.5432   1.1371580662e+02   4.6591837525e+01    0.6446322    0.1570972  46.14  0.002041407    5.377    0.814
        47 -12.4045     43.8369    109.2029   1.1338099463e+02   4.8354479774e+01    0.4434154     0.343066  63.38  0.002019378    1.431    0.301
        48 -10.0769    168.0033    112.8597   8.1304011048e+01   2.5404317188e+01    0.3789736    0.2615705 -73.37  0.001409484    2.181    0.541
        49  -9.6596    108.0651    120.1076   9.7822496144e+01   3.6538173296e+01    0.2109558    0.1980253 -74.31 0.0003492251    1.015    0.015
        50 -11.3182    118.3692    125.5673   9.6400560482e+01   3.3367007313e+01    0.8063087     0.423167 -33.21  0.002935522    2.818    0.645
        51 -11.3005    119.5827    110.1017   9.2374464778e+01   3.6591877739e+01    0.4556156    0.3089252  79.21  0.001868929    2.286    0.563
        52  -9.9869    205.4551    110.1309   7.2903312991e+01   1.7134805096e+01    0.3296987    0.2179613  40.52  0.001160471    1.588    0.370
        53 -10.2215    134.6384    103.2347   8.6673848702e+01   3.4951553641e+01    0.3385994    0.1890717 -38.16   0.00135465    1.847    0.459
        54  -9.7922     86.7104     99.5250   9.8835096247e+01   4.4938189109e+01    0.2241211    0.1873496  72.53 0.0004141442    1.381    0.276
        55 -10.9828     53.3443     94.2318   1.0763973015e+02   5.0785320284e+01    0.3566035     0.228235  64.19  0.001777607    2.142    0.533
        56  -9.3246     25.0380     82.4855   1.1418774346e+02   5.6205176618e+01    0.1458321    0.1238385  23.77 0.0003485845    1.477    0.323
        57  -9.1473    157.2673     79.6701   7.4380764602e+01   3.4442891533e+01    0.1581453    0.1221533 -67.18  0.000344744    1.579    0.367
        58  -8.7859     97.2918    194.3220   1.1308279122e+02   2.2139444889e+01    0.1122705    0.1019547 -21.23 0.0004295076    1.610    0.379
        59 -10.7517     13.5078     59.7833   1.1343462046e+02   6.1996853852e+01    0.2129648    0.1687674 -54.90 0.0004326923    1.041    0.040
        60 -11.0608    152.7427     55.8532   6.7867197783e+01   3.9741179373e+01    0.4562174    0.3138516 -81.21  0.001449661    2.207    0.547
        61 -12.1672    189.6632     38.6032   5.5519729721e+01   3.2739283875e+01    0.6139588     0.462055  55.32  0.001023122    1.309    0.236
        62 -10.5862     78.4640    236.9866   1.2097289130e+02   1.7036663377e+01    0.2177556    0.1322442  51.94 0.0005859386    1.286    0.223
        63 -14.0604     18.8040    199.6534   1.2867808749e+02   3.1038270593e+01       2.2488    0.3374765  54.51   0.00755217    6.127    0.837
        64 -10.9870    189.8135     15.1187   4.8475264975e+01   3.5550843247e+01    0.2231475     0.184226 -66.28 0.0007095548    1.219    0.179
        65 -12.9735     18.8981    192.1450   1.2818672715e+02   3.2508078862e+01    0.3447009    0.2372666  57.22 0.0005555799    1.298    0.230
        66 -10.6769     71.1580    229.9673   1.2165404997e+02   1.9232294268e+01    0.2817035    0.1166116  46.04  0.001365353    1.931    0.482
        67 -13.8238     44.7282    210.2066   1.2476844847e+02   2.6190353712e+01    0.6631738     0.525924  81.39  0.001222452    1.128    0.113
        68 -15.0490     54.7604    199.3901   1.2203197858e+02   2.7082721094e+01     2.017188     1.142355  62.75  0.008395266    1.537    0.349
