#   1 NUMBER                 Running object number                                     
#   2 MAG_AUTO               Kron-like elliptical aperture magnitude                    [mag]
#   3 X_IMAGE                Object position along x                                    [pixel]
#   4 Y_IMAGE                Object position along y                                    [pixel]
#   5 X_WORLD                Barycenter position along world x axis                     [deg]
#   6 Y_WORLD                Barycenter position along world y axis                     [deg]
#   7 A_WORLD                Profile RMS along major axis (world units)                 [deg]
#   8 B_WORLD                Profile RMS along minor axis (world units)                 [deg]
#   9 THETA_WORLD            Position angle (CCW/world-x)                               [deg]
#  10 FWHM_WORLD             FWHM assuming a gaussian core                              [deg]
#  11 ELONGATION             A_IMAGE/B_IMAGE                                           
#  12 ELLIPTICITY            1 - B_IMAGE/A_IMAGE                                       
         1 -14.8726    211.0544     67.9666   6.9343527911e+01   2.3942715744e+01     8.377043       4.3837  87.00   0.02927655    3.416    0.707
         2 -15.0906    232.0705      9.9846   5.4955569719e+01   2.6807519936e+01     1.274215     1.122712 -28.24  0.005640422    1.527    0.345
         3 -14.1617    220.3569     34.4100   6.0894906959e+01   2.6475325412e+01     1.162187    0.4112858 -48.45  0.005063731    2.750    0.636
         4 -16.2324    243.9812     25.0574   5.6774586143e+01   2.2739922316e+01     2.805468     1.796135  57.21   0.01760851    1.773    0.436
         5 -13.9791    249.1977      3.4411   5.2480346893e+01   2.4110571757e+01    0.4845644    0.4447466  38.66  0.003171839    1.685    0.407
         6 -14.7297    171.9353     83.8851   7.9725563570e+01   3.0212395041e+01     8.203304     4.657897  79.78   0.02914485    3.370    0.703
         7 -13.3080    207.7215      6.2778   5.6360347082e+01   3.2257088782e+01     1.979628     1.171405  50.09  0.008589928    1.941    0.485
         8 -11.1932    145.1931     27.7371   6.9646185041e+01   4.4063715714e+01    0.6057247    0.3478112 -30.58  0.003178399    1.947    0.487
         9 -13.5406    215.7474     10.7363   5.6519589365e+01   3.0108114198e+01     1.275469    0.8901432   4.67  0.003240549    2.691    0.628
        10 -11.3733    178.9185     24.1240   6.3551668661e+01   3.6795416106e+01     0.536412    0.4133845  65.61  0.002373246    1.145    0.127
        11 -11.6930    134.3385     19.1570   6.9147092438e+01   4.7343487007e+01    0.6542323    0.5048623  47.86  0.003598075    1.132    0.117
        12 -10.7188    159.6169     13.8802   6.3663214768e+01   4.2174604129e+01    0.5804903    0.2167613 -25.42  0.002403872    3.214    0.689
        13  -9.7919    115.8036     12.4188   7.0649176148e+01   5.1967196193e+01    0.2984849    0.1790181  55.55  0.001592485    1.395    0.283
        14 -11.2896    120.2309      8.9511   6.8724925977e+01   5.1310386240e+01    0.4272504     0.395192 -26.49  0.001748858    1.289    0.224
        15  -8.5860    171.6483     10.5955   6.1239627732e+01   3.9773048315e+01    0.3080109    0.1227459 -34.85 0.0003935652    2.663    0.624
        16  -9.4947    172.1987      6.0322   6.0080038228e+01   4.0059728555e+01    0.1701123    0.1551391 -55.00 0.0003408474    1.237    0.192
        17  -9.8670    172.0983      2.2099   5.9187416039e+01   4.0410617542e+01     0.219541    0.1813859 -65.64 0.0006735021    1.270    0.212
        18  -9.4469    135.4074      3.9811   6.4648837570e+01   4.8407049266e+01    0.2122918    0.1720131   8.64  0.000610016    1.463    0.317
        19  -8.3990    129.0000      2.5513   6.5282870801e+01   4.9914649834e+01    0.2200635   0.06965794 -21.63 0.0009186069    3.806    0.737
        20 -12.6158     43.1990    167.1019   1.3136578781e+02   3.5323543436e+01    0.6085673    0.5193452 -86.75  0.001385622    1.108    0.098
        21 -12.7871     50.0926    162.6439   1.2898282927e+02   3.5587941912e+01     0.909009    0.7437691 -82.98  0.002991012    1.187    0.157
        22 -12.3026     55.5706    158.6873   1.2695214381e+02   3.5867804337e+01    0.6503683    0.4797897 -78.90  0.001698335    1.383    0.277
        23  -8.5259     99.2338    163.7923   1.1656958463e+02   2.8307938408e+01    0.1866889     0.162119 -25.05  0.000290402    1.270    0.212
        24  -9.0395    165.4022    160.7724   9.9799577589e+01   1.6536810665e+01    0.2624451    0.1821539 -35.55 0.0006057897    1.460    0.315
        25  -9.1328    159.4949    158.1834   1.0057245304e+02   1.8276144890e+01    0.3083301    0.2198554 -68.48  0.001259157    1.889    0.471
        26  -9.9760    212.3149    156.3318   8.9059450071e+01   8.1480247442e+00    0.2352114    0.2236414 -44.27 0.0002812721    1.120    0.107
        27 -10.0644    192.4662    153.3098   9.2306083475e+01   1.2620843254e+01    0.3376798    0.2396971 -63.05  0.000999583    1.819    0.450
        28  -8.9852    203.9031    152.8130   8.9909215558e+01   1.0448864107e+01     0.226933    0.1923108   0.49 0.0007341225    1.280    0.219
        29  -9.6824    151.8651    149.6098   1.0041833849e+02   2.1670657110e+01    0.2725767    0.2441538 -52.57 0.0006375501    1.146    0.128
        30 -10.1107    134.1059    147.8695   1.0432591170e+02   2.5614176242e+01    0.7293081    0.2448245 -49.87  0.002293808    3.073    0.675
        31  -9.8719    132.8151    141.0003   1.0306447261e+02   2.7398411561e+01    0.6660165    0.1684498 -50.62  0.001716921    4.573    0.781
        32  -8.2670    219.4576    149.4235   8.6236139119e+01   8.0864863197e+00    0.1404158    0.1296838 -37.44 0.0001010683    1.062    0.059
        33 -10.6249    179.4404    145.7559   9.3322582539e+01   1.6798666505e+01    0.4047271    0.2452255 -31.81  0.001361427    1.777    0.437
        34 -13.6875    167.2446    111.5814   8.7735768198e+01   2.6254584732e+01     2.485197     1.628788 -45.76   0.01005599    1.527    0.345
        35 -14.2545    216.5068    124.7758   8.1331010802e+01   1.3225815695e+01     6.255358     1.173444  52.83   0.01470927    7.365    0.864
        36 -11.0767    213.8670    167.5206   9.1160525541e+01   5.7471212792e+00    0.7198156    0.4070677  65.31  0.002544176    3.890    0.743
        37 -10.1722    149.9797    140.7925   9.8819050615e+01   2.3962950729e+01    0.3061316     0.237521  87.14   0.00127464    1.828    0.453
        38 -10.8758    135.9771    126.1770   9.8699415208e+01   2.9990121372e+01    0.8968904    0.2877091 -47.48  0.002768158    3.201    0.688
        39 -10.5951    132.0784    119.6907   9.8053062720e+01   3.2165360349e+01    0.6030533    0.4515677  75.73  0.001641675    1.908    0.476
        40 -12.8730    187.4288    105.9443   8.2242755371e+01   2.2851742109e+01      1.18896    0.8721724 -37.11  0.004214029    1.349    0.258
        41  -9.9830    140.4978    121.0830   9.6305806596e+01   3.0127087925e+01    0.4451566    0.2961338  80.43  0.001338471    2.860    0.650
        42  -9.0070      3.6577    117.2938   1.3450607765e+02   5.0262903041e+01    0.1138452    0.0850795  73.64 0.0002173026    1.658    0.397
        43 -10.8550    134.9191    107.8187   9.4265152714e+01   3.4011636440e+01     1.276597    0.2749318 -41.93  0.003326032    4.655    0.785
        44  -9.7944    133.9505     96.9042   9.1580825431e+01   3.6342664911e+01    0.2641403      0.25244 -62.27 0.0005601151    1.142    0.124
        45 -10.3516    126.9136    111.2603   9.7200717246e+01   3.4975111247e+01    0.6558457     0.243916 -51.02  0.001737782    3.273    0.695
        46 -11.4439    124.3344    103.2128   9.5731644816e+01   3.7127386472e+01    0.5538678    0.4753948  56.88  0.002427411    1.286    0.222
        47 -14.2120    221.0800    113.0161   7.7937369772e+01   1.4411475044e+01     4.445318     1.213068  55.77   0.01345738    4.655    0.785
        48  -8.6758    141.4466    104.7352   9.1850887712e+01   3.3230331151e+01    0.2004929    0.1439758 -27.82 0.0005337164    1.506    0.336
        49  -9.9238    147.6225    100.6583   8.9310010363e+01   3.2672662818e+01    0.3037651    0.2876265 -58.16 0.0007734077    1.115    0.103
        50  -9.2534     71.7956    249.4325   1.3500650077e+02   1.3643777193e+01    0.1602224    0.1104726  31.51 0.0008654043    1.629    0.386
        51 -11.8833    237.7602    245.5146   1.0167479878e+02  -1.1012859132e+01    0.2232635    0.1865332  -2.96  0.000412286    1.130    0.115
        52 -13.3246    249.8292     47.5040   6.0476575015e+01   1.8778350907e+01    0.5237948    0.4594678 -89.85  0.002534296    1.157    0.135
        53 -13.5377    248.6583     39.1474   5.8999979051e+01   2.0093960561e+01    0.5073265    0.3430938 -45.17  0.001513193    1.382    0.276
        54 -10.1549    150.0155    222.5672   1.1523542669e+02   6.6645423004e+00    0.2340398    0.2002765 -45.25  0.001355636    1.259    0.206
        55 -10.8736     37.1177    215.0703   1.3839663591e+02   2.5093880752e+01    0.4109811    0.2839793  -1.55  0.002189647    2.754    0.637
        56 -10.0865    196.3282     95.8709   7.8183748813e+01   2.2682667866e+01    0.3759656    0.2868976  25.81  0.001207366    1.672    0.402
        57 -12.4015    192.5464     72.3654   7.3182351572e+01   2.7386182606e+01    0.8927887    0.4503432  40.75    0.0036815    2.541    0.607
        58 -10.8034      4.2554     95.5953   1.3065887564e+02   5.4946405654e+01    0.2584278    0.1511728 -47.16  0.001552845    1.329    0.248
        59  -9.9251    233.8845    210.1523   9.5960264888e+01  -5.1195714532e+00    0.4892115   0.07293005 -38.75   0.00126318    6.530    0.847
        60 -10.4340    141.0560     90.6430   8.8154880227e+01   3.5967854776e+01    0.3590786    0.2872745 -34.25 0.0005302479    1.270    0.212
        61 -11.5996    194.1989    197.2225   1.0118940726e+02   3.7227680110e+00    0.6474694    0.3927729 -56.36  0.002874295    2.221    0.550
        62 -13.0582    171.7460     70.1085   7.6217758734e+01   3.2472391244e+01     1.347723     0.636385 -45.21  0.001694387    2.230    0.551
        63  -8.2251    146.3026     85.3166   8.5486658896e+01   3.5756177059e+01    0.1482685    0.1136103  12.33 0.0007023705    1.621    0.383
        64 -10.3452      4.3880     83.8588   1.2830212568e+02   5.7384498966e+01    0.3444612    0.1213069 -27.86   0.00135781    3.919    0.745
        65  -9.5642    202.6615     80.4184   7.3468147475e+01   2.3861220709e+01    0.2588362    0.1879998 -72.30 0.0002894918    1.583    0.368
        66  -9.6438    125.8185     76.3313   8.7820805144e+01   4.1755888768e+01     0.226826    0.1829894  64.92  0.001182271    1.443    0.307
        67  -8.5497    115.5082     74.1305   8.9810393382e+01   4.4275202911e+01    0.1947313    0.1381294 -34.48 -6.052907e-05    1.437    0.304
        68 -13.7814    220.1435     56.0010   6.5492714529e+01   2.3702484733e+01     2.650386     1.074325  67.20   0.01132697    2.616    0.618
        69  -9.9007    134.2047     81.5701   8.7267887231e+01   3.9064276503e+01    0.2460766    0.2240753  55.06  0.001370445    1.138    0.121
        70 -10.9432      9.1367     68.5812   1.2313747301e+02   6.0117481850e+01    0.2833931     0.165804  15.44  0.001724628    1.906    0.475
        71 -11.2238    102.3929     64.7174   9.0494106585e+01   4.8422409174e+01    0.5668831    0.2012206  43.46  0.002136571    2.680    0.627
        72  -9.0016     72.5370     58.1171   9.7354792870e+01   5.4778261245e+01    0.1880775    0.1205275 -34.78 0.0006192245    1.524    0.344
        73 -10.5637      6.6592     55.1621   1.2054416449e+02   6.2772620374e+01    0.1583673    0.1318309 -20.94  0.001066272    1.154    0.134
        74 -10.4375    191.1967    191.6072   1.0069410542e+02   5.3274202745e+00    0.5107561    0.3032794 -63.33   0.00199136    2.978    0.664
        75 -11.7328    238.8350    196.2740   9.2381686397e+01  -3.6036862113e+00    0.3876222    0.2642312  19.03  0.002130571    1.557    0.358
        76  -9.6408    183.9160     30.9124   6.4505737677e+01   3.4917637013e+01    0.2523382    0.2035901 -30.95 0.0009017039    1.421    0.296
        77  -8.8992    162.0783     32.5599   6.8119499725e+01   3.9703899648e+01     0.198753    0.1158238  65.19  0.001010523    1.565    0.361
        78 -13.4891     12.2060    186.6061   1.4079990872e+02   3.3901810185e+01    0.9326453    0.7181967  89.95  0.003876858    1.093    0.085
        79  -9.0336    166.8939     30.1817   6.6757556837e+01   3.8870199641e+01    0.1861689    0.1588266 -84.43 0.0005221017    1.191    0.160
        80 -14.0224    229.5788    173.4992   8.9483690233e+01   1.8495094705e+00      2.88977     1.800079  -7.33   0.01286243    2.322    0.569
        81 -10.0492    159.0641     26.0613   6.6897610006e+01   4.1097889047e+01    0.4090434    0.2056284 -27.58  0.002005454    2.298    0.565
        82 -13.3099    244.9886    169.1446   8.5893539714e+01   1.8546139036e-02     2.482055     1.175912 -49.17  0.009088582    2.381    0.580
        83  -9.9809    136.2987     15.3531   6.7711873737e+01   4.7260039642e+01    0.2860238    0.1759083  69.78 0.0009869946    1.570    0.363
        84  -9.5160    108.6338     22.2021   7.5280504159e+01   5.2581508871e+01    0.1643674     0.113992  -2.94 0.0005623148    1.651    0.394
        85  -9.3820    186.6216     26.1547   6.3029747415e+01   3.4839663766e+01    0.2238611    0.1624681  81.76 0.0006007529    1.279    0.218
        86 -14.1179    217.0271    137.0910   8.3976401912e+01   1.0851204857e+01     8.003868      1.21612  50.03   0.01745138    8.503    0.882
        87 -12.5186    213.9407     89.6806   7.3831753585e+01   1.9901316121e+01     3.359674    0.9495723  61.82  0.009442593    5.432    0.816
        88 -10.8012    204.8445    190.2108   9.7628217899e+01   3.1389283468e+00     0.363778    0.2616711  71.38  0.001651171    2.482    0.597
        89 -11.7149     35.6700    182.5875   1.3518222939e+02   3.2530457629e+01     0.668262    0.4115852  73.81  0.003521994    1.840    0.457
        90 -12.4073     28.9016    173.5767   1.3565641141e+02   3.5311846943e+01    0.5497717    0.5222316 -85.99  0.003833891    1.157    0.136
        91 -11.6907     24.6443    167.3124   1.3589392815e+02   3.7174877350e+01    0.4960075    0.3036823 -57.58  0.002809552    1.433    0.302
        92 -11.1305    200.1564    174.8019   9.5396744251e+01   6.9096285678e+00    0.6035177    0.3951214 -11.02   0.00265353    2.075    0.518
        93 -12.1472     68.2261    146.7041   1.2147103893e+02   3.7073894641e+01     1.665667     1.082136 -41.09  0.006102665    1.562    0.360
        94  -8.2442    129.2534     10.3797   6.7508113869e+01   4.9240569314e+01    0.1248276   0.08045732  31.30 0.0006449502    1.657    0.397
