#   1 NUMBER                 Running object number                                     
#   2 MAG_AUTO               Kron-like elliptical aperture magnitude                    [mag]
#   3 X_IMAGE                Object position along x                                    [pixel]
#   4 Y_IMAGE                Object position along y                                    [pixel]
#   5 X_WORLD                Barycenter position along world x axis                     [deg]
#   6 Y_WORLD                Barycenter position along world y axis                     [deg]
#   7 A_WORLD                Profile RMS along major axis (world units)                 [deg]
#   8 B_WORLD                Profile RMS along minor axis (world units)                 [deg]
#   9 THETA_WORLD            Position angle (CCW/world-x)                               [deg]
#  10 FWHM_WORLD             FWHM assuming a gaussian core                              [deg]
#  11 ELONGATION             A_IMAGE/B_IMAGE                                           
#  12 ELLIPTICITY            1 - B_IMAGE/A_IMAGE                                       
         1 -11.4093    182.7279     39.4352   3.5657837392e+02   3.5287747336e+01    0.3135778    0.2694406  -4.64  0.001044589    1.584    0.369
         2 -13.2257    197.4716     16.6859   3.4964639369e+02   3.4887127868e+01     0.745455    0.5645601 -54.15  0.005030109    1.065    0.061
         3 -10.9663    120.3065      8.9969   3.5482853095e+02   5.3361406048e+01    0.2557985    0.2062844  67.11  0.001151677    1.184    0.155
         4 -12.7053    124.9717    229.1569   4.7882156064e+01   1.0368839821e+01    0.5531113    0.4315372  -1.14  0.002323031    1.237    0.191
         5 -11.5072     85.9297    245.0354   5.8307419284e+01   1.1999127805e+01    0.3773011    0.2507317 -43.20  0.002280499    1.788    0.441
         6 -15.4325    125.9243    245.3251   4.9611453696e+01   7.4956421696e+00     4.088486     1.002194  23.55   0.01342851    4.680    0.786
         7 -13.0628    101.6984    247.2231   5.5027354722e+01   9.8735517393e+00      0.58083    0.5468268 -76.09  0.004272627    1.345    0.257
         8  -9.9418     75.3252    248.6812   6.0990083295e+01   1.2483030159e+01     0.323301    0.2036808 -27.44  0.001806325    2.177    0.541
         9 -18.2886     45.1615    220.0422   6.5856044018e+01   2.1351394710e+01     6.913565     3.934602 -78.58    0.0285855    1.957    0.489
        10 -10.3548    120.3914    195.2063   4.4264633712e+01   1.7476037981e+01    0.2310544    0.2175499 -88.88 0.0007751005    1.275    0.216
        11 -11.5355     72.1556    200.0471   5.7119501366e+01   2.2772526034e+01    0.2555455    0.2162188  84.42 0.0005035104    1.289    0.224
        12  -9.5286     90.7573    228.8311   5.5621145791e+01   1.4489813438e+01    0.2609628    0.1450882 -68.10  0.000996249    2.247    0.555
        13 -10.6153    129.0859    198.6044   4.2730702315e+01   1.5594213598e+01    0.2173807    0.1861984 -60.17 0.0005998848    1.371    0.271
        14  -9.8622     97.6366    197.8923   5.0265659604e+01   1.9999847659e+01    0.2133546    0.1737779  60.48  0.000484926    1.382    0.276
        15 -11.5369     94.4010    193.3376   5.0476289068e+01   2.1432644091e+01      0.54103    0.3525207  25.28 0.0008821872    1.464    0.317
        16 -10.8158     18.5632    198.5549   7.1285324162e+01   2.8761242623e+01    0.1283907    0.1139719  57.20 0.0002116722    1.043    0.041
        17  -9.6713     81.3371    197.3140   5.4391033628e+01   2.2248818886e+01    0.2518801    0.1683699  26.35 0.0007854714    1.399    0.285
        18 -11.3661     80.7804    193.7610   5.4098994512e+01   2.3126818117e+01    0.2818575    0.2270494  69.57 0.0005137456    1.378    0.274
        19 -11.8292    116.6488    225.5514   4.9286823574e+01   1.2023093759e+01    0.3046854     0.269109  61.69  0.001991741    1.404    0.288
        20 -10.4930      1.6151    195.7684   7.5625602659e+01   3.0775539371e+01    0.1553601    0.1309294  69.86 0.0005340341    1.064    0.060
        21  -9.6159      6.5414    195.4011   7.4313918323e+01   3.0493413584e+01    0.1233454    0.1135252  60.28 0.0001602337    1.106    0.096
        22 -11.8198     99.5118    179.2130   4.7083795825e+01   2.3918474749e+01    0.8318759    0.3935557  52.91  0.002885724    2.942    0.660
        23 -13.0508     85.8595    172.9400   4.9850048438e+01   2.7345426685e+01     1.046136    0.5813329  30.13  0.004628772    1.729    0.422
        24 -11.4995     73.6283    189.9319   5.5546246223e+01   2.4925727032e+01    0.5064052    0.3054503 -34.74  0.001890965    2.127    0.530
        25 -10.3666     80.4810    184.0599   5.2924699905e+01   2.5422661967e+01    0.2656555    0.1931075  38.12 0.0005463815    1.284    0.221
        26 -10.3997     76.0206    183.5147   5.4080854282e+01   2.6138894660e+01    0.2417596    0.2034549 -63.01 0.0006113239    1.248    0.199
        27 -12.5248     75.3912    178.4317   5.3582046254e+01   2.7446013061e+01    0.9994077    0.4035755  39.34  0.002204658    2.262    0.558
        28  -9.8542    110.6922    183.5147   4.4854000825e+01   2.1338745380e+01     0.214756    0.1707741  82.05 0.0006711782    1.656    0.396
        29 -11.2602    167.4903    223.9432   3.8306520730e+01   6.2220637321e+00    0.2088679    0.1999808 -65.10 0.0009249455    1.566    0.362
        30 -12.4627    154.3590    221.4141   4.0580304413e+01   8.1802043525e+00    0.6848583    0.3035062  19.79  0.003143068    2.415    0.586
        31 -10.1907    186.5202    174.9515   2.6642208605e+01   1.2000648846e+01    0.2374809     0.187547  23.63  0.001150635    1.318    0.241
        32 -10.9553     24.2552    172.5951   6.7959213951e+01   3.4693231551e+01    0.2853114    0.2413702 -49.30   0.00121046    1.325    0.245
        33 -11.9885     35.1416    169.2802   6.4380309157e+01   3.4512987635e+01    0.4787707     0.342336 -10.68  0.001182346    1.800    0.444
        34 -11.2668     28.7736    173.9259   6.6717055592e+01   3.3933392227e+01    0.3669125    0.2445583   9.27  0.001824079    1.741    0.426
        35 -11.3457     34.0565    173.4864   6.5101060644e+01   3.3533701433e+01    0.3551306    0.2040049  19.92  0.001392288    1.818    0.450
        36 -10.2476    104.6384    172.3604   4.4624342954e+01   2.4743720922e+01     0.256976    0.2337787 -67.74 0.0008093955    1.180    0.152
        37  -9.6897    149.3168    192.6748   3.7242855037e+01   1.3960245359e+01    0.1236345    0.1050988  66.86 0.0003096591    1.671    0.402
        38 -11.4154    184.9252    220.6109   3.4492572595e+01   4.7569062283e+00    0.6954501    0.1694293 -47.27  0.002518446    4.826    0.793
        39 -10.9239    187.0000    215.5096   3.3336639027e+01   5.3012564008e+00    0.2795182     0.151439 -43.61  0.001579457    1.891    0.471
        40 -11.4922     90.4943    166.4940   4.7535512001e+01   2.8237485958e+01    0.3133528    0.2649191 -19.64 0.0007803119    1.322    0.244
        41 -11.6056     93.2186    162.3624   4.6078750066e+01   2.8834076968e+01    0.4577969    0.2878413 -36.48  0.001997081    1.853    0.460
        42 -12.6568    233.9973    159.1348   1.6053881198e+01   8.2953347387e+00     0.826719    0.4596603  19.76  0.004564937    2.534    0.605
        43 -13.2168    246.8404    154.4347   1.3482862624e+01   7.4246049521e+00     1.088698    0.5035938 -32.69  0.006168072    1.697    0.411
        44 -10.2073     16.2578    218.2512   7.2866283596e+01   2.4465669502e+01    0.2686812    0.2294687 -54.86  0.001579211    1.424    0.298
        45 -11.2213     89.9826    212.9430   5.4057541540e+01   1.7775677750e+01    0.3384203    0.2084271  43.87  0.000482629    1.561    0.360
        46 -14.3258    234.3225    204.4362   2.3687489754e+01   1.8076900842e+00     2.004583    0.8624682  12.36  0.008959425    4.055    0.753
        47 -11.1680     99.0981    154.5382   4.3028661509e+01   2.9820970050e+01    0.3099638    0.2669273  43.33 0.0005955785    1.162    0.139
        48 -11.5296    102.1203    149.8801   4.1296824035e+01   3.0460008342e+01    0.3211767    0.2686307 -47.32  0.000690478    1.195    0.163
        49 -12.0910    102.7770    146.1625   4.0384932200e+01   3.1250391061e+01    0.5479704    0.3046624  54.76  0.001805609    2.308    0.567
        50 -10.4944    134.1146    147.5186   3.2411598505e+01   2.5578124267e+01    0.4495785    0.1622552 -55.99  0.001420119    3.529    0.717
        51 -10.6185     28.3854    208.4445   6.9305037665e+01   2.5574870634e+01    0.2459367    0.1915533  68.05 0.0008344987    1.200    0.167
        52 -10.7709    122.5946    222.5981   4.7576812386e+01   1.1842164159e+01    0.3626011    0.1760139 -59.74  0.001710307    2.610    0.617
        53 -10.5860    112.0608    136.3094   3.5741892678e+01   3.2005360560e+01    0.3705167    0.2051376 -37.38  0.001473001    2.077    0.518
        54 -11.0978    101.5036    135.0751   3.8469588423e+01   3.4162361843e+01    0.2703528    0.2387087  27.98 0.0003352718    1.169    0.144
        55  -9.6933    106.0434    123.6602   3.4597110567e+01   3.6103098755e+01    0.2111012    0.1951312  29.29 0.0004742292    1.124    0.110
        56 -10.3686    123.9998    205.9789   4.4998236713e+01   1.4822436223e+01    0.1885353    0.1688312  15.72  0.001178822    1.034    0.033
        57 -11.4803    101.1569    229.8082   5.3315854225e+01   1.3082672280e+01    0.6793717    0.2198909  31.11  0.002824788    2.488    0.598
        58 -11.1200     24.4774    205.2081   7.0117576559e+01   2.6678733027e+01    0.2638026    0.1449491 -74.72 0.0007991302    1.874    0.466
        59 -10.1894     29.4608    202.5289   6.8647355697e+01   2.6839564383e+01     0.388936    0.3008246  33.98   0.00219611    1.182    0.154
        60 -11.6106    109.0170    204.1039   4.8288551195e+01   1.7178430551e+01    0.4679744    0.2714241  18.32  0.001652072    1.794    0.443
        61 -10.2698     89.1581    202.1849   5.2973046656e+01   2.0171174533e+01    0.3694876    0.2385331  12.67  0.001832113    1.703    0.413
        62 -12.0872    163.3998     60.4596   4.6611572711e+00   3.6535477639e+01    0.4058749    0.3031112 -69.46  0.001093796    1.345    0.257
        63  -9.6368    143.9430     59.5071   7.6367754422e+00   4.1092557928e+01    0.2044107    0.1374174  66.13 0.0006658537    1.525    0.344
        64 -13.0891    178.1755     46.1421   3.5882721601e+02   3.5376478000e+01    0.7204103    0.6365651 -22.13  0.003653733    1.360    0.265
        65 -13.1902    193.0961    237.9892   3.5528856976e+01   1.3730190202e+00    0.9655803    0.5160505   5.91  0.005625908    1.924    0.480
        66 -11.2964    122.7929    200.2195   4.4442798700e+01   1.6127157729e+01    0.3537205    0.3118066  -7.13 0.0005132015    1.097    0.088
