#   1 NUMBER                 Running object number                                     
#   2 MAG_AUTO               Kron-like elliptical aperture magnitude                    [mag]
#   3 X_IMAGE                Object position along x                                    [pixel]
#   4 Y_IMAGE                Object position along y                                    [pixel]
#   5 X_WORLD                Barycenter position along world x axis                     [deg]
#   6 Y_WORLD                Barycenter position along world y axis                     [deg]
#   7 A_WORLD                Profile RMS along major axis (world units)                 [deg]
#   8 B_WORLD                Profile RMS along minor axis (world units)                 [deg]
#   9 THETA_WORLD            Position angle (CCW/world-x)                               [deg]
#  10 FWHM_WORLD             FWHM assuming a gaussian core                              [deg]
#  11 ELONGATION             A_IMAGE/B_IMAGE                                           
#  12 ELLIPTICITY            1 - B_IMAGE/A_IMAGE                                       
         1 -14.0904    165.2829     41.6872   7.7438065556e+01   3.8837201958e+01     1.433149     1.071264  -2.66    0.0041572    1.432    0.302
         2 -13.8969    181.2948      8.6350   6.3385312069e+01   3.8447330939e+01     1.588925    0.9849629  53.87  0.006376463    1.536    0.349
         3 -10.1629    133.7735    247.1754   1.2626455381e+02   1.1472422601e+01     0.128457     0.100169  47.29 0.0003113466    1.082    0.076
         4 -19.8633     67.3612    167.5483   1.3054130457e+02   3.2825764339e+01     15.83849     4.494108 -67.61   0.06560434    3.628    0.724
         5 -11.5243    163.6816    202.9545   1.1605054573e+02   1.2821554057e+01     0.248239    0.1951749  67.08  0.001118794    1.622    0.384
         6 -11.1107    157.0077    200.1506   1.1687568250e+02   1.4271811198e+01    0.4532191    0.3086936  80.33  0.002430812    2.715    0.632
         7  -9.4992    139.8520    200.5816   1.2010022302e+02   1.6892423900e+01    0.2379625    0.1278722  30.19 0.0008658298    2.017    0.504
         8 -10.3646     16.3521    250.1612   1.4442744515e+02   2.4445566961e+01    0.1088228   0.06637815  76.39 0.0004679644    1.313    0.238
         9  -7.1999      9.4628    201.5584   1.4378158237e+02   3.2504986185e+01   0.09219043   0.07130546  73.95 0.0003758585    1.142    0.124
        10  -9.6184    150.5921    245.4812   1.2339349308e+02   9.3792007260e+00    0.1036502   0.07658453  41.77 0.0001372905    1.021    0.020
        11 -11.2963    170.3962    185.2976   1.1217300782e+02   1.4207004483e+01    0.3244844    0.2269551 -54.32  0.001913184    1.906    0.475
        12 -10.5623    169.7526    195.3951   1.1385148424e+02   1.2885250147e+01    0.1704557     0.133892  43.50 0.0007525187    1.146    0.128
        13 -13.1829    174.5179    188.0457   1.1184062854e+02   1.3121815817e+01    0.9295468    0.4376952 -36.38  0.004635811    2.557    0.609
        14 -12.5135    165.3239    188.5107   1.1362877997e+02   1.4591562680e+01    0.5184921    0.3087935  36.64  0.002364884    1.443    0.307
        15 -10.1029    125.0482    243.5764   1.2734112955e+02   1.3086148081e+01    0.1191504    0.1044374  55.94 0.0005561829    1.208    0.172
        16 -12.0594    180.5536    193.6771   1.1161917458e+02   1.1343538071e+01    0.2809708    0.2634886  89.44  0.001988251    1.467    0.318
        17 -10.6810     21.9260    242.9159   1.4338349509e+02   2.4959990969e+01    0.1318002   0.08660633  80.28 0.0007730464    1.300    0.231
        18 -10.4145    152.4806    183.4337   1.1529799761e+02   1.7486546903e+01    0.3122898    0.1581133 -62.97  0.001330903    3.688    0.729
        19  -9.0773      8.2387    185.5552   1.4333114427e+02   3.5372161528e+01    0.1079075    0.0494877  69.44 0.0002522963    1.775    0.437
        20 -10.7362     29.7980    183.5870   1.3930199189e+02   3.3836585436e+01    0.2690513    0.1210368  48.77  0.001110146    1.811    0.448
        21 -11.9713    206.7376    178.0896   1.0428405045e+02   8.9517539555e+00    0.4482124    0.3390242   6.21  0.002794893    1.280    0.219
        22 -10.2523    203.3125    170.7179   1.0355115297e+02   1.0515340287e+01     0.439781    0.1614403  37.04  0.001816452    2.532    0.605
        23 -10.7511      4.2154    180.3316   1.4382671666e+02   3.6627001375e+01    0.2044585    0.1580258  17.64  0.001590182    1.952    0.488
        24 -10.1740     10.6184    174.8578   1.4240164277e+02   3.7117088451e+01    0.1342891    0.0923276  83.96 0.0002897419    1.135    0.119
        25 -12.2056    195.6307    169.4511   1.0472159741e+02   1.2057347652e+01    0.4115586    0.3712392 -10.21 0.0008033084    1.193    0.162
        26 -11.1273    193.5839    164.7471   1.0422137444e+02   1.3087820392e+01    0.3415547     0.288543  22.35  0.001428966    1.010    0.010
        27 -11.0886    125.7882    171.8860   1.1888704671e+02   2.3753069271e+01    0.2689575    0.2164898 -65.78  0.001054566    1.398    0.285
        28  -9.5821    165.5214    172.5149   1.1100061450e+02   1.6956240787e+01    0.1282313    0.1114429  35.11 1.570043e-05    1.023    0.023
        29 -12.1252    143.2971    168.1698   1.1471779265e+02   2.1502603699e+01     0.567153    0.3636656  87.87  0.002472196    3.295    0.697
        30 -11.9611    118.9997    240.4384   1.2804326386e+02   1.4292925143e+01    0.1601076    0.1357744 -78.60 0.0006846911    1.479    0.324
        31 -10.1926     13.8735    238.6161   1.4441549751e+02   2.6311392588e+01     0.073052    0.0469736 -80.51   0.00062335    1.641    0.391
        32  -8.7033     13.4931    233.3731   1.4429877644e+02   2.7117442228e+01   0.08971754   0.06040803  61.80 0.0002434847    1.039    0.038
        33 -10.0043    200.5769    162.4567   1.0248347400e+02   1.2134681633e+01    0.2849068    0.1986341  23.48  0.001298988    1.346    0.257
        34 -12.6043    137.8950    171.3764   1.1633190195e+02   2.1867166659e+01    0.6817549    0.3975079  57.22  0.003465651    1.939    0.484
        35 -13.7684    135.1588    128.1147   1.0904443534e+02   3.0252954878e+01     2.066123    0.5192508 -45.72  0.006407691    4.097    0.756
        36 -13.4719    133.5520    145.7114   1.1289151855e+02   2.7193856332e+01     1.134907    0.4187258 -56.64  0.003990687    3.803    0.737
        37 -12.8791    128.7670    143.5801   1.1356551370e+02   2.8434477911e+01    0.6245248    0.2910476  48.19  0.002199015    2.127    0.530
        38 -11.0451    161.8410    153.6954   1.0834952119e+02   2.0648526496e+01    0.3077293    0.2278563  63.24   0.00164713    1.665    0.399
        39  -9.9368    174.7691    148.9238   1.0478241780e+02   1.9003337472e+01    0.2333117    0.1933028 -58.58 0.0007954085    1.542    0.351
        40 -12.9344    143.5863    143.4961   1.1026123560e+02   2.5799184600e+01    0.8938866    0.4183432 -59.42  0.003363776    3.376    0.704
        41 -10.8747      5.9065    137.1467   1.4124502602e+02   4.4830005792e+01    0.2441699    0.1826964 -43.36  0.001178128    1.815    0.449
        42  -9.8319     13.3843    137.3534   1.3958945641e+02   4.4247408842e+01     0.183536    0.1363556  -1.91  0.001268061    2.159    0.537
        43 -11.3210     25.0068    225.8556   1.4225882886e+02   2.7206892461e+01    0.2198311    0.1041302 -69.00  0.001182791    2.307    0.567
        44 -11.1956    160.3762    127.8480   1.0331577919e+02   2.5408358949e+01    0.3442848    0.2493539 -53.03  0.001734679    1.608    0.378
        45  -9.9140    110.1546    223.0042   1.2792875644e+02   1.7869866051e+01    0.1491663    0.1212292  54.83 0.0004090114    1.063    0.059
        46 -10.3757     19.6659    222.9260   1.4297539951e+02   2.8153172444e+01    0.1197892   0.09508711  87.62   0.00109964    1.332    0.249
        47 -10.0043    167.7342    112.8473   9.8181749856e+01   2.6550199752e+01    0.2777358    0.2027217  78.87  0.001237205    2.165    0.538
        48 -10.6944      7.1722    111.0305   1.3901229467e+02   5.0256222582e+01    0.1865115    0.1406326 -46.99  0.001045852    1.571    0.363
        49  -9.9146    205.4851    110.1737   8.9963222379e+01   1.8832750252e+01    0.2600137     0.197007  40.68 0.0006646364    1.292    0.226
        50 -10.3866      7.7751    220.8940   1.4475009606e+02   2.9516132131e+01    0.0664676   0.04638155  44.11            0    1.432    0.302
        51 -10.0004    111.8527    213.9069   1.2673887611e+02   1.8979591606e+01    0.1575128    0.1100454  72.91    0.0010697    1.581    0.367
        52 -10.2764      7.1676    101.9854   1.3819919156e+02   5.2228895641e+01    0.1991779    0.1670751  36.33 0.0009254515    1.467    0.318
        53 -10.8147    109.4610    210.2004   1.2678922677e+02   1.9873402050e+01    0.2244423    0.1432637  54.29  0.000544361    1.341    0.254
        54 -10.4550    107.4649    206.5709   1.2677656196e+02   2.0712874941e+01      0.17793    0.1427951  52.23 0.0001275619    1.013    0.013
        55 -10.0407    116.5337    212.3774   1.2574329096e+02   1.8557156787e+01    0.1950111    0.1098423 -62.83  0.001201422    2.198    0.545
        56 -13.4909    153.8165     56.4289   8.4866728544e+01   3.9504279661e+01     1.198945     1.003061  51.54  0.001030275    1.237    0.191
        57 -12.2035     11.9130    206.1163   1.4355525861e+02   3.1537052663e+01    0.3404135    0.1925844  33.60  0.001905163    1.930    0.482
        58 -12.1046    169.4451     33.6490   7.3874926714e+01   3.8828397508e+01    0.4463984    0.3652776   0.88 0.0008877702    1.246    0.197
        59  -9.8101     13.4097     59.8825   1.3066297859e+02   6.1276335567e+01    0.1700102    0.1519469  83.38 0.0004247593    1.252    0.201
        60  -9.9167    139.4529     32.0802   7.9331545949e+01   4.6682655906e+01    0.4294009    0.2247073  74.97  0.001468109    3.240    0.691
