#   1 NUMBER                 Running object number                                     
#   2 MAG_AUTO               Kron-like elliptical aperture magnitude                    [mag]
#   3 X_IMAGE                Object position along x                                    [pixel]
#   4 Y_IMAGE                Object position along y                                    [pixel]
#   5 X_WORLD                Barycenter position along world x axis                     [deg]
#   6 Y_WORLD                Barycenter position along world y axis                     [deg]
#   7 A_WORLD                Profile RMS along major axis (world units)                 [deg]
#   8 B_WORLD                Profile RMS along minor axis (world units)                 [deg]
#   9 THETA_WORLD            Position angle (CCW/world-x)                               [deg]
#  10 FWHM_WORLD             FWHM assuming a gaussian core                              [deg]
#  11 ELONGATION             A_IMAGE/B_IMAGE                                           
#  12 ELLIPTICITY            1 - B_IMAGE/A_IMAGE                                       
         1 -13.5833      7.4990     10.1793   6.8423260817e+01   7.2084286940e+01    0.5499964     0.160618 -42.00  0.002720565    2.464    0.594
         2 -11.4013    160.6046      9.7841   1.8471314667e+01   4.4032879272e+01    0.1879706    0.1210245 -39.97   0.00094955    1.673    0.402
         3 -11.8076    149.3621      9.0943   2.0027460998e+01   4.6933278479e+01    0.2827356    0.1743102  87.87  0.001325652    1.925    0.481
         4 -12.0961      1.8139      5.6658   6.9602968218e+01   7.3170531065e+01    0.3947474    0.1284717 -34.28   0.00199506    2.533    0.605
         5 -10.6093    171.6376      6.2979   1.5848486893e+01   4.1566894319e+01    0.1439166   0.09416768 -70.87 0.0007033553    1.716    0.417
         6 -10.8939    186.5078      4.9873   1.3628694449e+01   3.7925113378e+01      0.19189   0.08810347 -51.76 0.0005910684    2.394    0.582
         7 -10.9841    204.5299      3.5330   1.1311729927e+01   3.3567655253e+01    0.1330268    0.1132625 -86.04 0.0001071693    1.007    0.007
         8 -11.5342    154.3773      5.1507   1.7951581147e+01   4.6040135957e+01    0.1839292    0.1177741 -39.30 0.0009138996    1.708    0.414
         9 -10.4526    240.4750      2.4764   7.9527496691e+00   2.5147478574e+01    0.1283577    0.1013238 -71.58 0.0002244186    1.041    0.039
        10 -10.6144    159.3331      2.6780   1.6441769028e+01   4.5013211649e+01    0.1403028   0.09484149 -68.40 0.0005075873    1.703    0.413
        11 -11.2439     22.8235      2.3587   5.6562086015e+01   7.1920211291e+01    0.1552388   0.08775625  14.20  0.000953342    1.761    0.432
        12 -10.8274    144.3053      4.6581   1.9392504851e+01   4.8599810201e+01    0.1366907   0.09767418 -65.76 0.0003985527    1.684    0.406
        13 -12.2965     72.9207    240.6122   9.0440521471e+01   1.6376537891e+01    0.3731042    0.1810365  57.82   0.00209196    1.734    0.423
        14 -12.3728    249.3429    248.1164   5.9155319685e+01  -1.1911298523e+01    0.4803322    0.2569123 -22.62  0.002933636    1.950    0.487
        15 -13.1332    243.4604    244.7821   5.9622586639e+01  -1.0728601623e+01    0.5412201    0.2515551 -16.54  0.002682265    2.891    0.654
        16 -12.9024    248.7965    238.2979   5.7662264970e+01  -1.0748180080e+01    0.4981808    0.1738629 -33.03  0.002398582    3.036    0.671
        17 -11.6164     74.5225    250.2989   9.0937250461e+01   1.4456103294e+01    0.3937382    0.1037337  44.62  0.001774017    2.734    0.634
        18 -12.2125     65.3004    248.9518   9.2431060969e+01   1.5923168272e+01    0.4193949    0.1965117  53.35  0.002035652    1.634    0.388
        19 -12.1434     57.3749    242.2192   9.3312856604e+01   1.8141373427e+01     0.514538    0.1934984  57.74  0.002481803    2.308    0.567
        20 -11.6846     50.6310    250.0432   9.4996106409e+01   1.7604135796e+01    0.3803053     0.124493  43.73  0.001985779    2.325    0.570
        21 -12.0194     35.7472    247.4727   9.7302916679e+01   1.9832821305e+01    0.5153458    0.1769718  59.90  0.002689833    2.435    0.589
        22 -12.1421     29.9098    240.4129   9.7866628332e+01   2.1755404638e+01    0.4079598    0.1963636  74.74   0.00181179    1.793    0.442
        23 -11.5635     12.2872    248.8535   1.0110502313e+02   2.2144600470e+01    0.2909326    0.1407242  65.02  0.001987915    1.494    0.331
        24 -11.3868      4.7041    249.6013   1.0229488564e+02   2.2776939613e+01    0.2229203    0.1245124  67.29  0.001674223    1.225    0.184
        25 -11.2515     38.3258    240.6661   9.6474219794e+01   2.0749006809e+01    0.3093944    0.1469915  69.86  0.001529043    1.836    0.455
        26 -10.9983     36.9658    234.6840   9.6336955197e+01   2.2002176377e+01    0.3467174    0.1263758  62.14  0.001738173    2.505    0.601
        27 -11.7335    229.0572    247.4823   6.2535170035e+01  -8.9667948409e+00    0.1741382    0.1256266  22.72  0.000898941    1.070    0.065
        28 -11.3754     65.0130    239.7505   9.1784326358e+01   1.7594416710e+01     0.242525     0.138209 -89.87  0.001470758    1.772    0.436
        29 -12.8062     97.4938    245.0482   8.6385152204e+01   1.2094944329e+01    0.5100419    0.1729879  50.69  0.002315303    2.460    0.594
        30 -10.8545     10.5056    238.4673   1.0092504206e+02   2.4162176991e+01    0.1978025    0.1210962  77.99  0.001471442    1.190    0.160
        31 -11.1447      6.4834    235.6682   1.0144207677e+02   2.5065589120e+01    0.2778295    0.1461395  73.38  0.001387641    1.405    0.288
        32 -10.9289    122.2663    238.3852   8.1067097532e+01   9.4223390813e+00    0.1819425   0.09162027  49.33 0.0008507284    1.639    0.390
        33 -12.1326     82.1885    236.7492   8.8420205600e+01   1.5782916826e+01    0.3474607     0.168909  65.51  0.001774154    2.172    0.540
        34 -11.0382     44.7501    236.8910   9.5136116920e+01   2.0676656315e+01    0.2495249     0.135714  65.39  0.001106387    1.483    0.326
        35 -11.9719     95.3530    236.3547   8.5934874648e+01   1.3937693508e+01    0.3440434    0.1702218  54.51  0.001834416    1.729    0.422
        36 -11.9141     20.4593    248.7498   9.9825416038e+01   2.1307304265e+01    0.3223711    0.1663504  63.31  0.001711205    1.402    0.287
        37 -11.9023     59.2830    232.8539   9.2274530209e+01   1.9611865816e+01    0.4722279    0.1311475  52.47  0.002025534    3.027    0.670
        38 -11.3767     11.7760    232.4971   1.0044235970e+02   2.5121909370e+01    0.2721535    0.1420774  80.78  0.001424029    1.503    0.335
        39 -11.9503     11.0849    226.2139   1.0025143558e+02   2.6359275950e+01    0.4291632    0.1324214  58.95  0.002195419    2.615    0.618
        40 -11.2123     48.5004    230.3120   9.4021845824e+01   2.1446825166e+01    0.3504765    0.1620338  73.87  0.001850175    2.220    0.550
        41 -11.0073     88.0092    231.4732   8.6837050977e+01   1.5909698290e+01    0.1878473   0.09901064  44.49  0.001030632    1.591    0.371
        42 -10.9224     40.5926    229.8622   9.5394280335e+01   2.2481109958e+01    0.2847947    0.1454411  71.87  0.001416818    1.728    0.421
        43 -10.7176     27.0000    229.9991   9.7763631009e+01   2.3995059522e+01    0.2425348    0.1235095 -88.83  0.001376717    1.709    0.415
        44 -11.8156     26.0067    225.9958   9.7700596241e+01   2.4859206720e+01    0.3445176    0.1930546  66.77  0.002271773    1.386    0.278
        45 -10.4732     32.7028    229.5313   9.6752975479e+01   2.3451251907e+01    0.1984799   0.09827383  76.12  0.001169728    1.791    0.442
        46 -11.8383      5.0075    228.1641   1.0134712258e+02   2.6584682662e+01    0.3863482     0.151194  69.13  0.002222559    2.106    0.525
        47 -11.3507     73.3371    227.6726   8.9249007412e+01   1.8708700759e+01     0.337864    0.1548065  62.45  0.001674997    2.190    0.543
        48 -11.8572    235.8864    226.6003   5.7944708227e+01  -7.4533554834e+00    0.3056907    0.1465492 -14.19  0.001317329    3.289    0.696
        49 -11.4750     21.5864    234.7385   9.8938701766e+01   2.3697289927e+01    0.3674628    0.1355433  59.09  0.001862595    2.141    0.533
        50 -11.8479     90.3782    249.4830   8.8076059011e+01   1.2375832347e+01    0.3571424    0.1524319  51.64  0.001716657    1.863    0.463
        51 -11.0985     32.3127    223.3361   9.6431128324e+01   2.4675897617e+01     0.310418    0.1082671  61.74  0.001475881    2.715    0.632
        52 -10.1547     85.6563    223.3181   8.6477334172e+01   1.7787604776e+01    0.1334493   0.07615651  66.05 0.0007049113    1.720    0.419
        53 -11.0322     54.5701    222.8773   9.2352736779e+01   2.2115125669e+01    0.2523209    0.1092316  54.06  0.001330569    1.922    0.480
        54 -10.5969     62.3077    228.6639   9.1388459789e+01   2.0006582687e+01    0.2014179     0.104398  66.49  0.001114795    1.789    0.441
        55 -11.0406     44.5886    221.1110   9.4061288824e+01   2.3687544990e+01     0.245377    0.1350761  63.81  0.001482102    1.510    0.338
        56 -11.5549      1.8557    220.4738   1.0151888883e+02   2.8323267197e+01    0.2980531    0.1115295  89.77   0.00160258    2.276    0.561
        57 -11.6617     18.5024    222.8589   9.8817873030e+01   2.6248365804e+01     0.258974    0.1167289  57.21  0.001568083    1.738    0.425
        58 -12.1447     13.5866    216.7133   9.9332616957e+01   2.7928206072e+01     0.332723    0.1650174  77.93  0.002001946    1.656    0.396
        59 -11.9724     14.8980    211.9672   9.8837473631e+01   2.8728684074e+01    0.3045381    0.1296271  43.13  0.001792185    2.066    0.516
        60 -10.9633     24.2943    217.4304   9.7486819558e+01   2.6694972272e+01    0.2039669     0.100098  76.79  0.001189504    1.778    0.438
        61 -11.6463      6.9666    217.1383   1.0049736797e+02   2.8484659713e+01    0.1955275    0.1159013  87.87 0.0009861222    1.300    0.231
        62 -10.2915    236.2724    217.3575   5.6277620805e+01  -6.3186975549e+00    0.1273483   0.08232428   3.46  0.000700072    1.647    0.393
        63 -11.0231     35.6563    215.2508   9.5283191386e+01   2.5881981612e+01    0.2673383    0.1347771  66.81  0.001540516    1.725    0.420
        64 -11.5937    247.5482    214.7318   5.3832284746e+01  -7.7125838861e+00    0.2245895    0.1081474 -27.22    0.0011433    2.113    0.527
        65 -10.3648     66.6603    214.3268   8.9306317993e+01   2.2224894967e+01    0.1333169   0.07351153  67.09  0.000379736    1.732    0.422
        66 -11.4347     27.7640    213.1964   9.6592207100e+01   2.7160638095e+01    0.2518122    0.1392293  67.87  0.001469037    1.480    0.325
        67 -10.4249     44.5266    213.0324   9.3461183277e+01   2.5295377057e+01    0.1717968   0.09806015 -81.42 0.0009299838    1.583    0.368
        68 -10.5658     22.2111    210.3980   9.7425880842e+01   2.8303252889e+01    0.1556799   0.07875469  51.60 0.0009464108    1.649    0.394
        69 -11.8674      7.0731    207.1057   9.9961031532e+01   3.0438150884e+01     0.441801    0.1552694  82.16  0.002099784    2.875    0.652
        70 -11.6120      2.5456    212.4725   1.0102644180e+02   2.9797134737e+01    0.2997185     0.136374  77.30  0.001573312    1.786    0.440
        71 -10.6554     36.2023    207.7912   9.4641569451e+01   2.7320688308e+01    0.2131638   0.08172429  65.73 0.0009545222    2.820    0.645
        72 -11.7328     14.4763    204.4619   9.8475062811e+01   3.0268642389e+01    0.3702152    0.1558759  66.07  0.002012048    2.110    0.526
        73 -11.2002      1.7671    204.9431   1.0078942797e+02   3.1346557384e+01    0.2635841    0.1138892 -75.75  0.001503859    1.913    0.477
        74  -9.8803     48.8426    201.9011   9.1702217009e+01   2.7057701641e+01    0.1713981    0.1118726  73.69 0.0006154436    1.314    0.239
        75 -10.0619     23.3679    207.1551   9.7005719492e+01   2.8835446047e+01    0.1614863   0.08185513  86.93 0.0009349079    1.705    0.413
        76 -12.3371      3.6085    196.4682   1.0000983857e+02   3.2889512828e+01    0.4902368      0.20957  74.58  0.002714014    2.060    0.515
        77 -12.6111      4.7483    189.4426   9.9396169676e+01   3.4235762103e+01    0.4162606    0.1846804  55.14  0.002437917    1.940    0.484
        78 -10.7593      9.2846    198.6217   9.9085209631e+01   3.1942965911e+01    0.1809227   0.08865474  66.27 0.0008493397    1.706    0.414
        79 -12.0306      7.7854    194.7596   9.9137304008e+01   3.2870068808e+01    0.2662988    0.1422862  81.44  0.000896306    1.503    0.335
        80 -10.5049     14.5726    197.2453   9.8013512950e+01   3.1731657874e+01    0.2148101   0.08780231 -84.83  0.001128003    2.106    0.525
        81 -11.1847     19.5724    194.7943   9.6898664311e+01   3.1757279279e+01    0.1973616   0.09852635  67.50  0.001125581    1.762    0.432
        82  -9.9984     39.6828    194.3162   9.2887036691e+01   2.9733524978e+01     0.128415   0.07114027  68.75 0.0003693227    1.652    0.395
        83 -10.5023     28.6079    192.2351   9.4941358388e+01   3.1381485968e+01    0.2251346   0.09459025 -81.50  0.001129147    2.141    0.533
        84 -12.0834      6.8243    170.0935   9.7735626721e+01   3.8175601554e+01    0.2362074    0.1259045 -78.61 0.0006517642    1.472    0.321
        85 -12.2281     12.2775    182.3209   9.7476182310e+01   3.5075310748e+01    0.3175981    0.1183774  74.31  0.001399698    3.055    0.673
        86 -12.2207      9.5036    186.9343   9.8328519193e+01   3.4344817572e+01    0.2165075    0.1176025  57.26  0.001142872    1.600    0.375
        87 -12.5400      7.0542    165.6738   9.7369657301e+01   3.9121422037e+01    0.3371842    0.1377638  61.71  0.001696134    2.458    0.593
        88 -11.9025      5.3502    173.7028   9.8287043305e+01   3.7515120432e+01    0.2276162    0.1241334  60.27  0.001405531    1.641    0.391
        89 -12.8159      2.7988    179.3289   9.9161406450e+01   3.6521224963e+01    0.5232867    0.1985538  79.54  0.002506201    2.645    0.622
        90 -10.4191     16.9905    180.7814   9.6416781653e+01   3.4976750861e+01    0.1802342   0.09684043  79.02 0.0008301183    1.629    0.386
        91 -10.7360     23.1979    179.7754   9.5064398035e+01   3.4605622560e+01    0.2108733   0.08418752  66.34 0.0009479827    2.761    0.638
        92 -11.4606     16.8262    174.8314   9.6002591959e+01   3.6282459657e+01    0.1707944    0.1068764  75.08 0.0009305064    1.352    0.260
        93 -12.3425      1.9575    170.0327   9.8735402289e+01   3.8575968326e+01    0.4938644    0.1382879 -69.16  0.002309969    2.681    0.627
        94 -11.0210     21.8137    169.7815   9.4534472015e+01   3.6934979681e+01    0.1728307    0.1097029  77.12 0.0009080284    1.363    0.266
        95 -10.8231     17.6525    160.2930   9.4630336404e+01   3.9429961295e+01    0.1250163   0.07115661  68.17 0.0005401453    1.669    0.401
        96 -12.4386      9.6559    155.4667   9.6008445155e+01   4.1174737464e+01    0.2716739    0.1369501  65.39  0.001496853    1.962    0.490
        97 -10.1840     25.4530    155.4762   9.2400407952e+01   3.9820757187e+01    0.1236113   0.09649171 -89.82 0.0002568102    1.024    0.023
        98 -10.1557     25.6537    150.3392   9.1829081085e+01   4.0980643069e+01    0.1325916    0.0758673  70.43 0.0007047415    1.783    0.439
        99 -12.0711      3.0008    154.8913   9.7441318541e+01   4.1807922604e+01    0.2480615    0.1286975  87.68  0.001432495    1.616    0.381
       100 -11.3938      2.4839    142.9042   9.6602809043e+01   4.4517287298e+01    0.1832143   0.08925334 -78.22  0.001027638    1.577    0.366
       101 -12.5314      4.2699    136.5653   9.5625453404e+01   4.5824482589e+01    0.3896632    0.1282867 -81.84  0.001677909    2.753    0.637
       102 -11.6555      4.3545    130.9019   9.5076129909e+01   4.7102436788e+01    0.1952068    0.1167345  85.76  0.001125821    1.487    0.328
       103 -12.0264    240.4284     86.2948   2.7525643744e+01   1.3680110007e+01    0.3260257    0.1952504 -73.20  0.001329372    2.624    0.619
       104 -11.4912    235.4861     86.4994   2.8292086825e+01   1.4740985468e+01    0.2642317    0.1138132 -44.81 0.0003837015    2.187    0.543
       105 -10.1295    239.3452     76.6645   2.5370396079e+01   1.5460365353e+01    0.1525582    0.0998905 -65.08 0.0007049291    1.770    0.435
       106 -11.3450    248.7975     73.8335   2.3449103932e+01   1.3821447163e+01    0.2019859    0.1488882 -60.78  0.001080586    1.355    0.262
       107 -11.0355    249.4073     52.2006   1.8356004476e+01   1.6897331457e+01    0.1971832    0.1057894 -45.67 0.0007536093    1.636    0.389
       108 -12.2638    244.5500     51.6993   1.8785829400e+01   1.8050508573e+01    0.3616238    0.1273878 -42.40  0.001422965    2.423    0.587
       109 -11.9636    246.5173     47.4887   1.7586532374e+01   1.8203995685e+01    0.2526784    0.1553961 -64.52 0.0008914571    1.686    0.407
       110 -12.3989    246.8055     42.1966   1.6334984703e+01   1.8869787212e+01    0.3453796    0.1561103 -39.15  0.001566653    1.934    0.483
       111  -9.9557    228.4939     37.5122   1.7226945692e+01   2.3732696324e+01    0.1397516    0.1197238 -69.45 0.0008101913    1.041    0.040
       112 -12.0025      1.5709     29.3148   7.8425988595e+01   6.9112968993e+01    0.2991444    0.1223206 -64.76  0.001447506    2.662    0.624
       113 -11.0730    231.0436     28.5306   1.4777872796e+01   2.4296488639e+01    0.1912265    0.0997546 -77.27 0.0008071894    2.376    0.579
       114 -10.3820    162.3161     15.6781   2.0047685540e+01   4.3000913622e+01    0.1438075    0.1003696 -68.18 0.0004142057    1.662    0.398
       115 -11.9039    224.9174    248.0838   6.3352310502e+01  -8.4279779370e+00     0.248486    0.1501512 -33.89  0.001543946    1.931    0.482
       116 -12.3335    232.9857    244.5010   6.1384684053e+01  -9.1942013657e+00    0.2972594    0.1677165   1.81  0.001597363    2.264    0.558
       117 -11.0511    129.0020    248.5020   8.0951426374e+01   6.6889227512e+00     0.180461    0.0778004  56.00 0.0008103398    2.525    0.604
       118 -10.7106    227.5301     11.5309   1.1085408618e+01   2.7153615953e+01      0.13187    0.1105353 -75.96  0.000114743    1.009    0.009
       119 -11.7991    117.2593    245.0904   8.2751365186e+01   9.0847841305e+00     0.352635    0.1503809  61.00  0.001461819    3.265    0.694
       120 -12.8079    238.2050    244.1807   6.0429211646e+01  -9.9128917085e+00     0.365108    0.1909295 -24.07  0.002105378    2.092    0.522
       121 -11.4607     45.2684    244.7196   9.5555692525e+01   1.9197075298e+01    0.3463702    0.1570141  54.91    0.0017248    1.675    0.403
       122 -10.6096     26.9289    248.7177   9.8797001372e+01   2.0609801001e+01    0.2076002   0.09741181  58.03  0.001341508    1.559    0.358
       123 -12.1652      3.4533    243.1514   1.0223052461e+02   2.4022961974e+01    0.3749312    0.1653462  66.09   0.00214671    1.662    0.398
       124 -12.5876     83.6038    244.4509   8.8846760461e+01   1.4209871747e+01    0.4125697    0.1576047  48.68  0.002086026    2.027    0.507
       125 -12.0944    108.9089    241.6936   8.3944552962e+01   1.0949174573e+01    0.3872836    0.1919316  65.41  0.001846075    2.534    0.605
       126 -11.7415     17.8451    241.0930   9.9872577819e+01   2.2938165054e+01    0.4260397    0.1412734  53.85  0.002198927    2.178    0.541
       127 -10.1495    201.2982     11.6644   1.3749227391e+01   3.3527236665e+01    0.1437463   0.08965272 -64.36 0.0003890928    1.653    0.395
