#   1 NUMBER                 Running object number                                     
#   2 MAG_AUTO               Kron-like elliptical aperture magnitude                    [mag]
#   3 X_IMAGE                Object position along x                                    [pixel]
#   4 Y_IMAGE                Object position along y                                    [pixel]
#   5 X_WORLD                Barycenter position along world x axis                     [deg]
#   6 Y_WORLD                Barycenter position along world y axis                     [deg]
#   7 A_WORLD                Profile RMS along major axis (world units)                 [deg]
#   8 B_WORLD                Profile RMS along minor axis (world units)                 [deg]
#   9 THETA_WORLD            Position angle (CCW/world-x)                               [deg]
#  10 FWHM_WORLD             FWHM assuming a gaussian core                              [deg]
#  11 ELONGATION             A_IMAGE/B_IMAGE                                           
#  12 ELLIPTICITY            1 - B_IMAGE/A_IMAGE                                       
         1 -12.7935    200.1352     32.9802   6.0183920310e+01   3.0748947702e+01     1.157595    0.7790465  61.02  0.005734128    1.459    0.314
         2 -13.4527    215.0374     15.1686   5.3423259155e+01   2.8949285031e+01     1.212018    0.8661359  25.96  0.006375731    1.718    0.418
         3 -12.1149      2.2059      8.6120   1.1740030094e+02   7.3789514733e+01    0.9850062    0.2239418 -62.78  0.003402962    4.801    0.792
         4 -11.7214    199.3551    246.2563   1.0776519577e+02   4.5297815769e-01    0.4274963    0.1697509  41.57  0.002248487    2.132    0.531
         5 -11.4512    185.2885    249.9570   1.1070996220e+02   2.0297802715e+00    0.4621561    0.1672207  35.44  0.001800704    2.043    0.511
         6 -10.0622    163.0202    250.3361   1.1470485605e+02   5.1371366236e+00    0.1689502    0.1109019  35.04   0.00057375    1.107    0.096
         7 -11.3065    149.5937    247.0442   1.1674753334e+02   7.4511160999e+00    0.2693291    0.2049616 -28.52  0.001958059    1.752    0.429
         8 -11.0959    143.3734    240.7386   1.1718182001e+02   9.1692859840e+00    0.2747828    0.1173873  34.32  0.001443735    1.885    0.470
         9 -10.2282    132.0984    223.9225   1.1739110536e+02   1.3218716052e+01    0.2341424    0.1689549  31.31  0.001002813    1.209    0.173
        10 -12.1532    133.5607    248.8247   1.1984135678e+02   9.4672969770e+00    0.9080254     0.222549  40.31  0.003937098    2.890    0.654
        11 -10.9896    136.0710    224.7215   1.1671193860e+02   1.2510696033e+01    0.3253374    0.2074593 -48.80  0.001482805    1.986    0.496
        12 -10.6889    141.6890    221.1920   1.1518259843e+02   1.2195946110e+01    0.3026221    0.2478783 -19.56  0.001225811    1.540    0.351
        13 -10.9908    122.0140    247.1738   1.2176988080e+02   1.1279450514e+01    0.4284552    0.3044839 -79.02  0.002471941    2.019    0.505
        14 -12.1255    125.0200    240.7194   1.2057948806e+02   1.1770300653e+01    0.5478934    0.3514411  46.33  0.003670238    1.255    0.203
        15 -10.9794    115.6512    249.6329   1.2314931520e+02   1.1797738184e+01     0.404158     0.321876  39.61   0.00244188    1.104    0.094
        16 -11.6709    109.2034    246.4805   1.2402828263e+02   1.3101188630e+01     0.436599    0.3341104  55.73  0.002370314    1.199    0.166
        17 -10.9017    135.7069    241.0214   1.1863163601e+02   1.0224641815e+01    0.2146145    0.1662687  27.81 0.0006491889    1.199    0.166
        18 -12.5312    134.9633    234.1274   1.1801294999e+02   1.1299037358e+01    0.5421028    0.4282693 -58.37  0.003894809    1.674    0.402
        19  -9.7965     91.1093    250.1677   1.2757169022e+02   1.4903678598e+01    0.2321655    0.1473283  37.55  0.001643461    1.289    0.224
        20 -10.9169     86.8353    248.2332   1.2818170284e+02   1.5718946457e+01    0.2829899    0.2289422  23.02 0.0003631049    1.514    0.340
        21  -9.9518     81.3662    246.9452   1.2905577501e+02   1.6582261979e+01    0.2609658    0.1598826  80.93  0.001775806    1.939    0.484
        22 -12.6540      3.6543    188.7921   1.4015570237e+02   3.4609694482e+01     1.360007    0.2862124 -79.79  0.005823029    4.102    0.756
        23 -11.9135     16.0456    218.3479   1.3905634322e+02   2.8220349118e+01    0.6855246    0.4503023  54.07  0.003001007    1.158    0.136
        24 -13.3284     10.1273    209.5061   1.3976469283e+02   3.0282074180e+01     1.772961    0.8701355 -66.11   0.01162534    2.234    0.552
        25 -10.9841     51.6374    219.0744   1.3257033370e+02   2.4557092924e+01    0.2422706    0.1661698  49.89 0.0003149654    1.150    0.130
        26 -12.4876     29.6713    226.6560   1.3700941432e+02   2.5535575478e+01    0.3607252    0.2441388 -79.93 0.0007397103    1.539    0.350
        27 -13.6883     36.0472    218.6058   1.3545135595e+02   2.6279903234e+01    0.9381546    0.8439076  61.77  0.007964551    1.273    0.214
        28 -11.8891    178.0920    243.2486   1.1113987766e+02   3.8302700986e+00    0.5067369    0.1965502  44.15  0.002526845    2.307    0.567
        29 -10.5180    157.5287    240.4868   1.1454050364e+02   7.1571792472e+00    0.1748113    0.1516654 -46.88 0.0009560539    1.571    0.363
        30 -11.4904     97.0654    238.9801   1.2558945443e+02   1.5803521121e+01    0.5121711    0.1631048  41.75  0.002296486    2.261    0.558
        31 -10.3720     85.1901    234.8016   1.2743722756e+02   1.7971815491e+01    0.3801112    0.1642838  56.60  0.002020262    2.337    0.572
        32 -10.9334     84.6038    229.7530   1.2713405042e+02   1.8850764389e+01    0.2386423    0.1884772 -55.39 0.0007649671    1.645    0.392
        33 -11.0278     91.8246    241.4527   1.2675656123e+02   1.6104290435e+01    0.3230918    0.2268441  62.69  0.001597231    1.341    0.254
        34 -10.2864     89.9492    238.0806   1.2682473544e+02   1.6857955297e+01    0.2415849    0.1741334 -74.66  0.001052063    1.675    0.403
        35  -9.2959     66.7372    244.0194   1.3143812358e+02   1.8765272957e+01    0.1348705    0.1157542 -22.05 0.0007832598    1.922    0.480
        36 -11.0850    168.0051    242.5339   1.1287378666e+02   5.3769807868e+00    0.3484983    0.1303118  45.01  0.001679658    2.426    0.588
        37 -10.4980     84.6526    240.9685   1.2802161020e+02   1.7081496241e+01    0.2891392    0.2176608  63.77  0.002207847    1.218    0.179
        38  -9.5126     54.6425    240.9731   1.3337290799e+02   2.0606420487e+01    0.2494596    0.1106386  42.11 0.0006555108    1.660    0.398
        39 -11.0756    116.4850    238.6322   1.2195637512e+02   1.3253171986e+01    0.3253027    0.2444378 -17.63   0.00215488    2.098    0.523
        40 -11.2410    104.7151    238.0286   1.2408915966e+02   1.4938357439e+01    0.2647961    0.2251547  44.90  0.002055227    1.130    0.115
        41  -8.7696     61.2694    239.0275   1.3208684934e+02   2.0171428800e+01    0.1436732    0.1058485  55.07 0.0007449752    1.012    0.012
        42 -11.0207    249.9180    233.0658   9.7288635678e+01  -5.1465170972e+00    0.3978754   0.09736449 -29.22  0.001724665    4.412    0.773
        43  -9.1819    172.9845    236.0186   1.1113699151e+02   5.4594786826e+00    0.1373804    0.1076509  27.14 0.0003264361    1.059    0.056
        44 -11.1305    128.7217    235.2299   1.1931244603e+02   1.2035379712e+01     0.356044     0.205634  56.03  0.002091722    1.880    0.468
        45 -11.2605    122.8919    233.4598   1.2022605849e+02   1.3121137281e+01    0.3539256    0.2700782  51.34  0.001690049    1.187    0.158
        46 -10.5773     93.6049    233.1411   1.2572828279e+02   1.7155022993e+01    0.3337682   0.08676494  43.86  0.001478744    2.793    0.642
        47 -10.7911     98.2946    231.3955   1.2468854415e+02   1.6812566199e+01    0.2266331    0.2124228  24.48  0.001261978    1.320    0.242
        48  -9.1907     54.9744    235.8715   1.3301251647e+02   2.1381573655e+01    0.2405506    0.1169333  47.54 0.0009213024    1.518    0.341
        49 -10.0657    165.9904    234.7011   1.1225930662e+02   6.6633666503e+00     0.174639    0.1220493  34.09 0.0005920494    1.082    0.076
        50  -8.5383     70.8321    235.1827   1.3010724827e+02   1.9670209843e+01     0.128705     0.112789  40.92 0.0005372679    1.286    0.222
        51 -10.6777     98.2725    223.3192   1.2393657087e+02   1.8107805690e+01    0.3096747    0.2784719  24.70  0.001630364    1.305    0.234
        52  -9.1836     94.1366    219.1653   1.2434804681e+02   1.9349363339e+01    0.1966694    0.1339109  45.43   0.00036418    1.169    0.144
        53 -10.7798    113.4641    231.2340   1.2178901100e+02   1.4776779383e+01    0.2947232    0.2060139 -49.88  0.001993199    1.851    0.460
        54 -12.1525    106.1083    228.4986   1.2292425404e+02   1.6214477526e+01    0.7561958    0.3970725  64.17  0.003955435    2.554    0.609
        55  -9.3992    169.5594    232.9488   1.1136918883e+02   6.3586975837e+00    0.1411074    0.1151941 -29.76 0.0003874174    1.530    0.346
        56 -10.2513    156.6595    232.1464   1.1368050366e+02   8.3886665154e+00    0.2106627    0.1756889   7.26 0.0006293186    1.304    0.233
        57 -11.0750     99.1440    248.0346   1.2597309007e+02   1.4192694060e+01    0.3742836    0.2508838  59.93  0.002410906    1.405    0.288
        58 -12.7588     28.3344    246.7467   1.3811260807e+02   2.2429117740e+01    0.9154787     0.451182  35.24  0.006249072    1.812    0.448
        59 -10.3873     79.4750    225.8108   1.2778160956e+02   2.0139909406e+01    0.3409223    0.2332655 -84.08  0.001241744    1.656    0.396
        60  -8.7841     77.0438    220.9191   1.2784610504e+02   2.1261443350e+01    0.1534604     0.119894  50.79 0.0004898888    1.032    0.031
        61 -10.4170    117.0576    224.4865   1.2039115470e+02   1.5314611512e+01    0.2769483    0.1979113  30.12 0.0005066047    1.314    0.239
        62  -9.9750     92.7076    226.0512   1.2526900929e+02   1.8404035286e+01    0.1966381    0.1340919  41.42 0.0007040038    1.182    0.154
        63  -8.5490    164.4882    224.4587   1.1119506385e+02   8.2527924237e+00    0.1220598   0.09414425  32.64 5.520229e-05    1.029    0.028
        64  -9.2462     64.9998    224.5204   1.3042487754e+02   2.2107951848e+01     0.178866    0.1436777 -56.08  0.001045021    1.642    0.391
        65 -13.2670      5.2453    244.7967   1.4175391108e+02   2.4840499446e+01     1.043375    0.4882504  66.99 0.0009042026    1.623    0.384
        66 -10.2589    245.5237    220.5099   9.6008652108e+01  -3.3325357683e+00    0.2196423    0.1004182 -26.58  0.001237526    2.263    0.558
        67  -9.5939    110.3834    219.0765   1.2112223945e+02   1.7125898556e+01    0.3227662    0.1560602 -78.24  0.001363499    4.380    0.772
        68 -10.0859     70.3129    218.7583   1.2897418862e+02   2.2455915289e+01    0.3219206    0.2175154  84.67  0.002184881    1.560    0.359
        69  -9.8639    102.9720    247.4735   1.2523921573e+02   1.3777978865e+01     0.165525     0.127406  60.58 0.0003388308    1.245    0.197
        70  -9.2018     88.1131    212.8327   1.2493997376e+02   2.1229212193e+01    0.2061156    0.1437679  83.65 0.0008601173    1.625    0.385
        71 -11.1175     55.3311    208.1676   1.3109918011e+02   2.6079413742e+01    0.6198913    0.3008761  74.98  0.002588063    2.422    0.587
        72  -9.6489     63.4050    209.2232   1.2957572580e+02   2.4958635214e+01    0.4413751    0.3025133 -38.81  0.002740335    2.312    0.567
        73  -8.6633    130.9628    211.4608   1.1609421166e+02   1.5334131476e+01    0.1799955    0.1000298  39.08 7.298589e-07    1.456    0.313
        74  -9.5567    106.8435    209.8784   1.2082828400e+02   1.9163086126e+01    0.1710285    0.1542985  19.14  0.000767247    1.281    0.219
        75  -9.9267    156.1986    208.1174   1.1053603078e+02   1.1906583958e+01    0.1971294    0.1588599  31.54 0.0002876816    1.007    0.007
        76  -9.5936    112.4697    208.0217   1.1945940957e+02   1.8667307444e+01    0.1784099    0.1536653  25.79 0.0006856223    1.229    0.187
        77  -8.6134     74.4371    208.4710   1.2729701122e+02   2.3756080554e+01    0.1169748   0.09111897  57.59  0.000106821    1.060    0.056
        78  -9.0528     69.9243    208.1279   1.2817866032e+02   2.4374439730e+01    0.1670128    0.1196865  59.72            0    1.187    0.157
        79  -8.6171    134.6691    207.6819   1.1484848002e+02   1.5374548620e+01    0.1223289   0.09055021   9.03 0.0004132849    1.688    0.408
        80  -8.9882    125.8304    206.8937   1.1656418432e+02   1.6862972555e+01    0.1638513    0.1320371  63.71  0.001052611    1.347    0.257
        81 -10.4249     73.6511    244.4592   1.3024713649e+02   1.7886645619e+01    0.2851648    0.2112343 -61.46  0.002203754    1.755    0.430
        82  -9.4111     92.2002    204.6611   1.2328434909e+02   2.2120429182e+01    0.1834628    0.1682639  87.63 0.0006771259    1.199    0.166
        83  -9.3048    103.1914    202.7056   1.2077307097e+02   2.0933770506e+01    0.3443432    0.1659725  45.54  0.001775217    1.754    0.430
        84  -9.4596     84.3162    201.4720   1.2460058160e+02   2.3755502632e+01    0.2793837    0.2127501 -22.73  0.001514847    2.073    0.518
        85 -12.9356     40.0619    243.6002   1.3602086879e+02   2.1746827463e+01    0.8744303    0.6732891  61.92  0.006529641    1.100    0.091
        86 -10.9495     27.6342    195.3074   1.3575886529e+02   3.1332133210e+01    0.3737268    0.2063096  81.42 0.0001534487    1.664    0.399
        87 -11.8089    102.8952    196.0433   1.2005354266e+02   2.2175235404e+01     0.353367    0.2196197  32.20 0.0003820256    1.535    0.349
        88 -11.6416     57.3663    194.4247   1.2960647932e+02   2.8408169136e+01    0.4023978    0.2951561 -37.41 0.0008945064    2.033    0.508
        89 -12.4402     13.8415    239.3007   1.4020722310e+02   2.4947972738e+01    0.6911699    0.3042359  76.15  0.001452119    2.027    0.507
        90 -10.5495    249.5845    194.2824   9.0816984915e+01  -1.1242988366e+00    0.2862587    0.1980659  15.42  0.001859991    1.127    0.113
        91  -9.2203     20.9323    194.8359   1.3705965604e+02   3.2033615443e+01    0.1879888     0.122515 -65.55 0.0009164528    1.690    0.408
        92 -12.3464     43.9266    208.0785   1.3333295357e+02   2.7338349675e+01       1.1787    0.4891994  66.38  0.006027167    2.618    0.618
        93  -9.4336    112.9182    192.1223   1.1739063146e+02   2.1403383533e+01    0.4294379     0.196722 -38.02  0.001741881    3.715    0.731
        94  -9.2802    191.4204    191.3881   1.0083566554e+02   8.5513098283e+00    0.2069813    0.1784171  29.08 0.0005590387    1.175    0.149
        95  -8.4752     38.5864    192.2091   1.3334537724e+02   3.0858401657e+01     0.136538   0.09428645 -70.08 0.0003588843    1.507    0.336
        96 -10.3013     15.5551    191.8976   1.3796914425e+02   3.3058411196e+01    0.1828521    0.1378777  65.70 0.0001482372    1.034    0.033
        97  -9.0674     31.9137    190.0429   1.3457422160e+02   3.1934243881e+01    0.3211805   0.06312766  44.00  0.001370934    3.353    0.702
        98 -10.2598    250.1164    188.0549   8.9587040419e+01  -5.0293236552e-01    0.2989725    0.1472097 -15.44  0.001529618    2.101    0.524
        99  -8.8799     41.0099    188.4446   1.3257562286e+02   3.1342034072e+01    0.2093445    0.1178429  67.44  0.001095017    1.656    0.396
       100  -8.8596     76.9982    188.4972   1.2483212124e+02   2.7158773261e+01    0.1682049     0.105425  39.21  0.000975749    1.425    0.298
       101 -10.9976     71.8458    186.9841   1.2580695306e+02   2.8110743455e+01    0.2772081    0.2464502  -2.67 0.0004376144    1.519    0.342
       102 -11.3566     64.2315    186.4938   1.2742809700e+02   2.9142585520e+01    0.2279468     0.215672 -70.49 0.0004630226    1.264    0.209
       103 -11.7055     19.7526    237.0949   1.3915311001e+02   2.4762084826e+01    0.4686279    0.2504543  58.18  0.001762939    1.358    0.264
       104  -9.7764     83.5127    186.6636   1.2319639148e+02   2.6655878179e+01    0.1996501    0.1703108  60.94 0.0002860921    1.035    0.034
       105  -8.7843     29.9119    183.8269   1.3458909638e+02   3.3339775498e+01     0.194962    0.1330187  -2.03  0.001159949    2.594    0.615
       106  -9.2063     24.2639    184.0583   1.3578277982e+02   3.3812846402e+01    0.1649539     0.144371  40.43 0.0007017748    1.319    0.242
       107  -8.6902    127.6600    182.8302   1.1282888282e+02   2.0777567380e+01    0.1614304    0.1241496 -69.52 0.0002831026    1.611    0.379
       108  -8.7497     36.4060    182.7004   1.3313591777e+02   3.2938107019e+01     0.148612   0.09362468 -67.95 0.0009428413    1.604    0.377
       109  -8.2303      8.6113    182.2831   1.3889237174e+02   3.5476278493e+01    0.1173792   0.05560669  58.34 0.0007004676    1.745    0.427
       110  -8.9253     85.9898    179.8587   1.2184764713e+02   2.7656474246e+01    0.1716809    0.1461122  53.32 0.0003315001    1.033    0.032
       111  -9.0060     27.2210    179.9880   1.3490818462e+02   3.4351482254e+01    0.1510079    0.1200581  83.12 0.0002713765    1.091    0.084
       112  -9.9887     64.9629    167.0035   1.2524741033e+02   3.3024821709e+01    0.1845094     0.168279  55.88 0.0003244041    1.103    0.094
       113 -11.2299     60.7886    172.7181   1.2684012503e+02   3.2332936286e+01    0.2967543    0.2332155 -45.01  0.000927026    1.587    0.370
       114  -9.2802    103.0044    176.0139   1.1743616935e+02   2.5962267244e+01    0.1876675    0.1683824  52.50            0    1.012    0.012
       115 -10.6761     74.8881    174.5463   1.2377425691e+02   3.0211398743e+01    0.2555268    0.2034399  53.71 0.0003965676    1.117    0.105
       116 -10.2879     19.3629    174.1525   1.3622115344e+02   3.6214912480e+01    0.3480393    0.1658684  70.22 0.0007104984    1.977    0.494
       117 -12.0355    248.0001    172.3785   8.6947753823e+01   1.6643358510e+00     0.632387    0.3907206 -21.45  0.003662735    1.488    0.328
       118 -10.9792    240.8898    150.4836   8.3671935975e+01   5.6224504421e+00    0.2778812    0.2261447 -10.33   0.00171371    1.113    0.101
       119 -11.5418    245.0957    162.5513   8.5470447807e+01   3.3495042420e+00    0.4354333    0.2334042 -23.50  0.002259162    1.743    0.426
       120 -10.7392    249.2391    161.4746   8.4565328112e+01   2.8031095854e+00    0.3606144    0.2464781 -30.39  0.002121459    1.519    0.342
       121 -11.1347    245.3525    156.2368   8.4132030728e+01   4.1092408290e+00    0.7559713    0.4194006  59.43  0.003113776    3.829    0.739
       122 -10.2533     12.2769    172.9800   1.3766600919e+02   3.7030091746e+01    0.2575325    0.1398295 -69.35  0.001621923    1.749    0.428
       123  -9.8529     46.0961    172.5136   1.3018841260e+02   3.4016610579e+01    0.2029725    0.1544238 -85.16 0.0003852363    1.221    0.181
       124 -10.9614      2.2074    172.0560   1.3973458222e+02   3.7972303743e+01    0.3532845    0.1631821  63.25  0.001254468    1.838    0.456
       125  -9.2320     27.8380    171.2360   1.3418392958e+02   3.6068474672e+01    0.3053163    0.1463459 -52.42  0.001620366    2.556    0.609
       126  -8.3914    166.6302    170.4964   1.0215323353e+02   1.6184808357e+01    0.1358781    0.1199233  18.15 0.0007957231    1.040    0.038
       127 -11.4540     82.9685    166.1571   1.2083095359e+02   3.0865489873e+01     0.555444    0.4041988  31.67  0.003225238    1.405    0.288
       128 -11.1412     14.2318    167.1127   1.3691406731e+02   3.8068441252e+01    0.3701902    0.2548594  20.09   0.00251171    1.835    0.455
       129 -11.1489      7.7906    166.0174   1.3825594478e+02   3.8785133671e+01    0.3106306    0.2125224   2.85  0.002046827    2.252    0.556
       130 -11.3812     43.8770    161.9446   1.2974294003e+02   3.6468064749e+01    0.4429886    0.2352185 -88.88  0.001392999    1.966    0.491
       131  -8.5608     60.8458    164.6386   1.2596718809e+02   3.4018665992e+01    0.1725419   0.09639034  45.71 0.0003569382    1.637    0.389
       132 -11.3271     65.1511    175.5477   1.2612970861e+02   3.1228753747e+01    0.3019197     0.205836  41.18 0.0003280054    1.351    0.260
       133 -12.6830      6.2141    143.1009   1.3729458075e+02   4.3715352202e+01    0.7355779    0.4477078  80.04   0.00470538    1.406    0.289
       134 -10.2598     10.9415    150.0339   1.3660968783e+02   4.1898848416e+01     0.188793    0.1408501 -76.94 0.0003514969    1.211    0.174
       135 -11.3735     10.8503    158.3216   1.3714579111e+02   4.0150841990e+01    0.8750068    0.2602614  68.72  0.003202906    4.737    0.789
       136  -8.5127     52.4285    158.4957   1.2733713187e+02   3.6296942751e+01     0.122112    0.1052374  76.99  0.000120721    1.016    0.016
       137  -9.4872     16.0471    158.3258   1.3596215998e+02   3.9753776953e+01    0.1519895    0.1232673  59.27 0.0004472216    1.153    0.132
       138 -10.5631     31.9720    154.9459   1.3196174082e+02   3.9127324329e+01    0.3186456    0.1448171 -55.91  0.001289987    2.292    0.564
       139  -8.6200    228.3452    155.2608   8.6851403742e+01   7.1906953986e+00    0.1740326    0.1147866 -33.22 0.0004586631    1.579    0.367
       140  -9.1839     84.5197    155.4561   1.1897044735e+02   3.2918114128e+01    0.1302741    0.1195358  64.91 -5.377179e-05    1.005    0.005
       141  -9.4799     89.9551    153.4691   1.1730107151e+02   3.2562874592e+01    0.1957476    0.1727887 -74.79 -4.364659e-05    1.151    0.131
       142 -10.0895     22.0022    154.5027   1.3430732240e+02   4.0088095305e+01    0.1607218    0.1076839  33.00  0.001033668    1.592    0.372
       143 -10.7735    249.5736    151.0768   8.2363110835e+01   4.0570273143e+00    0.4329636    0.2504758 -33.91  0.002211444    1.753    0.430
       144 -11.1076    243.7075    121.0820   7.6714766230e+01   9.0714804435e+00    0.4340365    0.3440714 -67.09  0.002330333    2.066    0.516
       145 -11.9700    247.7746    142.6217   8.0856346385e+01   5.4561910806e+00    0.7136751    0.6301073 -16.47  0.004595318    1.248    0.199
       146 -12.6211    248.8027    132.5622   7.8496350131e+01   6.5962887606e+00     1.309781    0.5765487 -24.91  0.005809895    2.141    0.533
       147  -9.8115    249.6141    117.7474   7.5039488316e+01   8.4162739490e+00    0.2456943    0.1739657  20.73 0.0006463391    1.436    0.304
       148 -11.5815    248.3145    112.9045   7.4121952271e+01   9.3075894336e+00    0.5310096     0.438033  -2.28  0.003198307    1.072    0.067
       149 -10.3875     96.1263    150.6703   1.1528826746e+02   3.2238779597e+01    0.2706977     0.256094 -87.29 0.0007518778    1.067    0.063
       150 -10.8399     22.3852    149.0659   1.3379800410e+02   4.1230302968e+01    0.2768821    0.1561806  29.95  0.001256849    1.901    0.474
       151  -9.9149     58.7795    147.3047   1.2444332016e+02   3.8031076841e+01    0.2760586    0.1694487 -35.28  0.001367508    2.340    0.573
       152  -9.7712     41.0679    147.4049   1.2899898552e+02   3.9914254736e+01    0.2013959     0.152784 -67.10  0.000672661    1.266    0.210
       153  -9.6658    236.0431    145.9250   8.3518218214e+01   7.0911595139e+00    0.2375849     0.163862  27.79 0.0007015259    1.353    0.261
       154 -11.9694     68.3671    144.1528   1.2151550370e+02   3.7568544699e+01    0.6430353    0.4518152  76.69  0.002395589    1.562    0.360
       155 -10.6120     37.8439    140.9271   1.2915052954e+02   4.1670489216e+01    0.3727659    0.1587498  63.03  0.001418447    3.045    0.672
       156 -10.8491     12.9659    137.0588   1.3520642513e+02   4.4576394250e+01    0.1761492    0.1408032  83.86 0.0003532853    1.037    0.036
       157  -9.9772     19.5267    141.5270   1.3390167185e+02   4.3107837124e+01    0.2029679    0.1167498  75.04 3.948569e-05    1.660    0.398
       158 -11.1204     16.3185    139.5059   1.3454795455e+02   4.3795517017e+01     0.256262    0.1957304  74.45  0.001325375    1.145    0.127
       159 -10.6079     12.3040    154.0269   1.3654736586e+02   4.0948502091e+01    0.2700144    0.1916237  68.49  0.001460152    1.205    0.170
       160  -9.3965    133.2974    140.4744   1.0395379580e+02   2.8013725604e+01      0.27814    0.2206787 -81.95  0.001300006    1.699    0.411
       161  -8.9605     61.0378    151.2321   1.2435362462e+02   3.6895858408e+01    0.2329219    0.1190145  58.47  0.001087239    2.202    0.546
       162  -9.4160    108.6272    136.0241   1.0940205739e+02   3.3383379761e+01    0.3398002     0.229375 -14.52  0.001476336    2.373    0.579
       163 -11.2495     59.8271    136.3002   1.2270259922e+02   4.0386696355e+01    0.2574834    0.2233438  82.39 0.0003659004    1.086    0.079
       164 -10.5965     48.0822    135.8027   1.2583422970e+02   4.1808481700e+01    0.2735958    0.2172772 -37.11  0.001164892    1.516    0.340
       165 -13.3660      9.2253    113.7924   1.3428909508e+02   5.0048243935e+01    0.9279401    0.5611293 -57.47  0.003645779    1.529    0.346
       166 -12.3003      8.0111    107.7378   1.3408324602e+02   5.1502881045e+01    0.6605893    0.3849465  -0.91  0.003767274    2.428    0.588
       167  -9.1105     69.3513    132.2833   1.1947285102e+02   4.0128593627e+01    0.1306905    0.1013843 -24.87 0.0007017715    1.656    0.396
       168 -10.4494     44.5243    130.3206   1.2611953286e+02   4.3428638573e+01     0.257032    0.1594684  85.63 0.0008765406    1.729    0.422
       169  -9.9889     59.1085    128.1168   1.2171148020e+02   4.2348674237e+01    0.1920057    0.1715222 -43.43 0.0003559539    1.226    0.184
       170 -11.5157     13.5462    127.7861   1.3431508939e+02   4.6602739464e+01    0.2346456    0.2000938 -53.83 0.0007480889    1.304    0.233
       171  -9.3773    210.0093    125.7823   8.3625370143e+01   1.5041991393e+01    0.2421384    0.1944244 -22.63 0.0005242979    1.195    0.163
       172 -12.0471     16.2058    122.1082   1.3308875171e+02   4.7705663339e+01    0.3096098    0.2880119  84.32  0.002292843    1.146    0.128
       173 -10.6937     18.0491    116.7753   1.3204877525e+02   4.8798137134e+01    0.2427689    0.1209096  27.42  0.001025777    2.225    0.551
       174  -9.3423    238.5215    121.9613   7.7745421167e+01   9.9347830483e+00    0.1971113    0.1083122  -4.51 0.0008090343    2.463    0.594
       175  -9.9058    231.8690    116.2111   7.7490052711e+01   1.2042524014e+01    0.2050851    0.1851962 -31.42 0.0006689919    1.235    0.191
       176  -9.7106    167.9207    113.1626   8.9214566957e+01   2.6218814772e+01    0.3026561     0.262639  77.12 0.0008563912    1.482    0.325
       177  -8.7487    203.4906    111.5484   8.1386158924e+01   1.8661428823e+01    0.1501417    0.1325958   6.92 0.0001358601    1.045    0.043
       178 -10.3490     35.2838    107.1489   1.2569806908e+02   4.9696588229e+01    0.2130167     0.200683  61.75 0.0003391168    1.156    0.135
       179 -12.5602    248.0871    100.6856   7.1295388403e+01   1.0989748705e+01    0.8092297    0.6351125  -4.75  0.004688358    1.195    0.163
       180 -11.2944      3.2446    102.8139   1.3504755149e+02   5.2882724271e+01    0.2772567    0.2664256  17.83  0.002144559    1.310    0.237
       181  -8.3736     71.6838    100.2247   1.1276847173e+02   4.7257451219e+01    0.1312613    0.1026843  63.13   0.00017952    1.491    0.329
       182 -10.6642     16.8917     99.1247   1.3042999379e+02   5.2964486645e+01    0.1839842    0.1452681  78.24 0.0003333137    1.254    0.203
       183 -11.8848      2.1083    131.5424   1.3756992761e+02   4.6489689184e+01    0.6707006    0.2247463 -70.70  0.003293202    2.338    0.572
       184 -10.9531      2.1259     87.4680   1.3388826671e+02   5.6457560153e+01    0.4975584   0.07920449 -78.68  0.001300395    7.172    0.861
       185 -11.2672      2.2681    120.8559   1.3679312172e+02   4.8849807280e+01    0.5379127    0.1773707 -78.35  0.002501661    2.445    0.591
       186 -10.8126    169.5254    248.9552   1.1338044440e+02   4.3797525669e+00    0.2698719      0.17511  17.37 0.0007943263    1.561    0.359
       187 -10.8659     60.0206    246.2035   1.3274468643e+02   1.9195871908e+01    0.3417439    0.2366831  50.05  0.001939242    1.063    0.060
       188 -10.6834     17.7661     26.0871   1.1464267467e+02   6.9393823102e+01    0.2541204    0.1556788  37.17  0.001451258    2.140    0.533
