#   1 NUMBER                 Running object number                                     
#   2 MAG_AUTO               Kron-like elliptical aperture magnitude                    [mag]
#   3 X_IMAGE                Object position along x                                    [pixel]
#   4 Y_IMAGE                Object position along y                                    [pixel]
#   5 X_WORLD                Barycenter position along world x axis                     [deg]
#   6 Y_WORLD                Barycenter position along world y axis                     [deg]
#   7 A_WORLD                Profile RMS along major axis (world units)                 [deg]
#   8 B_WORLD                Profile RMS along minor axis (world units)                 [deg]
#   9 THETA_WORLD            Position angle (CCW/world-x)                               [deg]
#  10 FWHM_WORLD             FWHM assuming a gaussian core                              [deg]
#  11 ELONGATION             A_IMAGE/B_IMAGE                                           
#  12 ELLIPTICITY            1 - B_IMAGE/A_IMAGE                                       
         1 -14.3521     68.5726    144.8826   9.8305214762e+01   3.7334865098e+01     4.877479     2.576351  79.53  0.002801074    4.292    0.767
         2 -13.7877    226.5320     24.3337   3.3700732360e+01   2.7023496153e+01     1.261336     1.041459  36.72  0.006630591    1.819    0.450
         3 -12.7719    218.6889     31.6520   3.5990747328e+01   2.7788745712e+01    0.5611593    0.5034041  55.20  0.001105963    1.416    0.294
         4 -13.7559    201.3788     45.2005   4.1009079273e+01   2.9832457645e+01     1.307497     1.047248 -21.00  0.003742452    1.579    0.367
         5 -13.6839    210.3041     39.2098   3.8558611852e+01   2.8643502906e+01     1.278266    0.8465353 -27.48  0.006374679    1.801    0.445
         6 -12.5683    247.8233      4.2487   2.8192697789e+01   2.5025048257e+01    0.5284791    0.3338481 -65.65  0.003585833    1.224    0.183
         7 -10.6278    111.6711    204.6123   9.6788620702e+01   1.5973866484e+01    0.3407407    0.2370266 -84.69 0.0006303164    1.852    0.460
         8 -11.0674    139.6132    249.6337   9.6931052021e+01   2.6717623731e+00    0.2494004    0.2086392  44.82  0.001418904    1.160    0.138
         9 -10.5124    117.6412    250.4363   1.0160620609e+02   5.7795475556e+00     0.269342    0.1848107  55.62 0.0009202369    1.486    0.327
        10 -10.7559    116.3327    246.3319   1.0138886382e+02   6.7238536450e+00    0.2476629    0.1634748 -36.79  0.001343361    1.983    0.496
        11 -13.9940     45.1569    217.4416   1.1373813615e+02   2.2499797534e+01     2.090478     1.152882  26.62   0.01062043    2.113    0.527
        12 -14.0826      6.1567    185.9993   1.1996283641e+02   3.3760214637e+01     2.481374    0.8584188 -83.78  0.004270322    2.685    0.628
        13 -13.2102     83.7027    217.3380   1.0506543576e+02   1.7433110696e+01     1.071686    0.7789128  75.15  0.001052316    1.450    0.310
        14 -15.4256      9.7082    208.3851   1.2067825658e+02   2.8282685429e+01     2.067982      1.33146 -83.09   0.01281727    1.323    0.244
        15 -13.1625     31.5716    201.1951   1.1535589735e+02   2.7758610430e+01      0.46139    0.3757864 -41.28   0.00112918    1.612    0.380
        16 -16.0422     40.6382    191.7801   1.1235200297e+02   2.8996136362e+01     10.62574     4.134225  82.96   0.03094276    5.439    0.816
        17  -9.8416    189.1752    177.6088   7.4118751811e+01   8.1504005513e+00    0.3041145    0.2342199 -69.98  0.001494834    1.853    0.460
        18 -12.0847     60.2288    174.8986   1.0540517478e+02   3.0781198558e+01    0.4813496    0.3110215 -32.51  0.002205833    2.182    0.542
        19 -11.9243     65.2777    169.9774   1.0335990174e+02   3.1352819378e+01    0.3397373    0.2832614 -34.97 0.0006398344    1.415    0.293
        20 -10.1260     87.3428    174.4535   9.8151272653e+01   2.7009013469e+01    0.4505973    0.3131362  17.17  0.002089083    1.830    0.454
        21 -10.7469    115.2305    173.7430   9.0721116738e+01   2.2543757619e+01     0.280731    0.1894268  41.35  0.001289835    1.462    0.316
        22 -11.4847     73.5804    134.5260   9.4795111947e+01   3.9271108439e+01    0.5742804    0.3233804  50.18  0.001956826    2.059    0.514
        23 -13.5510     62.3661    156.5475   1.0210442365e+02   3.5176613173e+01    0.5541098    0.3678166 -42.04  0.001848114    1.677    0.404
        24 -12.3219     75.4707    160.2835   9.9024948438e+01   3.2383990588e+01    0.6127778    0.4866208 -53.19 0.0008680177    1.240    0.194
        25 -12.4760     82.5946    154.4842   9.5992642593e+01   3.2790234127e+01     1.052874    0.5553885 -47.70   0.00150868    1.917    0.478
        26 -16.5249     22.5045    246.4594   1.2041428754e+02   1.8920765610e+01     9.265539     2.739593  24.40   0.02772717    8.085    0.876
        27  -9.5606     42.4788    164.9581   1.0883334163e+02   3.5449331185e+01    0.3035321     0.195543  19.31  0.001511032    1.932    0.482
        28 -11.5892     32.3755    156.5858   1.1054487918e+02   3.8647669189e+01     0.496061    0.3315812 -88.42   0.00159105    1.435    0.303
        29  -9.3627    235.3084    155.3069   6.0842546727e+01   4.3549190314e+00    0.1348756   0.09686418  -9.75 0.0002160026    1.612    0.380
        30  -9.6228    174.8460    149.1628   7.1094949101e+01   1.6718110964e+01    0.2304886    0.2109889 -77.80 0.0006429153    1.248    0.199
        31 -10.3870    134.0920    146.1390   8.0133956717e+01   2.5615671413e+01    0.7341814    0.1875924 -54.18   0.00171689    5.345    0.813
        32 -11.4579     56.3509    146.1953   1.0215896640e+02   3.8627219210e+01    0.5543021    0.4020954 -40.56  0.002803439    1.496    0.331
        33 -10.7547     29.0966    143.2306   1.0975864377e+02   4.2374828188e+01    0.3975033    0.2984818  12.06  0.002224102    1.660    0.398
        34 -10.2354     97.4912    141.0371   8.9031549724e+01   3.3748977457e+01    0.3476891    0.2703168 -51.98 0.0008090441    1.238    0.192
        35  -9.5916    100.5404    137.9282   8.7471730348e+01   3.3989293715e+01    0.3810673    0.2456522 -28.97 0.0009664221    2.036    0.509
        36  -8.6570    145.2748    141.6863   7.6280427018e+01   2.4393906503e+01    0.1541199    0.1249956 -86.35 0.0003185787    1.560    0.359
        37 -12.3692     85.3305    139.4697   9.2263979036e+01   3.6187618254e+01    0.3177931    0.2732799 -43.96 0.0005065323    1.161    0.139
        38 -10.8125    107.2520    130.6359   8.3865780506e+01   3.4562409532e+01     0.509426    0.3409972  31.42  0.001765906    1.626    0.385
        39  -9.5869     21.5242    132.4242   1.1056071888e+02   4.5791250329e+01    0.2117325    0.1603411 -54.22 5.541736e-05    1.217    0.178
        40 -10.9825     17.4871    130.1040   1.1148263334e+02   4.6697949489e+01    0.3227912    0.2383232  60.14  0.001011734    1.495    0.331
        41 -10.3173    135.8560    128.6944   7.5557390955e+01   2.9329539861e+01    0.4535858    0.1085311 -50.60  0.001093691    4.756    0.790
        42  -9.5258     48.7082    169.8990   1.0779538627e+02   3.3478476971e+01    0.2039434    0.1624871 -81.99 0.0005829003    1.137    0.121
        43  -9.4653    161.3300    128.3366   6.9242566634e+01   2.4004154704e+01    0.1612114     0.124195  -3.34 0.0007052055    1.732    0.423
        44  -9.3744     96.6619    125.7975   8.5833682350e+01   3.7688249917e+01    0.2438591    0.1753215 -35.96   0.00104216    1.485    0.327
        45  -9.3328    115.7589    124.4421   7.9940467596e+01   3.4417495723e+01    0.2202473    0.1532789  25.53 0.0009417805    1.692    0.409
        46 -11.1363     67.1725    127.6146   9.5372017714e+01   4.1962664793e+01    0.4902223    0.3501525 -73.34  0.002356049    1.483    0.326
        47  -9.6500     99.3781    181.0710   9.6098958123e+01   2.3463350663e+01    0.2343987    0.2042515  22.53 0.0005240457    1.258    0.205
        48  -9.7254    106.0630    119.0299   8.1379674839e+01   3.7591913445e+01    0.2208436    0.2135662 -30.21 0.0002975416    1.030    0.029
        49 -10.9980    249.1494    113.8794   5.0140615296e+01   9.1858643031e+00    0.2096528    0.1608956 -56.66 0.0009729184    1.261    0.207
        50  -9.0638     78.1820    113.2194   8.8578822089e+01   4.3906334069e+01    0.2022071    0.1752442  81.84  0.000550314    1.352    0.260
        51 -10.1480    205.5714    110.2665   5.5983921927e+01   1.8196060287e+01    0.2811533    0.2337489  43.27 0.0009056901    1.352    0.261
        52  -8.7083     32.3039    109.3277   1.0330856273e+02   5.0674329151e+01     0.145811   0.08891084 -38.73 0.0007034361    1.648    0.393
        53 -10.7995    242.1934    101.6088   4.8493192393e+01   1.2498140342e+01    0.1709021    0.1241178  43.77 0.0009584808    1.721    0.419
        54 -10.9216     52.9256     91.5259   9.1863234277e+01   5.2718573390e+01    0.3456381     0.181367 -50.74  0.001079452    1.691    0.409
        55  -9.3478    161.2281     83.0364   5.7449435876e+01   3.3182729163e+01     0.199424    0.1224264 -38.94 0.0005779119    1.622    0.383
        56  -9.5368     37.0960     63.7880   9.0272792761e+01   6.0679241894e+01    0.1786871    0.1740292  -8.00 0.0005268621    1.234    0.190
        57 -11.4521     13.3292     59.9759   9.9672736014e+01   6.3588009528e+01    0.2792195    0.2422137 -74.66 0.0004420072    1.412    0.292
        58 -14.1554     11.7076    234.8091   1.2181353747e+02   2.2392177640e+01     1.031754    0.5277999  85.52  0.004508487    1.737    0.424
        59 -10.9719    193.2005    195.2481   7.6759364134e+01   4.0710107956e+00    0.7985324    0.4250439 -63.48  0.002555634    4.958    0.798
        60  -8.5557    121.2695    196.3220   9.3172031128e+01   1.6241428617e+01    0.1413595    0.1122107 -18.62 0.0001791891    1.567    0.362
        61  -9.5161     89.5810    211.6990   1.0300486377e+02   1.7825066524e+01    0.1800402    0.1283015 -82.37 0.0009354465    1.542    0.351
        62 -10.4862     40.2715     58.4619   8.7194783263e+01   6.1392380927e+01    0.2727335    0.2109125  44.90  0.001576941    1.672    0.402
        63 -10.2364     18.4561     55.0404   9.5907681491e+01   6.4228695494e+01    0.2132956    0.1623607  34.11  0.000894164    1.626    0.385
        64  -9.6337      6.5272     50.4508   1.0021327812e+02   6.5988971961e+01    0.1208852   0.09629052 -36.73 0.0001271671    1.029    0.029
        65 -10.3652    132.4059     39.3502   5.0517757600e+01   4.6957152858e+01    0.2633156    0.2177517 -79.60 0.0002688913    1.367    0.269
        66  -9.5600    132.1655     31.3559   4.8003051983e+01   4.8015198783e+01    0.1920077    0.1806057   8.97 0.0003544335    1.180    0.152
        67  -9.4875    189.6568     15.0726   3.5077971020e+01   3.6203097978e+01    0.1720046    0.1480568 -66.66 0.0006172713    1.112    0.101
