#   1 NUMBER                 Running object number                                     
#   2 MAG_AUTO               Kron-like elliptical aperture magnitude                    [mag]
#   3 X_IMAGE                Object position along x                                    [pixel]
#   4 Y_IMAGE                Object position along y                                    [pixel]
#   5 X_WORLD                Barycenter position along world x axis                     [deg]
#   6 Y_WORLD                Barycenter position along world y axis                     [deg]
#   7 A_WORLD                Profile RMS along major axis (world units)                 [deg]
#   8 B_WORLD                Profile RMS along minor axis (world units)                 [deg]
#   9 THETA_WORLD            Position angle (CCW/world-x)                               [deg]
#  10 FWHM_WORLD             FWHM assuming a gaussian core                              [deg]
#  11 ELONGATION             A_IMAGE/B_IMAGE                                           
#  12 ELLIPTICITY            1 - B_IMAGE/A_IMAGE                                       
         1 -11.0082    110.9015     39.8754   1.8380407699e+01   5.2370585269e+01     1.181815    0.9226872  -4.61  0.005779388    1.752    0.429
         2 -12.1645    104.7402     12.7763   8.5542243925e+00   5.7471767068e+01    0.5829762    0.3743291 -22.55  0.002130963    1.775    0.437
         3 -12.6854    105.8689     19.9148   1.1392271481e+01   5.6383388978e+01    0.4764055    0.3516271 -70.17 0.0004194261    1.406    0.289
         4 -12.4037     58.1539     29.5741   3.0861317634e+01   6.6648304665e+01    0.6779437    0.3957794 -24.64  0.001308341    2.204    0.546
         5 -11.8105    164.1933     27.5640   5.3363770500e+00   4.0276052054e+01     0.481252    0.2959464 -50.97 0.0006511631    1.452    0.311
         6 -11.8115     20.2285     21.5556   4.9152092420e+01   7.4679050071e+01     0.523099    0.3383255 -38.83  0.002862971    1.510    0.338
         7 -11.9513    144.1796     25.4143   7.1216093219e+00   4.5647963359e+01    0.7208954    0.4775741  84.54  0.003609245    1.431    0.301
         8 -11.0605    154.9986     22.9770   4.9705305889e+00   4.3153641080e+01     0.489392    0.3750361 -48.33  0.002720862    1.216    0.178
         9 -11.4086    122.1439      5.6932   2.9478349820e+00   5.3563901557e+01    0.3295428    0.2070729 -12.58  0.001224076    2.007    0.502
        10 -11.4418    127.1508     16.6181   6.4092774622e+00   5.1138190271e+01    0.4181806    0.3221905  44.09  0.001985018    1.510    0.338
        11 -12.3978    136.2456     14.1912   4.2973428485e+00   4.9003752453e+01    0.8364942    0.3411353  69.06  0.002564144    2.180    0.541
        12 -11.1365    242.7106     21.9401   3.5786827913e+02   2.3673030133e+01    0.2390958    0.1775509  43.69  0.001550698    2.112    0.527
        13 -11.5577     36.4478     18.2209   3.5726523479e+01   7.2752226959e+01    0.7038346    0.4492139 -46.63  0.003685072    1.716    0.417
        14 -11.3971      5.6765      8.9859   5.4629806173e+01   7.8729817210e+01    0.4093782    0.3856825 -29.85   0.00290462    1.152    0.132
        15 -12.1268     22.3317     11.1869   4.0843752387e+01   7.6244703972e+01    0.6085696    0.4621046   8.91  0.002511844    1.382    0.276
        16 -11.2163     68.9313     19.6369   2.1221436162e+01   6.5709487435e+01    0.3750212    0.3382908  64.48 0.0009691544    1.062    0.058
        17 -11.8627    165.0887     17.7487   2.2882998312e+00   4.1207273695e+01    0.5758724    0.3010826  47.84  0.002544526    2.520    0.603
        18 -11.2716     86.0295     14.4815   1.3406265056e+01   6.2136885708e+01    0.7619247    0.4902093  26.36  0.003519329    2.061    0.515
        19 -10.9731     89.0622      8.4257   9.7191154560e+00   6.1994896821e+01    0.5576546    0.3302833 -68.50  0.002540848    2.060    0.514
        20 -11.5220    134.0061     22.1452   7.4214624704e+00   4.8700762299e+01    0.5189928    0.3957467 -82.17  0.002779773    1.214    0.176
        21 -11.3942    242.1945     15.0189   3.5642224182e+02   2.4531196736e+01    0.2455056    0.1915364 -60.51 0.0002993589    1.106    0.096
        22 -12.0286    227.5415     14.5828   3.5704419375e+02   2.7424722957e+01    0.4800801    0.2214325 -68.26  0.001762703    2.019    0.505
        23 -11.0485    190.6917     12.4853   3.5872069446e+02   3.5618178337e+01    0.3613304    0.1913063 -40.25  0.001235849    1.590    0.371
        24 -12.0747    192.9971      7.0029   3.5713470488e+02   3.5662348535e+01    0.6276274     0.447321  25.62  0.003319952    2.325    0.570
        25 -10.5445    219.2254     12.7589   3.5706386421e+02   2.9320024910e+01     0.252554    0.2316344  -7.08  0.001382102    1.529    0.346
        26 -12.3133     48.9439     12.8347   2.5442878926e+01   7.1087599387e+01     0.692493    0.2829238  53.53  0.002901974    2.291    0.564
        27 -11.8413    212.1367      9.6679   3.5671404605e+02   3.1143973838e+01    0.4553045    0.3073262 -18.43  0.001688748    1.850    0.459
        28 -11.9294    168.0222      9.5302   3.5957904723e+02   4.1359868093e+01     0.637235    0.2540118  73.00  0.002446505    2.311    0.567
        29 -11.8176     64.1320      9.2091   1.7014202619e+01   6.8104631224e+01    0.4514933    0.3185537 -50.82 0.0002995413    1.630    0.386
        30  -9.5523    145.3941      9.1068   1.5076901775e+00   4.7139869322e+01     0.244877    0.1762077  10.87  0.001247742    2.048    0.512
        31 -12.1911    155.8445      6.3887   3.5963877391e+02   4.4726823386e+01    0.7754874    0.4798126  43.27  0.003821275    2.154    0.536
        32 -10.7656    149.2912      5.4396   3.5991661064e+02   4.6491758532e+01    0.3902579    0.1444635  73.88  0.001580506    2.395    0.582
        33 -11.7339    243.8704      3.7592   3.5398182326e+02   2.5397256424e+01    0.4806736    0.2855189 -54.01  0.002770574    1.204    0.170
        34 -10.7351     12.7398      8.1916   4.6998382930e+01   7.8087491216e+01    0.4054581    0.3201486 -29.30  0.001877907    1.198    0.166
        35 -10.4216      1.9662      2.0293   5.3865774148e+01   8.0373443959e+01     0.273247    0.1524772 -35.74   0.00104282    1.711    0.415
        36 -11.7170    185.0371      6.1771   3.5740852430e+02   3.7594604757e+01     0.509401    0.2548493 -39.08  0.002512765    1.696    0.410
        37 -11.2129    232.8453      6.7721   3.5506180685e+02   2.7201452472e+01    0.2595649    0.1702314 -72.07  0.001597284    1.313    0.238
        38 -11.2003    234.4337      2.3060   3.5402624655e+02   2.7347022678e+01    0.4289539    0.1796102 -58.55  0.001670992    1.845    0.458
        39  -9.7074     70.2193      4.9997   1.2639258206e+01   6.7068728011e+01    0.2927186    0.1570884  51.92  0.001394098    1.673    0.402
        40  -9.5025     77.8929      7.1652   1.1742255800e+01   6.4957014620e+01    0.3168504    0.2013272 -75.55  0.001066471    1.965    0.491
        41 -10.1998     75.0838      3.1376   1.0271724383e+01   6.6036888833e+01    0.3970219    0.2293474  79.07   0.00189241    1.779    0.438
        42 -10.5037    175.9527      5.7119   3.5788248425e+02   3.9806994173e+01    0.2982348    0.1549912  80.67  0.001051691    1.791    0.442
        43 -10.8563    141.9394      2.6525   3.5966663878e+02   4.8647984323e+01    0.3117441    0.2788019  75.06  0.001074043    1.186    0.157
        44 -10.6966    137.8101      3.8470   4.8143387964e-01   4.9613862120e+01    0.2755715     0.210946 -66.99 0.0003603502    1.162    0.139
        45 -11.9482    133.0640      2.2612   4.0455226674e-01   5.0996871375e+01    0.4190479    0.3211274 -82.27  0.001569383    1.133    0.117
        46 -11.6258    114.2101      2.6357   2.7741997096e+00   5.5932595689e+01    0.6483332    0.3373058 -88.47  0.002891906    1.933    0.483
        47 -10.6190    105.5308      1.7854   3.6461115407e+00   5.8294675935e+01     0.491811    0.2559786 -79.23  0.001346445    2.141    0.533
        48 -10.5858     41.9893      3.4877   2.2431783509e+01   7.3701415991e+01    0.3679464    0.2325246  27.67   0.00191407    1.768    0.434
        49 -10.6021    218.5357      3.4961   3.5494877001e+02   3.0431579315e+01    0.2148137    0.1917129 -75.52 0.0007302181    1.264    0.209
        50 -10.8729    223.6725      2.5918   3.5451988983e+02   2.9464333164e+01    0.2300524    0.1830345 -66.08 0.0005333116    1.117    0.105
        51 -11.5681    205.9745      2.1772   3.5521780484e+02   3.3244093335e+01    0.5440207    0.2016858 -89.87  0.002059271    2.719    0.632
        52  -9.3445     33.7450      1.8194   2.5673492038e+01   7.5571806946e+01    0.1922637    0.1451638   4.62  0.000640979    1.448    0.309
        53 -12.0531     15.9812     13.5432   4.7759050896e+01   7.6724441621e+01    0.9725823    0.4124795 -31.76  0.003834262    3.322    0.699
        54  -9.6795    152.0482      1.4204   3.5837738675e+02   4.6159503685e+01    0.1995542    0.1158918  82.58 0.0005168408    1.539    0.350
        55 -11.9439    121.0362     11.5171   5.3586212481e+00   5.3294529182e+01     1.168722    0.3505519  70.53  0.004099951    2.897    0.655
        56  -9.1988     28.9577      1.5026   2.8442598502e+01   7.6527467670e+01     0.185728    0.1129091  45.72 0.0005448515    1.523    0.343
        57 -10.6409    104.6530    122.3864   4.5813157924e+01   3.6685420687e+01    0.3420057    0.2983494  68.52  0.001101395    1.145    0.127
        58  -9.5889     49.3969    122.7373   6.4205165522e+01   4.6049083957e+01    0.2517307    0.1864566  -0.88  0.001163758    1.845    0.458
        59  -9.4969     26.9938    123.4955   7.2625657905e+01   4.8485956812e+01    0.2043671    0.1380179  30.30 0.0005141629    1.508    0.337
        60  -9.1365     84.9988    122.7452   5.1918694971e+01   4.0347559628e+01    0.1887883    0.1311341  40.17  0.000326021    1.418    0.295
        61  -9.1419     26.5480    127.4517   7.3258877674e+01   4.7455181508e+01     0.144583    0.1283571  77.88 6.644192e-05    1.004    0.004
        62  -9.6281     44.4960    119.5406   6.5485209961e+01   4.7560595776e+01    0.2405652    0.2121263  81.37 0.0006348122    1.052    0.049
        63  -9.8075     43.4100    116.1574   6.5331719125e+01   4.8617207485e+01    0.3079634    0.2292685  81.66 0.0008205766    1.360    0.264
        64 -10.8087      7.8853    114.8268   7.9055430105e+01   5.2459763678e+01     0.310218    0.2397453 -52.50 0.0003669493    1.374    0.272
        65 -12.0572      2.6561    111.5351   8.0853848835e+01   5.3682507250e+01    0.4570513    0.3562276  79.17  0.001164828    1.140    0.123
        66 -11.4908      4.4879    105.2013   7.9581748577e+01   5.5279800055e+01    0.4715973    0.3773927  27.00  0.002122037    1.351    0.260
        67  -9.7500     79.2700    114.9582   5.2080409492e+01   4.3368972781e+01    0.2191977    0.2023626 -75.73 0.0006614642    1.065    0.061
        68  -9.6835     58.7229    115.1157   5.9383712781e+01   4.6754351958e+01    0.2337766    0.1904213  75.03  0.000508807    1.233    0.189
        69 -10.6642     30.8770     97.1606   6.7133482174e+01   5.5254671697e+01    0.8685784    0.6002525   5.25  0.004147621    1.808    0.447
        70 -10.4736     35.0369    102.9772   6.6395377419e+01   5.3214166645e+01    0.6219643    0.3254546   1.01  0.002203732    3.358    0.702
        71 -11.8762     26.2132    106.5885   7.0667026261e+01   5.3176506267e+01    0.7325721    0.3937367 -31.72  0.002301808    2.652    0.623
        72 -10.7950     24.5324    102.4653   7.0757982260e+01   5.4463402413e+01    0.3546146    0.2572853  70.10 0.0008965443    1.387    0.279
        73 -11.6046     22.3900    114.0034   7.3229987669e+01   5.1518170906e+01    0.5801859     0.356705  -7.97  0.002031425    2.311    0.567
        74 -11.2927     28.5304    112.8162   7.0627064248e+01   5.1243236247e+01    0.3346629    0.3158794  22.40 0.0009669118    1.188    0.158
        75 -10.7977     12.8609    111.4294   7.6750006651e+01   5.3021539527e+01    0.4831344    0.1907268 -75.76  0.001556455    2.260    0.557
        76 -10.6903     16.5940    109.6772   7.5040865148e+01   5.3203473411e+01    0.5036052    0.3132042  84.51 0.0005956987    1.566    0.361
        77 -10.7173    249.5833    111.7416   1.6003432203e+01   1.0892100804e+01    0.2377571   0.09440086 -32.35   0.00114394    2.114    0.527
        78  -9.9415     48.8278    111.9437   6.2497645555e+01   4.9039264250e+01     0.261183    0.2124396  41.95 0.0007923343    1.223    0.182
        79  -9.6255    174.3246    108.4776   2.6022092600e+01   2.4973154438e+01    0.2772288    0.1954928  69.95  0.001357484    1.726    0.421
        80 -11.8486     79.6274    107.9190   5.0305751066e+01   4.5097057822e+01    0.5605824    0.3473198  33.45  0.001764144    1.733    0.423
        81 -11.1989     50.1840    100.9139   5.9728419522e+01   5.1805577760e+01    0.7570832    0.4329971 -30.85  0.002842813    2.723    0.633
        82  -9.3959     92.6877    103.3289   4.4783503332e+01   4.3699264746e+01    0.1650178    0.1212084  81.43  0.000599142    1.669    0.401
        83  -9.5196     85.9396    103.3018   4.6997927398e+01   4.5051186508e+01    0.2156679    0.1985568  49.88 0.0004015724    1.098    0.089
        84 -10.5005     35.7316     91.1482   6.3807538156e+01   5.6316417010e+01    0.5579656      0.39695  65.53  0.002502914    1.527    0.345
        85 -11.5599      9.2917     96.8970   7.6663808608e+01   5.7216707698e+01    0.4952221    0.4156222  49.98   0.00108365    1.204    0.170
        86 -10.6748     17.1157    100.3773   7.3656611025e+01   5.5691010627e+01    0.3389947    0.2303609 -79.98 0.0005844249    1.353    0.261
        87 -10.1630     16.0645     95.2876   7.3423316427e+01   5.7155396680e+01    0.3035311    0.1839088 -77.02  0.001189677    1.515    0.340
        88 -11.3380     27.8711     85.3092   6.6233762426e+01   5.8752194653e+01    0.5485641    0.4996988  -9.80  0.001430442    1.231    0.188
        89 -11.4989     22.5122     93.9237   7.0301165554e+01   5.6969703777e+01    0.6937866    0.3642999  48.17  0.001521868    1.979    0.495
        90 -10.1555     18.2452     86.2691   7.1019868511e+01   5.9403737065e+01    0.4372663    0.3884386 -24.33  0.002160283    1.250    0.200
        91 -11.7580     67.4694     95.0709   5.1484909559e+01   5.0562938160e+01    0.4986876    0.4395764  -3.74  0.001848266    1.398    0.285
        92 -11.4361    245.7827     99.0028   1.3864338974e+01   1.3246620394e+01    0.2846639     0.179347  25.49  0.001536187    2.665    0.625
        93  -9.3603    210.3024     98.0148   1.7907116078e+01   1.9579986036e+01    0.1829574    0.1467262 -41.84 0.0004289007    1.064    0.060
        94 -10.9891     79.8280     92.7307   4.6269764183e+01   4.8849204427e+01    0.7791658    0.6819651  61.87  0.003969225    1.125    0.111
        95 -12.1421     75.6466     79.0494   4.3731822639e+01   5.2959131677e+01    0.7803217    0.5585452  79.45 0.0004819021    1.819    0.450
        96  -9.7176     83.0482     83.4303   4.2389795872e+01   5.0430307405e+01    0.3229687    0.1956815  43.54  0.001359143    1.649    0.393
        97  -8.8156    140.6931     95.6405   2.9551848606e+01   3.4828937999e+01    0.1526306    0.1242431   1.13 0.0001011094    1.732    0.422
        98 -10.1882    125.8441     94.0978   3.2682173239e+01   3.8557831011e+01       0.2524    0.2314368  89.90 0.0004637159    1.061    0.058
        99  -9.2132    121.6428     93.2051   3.3511926449e+01   3.9711439326e+01    0.2110854    0.1945813   0.99 0.0006878972    1.327    0.247
       100 -10.1928     42.9847     94.4742   6.1331865630e+01   5.4515304643e+01    0.3734361    0.2891196  50.77  0.001886519    1.301    0.232
       101 -10.2743     43.7485     90.6186   6.0132168842e+01   5.5433924745e+01     0.243381    0.2285452 -73.06 0.0004418463    1.035    0.034
       102 -10.2574     50.5228     91.8408   5.7503770634e+01   5.4151024321e+01    0.3628231    0.2900968  38.12  0.001018645    1.270    0.213
       103  -9.3813     38.3224     77.6826   5.9449900699e+01   5.9524155213e+01    0.3243903     0.159665  48.83  0.001279988    2.299    0.565
       104 -10.0546     52.0592     86.9553   5.5618097245e+01   5.5186848183e+01    0.2498675    0.2383498 -86.80 0.0003551363    1.004    0.004
       105 -11.4373     45.2687     83.9067   5.7819981099e+01   5.6976190457e+01    0.7138682    0.4818529  68.77  0.002210698    1.798    0.444
       106 -10.0993     98.0271     90.6209   3.9548649657e+01   4.5582645596e+01     0.244485    0.2118772 -80.96 0.0005035368    1.180    0.153
       107 -12.8115      7.2137     61.3590   7.2390509748e+01   6.6714509801e+01    0.8924373     0.497774 -41.64  0.002420136    1.784    0.439
       108 -10.8061      1.9906     71.5598   7.7046554519e+01   6.4372363717e+01     0.617137    0.2276712 -75.52  0.002481264    2.383    0.580
       109 -11.7225      6.7680     88.2152   7.6788865120e+01   5.9711763799e+01    0.7435217    0.4267543  14.08  0.003596014    1.950    0.487
       110 -11.0322      3.0852     81.8901   7.7808140434e+01   6.1603772195e+01    0.5392117    0.2933725 -78.80  0.002233267    1.649    0.394
       111  -9.9428     66.8271     88.2898   4.9898900718e+01   5.2386796449e+01    0.3054132    0.2367008  -3.22 0.0007914424    1.832    0.454
       112  -9.8500     90.5286     85.9057   4.0572115036e+01   4.8284323400e+01    0.3849408    0.2873867 -76.86  0.001739609    1.557    0.358
       113 -10.1050     37.5465     85.3418   6.1699130279e+01   5.7632126310e+01    0.3614672    0.2076849  10.58  0.001475736    2.376    0.579
       114  -9.8614    143.2462     84.1671   2.5786101274e+01   3.6492320683e+01    0.2145436    0.1983392 -46.86 0.0006085742    1.114    0.103
       115  -9.9375    112.9164     82.9948   3.2848684176e+01   4.3906147721e+01    0.4575829    0.2585917  67.66  0.001694607    2.339    0.573
       116 -10.1741     60.4411     83.1371   5.1019449521e+01   5.4792527275e+01    0.3621779    0.2309578  45.45 0.0005131214    1.575    0.365
       117 -10.1741     67.2835     81.3003   4.7683105071e+01   5.4026904687e+01    0.3155078    0.2545127 -16.67  0.001150959    1.624    0.384
       118  -9.1398    120.7369     81.3494   3.0252498994e+01   4.2407196656e+01    0.2362941    0.1285189 -63.73  0.000467305    2.570    0.611
       119  -8.9472    118.7973     78.0858   2.9748182805e+01   4.3533567569e+01    0.2209631    0.1783977 -85.95            0    1.341    0.254
       120  -9.4805    103.4460     79.9201   3.4619964001e+01   4.6755489261e+01    0.2335944     0.152383 -47.64 0.0004692839    1.537    0.349
       121 -10.9044     53.4698     76.4241   5.2052233038e+01   5.7623896461e+01    0.5063103     0.341934 -62.92  0.002357912    1.487    0.328
       122 -10.0869     58.1808     77.5270   5.0319058229e+01   5.6567107012e+01    0.2669963     0.209178 -61.31 0.0005227064    1.261    0.207
       123  -9.2014     92.3647     71.2252   3.5236416392e+01   5.1145796611e+01    0.3315732    0.2247171 -67.88  0.001418631    1.779    0.438
       124 -10.4924     89.1033     77.4701   3.8403810209e+01   5.0508230707e+01    0.5434865    0.3150909  52.48  0.001735656    1.745    0.427
       125 -10.1320     94.2117     76.1684   3.6287059549e+01   4.9665207052e+01    0.3163258    0.2908405 -44.74  0.001029684    1.153    0.132
       126  -8.9263    126.2549     76.9925   2.7532312086e+01   4.1957855330e+01    0.2757871    0.1684497  22.91 0.0009006141    3.599    0.722
       127 -12.2391    247.3758     73.9332   8.5427826891e+00   1.6401539431e+01    0.4848225    0.2485291 -42.09  0.002745414    1.475    0.322
       128  -9.9795     46.2766     75.6527   5.5112988921e+01   5.8933544586e+01    0.3098368    0.1960052 -30.56  0.001315541    2.095    0.523
       129 -11.2440     13.8573     74.4462   7.1149789604e+01   6.2883603607e+01    0.3912716    0.2934287 -81.45  0.002125051    1.273    0.214
       130 -10.9219     27.3977     73.3022   6.3806101626e+01   6.1947669018e+01    0.5057842     0.343528  -9.80  0.001390685    1.895    0.472
       131 -10.6600     34.4855     71.0347   5.9575247894e+01   6.1706683778e+01     0.475547    0.2299616  42.50  0.001639031    2.157    0.536
       132 -10.6247     40.5000     72.7551   5.7048307941e+01   6.0485683881e+01    0.4119074     0.265347  10.69  0.001824809    2.034    0.508
       133 -11.3455     40.6350     68.8920   5.5848865634e+01   6.1430093637e+01    0.3985645    0.2866102  36.82   0.00170459    1.414    0.293
       134  -9.6085    103.6922     74.4639   3.2787730308e+01   4.7856025653e+01    0.3014638    0.1505855  55.68  0.001130261    2.065    0.516
       135 -10.0178     80.9192     71.9312   3.9435205005e+01   5.3502382315e+01    0.4030222    0.2517565 -48.68  0.001678211    1.611    0.379
       136  -9.3966     77.9660     67.4681   3.8976487468e+01   5.5111017228e+01    0.2936215    0.2017051 -89.83  0.001202442    2.162    0.538
       137 -10.7279    123.0152     68.4560   2.5616445589e+01   4.4393388314e+01    0.4885813    0.2541506  51.53  0.001560429    1.922    0.480
       138 -10.0258     13.4999     67.1564   6.9923061073e+01   6.4802640906e+01    0.4617414    0.1993668  12.81   0.00150866    2.687    0.628
       139 -11.1838     93.1061     62.8160   3.2037109267e+01   5.2714770523e+01    0.6099035    0.3512575  70.31  0.002289744    2.415    0.586
       140  -9.1535     51.5095     65.5632   4.9485296227e+01   6.0571935072e+01    0.1438715    0.1418518 -84.57 7.762088e-05    1.009    0.009
       141  -9.2531    201.7940     64.3626   1.1020287366e+01   2.6444773764e+01     0.171436     0.121098  57.55 0.0006448866    1.627    0.385
       142 -10.0843    158.7538     62.8229   1.6627606113e+01   3.6550338561e+01    0.2409668    0.1836892  56.88 0.0003038417    1.393    0.282
       143  -9.6975    105.3895     63.2018   2.8464716354e+01   4.9715709113e+01    0.2457767    0.1871465  66.24  0.001003613    1.313    0.239
       144  -9.6746     84.7514     62.0612   3.4560503521e+01   5.4778635749e+01    0.2849241    0.2231874 -26.76  0.001359668    1.541    0.351
       145  -9.8014     58.1456     62.4991   4.5345316598e+01   6.0127540087e+01    0.3049576    0.2377388  87.44  0.001479373    1.599    0.375
       146 -10.7229     50.9409     56.5037   4.6498354139e+01   6.2751138488e+01    0.8634607    0.2421363 -53.95  0.002627516    3.746    0.733
       147 -10.8747     40.3258     56.5827   5.1954249417e+01   6.4430138205e+01    0.4143939    0.2206836  35.76 0.0008162527    1.886    0.470
       148 -11.5310     43.3789     60.7404   5.1824864791e+01   6.3000589363e+01    0.4528507    0.2525838 -61.88 0.0008154102    1.877    0.467
       149 -11.3482     46.4798     59.4412   4.9795467291e+01   6.2821674702e+01    0.5193999    0.3015856  54.19  0.002214276    2.098    0.523
       150  -9.7414    113.7905     60.7294   2.5327463445e+01   4.8118430592e+01    0.2578518    0.2127096 -32.08  0.001002186    1.355    0.262
       151  -9.6382     64.4267     59.7453   4.1563833331e+01   5.9554040346e+01    0.3111315    0.1814733 -36.46   0.00129232    2.019    0.505
       152 -11.4627     26.7196     57.3907   5.9821557155e+01   6.6013180190e+01    0.6556837    0.5046588  74.22  0.002332944    1.553    0.356
       153 -10.8548     31.8564     52.8861   5.5343687382e+01   6.6465499536e+01    0.5298457    0.2419418  25.45  0.002160805    2.407    0.585
       154 -11.3231     76.2247     57.9581   3.6115983687e+01   5.7499515731e+01    0.3783885    0.2722657 -42.57  0.001103433    1.437    0.304
       155 -11.7361     73.0349     47.3547   3.3036913847e+01   6.0287472131e+01    0.6403154    0.3163942 -52.72  0.002133077    2.353    0.575
       156  -9.9788    106.6378     58.2851   2.6365714493e+01   5.0338729510e+01      0.26892    0.1784127  67.75 0.0005070108    1.581    0.368
       157 -10.8328     88.4536     54.3391   3.0367650232e+01   5.5457831755e+01    0.7906678    0.2839026 -32.74  0.002227458    4.415    0.773
       158 -11.1902     76.2962     53.1867   3.4206519009e+01   5.8444133058e+01    0.4787914    0.3465609   3.46  0.001257518    2.256    0.557
       159 -10.8567    157.1713     55.7275   1.4791129539e+01   3.8076665934e+01    0.4588999    0.2587005 -43.61  0.001021042    1.637    0.389
       160 -11.3204    155.0156     48.5918   1.2972510020e+01   3.9708600110e+01    0.3669073    0.2282441 -27.34  0.001677837    1.826    0.452
       161  -8.8736    249.6461    249.7162   3.9070442912e+01  -6.1216386218e+00    0.1003285   0.05363864  -0.19 0.0007018865    1.663    0.399
       162 -11.6362    116.9780     45.9987   1.9280140226e+01   4.9849192094e+01     0.838101    0.4754124 -26.74  0.003298221    2.157    0.536
       163 -11.2597    120.1839     40.5933   1.6587191882e+01   4.9859039020e+01    0.4149491    0.2660089  44.90 0.0005925634    1.776    0.437
       164 -11.3648    119.5772     36.8005   1.5305543366e+01   5.0575023222e+01    0.3521138    0.2798115 -53.08 0.0008815209    1.240    0.193
       165 -10.2001    122.6407     44.7817   1.7590593426e+01   4.8581708657e+01    0.3603822     0.272314  85.29  0.001456773    1.335    0.251
       166  -9.6694    124.7879     56.1775   2.1111091381e+01   4.6164053345e+01    0.2323529    0.1948403 -70.15 0.0005811477    1.165    0.142
       167 -11.3397    244.8051     51.9926   4.1372070242e+00   1.9700415939e+01    0.5055892    0.2034466 -63.03  0.002065701    3.222    0.690
       168 -10.0282    240.0476     50.5169   4.1805989296e+00   2.0749281930e+01    0.1639545    0.1362241 -61.28 0.0008974195    1.134    0.118
       169  -9.3973     55.4127     50.1921   4.1825965112e+01   6.3317033188e+01    0.2010775      0.14192 -47.38 0.0008482207    1.426    0.299
       170  -9.8911     52.0245     48.2959   4.2665576303e+01   6.4336808804e+01    0.2622218    0.2282981  66.14 0.0005892052    1.263    0.208
       171 -10.4889     60.5603     51.7892   4.0115893523e+01   6.2001441107e+01    0.4700748     0.246793 -55.93  0.001910708    2.165    0.538
       172 -10.5516     60.9087     46.7341   3.7820631761e+01   6.2958337852e+01    0.4943877    0.3589327   6.44  0.001915783    2.042    0.510
       173 -10.7073     47.0283     48.9206   4.5452119574e+01   6.5081548679e+01    0.6568803    0.3710646 -28.19  0.002604865    2.641    0.621
       174  -9.7442     43.4859     48.5070   4.7149216209e+01   6.5758494907e+01    0.2817453    0.1724862 -49.09  0.001102025    1.609    0.379
       175 -11.3650     44.2586     43.9317   4.4784442783e+01   6.6605389313e+01    0.3822311     0.294454  40.54 0.0008629588    1.299    0.230
       176 -10.7486     39.4708     43.9904   4.7462102177e+01   6.7370401264e+01    0.3608551    0.2831647 -25.50  0.001287171    1.401    0.286
       177  -8.4890     94.2875     52.3074   2.7717314443e+01   5.4450354756e+01    0.1461999    0.1208983  17.16 0.0002608012    1.571    0.364
       178 -10.2166    144.9717     50.1859   1.5125533917e+01   4.2001838823e+01    0.2828294    0.2187431 -20.62 0.0003364274    1.590    0.371
       179  -9.2711     67.2231     54.9726   3.8526401089e+01   6.0009285566e+01    0.1958591    0.1213999 -47.72  0.000746759    1.636    0.389
       180  -9.6115     18.0295     40.9463   5.9760075306e+01   7.0818687851e+01    0.3530219    0.1573955 -41.25  0.001493859    2.327    0.570
       181 -10.5026     13.1842     46.5347   6.4955653504e+01   6.9954124529e+01    0.4408278    0.1804242 -40.63  0.001490905    2.582    0.613
       182  -9.3423    189.0697     49.3041   8.6434784328e+00   3.1419930221e+01    0.1852382    0.1538966 -69.94 0.0004525539    1.078    0.072
       183 -10.1363     83.1346     46.7694   2.9105202087e+01   5.8104489487e+01    0.5000752    0.3101332  -9.90  0.001782924    3.349    0.701
       184  -9.6572      1.9095     47.6399   7.2937130512e+01   7.0429320785e+01    0.3384765    0.1645689 -76.96  0.001570009    2.002    0.500
       185 -10.5895    117.9420     55.5825   2.2495012784e+01   4.8000377184e+01     1.231337    0.6319448 -78.75  0.003096882    5.918    0.831
       186  -9.7403     27.7770     47.3837   5.5782952987e+01   6.8254525842e+01    0.2971438      0.18206 -16.95 0.0003908558    2.305    0.566
       187 -10.6443     20.6016     45.9754   5.9837205882e+01   6.9394978625e+01    0.3340398    0.2862157 -44.48  0.001282771    1.096    0.088
       188 -10.2479     23.6560     37.2141   5.4390467389e+01   7.1030411163e+01    0.5273105    0.2219622  41.01  0.002185913    2.590    0.614
       189 -10.6461     31.4682     44.4757   5.2382130518e+01   6.8434052327e+01    0.4341924    0.2389739  38.71  0.001525873    1.855    0.461
       190 -10.4935     26.3360     42.7270   5.4895381443e+01   6.9487015002e+01    0.3912708    0.3093362  68.91   0.00169305    1.595    0.373
       191 -10.5816    234.4708     44.9797   3.3928299739e+00   2.2490079592e+01    0.2241343    0.1421087 -70.28 0.0008609833    1.557    0.358
       192  -9.9218    145.4793     43.3095   1.2828472641e+01   4.2908455065e+01    0.4001978    0.1908328 -56.21  0.001541495    2.317    0.568
       193 -10.0756    156.0178     42.1549   1.0841916785e+01   4.0395890807e+01    0.2531238     0.212651 -28.28 0.0009043273    1.350    0.259
       194  -8.9529    139.3462     43.3478   1.3876299574e+01   4.4479062219e+01    0.1499823    0.1128583  31.71 0.0006510537    1.808    0.447
       195  -9.6036     99.2863     41.5918   2.2003685185e+01   5.5060962901e+01    0.2404909    0.1700546 -79.54   0.00109399    1.716    0.417
       196  -9.8721     56.9438     41.6787   3.7370117840e+01   6.4732769728e+01    0.2974114    0.1685135  51.44  0.001237863    1.833    0.455
       197 -11.3202     78.8270     35.2466   2.5529319245e+01   6.1083484066e+01    0.7629967    0.5075532 -32.79  0.003659289    1.630    0.387
       198  -9.6837      9.1699     30.1484   6.2232526822e+01   7.4055480480e+01    0.5860365    0.2957276   7.66  0.002741979    2.305    0.566
       199 -10.6414     61.0850     36.3976   3.2991581828e+01   6.4864134373e+01    0.4687682    0.3006454 -24.18  0.001639343    1.998    0.499
       200 -10.2081     68.2243     32.6072   2.8168041386e+01   6.3956069068e+01    0.5084744    0.2744277  53.09  0.002244255    1.771    0.435
       201  -8.9784    206.4851     37.4142   3.8714942838e+00   2.9134438152e+01      0.13251    0.1040448 -59.36 7.134934e-05    1.037    0.036
       202 -10.6115    153.3400     35.6220   9.1828586270e+00   4.1977984186e+01     0.261174    0.2322547  66.49 0.0006539769    1.219    0.179
       203 -10.5504    178.0893     28.4975   4.1412956484e+00   3.6751891717e+01    0.2775039    0.2369169  66.82  0.001393671    1.320    0.242
       204 -10.3157    175.2422     34.1576   6.0394366205e+00   3.6723702782e+01    0.3746873    0.1885944 -59.98  0.000815069    1.977    0.494
       205 -10.3365    172.9134     30.6835   5.2976256567e+00   3.7733233790e+01    0.3548212    0.2456377  71.00  0.001904946    1.446    0.308
       206  -9.1943     94.2184     35.3947   2.0823661336e+01   5.7302245861e+01    0.2013415    0.1350047  74.46 0.0004752096    1.581    0.367
       207 -10.8728     50.1603    249.0157   7.6391933360e+01   1.6638776691e+01    0.3579509     0.089858  44.69  0.001553725    2.658    0.624
       208  -9.4494    172.6649    246.6903   5.1166107161e+01   2.1766286109e+00    0.1144766   0.07136487   2.12 0.0004526199    1.678    0.404
       209 -11.3996    103.1026     32.8319   1.7426568494e+01   5.5420486524e+01    0.3120875    0.2563668  88.14 0.0002864323    1.202    0.168
       210 -11.6322    106.9987     31.7111   1.6047730015e+01   5.4571931134e+01    0.4704703    0.3280996  12.86  0.001952341    2.230    0.552
       211 -12.3742    113.6621     25.2312   1.2024401559e+01   5.3688842325e+01     1.032647    0.3018426  54.77  0.003274381    3.104    0.678
       212 -10.2809    240.3504     32.0367   1.6603136273e-01   2.2955571228e+01    0.2344926     0.157451  57.85  0.001476075    1.971    0.493
       213 -10.2852    216.9972     31.9833   1.7207363089e+00   2.7578799878e+01    0.1907262    0.1473704 -55.14  0.001217107    1.010    0.009
       214  -9.9903     45.4083     25.0399   3.4656108969e+01   6.9969000620e+01    0.3750062    0.1565902 -33.62  0.001271972    2.849    0.649
       215 -10.1920     67.4792    240.8522   7.2101674459e+01   1.6115863063e+01     0.186542    0.1490987  21.01 0.0006424953    1.318    0.241
       216 -11.4710     49.0541     30.1659   3.5551590370e+01   6.8389520829e+01    0.6817491    0.3146218  42.15  0.002420285    2.125    0.529
       217 -10.2144     52.5309     26.4675   3.1817759983e+01   6.8324839794e+01    0.2435447    0.2356088 -34.25 0.0007255389    1.086    0.080
       218 -11.5462    159.8726     29.3655   6.3871284490e+00   4.1136180766e+01    0.4974084    0.2692442  69.76  0.001057007    1.773    0.436
       219 -10.9412    147.1412    238.4564   5.4994748377e+01   6.4442593481e+00    0.2919847    0.2473458  70.75  0.001687427    1.755    0.430
       220 -11.7785     26.5796     27.6479   4.7788102112e+01   7.2636911540e+01    0.4740568    0.4377886 -62.30  0.002171386    1.222    0.182
       221 -10.4617    131.9590    240.5042   5.8285711772e+01   8.0672481746e+00    0.1872082   0.09560142  30.63 0.0006732452    1.570    0.363
       222  -9.1188     22.2812     31.3208   5.2692200430e+01   7.2455842193e+01    0.1349152   0.09357584 -24.51 0.0003399649    1.586    0.370
       223 -10.6388    188.9583     27.4480   2.8367840084e+00   3.4309996348e+01    0.3584488    0.2923681  12.32  0.001774978    1.831    0.454
       224 -12.2359    126.8158     28.0484   1.0694864512e+01   4.9866925131e+01    0.8610751    0.4050698  79.01  0.003016153    2.319    0.569
       225 -11.2074      3.7781     36.6028   6.8748693450e+01   7.2966843553e+01    0.4744331    0.3253231 -58.81  0.001466652    1.306    0.234
       226 -10.0933    150.8282     27.0887   6.7949561618e+00   4.3723896985e+01    0.3899371    0.1616789  58.93  0.001500436    2.362    0.577
       227 -10.5946     72.5700    238.0929   7.0768027877e+01   1.6004574215e+01    0.2656039    0.2284262  -1.43   0.00180989    1.471    0.320
       228  -9.4447     15.5782    233.6716   8.3221094046e+01   2.3134210494e+01    0.1939316    0.1030623 -78.26  0.001123062    2.079    0.519
       229 -10.3041    149.6865     22.3309   5.3950776228e+00   4.4592447424e+01    0.2604272    0.1726092 -74.55 0.0007214241    1.443    0.307
       230 -10.4198    230.5262     26.9715   3.5965602449e+02   2.5436117166e+01    0.2154109    0.1660977 -87.42 0.0008343707    1.337    0.252
       231 -10.8677    201.1100     25.0444   1.2134043758e+00   3.1833297236e+01    0.3526635    0.2700179  -7.13  0.002033745    1.852    0.460
       232 -10.6842    183.1439     25.3917   2.7988148028e+00   3.5922381924e+01    0.3127363    0.2051919 -60.40  0.001286345    1.317    0.241
       233  -9.5074     97.9474     25.9581   1.5760383972e+01   5.7690708225e+01    0.2347988    0.1633955 -71.74 0.0005335069    1.644    0.392
       234  -9.9571    169.4619     23.2904   3.5050228670e+00   3.9483742111e+01     0.350464    0.1786356  64.51   0.00163362    1.953    0.488
       235  -9.4738    246.5227    230.5080   3.6850147466e+01  -3.8528857105e+00    0.1007412    0.0722715  -4.58 2.871344e-05    1.022    0.022
       236  -8.6644    189.7112    229.6548   4.5829948967e+01   2.4064190488e+00    0.1154643   0.07278352  -3.76 0.0006690317    1.654    0.395
       237  -9.5387    248.6772    223.6710   3.5549078539e+01  -3.3192791162e+00    0.1066785    0.0596162  -4.63 0.0007049305    1.695    0.410
       238  -9.3914     44.6897    214.6803   7.5515168986e+01   2.3943004278e+01    0.1149786   0.09770535 -22.17 0.0005698584    1.644    0.392
       239  -8.7763     86.2644     23.3914   1.7647002817e+01   6.0996367220e+01    0.1442779    0.1068607  23.97 0.0006978571    1.707    0.414
       240  -9.1416    164.4837    211.4763   4.7918014030e+01   8.2944617458e+00    0.1220926    0.1037612  14.46 0.0005610255    1.017    0.017
       241 -10.2066      5.0035     22.1004   6.2411316756e+01   7.6134006727e+01     0.380054    0.2142937  28.44  0.002034618    1.827    0.453
       242 -10.3122      8.5496     19.5220   5.7942093256e+01   7.6378150365e+01    0.2443199    0.1638075 -34.69 0.0007330453    1.415    0.293
       243  -9.9907      8.5188    210.9996   8.4072735133e+01   2.8461803783e+01    0.1772812    0.1076786  88.06 0.0009492649    1.596    0.374
       244  -9.4797     79.0470    204.4827   6.6174790020e+01   2.1778837143e+01    0.3022714    0.1693289  80.18  0.001349336    2.558    0.609
       245 -11.0764    223.0134     21.1064   3.5878074377e+02   2.7616139782e+01    0.3466487    0.1646938 -52.27  0.001319492    1.638    0.390
       246 -11.1074    179.2458     20.4405   1.7719490147e+00   3.7433554648e+01    0.5895451    0.2473946  52.13  0.002390485    3.085    0.676
       247  -9.2029     90.7827     22.6068   1.6058312781e+01   5.9957210493e+01    0.2077114    0.1304971  76.43 0.0009524002    1.659    0.397
       248  -9.7744     13.7381     22.4574   5.4925011619e+01   7.5264148489e+01    0.2162701    0.1159455  29.68 0.0003359568    1.863    0.463
       249 -10.9453      5.6423    199.8274   8.4398562623e+01   3.1173741366e+01    0.2975886    0.1169164 -68.05  0.001364143    2.741    0.635
       250  -9.9221    216.5209     19.9774   3.5891237558e+02   2.9087234680e+01    0.1827618       0.1414 -63.39 0.0004084853    1.060    0.057
       251  -8.9278    135.4356    196.5011   5.1760373477e+01   1.5100404609e+01    0.1308714    0.1173638  28.42  0.000144269    1.026    0.025
       252  -9.7003     74.6985     19.4391   1.9164620688e+01   6.4358483682e+01    0.2564132    0.1905187  21.23 0.0007393967    1.660    0.398
       253 -10.1002     46.2855     19.9117   3.1186092165e+01   7.0621898508e+01    0.2894024    0.2155617  67.25  0.001540984    1.644    0.392
       254 -11.6124      5.3763    185.3522   8.3948358520e+01   3.4526020170e+01    0.4874311    0.4126827  41.93  0.003180533    1.191    0.160
       255  -8.5699    139.6840    182.6922   4.8627597716e+01   1.7052954809e+01     0.136265    0.1023431  -3.73 0.0007029278    1.630    0.387
       256  -9.4193    199.0618     17.5000   3.5944632033e+02   3.3159471522e+01    0.1806598    0.1150166  84.49 0.0006741721    1.532    0.347
       257  -9.3474     28.2295    176.0044   7.7134936538e+01   3.4625679449e+01    0.1753768    0.1050409 -82.52 0.0005839881    1.637    0.389
       258 -11.2447    238.0334     15.9987   3.5682995155e+02   2.5214220197e+01    0.2540338    0.1739138  80.66  0.001690318    1.607    0.378
       259 -10.1842     15.7565    173.3928   8.0524333754e+01   3.6495521013e+01    0.2550534    0.1406402  78.20  0.001239463    1.685    0.407
       260  -9.3288     39.1845    173.3799   7.3782030435e+01   3.4068133939e+01    0.2073219    0.1044061  40.73 0.0008094228    1.683    0.406
       261  -9.7686    211.0579     15.9581   3.5828718477e+02   3.0695809713e+01    0.1871038    0.1424024 -56.65  0.000299913    1.021    0.021
       262 -10.4848    187.0090     14.9838   3.5964901367e+02   3.6204449759e+01    0.2247181    0.1868038  81.94  0.001210691    1.255    0.203
       263 -11.4840      9.4709    166.8164   8.1986029635e+01   3.8682720729e+01    0.3291235    0.2921177  37.79  0.001260338    1.216    0.178
       264 -11.8468     13.0659    160.2180   8.0547561898e+01   4.0040262581e+01    0.4681897    0.3289414 -50.29   0.00149045    1.718    0.418
       265 -10.2424      1.7179    166.2202   8.4217124122e+01   3.9453831595e+01    0.2308646    0.1457559  73.62 0.0005529771    1.349    0.259
       266 -10.2710     18.1238    165.3007   7.9343991779e+01   3.8294998439e+01    0.2345185    0.1741899 -73.33  0.001316064    1.374    0.272
       267 -10.1954    205.0660    162.9934   3.2221819411e+01   1.0083460519e+01    0.1920499    0.1635526 -16.44 0.0006816676    1.023    0.023
       268  -9.7920    214.9773    161.3408   3.0304987135e+01   8.8600673321e+00    0.1647455    0.1429922  -8.80 0.0005364441    1.056    0.053
       269  -9.6713     28.8326    160.8305   7.5776441278e+01   3.8373625067e+01    0.2076784    0.1396218  60.70 0.0006167014    1.324    0.245
       270  -9.3546     31.6486    156.9526   7.4564545377e+01   3.9073739165e+01    0.2428269   0.08781356  75.48 0.0007040701    4.363    0.771
       271  -9.7802    104.1161    154.3585   5.2514868518e+01   2.9165541575e+01    0.2909702    0.2266827 -73.15  0.001458419    1.404    0.288
       272 -12.4124     21.8247    149.6819   7.7054391807e+01   4.1969458178e+01    0.6645647    0.3525882 -42.84  0.001632459    2.539    0.606
       273 -10.4034     16.5246    147.8988   7.8634091745e+01   4.2925025378e+01    0.3568773    0.1877837 -80.95 0.0009795912    1.767    0.434
       274 -10.6420      4.4230    153.2678   8.2822131759e+01   4.2520377535e+01    0.2960981    0.1268386  31.79  0.001042049    2.082    0.520
       275  -9.2838     55.4550    152.4773   6.6586418320e+01   3.7334437570e+01    0.1477158    0.1324882  66.96 6.779832e-05    1.012    0.012
       276 -11.1475     47.2719    147.3488   6.8533589708e+01   3.9750194034e+01    0.7133563    0.4302973 -45.43  0.003173413    2.025    0.506
       277  -9.0972    227.4555    149.4987   2.6188752262e+01   8.7941577361e+00     0.120305   0.09950987 -25.28  1.57524e-05    1.025    0.024
       278 -11.8458      4.3720    142.4262   8.2262342009e+01   4.5336784888e+01    0.8365381    0.3158554  49.48  0.003124772    2.299    0.565
       279  -9.6059    104.0434    147.1214   5.1190230309e+01   3.0882529913e+01    0.2111624    0.1987041  -6.28  0.001141528    1.216    0.178
       280 -10.4384     33.2138    144.2319   7.2796596467e+01   4.2242761310e+01    0.2971241    0.2298435  88.50 0.0008628052    1.202    0.168
       281 -10.4414     40.6288    138.1293   6.9574313984e+01   4.3020927388e+01    0.4124674    0.2549967 -78.21  0.001608581    1.575    0.365
       282 -11.6061     15.1333    140.9105   7.8563997522e+01   4.4890916719e+01    0.4557692    0.2908972  66.27  0.002311025    1.428    0.300
       283 -11.0388     11.4881    136.4969   7.9472828090e+01   4.6365289282e+01    0.3708344    0.3018186 -50.59  0.002112905    1.403    0.287
       284 -10.7372     80.1062    138.2788   5.6580694649e+01   3.7250098088e+01    0.2986085    0.2307296  53.51 0.0005183112    1.239    0.193
       285 -11.7301     22.4913    135.4972   7.5562570776e+01   4.5675640794e+01    0.7489594    0.4040636  42.35  0.003465981    1.701    0.412
       286  -9.5624     26.4252    131.4508   7.3752840869e+01   4.6384087999e+01    0.2253847     0.172576  49.60  6.33274e-05    1.226    0.184
       287 -10.6842     30.3455    132.4879   7.2472169473e+01   4.5700816151e+01    0.3596098    0.2732973 -37.67  0.001072686    1.609    0.378
       288  -9.4449     73.3986    132.7779   5.7702539901e+01   3.9776094677e+01    0.2215534    0.1365092 -52.54 0.0009540032    1.691    0.409
       289  -8.9322    103.5532    130.5552   4.7959490024e+01   3.4936663039e+01    0.1529761    0.1465633  71.33   8.1921e-05    1.020    0.020
       290  -9.2658     62.6680    130.6604   6.0892970387e+01   4.2023135146e+01    0.1552305    0.1171436 -29.71 0.0007051692    1.745    0.427
       291  -9.3125     50.6461    129.8051   6.4908742783e+01   4.3977432715e+01    0.2144058     0.134345 -84.86 0.0005732714    1.690    0.408
       292 -11.0078     10.3596    126.6180   7.9108011997e+01   4.9098683828e+01    0.2785064    0.2552177 -88.44 0.0009202902    1.096    0.088
       293  -9.6576     22.8284    125.6912   7.4429942533e+01   4.8293725809e+01    0.3762057    0.1842894 -89.94  0.001546701    2.096    0.523
       294  -9.5894      2.2564    125.6806   8.1994892197e+01   4.9912855745e+01    0.2670821    0.1437054  81.07   0.00125136    1.699    0.412
       295  -9.2710     33.3152    125.6599   7.0551709660e+01   4.7231416258e+01    0.1611781   0.09679475  62.60  0.000704786    1.703    0.413
