#   1 NUMBER                 Running object number                                     
#   2 MAG_AUTO               Kron-like elliptical aperture magnitude                    [mag]
#   3 X_IMAGE                Object position along x                                    [pixel]
#   4 Y_IMAGE                Object position along y                                    [pixel]
#   5 X_WORLD                Barycenter position along world x axis                     [deg]
#   6 Y_WORLD                Barycenter position along world y axis                     [deg]
#   7 A_WORLD                Profile RMS along major axis (world units)                 [deg]
#   8 B_WORLD                Profile RMS along minor axis (world units)                 [deg]
#   9 THETA_WORLD            Position angle (CCW/world-x)                               [deg]
#  10 FWHM_WORLD             FWHM assuming a gaussian core                              [deg]
#  11 ELONGATION             A_IMAGE/B_IMAGE                                           
#  12 ELLIPTICITY            1 - B_IMAGE/A_IMAGE                                       
         1 -13.6255    225.4960     60.5286   1.5698622811e+01   2.1192868697e+01     1.381303     1.275493 -60.06  0.007985764    1.062    0.058
         2 -13.1912    244.5930     47.3668   1.0603437156e+01   1.8937313592e+01    0.9211065     0.862196  51.97   0.00633217    1.293    0.226
         3  -9.4811      2.5071      2.5100   6.3650874234e+01   7.6675303714e+01    0.1170917   0.09115109 -26.47 0.0001571849    1.001    0.001
         4 -12.9558     10.0426    206.5025   9.1878325561e+01   2.9894586359e+01      0.80931    0.4520491  25.27  0.003088281    1.994    0.499
         5 -13.0690     12.8067    241.2247   9.2661718368e+01   2.3139679254e+01     1.145169    0.7758241  60.29  0.008757197    1.068    0.064
         6 -15.7156      8.0042    175.9062   9.0903900562e+01   3.6493248708e+01     6.586128     2.991888  76.18   0.03391792    2.032    0.508
         7  -8.7480     67.4012    177.2552   7.6397721710e+01   2.9820012810e+01    0.1836362    0.1187932 -88.32 0.0009473325    1.687    0.407
         8 -11.6923     33.0699    166.1311   8.4038526868e+01   3.6406552315e+01    0.3203351    0.2819762 -16.96 0.0006092651    1.533    0.348
         9 -11.8048     41.7550    160.9652   8.1275858443e+01   3.6688009467e+01     0.293831    0.2807529  14.15 0.0004564305    1.288    0.223
        10 -12.6506    235.7910    156.7926   3.5833447666e+01   5.1400535652e+00    0.6788883    0.4787487  -9.13  0.004017485    1.357    0.263
        11 -11.7717     65.1226    148.1539   7.3252458037e+01   3.6878106696e+01    0.4797422    0.3734151  74.87  0.001329302    1.288    0.224
        12 -12.9852     68.2883    143.6412   7.1670021953e+01   3.7530557402e+01     0.938122    0.6407086  77.36   0.00271465    1.666    0.400
        13 -13.0151     40.2235    148.2918   8.0350196680e+01   3.9871171600e+01    0.5099561     0.354692  -8.71  0.001564254    2.193    0.544
        14  -8.3251    134.2818    147.6617   5.4493276509e+01   2.5403368949e+01     0.146109    0.1166138  81.96 0.0004349286    1.624    0.384
        15 -10.7148     56.2395    152.7972   7.6386981295e+01   3.6921875385e+01    0.2611104    0.2416522  50.01 0.0003737521    1.123    0.110
        16 -11.5084     57.6317    146.9869   7.5225961198e+01   3.8142952871e+01    0.5129396    0.3308385 -44.00  0.002540193    1.845    0.458
        17  -8.0433    133.6817    143.3436   5.3747299430e+01   2.6432931781e+01    0.1520995    0.1177692  79.73 0.0007049195    1.720    0.419
        18 -10.9120     18.9075    140.6698   8.5665623095e+01   4.3745566362e+01    0.2415408    0.1876924 -83.84 0.0003403197    1.125    0.111
        19 -10.7944     84.5206    137.1696   6.5861490981e+01   3.6663260100e+01    0.3334094    0.3013745  47.93  0.000909599    1.084    0.078
        20  -9.2980     88.8695    134.7785   6.4149349460e+01   3.6529749381e+01    0.2412891      0.19548 -45.85 0.0005773708    1.313    0.238
        21 -12.1643     71.3333    134.0813   6.9211389971e+01   3.9420577902e+01    0.5363752     0.419855 -83.83 0.0005131785    1.314    0.239
        22  -9.7744    101.1092    127.7145   5.9169142108e+01   3.6085974145e+01    0.4714518    0.2663566  21.65  0.001780051    2.583    0.613
        23  -9.8799    105.8245    130.4284   5.8405003027e+01   3.4595926989e+01    0.3584927    0.2976931 -66.93  0.001136258    1.266    0.210
        24 -10.2562     86.9249    123.0588   6.2384290650e+01   3.9662776206e+01    0.2855199    0.2570748  28.38 0.0004936653    1.176    0.150
        25 -11.5287     72.8034    191.0317   7.6613582996e+01   2.6107030286e+01    0.6060758    0.2842453 -86.01  0.001730696    3.233    0.691
        26 -13.8726      5.4612    219.8053   9.3309835703e+01   2.7714839531e+01     1.548014      0.79994  50.12   0.01007946    1.431    0.301
        27  -9.5063    100.8857    116.7842   5.6792488714e+01   3.8685137488e+01    0.2129357    0.2008577   2.05 0.0003169021    1.156    0.135
        28  -9.0827    205.1860    110.3618   3.0805005580e+01   1.7924480368e+01    0.3028467    0.1626846  40.03  0.001324902    2.069    0.517
        29  -8.2545     99.3121    180.7022   6.8913092770e+01   2.4439059494e+01    0.1406277   0.09590343  62.91 0.0007011991    1.601    0.375
        30 -11.5031      4.5157     97.1448   8.6030096471e+01   5.5395760415e+01    0.5015165    0.1763505 -87.79  0.001921385    3.116    0.679
        31 -10.3299     52.8710     90.8795   6.6812590315e+01   5.2623845025e+01    0.3615305    0.1654643 -51.49  0.001001134    1.998    0.499
        32 -10.0249    169.5000     89.9655   3.2256518904e+01   2.9349048892e+01    0.2347021    0.1465443 -36.99 0.0009872738    1.576    0.366
        33 -12.2871      2.0470     81.2808   8.5107105821e+01   5.9391789005e+01     1.196551   0.05716594 -71.21  0.003160691    6.207    0.839
        34 -10.0552    184.0683     77.6697   2.6136835322e+01   2.8026973312e+01    0.2091455    0.1970789  56.77  0.001166742    1.096    0.088
        35 -11.7512    241.9512     84.7350   1.9416897444e+01   1.4471281214e+01    0.3637027    0.1900506 -40.33  0.001808437    1.648    0.393
        36 -10.8073    246.1210    248.1361   4.9795399664e+01  -7.2802496575e+00     0.196126    0.1090501  19.00  0.001354276    1.390    0.280
        37  -9.8060     40.3667    245.6338   8.7720398178e+01   1.9568215278e+01    0.3301803    0.1001998 -81.72    0.0014826    4.207    0.762
        38 -11.0049     13.3914     59.7070   7.6483928370e+01   6.3949695755e+01    0.2801245     0.223471 -30.94 0.0005235988    1.243    0.195
        39  -9.2008     18.0123     58.6646   7.4024671357e+01   6.3878867532e+01    0.2102565    0.1340139  51.65  0.001102972    2.003    0.501
        40  -8.9103     25.9606     44.0027   6.5839786093e+01   6.6525837496e+01    0.1985949    0.1547011  66.44  0.001129901    1.801    0.445
