#   1 NUMBER                 Running object number                                     
#   2 MAG_AUTO               Kron-like elliptical aperture magnitude                    [mag]
#   3 X_IMAGE                Object position along x                                    [pixel]
#   4 Y_IMAGE                Object position along y                                    [pixel]
#   5 X_WORLD                Barycenter position along world x axis                     [deg]
#   6 Y_WORLD                Barycenter position along world y axis                     [deg]
#   7 A_WORLD                Profile RMS along major axis (world units)                 [deg]
#   8 B_WORLD                Profile RMS along minor axis (world units)                 [deg]
#   9 THETA_WORLD            Position angle (CCW/world-x)                               [deg]
#  10 FWHM_WORLD             FWHM assuming a gaussian core                              [deg]
#  11 ELONGATION             A_IMAGE/B_IMAGE                                           
#  12 ELLIPTICITY            1 - B_IMAGE/A_IMAGE                                       
         1 -15.1287     56.3441    206.7312   6.8480048345e+01   2.3001392588e+01     2.362969     1.795002  39.87   0.01330345    1.155    0.134
         2 -16.6061    244.1642     87.8734   7.6620664804e+00   1.7009779991e+01     8.588939     2.244051 -36.48   0.03745457    2.902    0.655
         3 -14.2679    247.1618     18.0157   3.5419669153e+02   2.4907308806e+01     2.231057    0.5072253 -34.79   0.01062038    2.984    0.665
         4 -10.2879    237.4046    199.1929   2.8068618707e+01   2.5236361861e+00      0.18366    0.1445559 -39.98    0.0012458    1.629    0.386
         5 -10.9114    222.3191    230.3877   3.5047296153e+01  -1.0205114253e-01    0.4000042    0.2680184  40.14  0.002681343    2.570    0.611
         6 -11.4614    235.5637    233.3225   3.3429020572e+01  -1.5927904251e+00    0.6665868     0.220202  31.34  0.003672258    3.313    0.698
         7 -12.4754    244.8472    203.8560   2.7735647713e+01   1.2298625837e+00    0.7928692    0.4398538 -54.09  0.003648417    5.250    0.810
         8 -11.5575    234.8364    225.9937   3.2487221564e+01  -6.4521364148e-01    0.9495897    0.2500837  34.04  0.004450603    4.573    0.781
         9 -12.3102    217.2607    247.2912   3.8219096696e+01  -1.7504629938e+00    0.6390305    0.3510323  30.90  0.004328839    2.137    0.532
        10 -11.7278    230.3850    249.1129   3.6398240523e+01  -3.0268526845e+00    0.7242376    0.2094274  32.76    0.0036217    4.182    0.761
        11 -11.6398    246.4041    238.5118   3.2569927005e+01  -3.0569970445e+00    0.5863226    0.2092047  22.17  0.003516921    2.801    0.643
        12 -12.9846    248.7336    225.1674   3.0354616430e+01  -1.6991944786e+00     1.214661    0.4005071 -41.15  0.006507738    3.046    0.672
        13 -11.6148    236.8222    243.5184   3.4662334403e+01  -2.8878217190e+00    0.4622202    0.1986072  21.61  0.002992481    2.187    0.543
        14 -11.3618    227.8467    239.8778   3.5524529430e+01  -1.7399037877e+00    0.5179926    0.2540179  33.63   0.00328569    2.622    0.619
        15 -11.7536    198.0212    245.2899   4.1176244498e+01   1.7832133214e-01    0.4918008    0.3668305  30.64   0.00267462    1.778    0.438
        16 -11.3763    150.1111    238.0808   4.9342765807e+01   6.0016559639e+00     0.428548    0.2228027  31.13  0.002003935    1.739    0.425
        17 -11.9939    153.2962    248.2781   4.9992713903e+01   4.1174558772e+00    0.7401643    0.4213299 -34.67  0.004523322    1.795    0.443
        18 -11.6732    162.0739    235.8725   4.6612107824e+01   5.0534167750e+00    0.4825557    0.3252723  11.31  0.002285992    1.215    0.177
        19 -12.4767    177.9834    242.4792   4.4420976813e+01   2.4580465721e+00     1.188577      0.55013  40.00  0.005978236    3.118    0.679
        20 -10.4615    158.4834    245.7945   4.8636301199e+01   3.9500212633e+00    0.2574303    0.1748468 -11.96   0.00125383    1.322    0.244
        21 -11.9732    142.0250    247.2372   5.2182223514e+01   5.4492233977e+00    0.5458802    0.3537214 -14.04  0.002656907    1.534    0.348
        22 -10.7902    124.5859    248.3646   5.6042555796e+01   7.1323978656e+00    0.2617633    0.2463483 -24.25  0.001318419    1.352    0.260
        23  -9.6669     54.5511    246.3517   7.2082240719e+01   1.4935429958e+01    0.2593424   0.08690958  42.28  0.001124915    2.432    0.589
        24  -9.5373     93.2588    245.5764   6.2827349320e+01   1.1009054745e+01    0.2541807   0.09086151  29.07  0.001135315    2.105    0.525
        25  -9.6022     71.8358    244.8122   6.7823397032e+01   1.3447694598e+01    0.1825158    0.1220738  42.01  0.001079354    1.353    0.261
        26 -10.8401    125.4518    240.5869   5.4948717066e+01   8.3122032111e+00    0.3004261    0.2127834 -14.25  0.001247947    1.428    0.300
        27 -10.4450    103.2859    241.2619   6.0055302940e+01   1.0668730306e+01    0.2561596    0.2398327 -56.91  0.001573393    1.379    0.275
        28 -10.4698    205.9742    240.2778   3.9123003549e+01   1.0257189271e-01    0.2408251    0.1717672  29.55  0.001304928    1.768    0.434
        29 -10.0941    217.1227    239.1466   3.7120414034e+01  -7.4222886455e-01    0.2116446    0.1468153  24.28  0.001112031    1.637    0.389
        30 -11.0644    186.8746    237.2429   4.2058385991e+01   2.3094446346e+00    0.3829764    0.3457461  78.31  0.002137338    2.433    0.589
        31 -11.0960    180.4647    231.4377   4.2430447059e+01   3.7771732144e+00    0.4472356    0.2750894 -37.01  0.002670174    1.615    0.381
        32 -10.0324    176.9677    226.6658   4.2410915365e+01   4.8456710167e+00    0.2456879    0.1722632  11.40 0.0008741233    1.198    0.165
        33  -8.8584     82.3279    240.3027   6.4912580985e+01   1.3161176815e+01    0.1266042   0.08791205  -8.66 0.0005591535    1.645    0.392
        34 -10.1985    135.4128    238.8477   5.2555914977e+01   7.4926363805e+00    0.2287823    0.1883888  17.00 0.0008925895    1.138    0.121
        35 -10.2766    117.6659    239.1515   5.6523111568e+01   9.4256435082e+00    0.2512212    0.1555199  16.91 0.0009315744    1.359    0.264
        36  -9.8567    112.1042    237.3472   5.7584939291e+01   1.0367184076e+01    0.2012284    0.1606143 -20.49 0.0007626475    1.311    0.237
        37 -10.2988     90.5026    236.5447   6.2584242022e+01   1.2956176087e+01    0.2260688    0.1298365 -61.36  0.001207006    2.151    0.535
        38 -10.7858     57.7994    235.8062   7.0532543893e+01   1.6652869797e+01    0.3736177    0.2066911  55.87  0.001799567    1.970    0.493
        39 -11.0136    210.3502    232.9230   3.7353049358e+01   6.5350317291e-01    0.3222607    0.3077042  54.48  0.002059982    2.186    0.542
        40 -10.8451    196.4109    232.1605   3.9631737067e+01   2.0747194175e+00     0.374723    0.3553355  11.50  0.002352806    1.702    0.413
        41  -9.7130     34.6447    235.6131   7.6278051159e+01   1.8986982845e+01    0.2158499    0.1563533  87.56  0.001127957    1.590    0.371
        42 -10.1474    140.2420    234.5431   5.0967255266e+01   7.6565962404e+00    0.2621125    0.1986904  22.74  0.001003077    1.188    0.159
        43  -9.8345    129.9139    235.1650   5.3300201362e+01   8.7196329969e+00     0.185059    0.1496586  28.28 0.0007092596    1.244    0.196
        44 -11.1686     72.8660    232.0798   6.6472069556e+01   1.5778749217e+01    0.3783789    0.2496849  65.21  0.002054977    1.913    0.477
        45 -10.7821    106.8237    233.7157   5.8399266015e+01   1.1619111651e+01    0.3671391    0.1570179  18.83   0.00161319    2.235    0.553
        46 -10.0266     18.8733    233.4608   8.0081245296e+01   2.0849352055e+01    0.2722496    0.1646087  72.36  0.001543908    1.726    0.421
        47 -10.1214    172.7602    232.2720   4.4015358368e+01   4.4590944328e+00    0.2652978    0.2275721 -33.62   0.00173121    1.464    0.317
        48  -9.7575    167.3705    231.8650   4.5010360923e+01   5.0929430587e+00    0.2168802    0.1399393  18.48 0.0008365295    1.318    0.241
        49 -10.5972    164.9703    224.5351   4.4451792933e+01   6.4840245104e+00    0.3859213    0.2271532  40.58  0.002138824    2.134    0.531
        50 -10.1118    154.5336    233.1341   4.7771747507e+01   6.2925870438e+00    0.2066902    0.1375047  26.41 0.0007730147    1.369    0.270
        51 -10.2262    146.9593    230.5893   4.9010838520e+01   7.5445155287e+00    0.3067036    0.1851913  10.16  0.001104075    1.520    0.342
        52  -9.7146    134.1330    230.3105   5.1749228436e+01   9.0579279858e+00    0.2027344    0.1537959 -19.02 0.0006897756    1.291    0.225
        53 -11.1548    123.6706    230.5673   5.4126076022e+01   1.0227633628e+01    0.3955479    0.2043667   6.92   0.00182833    2.285    0.562
        54 -10.8123    100.4754    231.1855   5.9620925234e+01   1.2818059707e+01    0.3448816    0.1588887  22.86  0.001616779    1.854    0.461
        55 -13.8223     53.5972    180.0660   6.6577930837e+01   2.9697489452e+01     1.205879     0.440507  22.38   0.00425965    2.657    0.624
        56 -14.4047     68.3098    191.7884   6.3547413038e+01   2.5056879068e+01     1.549463    0.8041776  72.15  0.005699736    3.278    0.695
        57 -14.7417     46.4674    188.5906   6.9612747717e+01   2.8388561970e+01     1.748837    0.9279174  13.46  0.007474698    2.042    0.510
        58 -13.0344     58.8628    218.4843   6.8853552641e+01   2.0124909381e+01     1.240271    0.5810812 -43.37  0.005368511    2.761    0.638
        59  -9.8464     85.0591    248.4787   6.5012760493e+01   1.1376612678e+01    0.2035646    0.1534189  42.76  0.001298871    1.318    0.241
        60 -10.0217    120.6120    224.1402   5.4014779770e+01   1.1737151458e+01    0.2306015    0.1518998  30.17 0.0007456169    1.335    0.251
        61 -10.9085    113.6766    228.1432   5.6134640947e+01   1.1833891923e+01    0.2367215    0.1474975  31.62 0.0008033523    1.394    0.282
        62  -9.9866    171.6631    223.1021   4.2919636900e+01   5.9624184174e+00    0.2066031    0.1481431  30.93 0.0007064488    1.511    0.338
        63  -9.6041    167.9344    219.7118   4.3158480866e+01   6.9090617675e+00    0.1762709    0.1512938  14.87 0.0008310266    1.258    0.205
        64  -9.5991    156.6080    223.1485   4.5956951590e+01   7.6535353618e+00    0.2074066    0.1436953  25.38 0.0008231903    1.328    0.247
        65  -9.6432    129.9824    223.5117   5.1782447189e+01   1.0725594234e+01    0.2007467    0.1088547  23.06  0.001029222    1.592    0.372
        66  -9.9122    220.8050    220.5835   3.3853389075e+01   1.2934760640e+00     0.204466    0.1764942 -46.89  0.001399955    1.974    0.493
        67  -9.3878    182.9596    220.5061   4.0376114478e+01   5.1207910203e+00    0.1748227    0.1327569 -20.24  0.000587457    1.158    0.137
        68  -9.7416    176.9815    220.5256   4.1511310898e+01   5.7702729691e+00    0.1897678    0.1629139 -38.32 0.0007519943    1.489    0.328
        69  -9.9108    149.7848    220.3007   4.6983743919e+01   8.9193570626e+00    0.2671534    0.1768986  17.36  0.001021974    1.308    0.235
        70 -10.4578    114.8112    221.1540   5.4996181938e+01   1.2990615898e+01    0.1980912    0.1628946  32.59 0.0009335997    1.207    0.171
        71 -12.5950    168.2984    247.9187   4.6982998656e+01   2.6536928789e+00    0.9980369    0.4242973  31.74  0.005392206    2.192    0.544
        72 -10.7436    232.5811    217.4112   3.1562996329e+01   6.2244819821e-01    0.2719431    0.2291295 -37.58  0.002166693    1.764    0.433
        73  -9.4378    188.5855    218.7890   3.9079058853e+01   4.7705136475e+00    0.1434628    0.1029318 -41.72 0.0006626231    1.607    0.378
        74 -11.5731    109.6316    219.1084   5.5979372521e+01   1.4012501665e+01    0.3544163       0.1756  18.42  0.001619524    1.952    0.488
        75 -10.4085     32.1395    218.2034   7.5914040303e+01   2.2919702976e+01    0.3934216    0.2085691  42.31   0.00198896    1.555    0.357
        76  -9.4447      6.3070    219.6429   8.2726984315e+01   2.4832818356e+01    0.1430863   0.06868207  50.94 0.0007041356    1.725    0.420
        77 -11.8667     85.7750    216.5735   6.1636932005e+01   1.7427901289e+01    0.3928636     0.256348  80.17  0.001544055    2.347    0.574
        78 -11.8282     81.6592    210.5109   6.2026678990e+01   1.9199648469e+01     0.388293    0.2251243  52.38  0.001633673    1.972    0.493
        79  -9.4168    160.5179    217.0082   4.4258894329e+01   8.2006456606e+00    0.1902654    0.1433331  10.74 0.0007266334    1.127    0.113
        80  -9.9785    212.9655    215.9200   3.4418119181e+01   2.6684008314e+00    0.2209457    0.1445594  27.40  0.001383411    1.665    0.399
        81  -9.9509    206.6143    215.8467   3.5464240942e+01   3.3137334080e+00    0.2205281    0.1485795  29.42  0.001496932    1.674    0.403
        82 -12.4945     98.7283    212.6659   5.7870587766e+01   1.6638418862e+01    0.6096362    0.3382533  59.47  0.002558033    2.935    0.659
        83  -9.1493    182.1820    214.8319   3.9668338840e+01   6.0630136289e+00      0.16569    0.1133698  -5.97 0.0006302374    1.292    0.226
        84 -13.5436     63.3450    227.3210   6.8452590914e+01   1.7778971982e+01      1.46531    0.3763697  33.01  0.005547519    2.699    0.629
        85  -9.8679    173.5696    213.7472   4.1154130552e+01   7.2074257065e+00    0.1936929    0.1894399  57.29 0.0009511897    1.619    0.382
        86  -9.5005    144.2439    214.0232   4.7275490155e+01   1.0665806062e+01    0.2380935    0.1437863  10.45 0.0009174115    1.648    0.393
        87  -9.2877    153.8239    227.5963   4.7160333931e+01   7.2521622517e+00    0.1668942   0.09694839  32.27 0.0007011582    1.653    0.395
        88  -9.5193     25.1705    213.1433   7.7481064462e+01   2.4696315904e+01    0.1949051      0.13024  52.49 0.0008749645    1.335    0.251
        89 -12.2786    108.7785    210.8648   5.5122962411e+01   1.5731077039e+01    0.6726366    0.1928241  36.93  0.002417665    3.038    0.671
        90  -8.6308    155.6745    211.7072   4.4474978765e+01   9.6644920799e+00    0.1306052   0.08408966  -7.52 0.0007018383    1.619    0.382
        91 -12.1862    246.9652    247.0672   3.3660563165e+01  -4.0545166765e+00     0.602295    0.3784554   4.09  0.004978959    1.280    0.219
        92  -9.3392    139.8098    226.8196   5.0040880057e+01   8.9911618208e+00    0.1639448    0.1347037  30.38 0.0007019623    1.308    0.235
        93  -9.4658    179.9507    208.0379   3.9041914113e+01   7.3703935018e+00    0.1601558    0.1478165  44.90 0.0007156192    1.642    0.391
        94  -9.8910    223.2278    208.8321   3.1692128450e+01   2.6189739168e+00    0.2832772    0.1325244 -46.92  0.001508364    2.790    0.642
        95  -9.0822    163.4929    207.5046   4.2208897228e+01   9.4194052625e+00    0.1273906    0.1026681  -3.61 0.0008104466    1.030    0.030
        96  -9.1873      4.5391    207.5038   8.2780666737e+01   2.7701028989e+01    0.1313642    0.1082222  46.88 0.0002030145    1.004    0.004
        97 -10.7337     89.0628    205.6209   5.9495143768e+01   1.9326801856e+01    0.3234954    0.2045906  51.55  0.001581909    1.785    0.440
        98  -9.8445    197.8172    215.9788   3.6999646959e+01   4.2018594408e+00    0.2165849     0.173671 -56.84  0.001264314    2.136    0.532
        99 -10.8940    133.2580    245.2380   5.3800181052e+01   6.6986618224e+00    0.2912192    0.2078211  -7.93  0.001152189    1.321    0.243
       100 -14.4449     66.7551    218.3685   6.6766288854e+01   1.9272556182e+01      1.14407    0.9280317  42.17    0.0068758    1.141    0.124
       101 -11.7065     83.1720    199.6258   6.0333579419e+01   2.1385148256e+01    0.4510601    0.1779798  40.47  0.001764869    2.330    0.571
       102  -9.3604     91.6093    172.7826   5.4200626138e+01   2.6415122664e+01    0.1980852    0.1458579 -76.20 0.0009471079    1.663    0.399
       103  -9.2633    186.9677    226.0103   4.0443318501e+01   3.8881171441e+00    0.1489006    0.1362262  27.32 0.0006385563    1.625    0.384
       104 -10.5114     24.5203    172.9474   7.5048398640e+01   3.4576796260e+01     0.213818    0.1381322 -79.31  0.001032222    1.591    0.371
       105 -11.3304    237.7156    170.2406   2.3317349940e+01   6.3996887728e+00    0.2286844     0.146587 -44.60  0.001168042    1.637    0.389
       106 -11.2427     64.6790    170.9881   6.2034295808e+01   3.0613417629e+01    0.2973832    0.1850233  48.57  0.001023778    1.614    0.380
       107 -11.9988     46.1953    170.5004   6.7842003105e+01   3.3000486936e+01    0.2806323    0.2661517 -31.05 0.0009826343    1.160    0.138
       108 -10.3734     70.5741    167.7598   5.9746852413e+01   3.0642061749e+01    0.2026069    0.1472303 -85.25  0.000948982    1.630    0.387
       109 -12.3501     56.2835    168.6283   6.4381011727e+01   3.2286530835e+01    0.3748132    0.2868351  33.72  0.001707381    1.200    0.167
       110  -9.6004     66.6391    164.3103   6.0489116015e+01   3.2055379493e+01    0.1656574    0.1048847  55.58 0.0006815036    1.744    0.427
       111  -9.4440    171.7583    195.5993   3.8636733836e+01   1.0392185463e+01    0.1638516    0.1097496  34.93 0.0008921759    1.606    0.377
       112  -9.6849     42.3329    161.3086   6.8077563809e+01   3.5859324472e+01    0.1536712    0.1103742 -29.17 0.0007041605    1.670    0.401
       113 -12.1391     80.9326    190.2117   5.9758185649e+01   2.3811069758e+01     0.391233    0.2665342  72.52   0.00183974    1.967    0.492
       114 -11.1721    226.8141    157.9563   2.2706631613e+01   9.4132983059e+00    0.2628319    0.1715638 -49.50  0.001074628    1.752    0.429
       115  -9.8094     32.5024    160.5215   7.1318598365e+01   3.7112758439e+01    0.1474331     0.136923  50.85 0.0008102965    1.003    0.003
       116 -11.0882     93.3917    197.2429   5.7267627415e+01   2.0581095197e+01    0.2333242     0.190189 -77.77  0.001273354    1.512    0.338
       117 -10.4471    213.2979    223.7000   3.5526980390e+01   1.5896460601e+00    0.3489696    0.2003342  41.22  0.002051066    2.862    0.651
       118  -9.5276    202.3452    224.6624   3.7510866540e+01   2.5202625631e+00    0.1377428    0.1298082  16.31 0.0007023749    1.697    0.411
       119 -11.6612    102.2492    224.0092   5.8370084124e+01   1.3966975838e+01    0.2810378    0.2018206   5.51  0.001596672    1.351    0.260
       120 -10.0962    112.5874    245.2369   5.8356017646e+01   8.9527669417e+00      0.27173    0.1990054  12.68  0.001357196    1.123    0.109
       121 -12.1384     35.6465    185.1723   7.2564090007e+01   3.0377439830e+01    0.3387675    0.3056139   6.30  0.001964724    1.189    0.159
       122 -12.1097     70.1332    183.0416   6.1950242900e+01   2.6917836763e+01    0.3052564    0.2815552 -75.61  0.001216487    1.189    0.159
       123  -9.7262    159.8413    228.9387   4.6109900366e+01   6.3646325987e+00     0.191622    0.1567322 -30.62 0.0008881456    1.330    0.248
       124 -11.6575     75.9601    179.0201   5.9696369631e+01   2.7123783201e+01    0.2765877    0.2230762 -39.62  0.001443787    1.356    0.262
       125 -12.3530     43.8558    177.9316   6.9368085691e+01   3.1346429872e+01    0.4577191    0.2938272 -39.77  0.002123314    1.857    0.462
       126 -10.7188     40.5939    223.4245   7.4025925969e+01   2.0964243987e+01    0.3378333    0.2694796  57.98  0.002079587    1.228    0.186
       127  -9.6553    193.1757    223.4301   3.8939452369e+01   3.6168433143e+00    0.1916368    0.1445523 -48.89  0.001160871    1.911    0.477
