#   1 NUMBER                 Running object number                                     
#   2 MAG_AUTO               Kron-like elliptical aperture magnitude                    [mag]
#   3 X_IMAGE                Object position along x                                    [pixel]
#   4 Y_IMAGE                Object position along y                                    [pixel]
#   5 X_WORLD                Barycenter position along world x axis                     [deg]
#   6 Y_WORLD                Barycenter position along world y axis                     [deg]
#   7 A_WORLD                Profile RMS along major axis (world units)                 [deg]
#   8 B_WORLD                Profile RMS along minor axis (world units)                 [deg]
#   9 THETA_WORLD            Position angle (CCW/world-x)                               [deg]
#  10 FWHM_WORLD             FWHM assuming a gaussian core                              [deg]
#  11 ELONGATION             A_IMAGE/B_IMAGE                                           
#  12 ELLIPTICITY            1 - B_IMAGE/A_IMAGE                                       
         1 -15.8647    213.2271    120.3645   7.4170698922e+01   1.5725252915e+01     3.640251     2.474677 -32.75   0.01974771    1.435    0.303
         2 -13.1770    199.8074     15.0382   4.7474134152e+01   3.2376280679e+01    0.8887077    0.2930366 -36.58  0.003330349    2.545    0.607
         3 -13.1858    198.0958     61.7011   6.1512983847e+01   2.7259613202e+01     1.572923      1.05855 -51.19  0.007538754    1.620    0.383
         4 -16.8371    244.8982     89.1448   6.2254812873e+01   1.3630278181e+01     8.238997     2.061518 -22.24   0.02295597    5.491    0.818
         5 -17.9125    234.8775     23.6974   4.6815791711e+01   2.3169287479e+01     9.802253     4.030812  60.65   0.04337064    2.541    0.606
         6 -13.5750    186.7579     85.0238   6.9898216309e+01   2.6529725014e+01      7.96188     1.328907 -31.35   0.01834493    6.350    0.843
         7 -11.8569    214.7925     12.1056   4.5292383174e+01   2.8970151620e+01    0.3278321    0.2258181 -60.79  0.001276647    1.450    0.310
         8 -12.3975    127.7601     11.3168   5.5746218807e+01   5.1804365391e+01    0.4773585    0.2073202  41.83  0.001752933    2.544    0.607
         9 -11.5377     42.9837     10.7044   8.2941765627e+01   7.0823526076e+01     0.184744    0.1662277   0.58  0.001177322    1.091    0.084
        10 -10.5535    187.7310      5.8277   4.5771555898e+01   3.6331826274e+01    0.4709267    0.1214864 -19.28  0.001450755    3.925    0.745
        11 -12.3830    135.3575      5.2231   5.1901246354e+01   5.0380908577e+01    0.3708791    0.3078637  -5.11 0.0004606537    1.269    0.212
        12 -12.0931    119.6896      4.1784   5.4122529455e+01   5.4645829526e+01    0.4593419    0.2421165  -3.68  0.001051284    2.318    0.569
        13 -11.5437     64.4862      4.5151   6.9302647812e+01   6.7802001011e+01    0.2731833    0.1293066  52.40  0.001169468    2.157    0.536
        14 -10.5688    105.1087      2.1219   5.6074714413e+01   5.8612870000e+01    0.2365183    0.1810276  31.65  0.001232938    1.303    0.233
        15 -11.7925     57.9627      2.3473   7.0596256914e+01   6.9392702855e+01    0.4040017   0.09897953  48.28  0.001366147    3.802    0.737
        16 -10.0889    249.6431    249.6938   9.1016666143e+01  -3.6254018122e+00     0.103839   0.05149808  15.67 0.0007040959    1.723    0.420
        17 -12.3221    160.6034    128.3026   8.5882168076e+01   2.5002120181e+01    0.4491296    0.3322133 -42.71  0.001410072    1.429    0.300
        18 -10.1136      7.1616    128.9056   1.2612683953e+02   4.7543948205e+01    0.1712995    0.1239825  70.89 0.0003436246    1.143    0.125
        19 -10.6234    202.1545    248.1628   9.7908739166e+01   2.2618077949e+00     0.154183    0.1009159  21.26 0.0003872367    1.176    0.150
        20 -10.7255    135.0000    113.0042   8.8148310898e+01   3.3030169166e+01    0.3998218    0.1898675 -44.72  0.001611043    2.164    0.538
        21 -11.5907    134.6400    106.4140   8.6624185582e+01   3.4394154967e+01    0.6971864    0.2456467 -45.31  0.002393506    2.908    0.656
        22  -9.9595    107.7148    233.3366   1.1236824941e+02   1.6501945689e+01    0.1074792   0.06596176  58.37 0.0003821569    1.627    0.385
        23 -10.4231    151.8016    107.2821   8.2834210276e+01   3.0593502773e+01    0.2888814    0.2184728 -67.39 0.0005820413    1.722    0.419
        24 -12.6427    165.9058    102.9747   7.8696427669e+01   2.8294944070e+01    0.4638135    0.3546703  64.82  0.002187277    1.526    0.345
        25 -10.0769    140.8740    104.5351   8.4652672012e+01   3.3444158224e+01    0.2236099     0.196029 -39.49 0.0007157355    1.159    0.137
        26 -10.6705    112.4178    103.9816   9.1729020498e+01   3.9380813188e+01    0.2414903    0.1928359  45.77 0.0008508877    1.241    0.194
        27 -12.7642    152.3923     84.3550   7.6517911242e+01   3.4611697893e+01    0.3610447    0.2737784 -30.61 0.0007411859    1.335    0.251
        28 -11.9216    156.3481    101.5821   8.0369911521e+01   3.0639533558e+01    0.4128004    0.2885829 -30.66  0.001978008    1.489    0.328
        29 -12.5144    154.4397     93.8920   7.8739736679e+01   3.2442732275e+01     0.672315     0.480285 -32.72  0.002889934    1.421    0.296
        30 -10.7460    109.9891    224.2396   1.1111033578e+02   1.7501986731e+01    0.1552409   0.07274255  38.66 0.0008636671    1.632    0.387
        31 -11.2777    145.8520    100.5613   8.2460960342e+01   3.3123769489e+01    0.3033962        0.261  29.95 0.0005936934    1.195    0.163
        32 -10.6375     97.1576    222.6013   1.1336082268e+02   1.9441629635e+01    0.1704858    0.1292762  66.31  0.000449584    1.324    0.245
        33 -11.0927    132.6107     96.9832   8.4684784468e+01   3.6673051356e+01    0.2939892    0.2678345 -72.24 0.0007691669    1.189    0.159
        34 -12.1721      8.5278    170.2113   1.2795144587e+02   3.8685424806e+01    0.1934128    0.1349616  42.22 0.0007816258    1.341    0.254
        35 -11.7153    138.9850     90.1557   8.1257952633e+01   3.6597697414e+01    0.3211009     0.293722 -79.76 0.0007872668    1.210    0.173
        36 -12.3059    189.6960    148.6783   8.4414972451e+01   1.6126038476e+01    0.3067243    0.2236415 -65.39  0.001555504    2.340    0.573
        37 -11.2035    172.3350    149.8570   8.7983188306e+01   1.9150052614e+01    0.1980963    0.1753474 -59.10 0.0007529229    1.419    0.295
        38  -9.8005    197.4150     84.2310   6.7860403449e+01   2.4227298416e+01    0.1924729    0.1267655 -39.32 0.0002495152    1.491    0.329
        39 -10.8602    134.1427    147.3439   9.5606850396e+01   2.6615281207e+01    0.4684743    0.1690888 -52.79  0.001722176    3.358    0.702
        40 -10.8528     87.6498     76.9270   9.1799513211e+01   4.9940122838e+01    0.6283883    0.2807234 -65.58  0.001778212    4.772    0.790
        41 -10.1338    124.0767     74.3313   8.0312000350e+01   4.2970437675e+01    0.4251972    0.1801403 -54.50  0.001301386    3.579    0.721
        42 -11.6098     87.8654     68.7399   8.9224312848e+01   5.1673448701e+01    0.3794573    0.1782811  29.20  0.001278054    3.416    0.707
        43 -11.1957    130.6005     65.9455   7.5949263581e+01   4.3033099238e+01       0.3164    0.2842898 -43.22 0.0009483363    1.107    0.097
        44 -10.6370    132.7048    139.8972   9.4515809694e+01   2.8274192896e+01    0.6816691    0.2035733 -52.48  0.002176127    4.226    0.763
        45 -10.2078    214.7032     58.6319   5.8352390553e+01   2.3784483111e+01    0.2398866    0.1287623  57.30 0.0008523715    1.957    0.489
        46 -13.2809    213.3202     53.8191   5.7205155595e+01   2.4706978640e+01    0.5004997    0.3029718  36.44  0.002315525    1.962    0.490
        47 -11.2913     96.3297     58.0393   8.2863309972e+01   5.2199337627e+01    0.5587409    0.2072755  38.57  0.001796918    3.395    0.705
        48  -9.0725    204.2674     51.2982   5.7667278662e+01   2.7154569995e+01    0.1394295    0.1065001  17.97  0.000498599    1.519    0.341
        49 -12.1105    204.2552     42.0281   5.4992983007e+01   2.8303799028e+01    0.4703644     0.195219 -31.80  0.001204373    2.112    0.526
        50 -10.5100    144.0224    146.4781   9.3240756395e+01   2.4971829860e+01    0.3500541    0.1823815 -64.28   0.00128699    3.709    0.730
        51 -14.4253      5.5516    198.0711   1.2960545150e+02   3.3656607678e+01     1.503714    0.5915066  84.11  0.008737284    2.324    0.570
        52 -10.6578     99.1545     45.0175   7.7074272388e+01   5.4053849059e+01    0.2471504    0.1628592 -58.94 0.0009947696    1.921    0.479
        53 -10.9735    246.4333    163.7848   7.7936760378e+01   4.6483727418e+00    0.3947001    0.1916645  10.46  0.001772305    3.048    0.672
        54 -11.4717    102.7165     34.2764   7.1586119244e+01   5.5067121254e+01    0.2576387    0.1790322 -35.13 0.0006768402    1.405    0.288
        55 -11.9854    104.6971     23.8007   6.6435493548e+01   5.6164958795e+01    0.3489539    0.1705921 -32.36  0.001422411    1.979    0.495
        56 -10.8446     93.4508     24.8264   7.0126342809e+01   5.8672050789e+01    0.2643318    0.2262666 -66.47  0.000766949    1.395    0.283
        57 -10.5994    176.8455     23.7735   5.2813467431e+01   3.7371256453e+01    0.2250293    0.2149295  -8.19 0.0007507165    1.081    0.075
        58 -10.3694    187.4405     22.6923   5.1154298604e+01   3.4735870962e+01    0.1789888    0.1379143  -7.18 0.0005340654    1.405    0.288
        59 -11.2436    136.0000    129.9825   9.1731788369e+01   2.9543290962e+01     0.816453    0.1776032 -47.33   0.00229907    4.968    0.799
        60 -11.1333    135.2534    121.7513   9.0113066601e+01   3.1275221637e+01    0.7139738    0.1894703 -46.94  0.002181209    3.999    0.750
        61 -15.1342     21.3785    187.6175   1.2599581282e+02   3.4181312690e+01    0.9501957    0.7080226  71.54   0.00375636    1.088    0.081
        62 -12.2693    192.5275    194.4465   9.2075327339e+01   9.4206271841e+00    0.8143266    0.4533348 -60.16  0.002925125    6.920    0.855
        63 -13.6414     70.2253    146.6087   1.1104865884e+02   3.7029937715e+01     1.525213     1.011001 -87.37  0.004685936    1.614    0.380
        64 -10.4816    166.0020    134.4893   8.6102889011e+01   2.2871781936e+01    0.2050774     0.129245  43.75 0.0003672273    1.502    0.334
        65 -13.8771     62.2767    158.5073   1.1447301828e+02   3.5548236621e+01    0.7322081    0.4412619  59.78  0.001777024    1.569    0.363
        66 -14.5875     49.5500    168.8604   1.1852222671e+02   3.4946250939e+01     1.627303     1.212804  -8.21  0.001363458    2.300    0.565
        67 -14.4043     56.6985    163.4152   1.1633157942e+02   3.5219072667e+01     1.483649    0.6238274  33.15  0.002750115    2.289    0.563
        68 -13.9040    167.0977     69.9686   6.9217015359e+01   3.3535981788e+01     1.327178    0.6819682  47.68  0.003954873    1.969    0.492
        69 -14.0180    171.6662     82.8155   7.2085545030e+01   3.0375382592e+01      1.74887    0.8564194  36.03  0.006466757    2.603    0.616
