#   1 NUMBER                 Running object number                                     
#   2 MAG_AUTO               Kron-like elliptical aperture magnitude                    [mag]
#   3 X_IMAGE                Object position along x                                    [pixel]
#   4 Y_IMAGE                Object position along y                                    [pixel]
#   5 X_WORLD                Barycenter position along world x axis                     [deg]
#   6 Y_WORLD                Barycenter position along world y axis                     [deg]
#   7 A_WORLD                Profile RMS along major axis (world units)                 [deg]
#   8 B_WORLD                Profile RMS along minor axis (world units)                 [deg]
#   9 THETA_WORLD            Position angle (CCW/world-x)                               [deg]
#  10 FWHM_WORLD             FWHM assuming a gaussian core                              [deg]
#  11 ELONGATION             A_IMAGE/B_IMAGE                                           
#  12 ELLIPTICITY            1 - B_IMAGE/A_IMAGE                                       
         1 -11.6330    173.7030     53.7766   8.5170580569e+01   3.4530311169e+01     1.080355    0.6511025  43.07  0.004705825    1.737    0.424
         2 -11.9046    227.4849     48.0025   7.5668671201e+01   2.2248767562e+01     2.370233    0.4697982 -42.12  0.006456732    5.201    0.808
         3 -12.3958    216.2332     35.0759   7.3433970053e+01   2.6375808059e+01     3.634318     1.085569 -42.91   0.01224694    3.293    0.696
         4 -11.4128    150.4922     44.8358   8.6700125725e+01   4.1744701404e+01     1.691132    0.8469577  86.15  0.004017407    6.843    0.854
         5  -9.5853    203.6772     17.7286   6.9817460290e+01   3.1340131560e+01    0.4659831    0.3734103 -44.47  0.002579526    1.191    0.161
         6  -9.2000    222.5692     15.5001   6.7366262826e+01   2.6942485840e+01    0.3441262    0.1832247 -41.64 0.0007410655    1.706    0.414
         7  -8.9840    220.3260     12.6567   6.6780162612e+01   2.7755614254e+01    0.3479761    0.1830215 -59.99  0.001280549    2.112    0.527
         8 -10.7655    237.0809     10.6070   6.4892856620e+01   2.4046607308e+01    0.8309312    0.2481499 -49.98  0.002928108    3.579    0.721
         9 -11.5885    119.7082      9.9380   7.9665686875e+01   5.4212770812e+01    0.8204591    0.6879936  73.91  0.003466732    1.262    0.208
        10  -9.3555    195.6247     10.7824   6.8568825475e+01   3.4075662017e+01    0.6731143    0.2599288 -60.07  0.002130591    3.989    0.749
        11  -8.6063    236.1058      1.5730   6.2633964293e+01   2.5092133436e+01    0.2417009    0.1448674  69.52 0.0003083447    1.744    0.427
        12  -9.3150    143.3887      8.8170   7.4720495088e+01   4.8117456098e+01    0.2764853    0.1448523  -2.28  0.001067802    2.498    0.600
        13  -9.8623    212.4579      4.7638   6.5237492664e+01   3.0405763083e+01    0.6058438    0.1767591 -44.57  0.001916483    3.189    0.686
        14  -9.7107    243.5818      4.1926   6.2812543299e+01   2.3183793266e+01    0.4253985     0.311459  60.89  0.001993516    1.512    0.338
        15  -8.9010    250.1474      3.3624   6.2196749473e+01   2.1827057486e+01    0.3292392    0.1954581 -33.27  0.001381753    1.423    0.297
        16  -9.7780    182.2901      3.5320   6.7680233588e+01   3.8217115334e+01    0.5106606     0.399123 -18.16  0.001847228    1.328    0.247
        17  -9.1299    171.6325      2.4508   6.8492805764e+01   4.1138003922e+01    0.3348258    0.2456436 -49.57   0.00137502    1.386    0.279
        18 -11.4019    239.8254     99.3546   8.6971778172e+01   1.3236278819e+01    0.6909149    0.6066472 -71.95  0.004217302    1.557    0.358
        19 -11.7979    241.5166     83.9219   8.3060722341e+01   1.4839404143e+01     1.545132    0.2113981 -33.44  0.004419773    4.849    0.794
        20  -9.1669    198.6900    133.3221   1.0149726161e+02   1.6627121081e+01    0.3121559    0.1563006  39.23  0.001405831    1.914    0.478
        21  -7.4217    176.2959    130.2944   1.0517584330e+02   2.1533871058e+01    0.1409101    0.1038126  11.35  0.000698246    1.562    0.360
        22  -9.3249    200.5662    123.4450   9.8952160408e+01   1.7727019996e+01    0.3001577    0.2107806  14.85 9.951724e-05    1.577    0.366
        23  -8.5315    133.0086    120.0817   1.1257066186e+02   3.2068535805e+01    0.2060416    0.1970865  36.75 0.0003196016    1.013    0.012
        24  -8.3649    215.4809    116.4800   9.4739773539e+01   1.5752194933e+01    0.1378005    0.1208525   4.19 0.0008099723    1.018    0.018
        25  -9.3658    167.8360    113.7443   1.0311490156e+02   2.6082497220e+01    0.2969438    0.2481959 -44.50 0.0006399829    1.285    0.222
        26  -8.7513    186.4028    111.1869   9.8727605237e+01   2.2553835513e+01    0.2037234     0.129428 -44.19 0.0005812212    1.721    0.419
        27  -7.4006    175.2647    108.2852   1.0023010732e+02   2.5421967313e+01    0.1419153    0.1089628   9.96 0.0002109627    1.491    0.329
        28  -9.7889    191.5941    100.9560   9.5202009706e+01   2.3050988854e+01    0.2978095    0.2182611  53.68 0.0004756936    1.440    0.306
        29 -10.0582    249.3424     95.5573   8.4787264345e+01   1.1882694504e+01     0.363921    0.2479951 -39.36  0.002040095    1.502    0.334
        30  -8.5003    196.1048     96.0961   9.3138641799e+01   2.2809186644e+01    0.2186204    0.1829418  11.46 0.0003606694    1.216    0.177
        31  -8.5966    148.6493     94.5606   1.0249705252e+02   3.3707985582e+01    0.2632763    0.2270741 -26.86 0.0008662623    1.189    0.159
        32  -8.0749    134.7933     93.1445   1.0547707222e+02   3.7011180395e+01     0.225976    0.2049142  88.84 0.0009481538    1.249    0.199
        33  -9.3881    160.3783     84.5780   9.7083287819e+01   3.2835227504e+01    0.5461395    0.3794122  11.10  0.002367941    1.979    0.495
        34  -9.7358    249.7015     85.3553   8.2350499012e+01   1.3049487362e+01    0.2734196    0.1918642 -50.57  0.001503489    1.703    0.413
        35  -8.9208    142.5155     83.5318   1.0087698017e+02   3.7133705135e+01     0.289323    0.2790167 -18.97  0.000909988    1.036    0.034
        36  -9.3557     72.8392    242.8107   1.4142154271e+02   1.9342767786e+01    0.1632072    0.1314312  64.38 0.0003322136    1.201    0.167
        37 -10.9367    175.5424     71.0276   9.0065251505e+01   3.1469741824e+01    0.7808853    0.5611628 -31.23  0.001509505    1.368    0.269
        38  -7.3205     97.3554    238.2961   1.3678815278e+02   1.7021404103e+01   0.09775499   0.07425096  17.95 0.0007033555    1.694    0.410
        39  -7.9250      7.7078    233.0691   1.5213166575e+02   2.7444636160e+01    0.1251152   0.08889722  63.81 0.0003645807    1.096    0.087
        40  -7.9094    215.7884     74.1474   8.4173173365e+01   2.1575187204e+01    0.1931693    0.1563044  18.25 0.0004449126    1.310    0.237
        41  -8.2792    215.3593     68.3610   8.2697624359e+01   2.2446960955e+01    0.2753795    0.1852975 -62.87 0.0007770006    1.991    0.498
        42  -8.8380    206.9376     65.8189   8.3246095877e+01   2.4728459920e+01    0.4055643    0.2267233 -64.99  0.001492512    3.182    0.686
        43  -9.2141    208.9449     62.8206   8.2121882892e+01   2.4663513655e+01    0.5742983    0.2770781 -59.33  0.001872505    3.964    0.748
        44  -9.2528    182.4476     64.5224   8.6877097105e+01   3.0780997890e+01    0.2794198    0.2676674  -5.57 0.0005224157    1.016    0.015
        45  -8.2558    160.4990     57.9884   8.9026705702e+01   3.7214004352e+01    0.2197526    0.1481351 -31.33  0.000992175    1.472    0.320
        46  -9.6270    192.3599     55.6133   8.2585053404e+01   2.9619990781e+01    0.3279759    0.2638487  33.11  0.001694442    1.319    0.242
        47 -10.4755    197.9415     51.7014   8.0584580937e+01   2.8776098719e+01    0.4846689    0.4158355  -6.80  0.001182798    1.196    0.164
        48 -10.9458    226.5332     25.9713   6.9850280783e+01   2.4939437287e+01     0.641619    0.3199942  54.17   0.00145945    2.112    0.526
        49 -10.6741    137.8640     43.0174   8.8796095261e+01   4.5217210444e+01    0.6027619     0.411901  52.87 4.556624e-05    1.438    0.304
        50 -11.1917     10.9130    221.4963   1.5125821139e+02   2.9003204358e+01    0.5213922    0.2459324  88.36  0.002787982    1.987    0.497
        51  -8.5444    105.4927     39.4949   9.5895107045e+01   5.3547700148e+01    0.1463977     0.141822  -8.29 0.0008104863    1.026    0.026
        52 -10.4579    181.0638     78.3801   9.1135794834e+01   2.8996684559e+01    0.5649959    0.5201837 -82.37  0.003087315    1.250    0.200
        53  -9.6114    124.0110     37.5033   9.0044814858e+01   4.9500434411e+01    0.3449351    0.1555831  63.71  0.001210797    2.706    0.630
        54  -7.8030    165.4048     32.7189   7.9740558481e+01   3.9541287827e+01    0.2823805    0.1330927 -31.75 0.0009107335    2.032    0.508
        55  -7.9884    110.2893     28.6289   9.0059063353e+01   5.4151978751e+01    0.1520345    0.1125182 -60.74 0.0007022492    1.717    0.417
        56  -8.1658    100.6131     27.8162   9.2484073246e+01   5.6527902261e+01    0.2094147    0.1280029 -42.11 0.0005423675    1.706    0.414
        57 -10.2016    146.2572     19.9141   7.8486596950e+01   4.6156014799e+01    0.2567945    0.2484752  40.00 0.0002636707    1.011    0.011
        58 -11.6827      5.2146    219.9699   1.5220826230e+02   2.9742447335e+01    0.7357926    0.3611636  88.45  0.005264239    1.870    0.465
        59  -8.1086    249.8440     17.7494   6.5753315145e+01   2.0549528302e+01    0.2506681    0.1439641  -5.25  0.001220833    2.124    0.529
        60  -7.8114    139.3495    227.7729   1.2823034586e+02   1.2851889360e+01    0.1222812    0.1026296 -27.62 0.0004056129    1.571    0.363
        61  -8.4479     50.3594    222.2395   1.4420475374e+02   2.5014189475e+01    0.1541037    0.1303582  50.88 0.0004666321    1.231    0.188
        62 -12.3199     37.4784    195.6307   1.4514336453e+02   3.0938472223e+01    0.7013339    0.6211003 -28.19  0.005447196    1.752    0.429
        63  -7.9306    156.6492     15.1590   7.4983510341e+01   4.3917704804e+01    0.2021558    0.1377833  -3.42 0.0003600245    1.687    0.407
        64 -11.8943     50.4479    184.1636   1.4168333513e+02   3.1679110975e+01    0.7988725    0.6771318  63.13  0.003625029    1.094    0.086
        65 -10.2714    157.2258     73.7906   9.4621348434e+01   3.5434230421e+01    0.3496757    0.2728417 -19.95  0.001704137    1.359    0.264
        66 -10.0281    192.1558    187.3756   1.1300027648e+02   1.0182847111e+01    0.2007605    0.1726517  16.59 0.0002741008    1.093    0.085
        67  -7.4556    192.4443    172.5382   1.1041136251e+02   1.2124136957e+01    0.1284845    0.1047471  19.34 0.0001895028    1.050    0.048
        68  -7.4790     19.7730    150.9838   1.4627403526e+02   4.1381169738e+01    0.1416698   0.08075279 -82.64 0.0003654029    1.554    0.356
        69  -8.3939     69.8377    145.6309   1.3326837523e+02   3.7127006169e+01    0.2811349    0.1705777  47.68  0.001524038    1.512    0.339
        70  -8.8821     66.4776    144.1125   1.3393083540e+02   3.7889690443e+01    0.3176107    0.2343478 -78.71  0.001332403    1.328    0.247
        71  -8.5479    136.1290    135.0879   1.1501338554e+02   2.8554448512e+01    0.1999116    0.1868393  41.89 0.0002912634    1.009    0.009
        72 -12.5846    244.9858    114.0761   8.9607212354e+01   1.0424772655e+01     1.663057     0.630738 -24.39 0.0009867137    2.559    0.609
