#   1 NUMBER                 Running object number                                     
#   2 MAG_AUTO               Kron-like elliptical aperture magnitude                    [mag]
#   3 X_IMAGE                Object position along x                                    [pixel]
#   4 Y_IMAGE                Object position along y                                    [pixel]
#   5 X_WORLD                Barycenter position along world x axis                     [deg]
#   6 Y_WORLD                Barycenter position along world y axis                     [deg]
#   7 A_WORLD                Profile RMS along major axis (world units)                 [deg]
#   8 B_WORLD                Profile RMS along minor axis (world units)                 [deg]
#   9 THETA_WORLD            Position angle (CCW/world-x)                               [deg]
#  10 FWHM_WORLD             FWHM assuming a gaussian core                              [deg]
#  11 ELONGATION             A_IMAGE/B_IMAGE                                           
#  12 ELLIPTICITY            1 - B_IMAGE/A_IMAGE                                       
         1 -14.5999    165.0566     46.1289   7.8406628822e+01   3.8287760263e+01     1.954065     1.295064  20.29  0.006554699    2.219    0.549
         2 -14.2854    178.8297     30.6865   7.1686437491e+01   3.6902365886e+01    0.9358043    0.8381439 -43.70  0.003725782    1.213    0.176
         3 -13.5348    182.7467     24.1396   6.9329708683e+01   3.6715269157e+01    0.5762292    0.4866616 -79.45  0.001302314    1.163    0.140
         4 -12.7568    189.5967     14.9162   6.5985523761e+01   3.6061547504e+01      0.32093    0.2217638  80.49 0.0007871516    1.314    0.239
         5 -13.0374    198.3225      2.6886   6.1924135285e+01   3.5201192196e+01    0.6125776    0.2644425  61.72  0.002882267    1.967    0.492
         6 -11.2247    121.9751    218.7130   1.2801031740e+02   1.2450066416e+01    0.2174656    0.1671167  81.10 0.0003548647    1.351    0.260
         7 -19.6709     45.0040    161.1915   1.3695062288e+02   3.6715209871e+01     19.80522     5.389149 -69.49   0.06891923    3.612    0.723
         8 -11.4630     99.0080    191.9511   1.2903247118e+02   2.2005039327e+01    0.3037922     0.208973  73.09 0.0006861422    1.525    0.344
         9 -12.0261    183.6956    215.3674   1.1490670373e+02   1.7451668251e+00    0.2845916    0.2195762  72.25  0.001313102    1.720    0.419
        10 -14.0945    108.0056    208.3969   1.2945543045e+02   1.6953296499e+01    0.9776408    0.6042733  41.45     0.004606    1.572    0.364
        11 -12.2459     99.5328    180.8263   1.2721884689e+02   2.4412233588e+01    0.3555297    0.2635304 -64.96  0.001009774    1.312    0.238
        12 -11.9895    211.9208    181.4777   1.0282049184e+02   2.3543371489e+00    0.3612462     0.282719 -14.88  0.001163923    1.388    0.280
        13 -11.8329    207.6605    185.2614   1.0443197498e+02   2.5056967803e+00    0.3579577     0.297576   9.38 0.0009902945    1.263    0.208
        14  -9.5125    133.3043    213.3339   1.2490255776e+02   1.1497741358e+01    0.1288175    0.1094855  -0.27 0.0002626502    1.663    0.399
        15 -10.9180    197.7667    176.6053   1.0465821511e+02   6.0879820201e+00    0.4157599    0.2532538 -58.42  0.001765226    2.191    0.543
        16 -12.4783    136.6806    171.1755   1.1694968036e+02   1.9765166639e+01    0.5687557    0.3569142  45.80    0.0021448    1.540    0.350
        17 -10.3883    228.3189    170.6670   9.7420577219e+01   1.0910591119e+00    0.1372607    0.1138365 -77.43  0.000538293    1.695    0.410
        18 -11.5107    145.5056    168.4443   1.1437702289e+02   1.8596848393e+01    0.2694265    0.2555573  75.12 0.0006399688    1.016    0.016
        19  -9.6755    122.1989    165.4073   1.1923730637e+02   2.3878599158e+01    0.2017322    0.1332002  55.10 0.0003270364    1.543    0.352
        20 -10.4784      5.2077    161.6951   1.4582323335e+02   4.0414526151e+01    0.1411099    0.1197147 -83.58 0.0008104636    1.179    0.152
        21 -12.0295    101.4765    157.8228   1.2281713833e+02   2.9405939505e+01     0.474133    0.3551813 -37.33 0.0008302952    1.614    0.380
        22 -11.8275    103.4447    153.9489   1.2160184743e+02   2.9973142704e+01    0.4916858     0.289217  62.42  0.002071464    2.116    0.527
        23 -10.5793    139.8375    156.3185   1.1321238300e+02   2.2457843886e+01    0.2372873    0.2037521 -74.04 0.0004558808    1.213    0.175
        24 -11.6574    163.1935    155.3622   1.0757691792e+02   1.7735813676e+01    0.3233974    0.2791682  70.53  0.001631779    1.236    0.191
        25 -13.7143     10.7060    206.3617   1.4828439328e+02   3.0400321056e+01    0.4652913    0.3060308  37.26  0.003201917    1.855    0.461
        26 -11.8175    133.8454    145.0040   1.1221887048e+02   2.6255143738e+01     1.093123    0.2906466 -55.13  0.002640362    5.353    0.813
        27 -10.7964    174.6931    149.0969   1.0360039059e+02   1.6559942973e+01    0.2725228    0.2147341  60.56 0.0006452903    1.349    0.259
        28 -11.8963    145.0629    146.1893   1.0976619690e+02   2.3646476130e+01     0.439134    0.3004837  69.76  0.001861519    1.873    0.466
        29 -10.4612     89.3084    147.1851   1.2387129813e+02   3.3948747918e+01    0.2185699    0.1953263  34.89 0.0003952919    1.269    0.212
        30 -10.1535    165.1286    208.1248   1.1744457212e+02   6.5603770949e+00    0.2066176    0.1824411  17.95  0.000294259    1.237    0.191
        31 -12.2744    111.8622    140.7710   1.1680712507e+02   3.1543853822e+01    0.5385527    0.3315517 -38.36  0.002316606    1.894    0.472
        32 -12.5197    100.9295    141.1259   1.1969309666e+02   3.3432282663e+01    0.2828726    0.2760701  35.37 0.0004739685    1.144    0.126
        33 -13.4321    195.3759    195.1561   1.0885166518e+02   3.1113304555e+00    0.9861055    0.7515796  85.74  0.003478661    2.047    0.511
        34 -11.7534     14.5288    136.4538   1.4106373893e+02   4.5311872027e+01     0.214937    0.1701544 -70.37 0.0001854177    1.070    0.066
        35 -11.9180    105.8668    128.8968   1.1575840789e+02   3.5415136718e+01    0.6055104    0.2878655 -53.96  0.002247731    2.041    0.510
        36 -11.5220    117.7426    130.7097   1.1305405326e+02   3.2760623288e+01    0.3469598    0.3071538 -24.11 0.0009152101    1.284    0.221
        37 -11.6308    160.2428    128.2576   1.0196036155e+02   2.4266019009e+01    0.4515791     0.265718 -35.83  0.001805662    1.878    0.467
        38 -11.1536    141.5906    126.7177   1.0605450941e+02   2.8748653736e+01    0.4540652    0.3044341  80.49   0.00176434    2.349    0.574
        39 -11.2083    125.0333    127.0089   1.1030052667e+02   3.2159973720e+01     0.254239    0.1906569  86.55  0.001135706    1.752    0.429
        40 -11.5889    135.4033    122.3533   1.0652329802e+02   3.1049170794e+01    0.5360278    0.1481562 -49.04  0.001494122    3.747    0.733
        41 -10.4297    112.1470    119.6775   1.1192050320e+02   3.6363162571e+01    0.2415269    0.2007364 -64.18 0.0003344794    1.224    0.183
        42 -12.3531    104.5966    202.0588   1.2928481489e+02   1.8869333469e+01    0.4368363    0.2652358  51.32  0.002208459    1.508    0.337
        43 -11.1103    168.7300    113.6697   9.6352764080e+01   2.5385864833e+01    0.3573225    0.2770806 -75.58 0.0007920139    1.575    0.365
        44 -10.2838    164.2065    111.3962   9.6787758236e+01   2.6918343013e+01    0.3217866    0.2257526  68.04  0.001271184    1.692    0.409
        45 -10.7901      1.2690    250.1573   1.5231593592e+02   2.2921460074e+01    0.1443776     0.063513  88.43 0.0005724285    1.815    0.449
        46 -10.5940    205.3552    110.2187   8.7926577649e+01   1.7397183696e+01    0.3173112    0.2157362  47.96   0.00100754    1.522    0.343
        47 -11.0121    136.4930    197.4571   1.2170984734e+02   1.4131750118e+01    0.3436579    0.2087127  76.27  0.001394005    2.585    0.613
        48 -10.4091    134.4925    102.9496   1.0172591119e+02   3.5451144120e+01    0.2415606    0.1508267 -43.90  0.001032293    1.588    0.370
        49 -12.5040    112.6181    196.0962   1.2668084428e+02   1.8772134399e+01    0.5608917    0.3817525   4.90  0.002253668    3.404    0.706
        50 -10.8805    180.3785    193.8316   1.1168419124e+02   6.3010174209e+00    0.3370014    0.2203925 -67.63  0.001481237    2.276    0.561
        51 -12.4542    103.6923    194.5054   1.2838537175e+02   2.0656947503e+01    0.4521695    0.2750507  34.12  0.002165398    1.889    0.471
        52 -10.3835    157.8873    193.1598   1.1633295078e+02   1.0884280131e+01    0.2160629    0.1846741  71.79 0.0003135545    1.241    0.194
        53 -10.3003    168.1574    248.1262   1.2309263726e+02  -8.6408294721e-01    0.1651348    0.1345639  62.39 0.0004156895    1.315    0.239
        54 -11.3469    158.1446    246.2076   1.2471969271e+02   1.1672712651e+00    0.1736693    0.1350408  63.54 0.0004769377    1.341    0.254
        55 -10.5180    182.6295    242.7639   1.1956130976e+02  -2.5350670136e+00    0.1550331    0.1225189 -58.38 0.0005770082    1.641    0.391
        56 -11.0390    150.1757    220.8105   1.2257962820e+02   6.9874357551e+00    0.1850011    0.1577276  22.45 0.0006642558    1.340    0.254
