#   1 NUMBER                 Running object number                                     
#   2 MAG_AUTO               Kron-like elliptical aperture magnitude                    [mag]
#   3 X_IMAGE                Object position along x                                    [pixel]
#   4 Y_IMAGE                Object position along y                                    [pixel]
#   5 X_WORLD                Barycenter position along world x axis                     [deg]
#   6 Y_WORLD                Barycenter position along world y axis                     [deg]
#   7 A_WORLD                Profile RMS along major axis (world units)                 [deg]
#   8 B_WORLD                Profile RMS along minor axis (world units)                 [deg]
#   9 THETA_WORLD            Position angle (CCW/world-x)                               [deg]
#  10 FWHM_WORLD             FWHM assuming a gaussian core                              [deg]
#  11 ELONGATION             A_IMAGE/B_IMAGE                                           
#  12 ELLIPTICITY            1 - B_IMAGE/A_IMAGE                                       
         1 -13.7733     54.2050    145.9759   1.0750218017e+02   3.8958590218e+01     4.757879     1.220492 -62.95   0.01659265    3.461    0.711
         2 -14.4677    200.7548     38.8436   4.5308074775e+01   2.9498237787e+01     1.973745     1.436458  24.50  0.006939253    1.845    0.458
         3 -14.4199    212.4206     27.0212   4.0938064856e+01   2.8168262551e+01     1.364487    0.9836394   4.34  0.004240404    1.879    0.468
         4 -11.7124      1.9996     12.8367   1.0315366310e+02   7.5984093580e+01    0.6440658    0.1032903 -63.55   0.00202204    5.056    0.802
         5 -12.5666    239.5231      3.4086   3.3198277101e+01   2.4659513422e+01    0.5460377    0.4037746  57.23   0.00285601    1.660    0.397
         6 -12.1559    234.1756      3.1620   3.3419024143e+01   2.5808158873e+01     0.385766    0.2817869 -77.32  0.001751466    1.297    0.229
         7  -9.7912     59.2954    220.4610   1.1322343689e+02   2.2633505636e+01    0.3222485    0.1584035  26.49  0.001700637    2.103    0.524
         8 -11.5679    140.0855    249.0316   9.9646519983e+01   7.7549981046e+00    0.2777684    0.2284053  33.06  0.002154776    1.135    0.119
         9 -13.0561     69.7106    173.1829   1.0653886212e+02   3.0727314951e+01     1.003946    0.5091265 -34.25  0.003625327    4.478    0.777
        10 -12.7868     27.7932    215.0388   1.1955680182e+02   2.7087208297e+01    0.8313189    0.3163444  76.47  0.003978799    2.972    0.664
        11 -14.3073     85.1120    222.4063   1.0792994990e+02   1.9079256490e+01     3.774801    0.4895873  41.20  0.006437405    4.266    0.766
        12 -16.4438      8.0226    195.9761   1.2302037629e+02   3.2645841300e+01     8.065664     1.350221 -79.46  0.009565852    5.361    0.813
        13 -12.7348     11.9407    188.8510   1.2186183249e+02   3.3757910819e+01    0.2325915    0.1779789  51.57 0.0005929092    1.108    0.098
        14 -13.8518     42.3901    201.5201   1.1561779559e+02   2.8160103800e+01    0.8392978    0.5575308  68.45  0.003863105    1.345    0.257
        15 -14.3403     52.7672    190.4446   1.1239749989e+02   2.9213117033e+01     2.322912     1.589768  77.17   0.01228825    1.428    0.300
        16 -11.7030    195.5993    199.3831   8.2627871212e+01   6.6220959026e+00    0.3923755    0.2556535 -51.74  0.002213259    2.400    0.583
        17 -11.3691    192.4703    193.4690   8.2230074448e+01   7.8956048691e+00    0.7955004    0.5264138 -71.45  0.002953789    6.184    0.838
        18 -11.3372    109.6600    201.5532   1.0042371566e+02   1.9360961889e+01    0.2731382    0.2287688 -12.80  0.001724893    1.529    0.346
        19  -9.4579     30.8664    202.2346   1.1824053770e+02   2.9243839975e+01    0.1837404     0.113493  51.44 0.0005209493    1.257    0.204
        20 -10.5720     62.3814    200.7749   1.1102437671e+02   2.5967846233e+01    0.2123722    0.1308578  50.02 0.0005962016    1.332    0.249
        21 -10.7809     64.5826    196.1160   1.1011123222e+02   2.6615393531e+01    0.4492481     0.344235 -21.66  0.002027339    2.020    0.505
        22 -13.3087     57.6198    240.7494   1.1488238130e+02   1.9331002700e+01    0.3494366    0.2392045  63.79 0.0006100535    1.323    0.244
        23  -9.9658    128.0751    194.5387   9.5440721482e+01   1.7815800773e+01    0.3129206    0.1810944 -78.85  0.001292293    3.751    0.733
        24 -16.3033     39.0103    248.6492   1.1886675446e+02   2.0074802604e+01     10.38658     2.872726  23.82   0.02560539   12.379    0.919
        25 -10.3784    207.5227    193.9812   7.9617867015e+01   5.5853482739e+00    0.1660493    0.1088775 -28.94 0.0004267766    1.551    0.355
        26  -9.2786     23.6716    193.2654   1.1938294869e+02   3.1766718646e+01    0.1412192   0.09683905 -80.05 0.0002527827    1.487    0.327
        27 -10.5440    113.5902    206.6242   1.0017962452e+02   1.7886559851e+01    0.2732955    0.1947732  67.15  0.001584174    1.696    0.410
        28 -12.0312    204.1317    199.3770   8.1104086242e+01   5.3785760842e+00    0.5533612     0.187012  30.66   0.00229792    3.100    0.677
        29  -9.2564     91.4892    183.4466   1.0237490603e+02   2.5499038323e+01    0.1320916     0.113286  47.64 4.123372e-05    1.013    0.013
        30 -10.9551    150.7336    179.3278   8.8168300739e+01   1.6801980865e+01    0.3941695    0.2704582 -76.62  0.001874898    2.671    0.626
        31 -10.1268     99.3697    180.8476   1.0014486100e+02   2.4844692339e+01    0.2392204    0.1746716  32.99 0.0005733408    1.277    0.217
        32 -11.1039    144.3269    178.8974   8.9485195132e+01   1.7951231438e+01    0.3185277    0.2491715 -43.72  0.001508534    1.438    0.304
        33 -10.5544     42.1671    179.2281   1.1406083928e+02   3.2801810705e+01    0.2308036    0.2123534  85.78  0.000712338    1.196    0.164
        34 -10.2910     45.4941    176.5088   1.1300802807e+02   3.3017128771e+01    0.2430737    0.2044624  54.43 0.0008208381    1.063    0.060
        35 -10.1215    188.1185    174.6033   7.9768763506e+01   1.1316639107e+01    0.4187805     0.173919 -48.06  0.001702272    3.342    0.701
        36  -9.7340    204.2617    175.7290   7.7006556712e+01   8.5480694916e+00    0.2084002    0.1439326 -30.71 0.0007357458    1.457    0.314
        37  -9.7123    196.6314    174.9162   7.8237331936e+01   9.8822707279e+00    0.2340842    0.2008477  64.95  0.001444311    1.738    0.425
        38 -16.3190      7.6344    242.4369   1.2449407380e+02   2.4147363431e+01     1.752624     1.457859  29.04    0.0147316    1.484    0.326
        39 -14.7199     68.6055    144.2468   1.0310504807e+02   3.7452649010e+01     5.354406      1.68477  54.95   0.01263346    6.513    0.846
        40 -11.0256    137.5538    169.5594   8.9425449351e+01   2.0804377550e+01    0.4277009    0.3172785  46.96  0.001223849    1.293    0.226
        41  -9.8385     34.4871    171.4353   1.1538895639e+02   3.5336889355e+01    0.2176121    0.1705759  59.22 0.0007867796    1.060    0.057
        42  -9.9585    230.4643    166.9576   7.0973190861e+01   5.6867565402e+00    0.1587235   0.09666504 -49.49 0.0008095563    2.599    0.615
        43 -13.2085     80.9743    161.2188   1.0210427557e+02   3.1767887407e+01      1.41604    0.4713815  50.52 0.0003895382    3.486    0.713
        44  -8.9805    157.3130    159.7020   8.3238463861e+01   1.9112711454e+01    0.1313134     0.108521  72.08 0.0003225696    1.604    0.376
        45 -12.3409     88.1276    154.4123   9.9200213301e+01   3.2200983374e+01    0.5953637    0.4622761 -14.14  0.003071333    1.835    0.455
        46  -9.5944    187.6039    152.1790   7.5565398501e+01   1.4904354119e+01     0.186846    0.1206042 -24.21 0.0009453694    1.640    0.390
        47 -11.2597    133.7122    144.4060   8.5648996264e+01   2.6407676701e+01     1.005323    0.2862976 -54.39  0.002732771    5.308    0.812
        48 -10.3976    174.5369    148.9849   7.7492146697e+01   1.7825760334e+01    0.2453398    0.2310703  29.78 0.0008229181    1.112    0.100
        49 -10.8649     38.8238    146.1724   1.1197923152e+02   4.0704218208e+01    0.3408045    0.1818231  46.31  0.001690403    1.697    0.411
        50  -9.8609    143.9988    146.2530   8.3580082330e+01   2.4093231344e+01    0.2421783    0.1575801 -86.64 0.0008872573    3.485    0.713
        51 -11.7017     28.3110    143.8800   1.1480998516e+02   4.2325831375e+01    0.3662197    0.3334085  39.75  0.001605783    1.214    0.176
        52 -10.8552     83.1347    142.7533   9.8716151616e+01   3.5641162150e+01    0.2968237    0.2096063  53.43 0.0003688764    1.371    0.271
        53 -11.0258    102.0179    139.8012   9.2929260193e+01   3.3188739123e+01     0.540669    0.3734353 -22.42  0.002415405    2.191    0.544
        54 -12.2732     89.2971    139.6201   9.6435578697e+01   3.5381471486e+01    0.2723128    0.2614819 -28.91 0.0005091256    1.188    0.158
        55 -10.5553     35.0053    139.6502   1.1242885075e+02   4.2677392501e+01    0.2592779    0.1895135  50.80 0.0007929716    1.261    0.207
        56 -11.4868     25.8695    137.5564   1.1496135826e+02   4.4080202662e+01    0.3897336     0.202862  41.02  0.001265996    1.765    0.433
        57 -10.4366    105.9591    130.6807   9.0048716708e+01   3.4536490117e+01    0.3595234    0.3157299  68.79   0.00133011    1.166    0.143
        58 -10.2381    111.3404    130.1787   8.8466136912e+01   3.3653086670e+01    0.2866646     0.232559  -1.43 0.0007935681    1.602    0.376
        59 -11.9574     44.3386    129.6315   1.0839087769e+02   4.4114421404e+01    0.3734844    0.2522485  59.75  0.001342356    1.448    0.309
        60 -10.8680     39.7693    127.5895   1.0957664784e+02   4.5130935289e+01    0.2443999    0.1569978  43.17  0.001109677    1.492    0.330
        61 -10.9122    135.5334    127.5784   8.1609883952e+01   2.9489272355e+01    0.5384355    0.1451883 -50.74  0.001483246    4.554    0.780
        62 -10.1154    160.7828    127.6741   7.5764863444e+01   2.4326166412e+01    0.3017543    0.2039348 -50.74  0.001431852    1.638    0.389
        63 -10.8682     98.5939    126.2174   9.1207179620e+01   3.6887258297e+01    0.3127321    0.2541315 -16.64  0.001331432    1.596    0.373
        64 -10.7169    118.4638    123.3765   8.5054844956e+01   3.3784431479e+01    0.5163413    0.3205242   8.12  0.001766545    3.519    0.716
        65  -9.6309     91.6220    124.2170   9.2832625973e+01   3.8582196804e+01    0.2496848    0.1827812  53.32 0.0006206818    1.366    0.268
        66  -9.5353    135.0000    119.9694   7.9979148165e+01   3.1165999259e+01    0.2437812   0.08576106 -45.51 0.0007960176    2.920    0.658
        67 -11.9587     33.3050    118.4434   1.1053131382e+02   4.8089573769e+01    0.4103912    0.2581417 -57.66   0.00167407    1.563    0.360
        68  -9.9864    107.7457    119.0344   8.7026996837e+01   3.6830643346e+01    0.2283558    0.2021323  47.04 0.0003138514    1.097    0.088
        69 -10.9628     45.0945    117.8253   1.0648721929e+02   4.6968503019e+01    0.2175783    0.1724032  68.83  0.000503848    1.227    0.185
        70  -9.3504    168.0683    113.0083   7.0722051360e+01   2.5497696346e+01    0.2355618    0.1843235 -79.30  0.001131988    1.774    0.436
        71 -10.1863    205.2989    110.1643   6.3127870892e+01   1.8217527279e+01    0.3072876    0.2118792  35.75  0.001156419    1.561    0.359
        72 -11.9675     34.2376    109.1787   1.0895579994e+02   5.0331494284e+01    0.3687809     0.308878  74.94   0.00175331    1.131    0.116
        73 -10.4823    116.7895    108.8169   8.2042173345e+01   3.7308923423e+01    0.4366053    0.2070297  45.52  0.001666605    2.074    0.518
        74 -12.0018     41.3692    103.6435   1.0552690623e+02   5.0973155223e+01    0.4809735    0.3107387  48.11  0.002211791    1.578    0.366
        75  -9.9288    134.6913    106.1392   7.6620944122e+01   3.4081904182e+01    0.3065619    0.1339423 -50.36  0.001078932    2.530    0.605
        76 -10.5083    241.9724    101.7686   5.5871533309e+01   1.2474810240e+01     0.151349    0.1062019  50.83 0.0006194637    1.651    0.394
        77 -10.7449     32.7331     99.6491   1.0806681847e+02   5.2898495880e+01     0.364469    0.2117268  46.28  0.001574994    1.768    0.434
        78  -9.5482    128.0958     95.4498   7.5444811785e+01   3.7734399995e+01    0.2332363    0.1498508  48.94  0.001011347    1.547    0.354
        79 -13.6674     68.9160    156.7756   1.0474733184e+02   3.4494154183e+01    0.5373746    0.4636634 -46.87  0.001290566    1.366    0.268
        80  -9.5037    156.9464     88.9339   6.6750561621e+01   3.2379577914e+01     0.248394    0.1851356 -74.04  0.001124962    1.762    0.432
        81  -9.0062    116.2221     85.1767   7.5722077590e+01   4.2514611300e+01    0.2098653    0.1800812  82.03  0.000615382    1.315    0.239
        82  -9.9981    158.7055     81.9350   6.4394142773e+01   3.3219834732e+01    0.2174394    0.1963026 -40.77 0.0006422424    1.091    0.084
        83 -10.0717    243.4078     77.8327   5.0302029311e+01   1.5356848394e+01    0.1766491    0.1089359 -20.19 0.0004236856    1.597    0.374
        84  -8.9765    184.3675     77.2876   5.8276565618e+01   2.7935275088e+01    0.1495206    0.1106618  22.87 0.0007022176    1.703    0.413
        85  -9.9978     54.4737     65.4036   9.1342029378e+01   5.8741612341e+01    0.2727414    0.2183544  63.32 0.0006610084    1.461    0.315
        86 -10.1002    234.5018     61.5001   4.7442988241e+01   1.9190483548e+01    0.1305496    0.1116084 -38.94 -0.0003249733    1.006    0.006
        87 -10.7621     13.3995     59.7664   1.0934173377e+02   6.4509593896e+01    0.2561866    0.2091362 -88.76 0.0004624595    1.227    0.185
        88 -13.2590    191.2770     45.7086   4.8380769523e+01   3.0892562025e+01    0.8447384    0.6447356  48.91 0.0009507312    1.439    0.305
        89 -10.9832    124.5864    243.8462   1.0203961604e+02   1.0497796314e+01    0.2894602    0.1190511 -61.17  0.001445045    3.818    0.738
        90 -10.0830    144.9574     41.7606   5.4444282106e+01   4.3214874512e+01    0.2453464    0.2119383 -39.83 0.0004150591    1.161    0.138
        91 -11.1843     59.6105    231.1475   1.1388401859e+02   2.0715229685e+01    0.2490373    0.1862072  77.84  0.001102542    1.377    0.274
        92 -10.9807      2.0348     28.9437   1.0868702302e+02   7.2445321767e+01    0.2637252    0.1496259 -61.04 0.0007311018    1.448    0.309
        93 -11.0591    141.7043     46.9017   5.6865199526e+01   4.3297921316e+01      0.40176    0.2773526 -76.66 0.0006292509    1.848    0.459
        94 -10.7787     44.4079    229.9709   1.1689429977e+02   2.2633826402e+01    0.2376578    0.1479021  57.93  0.001600686    1.296    0.228
        95  -9.4977    189.6864     15.0018   3.9696146970e+01   3.4928763870e+01    0.1945563    0.1639135 -43.62 0.0005971987    1.122    0.108
        96 -13.7598     25.1415    226.0721   1.2058899762e+02   2.5328228442e+01     1.135878    0.3617182  52.24  0.005871833    2.270    0.559
