#   1 NUMBER                 Running object number                                     
#   2 MAG_AUTO               Kron-like elliptical aperture magnitude                    [mag]
#   3 X_IMAGE                Object position along x                                    [pixel]
#   4 Y_IMAGE                Object position along y                                    [pixel]
#   5 X_WORLD                Barycenter position along world x axis                     [deg]
#   6 Y_WORLD                Barycenter position along world y axis                     [deg]
#   7 A_WORLD                Profile RMS along major axis (world units)                 [deg]
#   8 B_WORLD                Profile RMS along minor axis (world units)                 [deg]
#   9 THETA_WORLD            Position angle (CCW/world-x)                               [deg]
#  10 FWHM_WORLD             FWHM assuming a gaussian core                              [deg]
#  11 ELONGATION             A_IMAGE/B_IMAGE                                           
#  12 ELLIPTICITY            1 - B_IMAGE/A_IMAGE                                       
         1 -14.5240    164.6809     52.6110   7.5390173185e+01   3.7442427327e+01     1.926915     1.417446  14.91  0.006678623    1.976    0.494
         2 -14.1273    178.1408     35.7906   6.8631736620e+01   3.6466678008e+01    0.8852794    0.7955723 -78.12  0.003006154    1.089    0.082
         3 -13.5345    182.2995     29.2831   6.6362391062e+01   3.6269334691e+01     0.565421    0.4973618  68.31  0.001278851    1.114    0.102
         4 -13.2659    189.2844     14.6649   6.1868801040e+01   3.6264904379e+01    0.5239174    0.3235847 -89.81  0.001766404    1.575    0.365
         5 -14.2675    197.6973      4.7502   5.8643357478e+01   3.5325183995e+01     1.102991    0.6005879  65.65  0.004601581    1.576    0.365
         6 -10.7532    156.5787    201.8089   1.1303279730e+02   8.9318067110e+00     0.281494    0.2174968  89.24  0.001383188    1.692    0.409
         7 -18.5193     58.4333    240.8862   1.3898655952e+02   1.7099469851e+01     8.176349     6.710011 -83.20    0.0560957    1.241    0.194
         8 -12.0210    154.1973    195.8871   1.1247858133e+02   1.0635374510e+01    0.4228265    0.2989819  81.89  0.001879207    2.059    0.514
         9  -9.9795     73.0409    183.9794   1.2938927603e+02   2.7688213400e+01     0.193186    0.1599852 -39.19 0.0003888465    1.525    0.344
        10 -10.6705    209.5948    176.5422   9.6814845636e+01   3.7135861666e+00    0.4351169    0.2899318   1.26  0.001496849    2.304    0.566
        11 -13.0007    140.0915    199.9227   1.1637117462e+02   1.2469670486e+01    0.4192765     0.397393 -59.46  0.001884119    1.117    0.105
        12 -11.9409    135.6245    179.9251   1.1374050168e+02   1.7789995608e+01    0.3047838    0.2163552  49.57 0.0007611603    1.381    0.276
        13 -12.0456    195.8251    169.6443   9.8146921662e+01   7.8022157831e+00      0.47637    0.3925674 -43.37  0.001479264    1.196    0.164
        14 -19.1507     38.6705    104.3891   1.2496987058e+02   5.1054063019e+01     16.73664     1.025755 -59.74   0.02835643   14.189    0.930
        15 -11.1811    193.4785    164.5857   9.7545792883e+01   9.3159050343e+00    0.4386976    0.3812019  61.71   0.00194901    1.263    0.208
        16 -10.0699    164.3076    170.6110   1.0519663926e+02   1.4089015070e+01    0.2716585    0.1849538 -60.67  0.000784975    1.667    0.400
        17  -9.8442     17.4377    167.5578   1.4033309359e+02   3.8215810979e+01     0.124586   0.09792924 -81.62 8.789661e-05    1.017    0.017
        18  -9.6823    119.9241    163.4987   1.1433369296e+02   2.4681944265e+01     0.219545     0.148731  44.61 0.0004063256    1.477    0.323
        19 -11.4058    113.9218    161.0939   1.1536125980e+02   2.6393892368e+01    0.3998438     0.288626  86.45  0.001639483    1.745    0.427
        20  -9.8252    222.6153    161.8729   9.1206266023e+01   4.0180665980e+00    0.2148726    0.1253058 -51.19  0.000941975    1.834    0.455
        21 -10.4642     11.9088    160.0784   1.4082070533e+02   4.0440895704e+01    0.2778916    0.2150261  52.67  0.001799176    1.415    0.293
        22  -9.4777     16.4847    159.4842   1.3968109890e+02   4.0190084674e+01     0.125482   0.09883706 -73.59 0.0008091739    1.075    0.070
        23 -11.5553    120.4943    156.4536   1.1274782213e+02   2.6256744302e+01    0.3414677     0.257565 -60.94  0.001626206    1.322    0.244
        24 -12.7030    133.9897    145.8923   1.0703628759e+02   2.6056295594e+01     1.469897    0.3579354 -54.67  0.003228826    6.152    0.837
        25 -10.8321    174.3704    148.7071   9.8114704403e+01   1.6745917126e+01    0.3828442    0.2862566 -69.35  0.001574397    1.611    0.379
        26 -12.3978    192.9351    192.9519   1.0353848268e+02   3.7284321324e+00    0.9632409    0.4973219 -56.53  0.003770269    2.639    0.621
        27 -12.1148    144.3434    145.7755   1.0444432747e+02   2.3910683223e+01     0.508391    0.3248727 -74.20  0.001937806    2.323    0.569
        28 -11.2825    166.2965    188.3254   1.0834534365e+02   9.8663624284e+00    0.4085047    0.3305066 -20.62  0.001457325    1.455    0.313
        29 -12.4028    135.7319    127.3706   1.0221547285e+02   2.9969609055e+01      1.19034    0.2264191 -50.03  0.002561633    6.209    0.839
        30 -12.1889    106.0121    130.7852   1.1090821822e+02   3.5151288903e+01     0.444392    0.3407814 -63.53  0.001243532    1.331    0.248
        31 -11.3961    106.0169    125.6133   1.0968672804e+02   3.6367727085e+01    0.3208967    0.2697079 -28.48  0.000582741    1.309    0.236
        32  -9.7874    165.9922    132.5111   9.6187251374e+01   2.2136135313e+01    0.2240473     0.138924  72.10 0.0008095617    2.487    0.598
        33 -11.8553    117.7572    129.8388   1.0750540156e+02   3.3115090074e+01    0.3735043    0.3162567 -22.41  0.000776202    1.366    0.268
        34 -11.4434    160.5957    127.5633   9.6219387764e+01   2.4432252701e+01     0.471694    0.3462896 -63.03  0.001618137    1.517    0.341
        35 -11.5526    121.2488    124.4622   1.0526714973e+02   3.3659447640e+01    0.3013917    0.2162448 -48.92  0.001072259    1.361    0.265
        36 -11.3602     19.6525    214.0268   1.4406415544e+02   2.7487491821e+01    0.1983321     0.130426  55.58  0.001275507    1.386    0.278
        37 -10.6653    112.4650    118.9183   1.0626522392e+02   3.6681106261e+01     0.281156    0.2279723  39.52 0.0003597917    1.279    0.218
        38 -10.8352     90.2606    114.3042   1.1142372793e+02   4.1807191224e+01    0.2917733     0.210203  79.00  0.001262979    2.034    0.508
        39 -11.0828    168.3934    113.2737   9.0874051325e+01   2.5683475476e+01    0.4264842    0.3133777 -87.44  0.001036013    1.814    0.449
        40 -11.1320    134.6039    105.1134   9.6764900229e+01   3.5102563120e+01    0.4647221    0.1446726 -47.02  0.001390292    3.297    0.697
        41 -10.9020    205.0155    110.2909   8.2779671153e+01   1.7795559345e+01    0.3955602    0.2470358  43.18  0.001123002    1.809    0.447
        42  -9.7213    131.2718    109.3508   9.8753425419e+01   3.4925884189e+01    0.1556772    0.1233014  -9.46 0.0002623017    1.631    0.387
        43 -11.7271     83.8090    107.2487   1.1157806070e+02   4.4481238069e+01     0.400441    0.3052957  71.65  0.001499436    1.766    0.434
        44 -10.5296     67.8909     98.9917   1.1440379700e+02   4.8735957596e+01    0.2815451    0.2047808  21.35  0.001022739    1.552    0.356
        45 -10.4454    149.7313     79.9995   8.6146776766e+01   3.6569376797e+01    0.2085564    0.1951776 -41.61 0.0004778588    1.103    0.093
        46 -12.8669     12.4656    205.9210   1.4481681951e+02   2.9983617748e+01    0.4708949    0.2354587  37.32  0.002692217    2.155    0.536
        47 -10.9505     84.3696     76.8825   1.0296276949e+02   5.0727381987e+01    0.2185849    0.1860461  42.96 0.0003907302    1.277    0.217
        48 -11.1932    208.3405    196.8335   1.0117078058e+02   1.2150949826e-01    0.2337148      0.18989  46.43 0.0006262026    1.316    0.240
        49 -10.5667    163.2099    203.5686   1.1189987921e+02   7.3043596596e+00    0.2428835    0.2012963 -48.50 0.0002765999    1.280    0.219
        50 -10.9588    168.9849    235.3400   1.1608771163e+02   2.0777098634e-01    0.2422655    0.1929296 -45.76 0.0004861557    1.420    0.296
        51 -10.2313     13.6500     59.9288   1.2320329300e+02   6.2401933054e+01     0.163276      0.11804 -45.77 0.0004302062    1.134    0.118
        52 -11.3323    153.7471    186.7474   1.1085364591e+02   1.2692864086e+01    0.2744417    0.1874335 -47.30  0.001279275    1.515    0.340
        53  -9.7316    114.0964     22.1635   7.6525715401e+01   5.2968201335e+01    0.1687604    0.1428528  74.74 0.0004691035    1.330    0.248
        54 -10.5925    198.9505    222.6624   1.0788139769e+02  -2.8048575206e+00     0.213674    0.1915552 -40.49 0.0003429283    1.252    0.201
