#   1 NUMBER                 Running object number                                     
#   2 MAG_AUTO               Kron-like elliptical aperture magnitude                    [mag]
#   3 X_IMAGE                Object position along x                                    [pixel]
#   4 Y_IMAGE                Object position along y                                    [pixel]
#   5 X_WORLD                Barycenter position along world x axis                     [deg]
#   6 Y_WORLD                Barycenter position along world y axis                     [deg]
#   7 A_WORLD                Profile RMS along major axis (world units)                 [deg]
#   8 B_WORLD                Profile RMS along minor axis (world units)                 [deg]
#   9 THETA_WORLD            Position angle (CCW/world-x)                               [deg]
#  10 FWHM_WORLD             FWHM assuming a gaussian core                              [deg]
#  11 ELONGATION             A_IMAGE/B_IMAGE                                           
#  12 ELLIPTICITY            1 - B_IMAGE/A_IMAGE                                       
         1 -13.4994    228.8031     47.3978   2.2222598526e+01   2.1858950831e+01     1.358259    0.9129081 -54.41  0.004863493    1.461    0.316
         2 -13.6987    175.7533     42.0154   2.8752977316e+01   3.6298352675e+01     1.741338     1.607121 -56.72  0.009530338    1.117    0.105
         3 -11.8657    133.3683     37.3928   3.6027841007e+01   4.7772840056e+01     1.143299    0.4010407 -39.87   0.00394663    3.040    0.671
         4 -14.5960    190.1642     69.6175   3.4315969988e+01   2.8265473548e+01     2.441377     1.352763 -41.45    0.0099963    1.794    0.443
         5 -14.2414    216.3925     60.5332   2.7385527021e+01   2.3014489904e+01     2.199612     1.512434  72.81    0.0104441    1.540    0.351
         6 -12.8663    154.2491     62.1937   3.9488161195e+01   3.8741730098e+01     1.777727    0.9333833 -52.56  0.006558409    2.441    0.590
         7 -11.8568     41.1986     29.6008   6.3873279521e+01   6.5791206868e+01     1.300244     0.866873   8.20  0.007892204    1.595    0.373
         8 -12.6077     26.2566     36.1112   7.2816906177e+01   6.6054899903e+01    0.8971403    0.2317082 -43.35  0.003469667    2.949    0.661
         9 -13.9441      7.2477     67.7479   8.8453593255e+01   6.0841956664e+01     2.015438    0.7673571 -40.70  0.007710245    2.470    0.595
        10 -13.8634      3.9475     55.0113   8.7166633187e+01   6.3684711713e+01     3.601764    0.6742229 -62.89   0.01430847    3.341    0.701
        11 -14.0743     78.9471     43.4635   5.4441570325e+01   5.8166327761e+01     1.214256     1.167255 -32.48  0.001869212    1.236    0.191
        12 -14.6962     55.2961     40.3317   6.2136043781e+01   6.2225564170e+01     3.650976     1.845189 -19.73   0.01522088    2.975    0.664
        13 -13.1972     76.5769     21.9223   4.6510561000e+01   6.1899855642e+01     1.633125     1.219679  47.35  0.009539052    1.527    0.345
        14 -14.0869     13.4283     38.1651   7.9091237250e+01   6.6574075548e+01    0.9356594    0.3981555 -38.37  0.002865225    1.958    0.489
        15 -13.4414    195.8231     53.7915   2.8781294334e+01   2.9311513189e+01     1.928652    0.7850887  46.13  0.006682432    2.745    0.636
        16 -13.8267     39.3258     56.5341   7.3817563496e+01   6.0895815788e+01     1.691809     1.130609  45.91  0.009722151    2.014    0.503
        17 -12.4074    131.5304     55.3530   4.2762306326e+01   4.5440940865e+01     2.050151    0.9053624  37.35  0.007091614    2.773    0.639
        18 -12.0448    218.3296     30.2816   1.9100190687e+01   2.6768378705e+01    0.7431006    0.5657845 -32.62  0.003156821    1.367    0.268
        19 -11.7597     62.8312     15.2284   4.8613449260e+01   6.5086694853e+01      2.31245    0.7744008  33.53  0.008557876    3.462    0.711
        20 -11.1404    102.5626     14.8638   3.5282022343e+01   5.7673015933e+01    0.2421602    0.1846718 -12.93  0.001372561    1.321    0.243
        21 -11.2155    125.9378     22.7302   3.2423540828e+01   5.1458671397e+01      0.50446    0.2230833 -25.09  0.002046753    2.423    0.587
        22 -10.3566     32.0291     19.9605   6.4061169228e+01   6.8365278416e+01    0.3411672    0.2042469 -30.34  0.002087729    1.371    0.271
        23 -10.7956    113.3358     18.0800   3.3723516302e+01   5.4930440902e+01    0.4180584    0.3299412 -81.45  0.002209426    1.820    0.451
        24 -10.1021    172.0326     17.7846   2.1855614191e+01   4.0311126411e+01    0.2779871    0.1881858  11.84  0.001296314    1.991    0.498
        25  -9.6052    150.3501     12.6816   2.3783075871e+01   4.6489108384e+01    0.3144724    0.1641463 -59.13  0.001214481    2.898    0.655
        26  -8.5399    147.1611      9.9939   2.3427384003e+01   4.7570025417e+01    0.5550004    0.1923753 -40.92  0.001986356    3.324    0.699
        27 -12.0195    222.0620     11.5238   1.3880174835e+01   2.8058829481e+01    0.3567822    0.2373093 -42.41  0.001910216    1.454    0.312
        28 -10.2751     88.3545     11.6972   3.8082055142e+01   6.0963156555e+01    0.2124585    0.1790602  -9.37  0.001293929    1.163    0.140
        29 -11.4819    115.9414      9.4656   2.9649943252e+01   5.5245648706e+01    0.4253928    0.3446639 -33.13  0.001681821    1.390    0.281
        30  -9.2731    110.3161      7.2958   3.0127267334e+01   5.6742918834e+01    0.1892041    0.1261732  10.88 0.0009479259    1.632    0.387
        31 -10.6429    108.2457      4.1413   2.9334713480e+01   5.7503624847e+01    0.3886975    0.2054677  61.34 0.0007578822    1.870    0.465
        32 -10.4866    227.7301      9.8005   1.2908031259e+01   2.6850236257e+01    0.2368046    0.1962569  10.53 0.0007996214    1.657    0.396
        33  -9.6972    129.5768     10.9867   2.7195640319e+01   5.1857354726e+01    0.1943661    0.1349725 -20.76 0.0008406242    1.558    0.358
        34 -10.1499     26.3082      9.7289   6.2272976232e+01   7.0533016898e+01    0.2224943    0.1304068 -15.44 0.0004501967    1.622    0.384
        35  -9.9208     85.0542      7.5700   3.7258817675e+01   6.2059303989e+01    0.2579584    0.1539346 -10.82 0.0006032902    1.740    0.425
        36 -10.5848     47.6305      8.2049   5.1530297000e+01   6.8246655185e+01    0.2910667    0.1858179 -28.30  0.001046073    1.409    0.290
        37 -10.6166     46.5761      2.1815   4.8954968050e+01   6.9148124257e+01     0.276608    0.1501632 -25.79 0.0008108946    1.647    0.393
        38  -9.8739    241.2734      7.8346   1.1245543585e+01   2.3813261678e+01    0.1470952    0.1405887  85.60 0.0003823258    1.221    0.181
        39 -10.5567    193.3339      7.9534   1.6049709401e+01   3.5763943179e+01    0.3202506    0.1626435  54.11   0.00142648    1.877    0.467
        40 -10.5967    102.0653      6.3288   3.1820906695e+01   5.8665852942e+01    0.3612802    0.1645207  41.93   0.00163406    1.954    0.488
        41  -9.0366    211.2956      6.2522   1.3616934725e+01   3.1325597657e+01    0.1287752   0.09523164  49.39 0.0002910211    1.490    0.329
        42  -9.2238    173.3134      6.7206   1.8251725328e+01   4.1112429482e+01    0.1408707   0.09934306 -71.06 0.0003351243    1.568    0.362
        43  -9.9019      2.9668      6.7538   7.3241990088e+01   7.2809196040e+01    0.1798925    0.1144621   9.79  0.001279449    1.692    0.409
        44  -9.4289     42.6947      5.3797   5.2317081608e+01   6.9273624598e+01    0.1043753   0.09110012 -46.12  0.000702538    1.781    0.439
        45  -9.7112    126.5456      1.5907   2.4273986149e+01   5.3452171936e+01    0.1797822    0.1250624  10.09 0.0005989866    1.601    0.375
        46 -10.3263     56.8527      3.3653   4.5251695415e+01   6.7489098433e+01     0.213146    0.1906842 -30.05  0.001483131    1.495    0.331
        47 -11.4863    208.9639      2.1781   1.2793946716e+01   3.2328992506e+01    0.1950838    0.1768681 -72.17 0.0003366016    1.089    0.082
        48 -10.7654    155.7350      2.0061   1.9309583867e+01   4.6107795676e+01    0.2669308    0.1674293  53.62 0.0006913801    1.402    0.287
        49  -9.0256    100.2499      2.5497   3.0680086936e+01   5.9411354605e+01    0.1268474   0.09428507 -49.79 0.0006877262    1.818    0.450
        50 -10.2169     84.9789      1.5491   3.4523624304e+01   6.2672919797e+01     0.177913    0.1333152  36.53 0.0004970338    1.159    0.137
        51  -9.9723    140.2615      1.2867   2.1596685843e+01   5.0101255344e+01    0.1796682    0.1132836  72.37 0.0002773968    1.546    0.353
        52 -10.8247    105.4079     86.3909   6.0061859946e+01   4.5061711087e+01    0.3263072    0.2504973  -4.85  0.001553854    1.679    0.404
        53 -10.9966    228.9728    249.4118   6.5942850277e+01  -8.7228964885e+00    0.1916213    0.1541524  -1.79 0.0003394845    1.277    0.217
        54 -10.0334    206.3345    250.3212   7.0019366066e+01  -5.3274508255e+00    0.1215578   0.07541642  18.19 0.0007049959    1.704    0.413
        55 -12.3404    162.1109    248.5751   7.7696147706e+01   2.0693586738e+00    0.6889675    0.2339923  40.69  0.003101559    2.314    0.568
        56 -11.4178    107.1593     88.8674   6.0255572280e+01   4.4194229740e+01    0.3158208    0.2719913  19.21  0.001159894    1.273    0.214
        57 -12.0841    106.7956     96.4370   6.2466881575e+01   4.2610833693e+01     0.520083    0.2818245 -27.01  0.001823063    3.024    0.669
        58 -12.5585    105.7013     92.8719   6.1810112412e+01   4.3602731571e+01    0.7203062    0.3120002  38.81  0.002216204    2.481    0.597
        59 -10.7539     34.1322     98.8703   8.5246898177e+01   5.2070912612e+01    0.1903113    0.1520181 -89.21 0.0004770531    1.274    0.215
        60 -11.4722    140.2615     97.7409   5.3644634204e+01   3.5312912490e+01    0.3734721    0.2690788  49.72 0.0008816876    1.397    0.284
        61 -12.2945     12.3861     96.8048   9.1481776810e+01   5.4161180115e+01    0.7476842    0.1897664 -49.48 0.0009667185    3.391    0.705
        62 -10.3730     10.6610     92.6654   9.1408452860e+01   5.5192705004e+01    0.1763872    0.1152637 -10.17  0.001083863    2.121    0.529
        63 -12.6289     62.4769     94.5275   7.5519318859e+01   5.0055974278e+01    0.5388461    0.2875966 -75.39  0.002202176    2.692    0.629
        64 -10.5435    207.5517     94.7555   3.7995940692e+01   1.9544619129e+01    0.2859107    0.1816922  42.99  0.001039888    1.668    0.401
        65 -10.5141     68.7347     94.8623   7.3626361092e+01   4.9162102708e+01    0.2122865    0.1844296  11.75 0.0004833305    1.337    0.252
        66  -9.6289    246.7809     94.6142   3.1474300376e+01   1.0448709917e+01    0.1830097    0.1386583  73.52 0.0003714609    1.579    0.367
        67  -9.6640    228.8512     93.8230   3.4065878111e+01   1.4623049470e+01    0.2065496    0.1705684 -65.32 0.0006339537    1.340    0.253
        68 -12.1079    188.8668     93.0970   4.1157193128e+01   2.4458640155e+01    0.3270825    0.3083253 -88.06 0.0004067745    1.111    0.100
        69 -10.1199    178.0393     94.3851   4.3771950686e+01   2.6912763253e+01    0.2534541    0.1930949  33.52 0.0007158722    1.439    0.305
        70 -12.2129     95.3258     89.2782   6.3918018448e+01   4.6284783546e+01    0.3836586    0.3667337  79.90 0.0004314074    1.142    0.124
        71 -11.8338     48.6790     85.0424   7.7814582721e+01   5.3813325012e+01    0.3610352    0.2002042 -62.00 0.0009959938    1.621    0.383
        72 -13.0465     52.7343     89.9328   7.7593492171e+01   5.2264710406e+01    0.5113974    0.3194608  43.05  0.001703055    1.863    0.463
        73 -12.3591     52.8210     86.3779   7.6752929120e+01   5.3059206494e+01    0.4476135    0.2399643  21.27  0.001691068    2.392    0.582
        74 -10.4154      1.8412     91.1968   9.3861505347e+01   5.5997651091e+01    0.2867865    0.1325711 -61.14  0.001016013    1.584    0.369
        75 -11.1628      2.5090     86.7507   9.3062194321e+01   5.6944033170e+01    0.2087617    0.1923264  86.54  0.000638048    1.255    0.203
        76 -12.4134      5.7944     83.2000   9.1521950581e+01   5.7559462212e+01    0.5516768    0.2208795 -79.08  0.002595488    2.490    0.598
        77  -9.5448    241.2368     91.1393   3.1459270072e+01   1.2232990843e+01    0.1929758    0.1501244 -54.82 0.0001982216    1.326    0.246
        78 -10.6815    224.7151     91.3628   3.4122163751e+01   1.6003923586e+01     0.274606    0.2096338 -67.59 0.0006623864    1.546    0.353
        79 -11.7049    224.2261     87.1790   3.3133432144e+01   1.6819043052e+01    0.2705808    0.2659549 -38.98 0.0002919147    1.032    0.031
        80 -11.5306    213.5804     90.1854   3.5713319874e+01   1.8873465249e+01    0.2819141    0.2803067  -7.33  0.000705744    1.032    0.031
        81 -10.4669    248.9889    250.0000   6.2640270608e+01  -1.1712780083e+01    0.1855113   0.05033976  39.62 0.0008058269    2.966    0.663
        82 -13.6087     40.1415    248.1206   9.8788738777e+01   1.9940324640e+01     1.019575    0.4194823  41.10  0.006068029    2.169    0.539
        83 -12.9813    175.4055     86.8571   4.2222181567e+01   2.8987017656e+01     1.106624    0.7207465   1.89  0.004024476    2.704    0.630
        84 -13.1206    188.6912     46.9537   2.7993013586e+01   3.2188512915e+01     1.052869    0.6846787  45.52  0.004775499    1.608    0.378
        85 -11.6383    112.5936    247.3813   8.6468528545e+01   1.0182547732e+01    0.3426268    0.1802928 -49.22  0.001917707    2.684    0.627
        86 -13.1174    197.3131     39.9353   2.4586520461e+01   3.0913228690e+01     1.052405    0.6438403 -87.37 0.0005102716    2.078    0.519
        87 -12.1910    188.3572     34.3159   2.4330298173e+01   3.4016213904e+01    0.6242652    0.3105321  58.85  0.001807888    1.845    0.458
        88 -12.1650     12.4157    245.9780   1.0297237188e+02   2.3335186553e+01    0.5867983    0.1751499 -81.83  0.003189559    3.037    0.671
        89 -13.5004    171.2552     55.5376   3.3773522108e+01   3.5465448037e+01     1.494888     0.528701  53.16  0.002288071    2.602    0.616
        90 -11.1407     15.8549    238.5281   1.0212247993e+02   2.4261141839e+01    0.2243499     0.140959 -76.97 0.0008263654    1.602    0.376
        91 -11.5540    147.7449     38.6208   3.3174666347e+01   4.4037627227e+01     1.282564    0.2964158 -37.22  0.003728747    4.092    0.756
        92 -11.2754    214.7359    246.9306   6.8048157046e+01  -6.2524596352e+00    0.2057845    0.1738819   2.02 0.0009268071    1.251    0.201
        93 -12.7422    142.8402     61.8658   4.2081118412e+01   4.1623922920e+01     1.114264     0.710209  61.75  0.002424436    1.723    0.420
        94 -12.4174    155.5410     41.8686   3.2608414434e+01   4.1590823009e+01    0.5888431    0.3654821  27.24  0.001434289    2.095    0.523
        95 -12.7498    160.0146     37.6752   3.0328094456e+01   4.1019507334e+01    0.8644916    0.5635309  73.23  0.002472804    1.680    0.405
        96 -13.8368     32.9959     85.3402   8.3070122737e+01   5.5243866506e+01     1.069158    0.2750229  30.93  0.004229966    4.066    0.754
        97 -10.9643     40.2242     90.0266   8.1660382131e+01   5.3536629047e+01    0.1924437    0.1461561 -47.50 0.0003305641    1.189    0.159
        98 -11.6163     38.4479     86.2962   8.1471363321e+01   5.4546651353e+01    0.3409814    0.2118003 -52.77   0.00105038    1.329    0.248
        99 -13.3787    204.6886     69.5948   3.1721010738e+01   2.4545446906e+01    0.9408818    0.6150335  79.80  0.001954926    1.890    0.471
       100 -12.6443    177.0167     69.9290   3.6964121890e+01   3.1605874260e+01     1.622422    0.8483057  82.23  0.004408364    4.802    0.792
       101  -9.7640    172.7211     70.9911   3.8163938233e+01   3.2527472385e+01    0.2152944      0.21102 -29.34 0.0004911663    1.044    0.042
       102 -11.3848    164.1844     73.1412   4.0646760675e+01   3.4325390204e+01    0.5847702    0.3512226 -59.66   0.00149363    2.268    0.559
       103 -12.2065    162.7125     83.9863   4.4206871701e+01   3.2699291445e+01    0.8193101    0.5769039 -61.02  0.003520873    1.729    0.421
       104 -12.1747    169.4473     79.4815   4.1378648256e+01   3.1849087029e+01     1.002574     0.519369 -44.52  0.003836912    1.994    0.499
       105 -11.1703    161.5733     66.6727   3.9247737038e+01   3.6123229604e+01    0.4385463    0.3160956 -26.16  0.001548212    1.498    0.333
       106 -10.4615    165.1911     64.3943   3.7757465730e+01   3.5588884952e+01    0.3327773     0.251472 -77.26 0.0008428704    1.691    0.408
       107 -11.9328    148.9801     85.7014   4.7975229909e+01   3.5721794541e+01    0.6839212     0.500479  83.05  0.002909626    1.907    0.476
       108 -11.3274    148.3744     81.0717   4.6742915181e+01   3.6766984890e+01    0.4515996     0.347867 -69.33  0.000522698    1.625    0.385
       109 -12.3837    138.0917     88.0297   5.1419976256e+01   3.7810759109e+01    0.6078714    0.2980334  46.54 0.0001564593    2.036    0.509
       110 -12.0311    139.5092     80.5089   4.8803482708e+01   3.8980436987e+01    0.5991791    0.3935837 -39.91 0.0009326081    1.525    0.344
       111 -11.7749    227.5682    242.5399   6.5136470845e+01  -7.7447461170e+00    0.2407935    0.2082374  56.04  0.001691523    1.708    0.415
       112 -14.6186     43.4745     75.8556   7.7420665983e+01   5.6389966263e+01     1.266809     1.002225  38.57  0.007929051    1.505    0.335
       113 -11.9012    179.7689    242.7970   7.3729256781e+01  -5.4771134885e-02    0.2455542    0.1793907  51.16 0.0009291481    1.321    0.243
       114 -13.3075     66.5366     82.7002   7.1306895191e+01   5.2194997722e+01     0.893539    0.6330892  80.19  0.002783412    2.193    0.544
       115 -13.1836     54.7027     71.3992   7.2328650801e+01   5.6141891767e+01    0.9387446    0.4426101 -61.18   0.00258036    2.266    0.559
       116 -13.1101     79.6681     60.4699   6.0236843935e+01   5.4922552151e+01    0.8135371    0.6992818  74.50  0.004590282    1.606    0.377
       117 -12.0390    219.5624    240.3249   6.6199468300e+01  -6.2365575580e+00    0.3782364    0.2704433  25.43    0.0025055    1.108    0.097
       118 -12.1992      3.2479    247.2537   1.0438216438e+02   2.4030631007e+01    0.5096706    0.2074485  85.08   0.00332173    2.006    0.502
       119 -12.7985     58.6331     62.1569   6.8242129039e+01   5.7602721500e+01     1.136251    0.5040534 -61.41  0.004355207    3.185    0.686
       120 -10.2869    110.4520    240.4783   8.6161832534e+01   1.1633923476e+01    0.1208327   0.09195293  57.55 3.676555e-06    1.014    0.014
       121 -12.0659     52.8486     55.6549   6.8367270720e+01   5.9622970846e+01    0.4731647    0.3091228  -4.35  0.001537639    1.941    0.485
       122 -10.9088    159.9060    219.7183   7.4215686790e+01   6.8049234618e+00    0.1938829    0.1824505  82.69 0.0003389874    1.232    0.188
       123  -9.5454    222.9893    123.0060   4.2286070890e+01   1.0958494069e+01    0.1785078    0.1691739 -11.47 0.0004898101    1.001    0.001
       124  -9.7216    227.8241    119.1516   4.0491296524e+01   1.0554908786e+01    0.3674673   0.09660661  49.20  0.001022928    3.789    0.736
       125 -12.5807     19.8501     27.8551   7.2851467764e+01   6.8071564821e+01    0.3650197    0.3262555  22.71 0.0004882777    1.464    0.317
       126 -11.1173     24.1318     86.3200   8.6152021779e+01   5.5724388111e+01    0.3239207    0.1534727 -72.00  0.001608443    1.948    0.487
       127 -11.1305    237.6412     86.2904   3.0806831452e+01   1.3828374432e+01    0.2675337    0.2404288 -68.37 0.0004501469    1.157    0.135
       128 -10.4108    233.0695     86.2777   3.1500754972e+01   1.4885469376e+01    0.2824285    0.1969133 -41.63  0.000487174    1.347    0.258
       129 -12.9115    138.5529     71.2158   4.6162884748e+01   4.0976530822e+01     1.466021    0.8056459  43.46  0.005924985    1.834    0.455
       130 -11.6475    212.5863     83.7468   3.4189760755e+01   2.0215430688e+01    0.3110898     0.241314  16.80  0.000925328    1.637    0.389
       131 -11.7773    114.4955     80.7843   5.5729721474e+01   4.4436204532e+01      0.48237    0.3828929  33.65   0.00206812    1.313    0.238
       132 -10.4446     90.2740     54.2485   5.4522368140e+01   5.4285673002e+01    0.4435534    0.1714597 -37.46  0.001570896    2.545    0.607
       133 -11.0086     82.6762     78.7891   6.4925589380e+01   5.0682326457e+01    0.3778348    0.2450965  18.70  0.001762584    1.993    0.498
       134 -12.4164     87.9200     72.9856   6.1490072005e+01   5.1041281239e+01    0.6405533    0.4478784 -22.85  0.000418349    1.634    0.388
       135 -11.4647     93.4162     59.6932   5.5387690464e+01   5.2704048853e+01    0.7212552    0.4787869 -67.53  0.001458726    2.534    0.605
       136 -12.1551    104.2379     75.0691   5.7011734695e+01   4.7649892985e+01    0.5506341    0.4088445 -13.07 0.0004900131    1.643    0.391
       137 -12.1559    100.0553     74.4855   5.8111350420e+01   4.8565296351e+01     1.276738    0.3659581 -36.81  0.002896732    4.939    0.798
       138 -10.7756     95.6422     74.7701   5.9574975089e+01   4.9319719050e+01    0.3073732    0.2488461 -28.89 0.0007935033    1.220    0.180
       139 -11.3769     96.8690     69.8805   5.7652704536e+01   5.0088502084e+01    0.4389098    0.2925534  14.34  0.001026409    2.048    0.512
       140 -12.0222     94.2396     66.0080   5.7234732273e+01   5.1337864335e+01    0.4987496    0.2977728  53.23  0.002189886    2.081    0.519
       141 -11.5033     23.3398     78.3561   8.4910369733e+01   5.7553955828e+01    0.1979993    0.1448435 -16.77 0.0008423613    1.639    0.390
       142 -11.9609     20.3783     74.9349   8.5248034826e+01   5.8511931589e+01    0.4007055    0.1684192 -60.68  0.001809845    1.796    0.443
       143 -12.1329     11.9701     79.5593   8.8937991636e+01   5.8022603223e+01    0.2552034     0.197634 -26.43  0.001044851    1.469    0.319
       144 -12.4649    221.1151     76.3371   3.0828762262e+01   1.9351518155e+01    0.5493641    0.3346314 -77.52   0.00211401    2.626    0.619
       145  -9.4327    249.0345    117.9869   3.6665428794e+01   6.2185315507e+00    0.1657843    0.1580694   1.87 0.0009817918    1.076    0.070
       146 -12.3629     72.2834     74.4524   6.7111150679e+01   5.3188967290e+01    0.6184449    0.4878125  74.53  0.001943796    1.794    0.442
       147 -10.8348    232.4930     79.2185   2.9812139775e+01   1.6158494406e+01    0.2697006    0.2066891  61.57 0.0008654753    1.373    0.272
       148 -10.3665    155.1455     76.8393   4.3832421728e+01   3.5914125420e+01    0.3612471    0.2125812  47.51  0.001132355    1.672    0.402
       149 -11.2901     79.4505     73.1103   6.4311151760e+01   5.2395280048e+01    0.3350078    0.3096104 -10.94 0.0005757627    1.085    0.079
       150 -10.8717    242.2341     61.8296   2.4113653886e+01   1.6553495470e+01    0.2755453    0.1679693  47.02 0.0007044942    1.883    0.469
       151 -11.1763    237.2377     72.7264   2.7490006665e+01   1.6067142978e+01    0.4660861    0.2579248 -42.15 0.0002185121    1.670    0.401
       152 -11.7207    240.1579     66.6870   2.5585430109e+01   1.6310220535e+01    0.6470271    0.4120205 -54.66  0.002842105    1.610    0.379
       153 -10.4270    250.0997     67.8146   2.4560415354e+01   1.3863232528e+01     0.306774    0.1905963 -27.16  0.001139679    1.654    0.395
       154 -11.8354    108.8443     66.7737   5.2962737012e+01   4.8375347194e+01    0.4594803    0.3171474 -71.24  0.001945505    2.357    0.576
       155 -11.0935    109.5417     62.0115   5.1165375582e+01   4.9130033079e+01    0.3291395    0.2258409 -48.40 0.0008688392    1.563    0.360
       156 -11.6242    105.9294     60.9999   5.1908826079e+01   5.0052826956e+01    0.3672144    0.2595455  19.83  0.001130791    1.673    0.402
       157  -9.2473    244.3548     65.2670   2.4681744351e+01   1.5550930842e+01    0.1371782    0.1076646  28.35 0.0006989511    1.630    0.386
       158 -10.0998    246.3665     56.1840   2.2219948543e+01   1.6420831508e+01    0.4188507    0.2403059 -64.47   0.00185581    2.092    0.522
       159  -9.7142    163.9937    118.4679   5.3367574678e+01   2.5500841352e+01    0.2346926      0.15415  48.25 0.0004017336    1.502    0.334
       160 -11.5349    101.2388     53.3415   5.0684992766e+01   5.2373444281e+01     0.698916    0.3022246  41.70  0.002714281    2.349    0.574
       161 -12.2644    127.2119     43.8209   3.9858719458e+01   4.8300036031e+01     1.079183    0.7988715 -88.94  0.004955967    2.021    0.505
       162 -10.7212    160.0933     50.3692   3.4425122583e+01   3.9161188773e+01    0.3276848     0.257027  -8.85 0.0005937516    1.485    0.327
       163  -9.8908    241.0209     47.8773   2.0838060795e+01   1.8848650235e+01     0.193045    0.1749715  52.28 0.0008699153    1.249    0.199
       164  -9.4704    114.7312     47.7626   4.4660214189e+01   5.0508487188e+01    0.1387613    0.1060117  17.61 0.0002524173    1.426    0.299
       165 -10.6531    100.2541     46.4587   4.8493063929e+01   5.3748419238e+01    0.3988362    0.2764874  51.05  0.001772623    1.575    0.365
       166 -10.4534    104.0644     43.3767   4.6175966687e+01   5.3479163873e+01    0.4837446    0.3492242  76.20  0.002239267    2.239    0.553
       167 -10.1335    204.9472    116.9164   4.4192481161e+01   1.6159896039e+01    0.2276338    0.2266739  12.93 0.0004706287    1.041    0.039
       168 -10.8143    213.7402     42.0234   2.2805254555e+01   2.6379538037e+01    0.4362714    0.2350205 -51.97  0.001085833    1.953    0.488
       169 -10.7872    112.2232     40.1390   4.2570284672e+01   5.2252282113e+01    0.3515891    0.2508115   3.33 0.0003734887    1.655    0.396
       170 -10.6360     40.3019     39.6932   6.8027371513e+01   6.4086773116e+01    0.3040453     0.186597  17.79  0.001743409    1.824    0.452
       171 -11.6775    132.5370    111.4264   5.9336522255e+01   3.4078403606e+01    0.3716903    0.3083539 -58.00 0.0005340312    1.238    0.192
       172 -10.6570    225.9536     22.8105   1.6313662254e+01   2.5786806342e+01    0.3493522    0.1871144  65.92   0.00163893    1.768    0.434
       173 -10.7573    111.8100     33.9191   4.0330865730e+01   5.3252612025e+01    0.4289287    0.3196903   2.82  0.002208559    1.472    0.320
       174 -11.7577    114.3267     28.4061   3.7518117849e+01   5.3443411840e+01    0.2997646    0.2289998  21.96 0.0004298682    1.316    0.240
       175  -9.7785    111.0000     26.4897   3.7670167026e+01   5.4434578255e+01    0.3952525    0.1782432 -29.89  0.001656949    2.256    0.557
       176 -11.2832     86.1765     28.4506   4.5983400266e+01   5.9250957505e+01     0.422844    0.2520996  48.23  0.000736303    1.777    0.437
       177 -11.6456     91.9881     33.9732   4.6319299791e+01   5.7341198142e+01    0.3514312    0.3085382  40.62  0.001254197    1.224    0.183
       178 -10.3904     93.2495     30.3582   4.4461066168e+01   5.7624416928e+01    0.1927769    0.1566336  33.19 0.0002185777    1.173    0.148
       179 -10.0644    206.4009     31.9013   2.1048389015e+01   2.9611529210e+01    0.2277677    0.1861817 -85.57 0.0005141585    1.191    0.160
       180 -10.6069    197.5110     31.3751   2.2123573511e+01   3.1991149507e+01     0.357032       0.1142  60.57  0.001232832    2.729    0.634
       181  -9.4808    154.9382     31.0000   2.9119130057e+01   4.3213985881e+01    0.2445984   0.07940819  61.03 0.0007924422    2.874    0.652
       182 -10.7371    140.6504     29.4266   3.1529469955e+01   4.7044508270e+01    0.2544454    0.2294127  89.40 0.0002521986    1.241    0.194
       183  -9.2977     90.3111    113.2545   7.1415326732e+01   4.1683453167e+01    0.1358614    0.1118509 -17.32 0.0001678199    1.521    0.343
       184 -10.8006    105.5067     28.1369   3.9859917147e+01   5.5414727101e+01    0.4490093    0.3387845 -78.85  0.002188176    2.220    0.550
       185 -10.0680     98.0026     21.8643   3.9508169500e+01   5.7806351094e+01    0.3825577    0.2999679  57.94  0.002152023    1.457    0.314
       186  -9.7967    103.2859     18.3669   3.6533441059e+01   5.7117161288e+01    0.2706567    0.1604174   9.57  0.001221515    2.161    0.537
       187  -9.5287    203.2178    111.8088   4.3240711779e+01   1.7506357313e+01    0.2010714     0.174232  12.49 0.0002466394    1.267    0.211
       188 -10.4056    185.0641     27.1592   2.2718124856e+01   3.5789069836e+01    0.4203854    0.2130762 -50.20  0.001713537    2.217    0.549
       189 -11.4657    147.4989     25.8763   2.8856444210e+01   4.5756292568e+01    0.5457186    0.3738497  15.60  0.002560827    1.816    0.449
       190 -10.7409    198.1970     26.6852   2.0702480720e+01   3.2397707530e+01     0.346397     0.233912  49.38 0.0009356938    1.531    0.347
       191 -10.8263    155.1999     21.2818   2.5816874055e+01   4.4317204224e+01    0.3537034    0.2596603 -74.82  0.001464435    1.663    0.399
       192 -12.1417    163.0775     21.8028   2.4592821251e+01   4.2209475657e+01    0.4090267    0.2886044  20.22  0.001503871    1.750    0.429
       193 -10.9933    134.1998     23.6032   3.0857545422e+01   4.9355520354e+01    0.4054046    0.3217278  33.23  0.001270578    1.223    0.183
       194 -10.7122     36.2067     24.2949   6.3948497821e+01   6.7223932469e+01    0.3032757    0.1974209   5.24  0.001502007    1.621    0.383
       195 -10.6648    191.4184     23.6834   2.0779009303e+01   3.4534978375e+01    0.3022201    0.2254315  68.95  0.001566621    1.238    0.192
       196 -10.4756    119.4229     22.3440   3.3856416591e+01   5.3037526448e+01    0.2960924    0.1753088  57.32  0.001127535    1.641    0.391
       197  -9.7819    129.7542     19.0372   3.0164524056e+01   5.0966092100e+01    0.1934401    0.1740809  42.48 0.0004683285    1.015    0.015
       198 -10.6129    138.5111    112.4917   5.8064922097e+01   3.2550814806e+01    0.2867103    0.1469017  35.22  0.001034425    2.328    0.570
       199  -9.9759    122.3982     18.8187   3.1776001553e+01   5.2750304024e+01    0.2707451    0.1735203  40.98  0.001340325    1.442    0.307
       200 -10.9391    210.3735     21.2407   1.7663456065e+01   2.9900856115e+01    0.2173028    0.1961843 -69.11 0.0001729058    1.059    0.056
       201 -11.3760     96.9614    110.1031   6.8782649790e+01   4.1297672246e+01    0.2842405    0.2232155 -45.79   0.00146572    1.242    0.195
       202  -9.4928     28.1063     19.1671   6.5578305890e+01   6.8875708802e+01    0.2348903      0.13945 -36.56  0.001423655    1.348    0.258
       203 -10.0459    216.8946    109.1409   3.9985236528e+01   1.4774665489e+01    0.2311015    0.2011747 -62.35 0.0005123007    1.268    0.212
       204  -9.6413     14.1421     18.8936   7.2274972768e+01   7.0062161517e+01    0.1521995    0.1147621 -67.57 0.0005485201    1.911    0.477
       205  -9.7090    226.3427     18.5831   1.5213363956e+01   2.6193910684e+01    0.2517084    0.1255134  78.12  0.001111096    2.010    0.502
       206 -10.4955    202.9878     17.2795   1.7476485861e+01   3.2259230098e+01    0.2806976    0.1968833  53.50  0.000945235    1.443    0.307
       207  -9.6282     26.7716    109.0104   8.9052461934e+01   5.0359546131e+01    0.1630475    0.0838945 -68.91 0.0002838951    1.566    0.362
       208  -9.4627    153.5294     16.4350   2.4490203463e+01   4.5282085839e+01    0.1982361     0.129476 -40.87 0.0007340594    1.675    0.403
       209 -10.3430    195.7651    106.7680   4.3418786859e+01   2.0224493533e+01    0.3978636    0.2053084 -38.15  0.001543171    1.918    0.479
       210 -10.8857     91.9945    106.9883   6.9475059045e+01   4.2858803396e+01    0.2189981     0.200759 -67.25 0.0003649833    1.051    0.049
       211 -11.1759    184.2380    105.7539   4.5532425806e+01   2.3212706528e+01    0.2933791    0.2676574  69.39 0.0003561084    1.151    0.131
       212  -9.3753    189.6737     15.0467   1.8523559617e+01   3.5973989684e+01    0.1901125    0.1588039  70.62 0.0007661307    1.090    0.083
       213  -9.5508     32.8831     14.7913   6.1397552989e+01   6.9095317517e+01    0.1354711   0.08507326  19.04 0.0004938781    1.630    0.386
       214  -9.4238    155.0819     13.0405   2.3080025676e+01   4.5235436019e+01    0.1584145    0.1455651  55.12 0.0002823652    1.030    0.029
       215  -8.5625     84.3525     13.3411   4.0080101760e+01   6.1556245301e+01    0.2182716    0.1347589  27.64  0.001142378    1.571    0.363
       216  -9.7287    211.5846    104.9698   3.9902282019e+01   1.6760984574e+01    0.3467229    0.1748465  37.17  0.001265818    2.475    0.596
       217  -9.8954    241.0759    102.7454   3.4307281181e+01   1.0384354809e+01    0.2025836    0.1884755 -19.33  0.001154697    1.048    0.046
       218 -10.8068    165.7867    102.4925   4.8736162959e+01   2.8333008021e+01    0.3075219    0.2310089 -39.59  0.001165901    1.343    0.255
       219 -14.1769    125.7070     98.0651   5.7590804688e+01   3.8447095939e+01     1.777067    0.6708298  41.54  0.005541055    2.790    0.642
       220 -11.2492    113.2430     73.5335   5.3845021787e+01   4.6157152997e+01    0.4440486    0.3004868 -10.95  0.001430666    2.092    0.522
       221 -10.4753    139.4516     17.3478   2.7484359042e+01   4.8762487376e+01    0.2368791     0.187815 -18.14 0.0005660526    1.368    0.269
       222 -12.3685    127.4660     90.7413   5.5039973297e+01   3.9625793492e+01    0.4330341    0.3680918  -0.97 0.0003997554    1.370    0.270
       223  -9.6163    167.8478     10.3748   2.0171754374e+01   4.2183950842e+01    0.2143972    0.1091121  56.55   0.00094241    1.715    0.417
       224 -11.4160    131.2240     81.0439   5.1143873785e+01   4.0776714641e+01    0.3975788    0.2787156  62.43 0.0005707459    1.674    0.403
       225 -13.8224    123.8069     83.9614   5.4050003918e+01   4.1823073343e+01     1.652756    0.8083267 -27.43  0.004583432    3.124    0.680
       226 -11.4733    115.9904     89.0131   5.7738311787e+01   4.2410437020e+01    0.3142008    0.2172179 -40.82  0.001450825    1.421    0.296
       227 -10.5964    114.9411     55.9974   4.7519158348e+01   4.9074303024e+01    0.2843573    0.2156528  52.43  0.000849647    1.391    0.281
       228 -12.3546    121.2699     67.8350   4.9709686907e+01   4.5549956979e+01    0.7457122    0.4201838  55.34  0.003064812    2.001    0.500
       229 -12.6900    116.7208     62.7520   4.9316550839e+01   4.7481651411e+01     0.795518    0.5340858 -25.79  0.002971495    1.606    0.377
       230 -10.2298    208.6688    100.3994   3.9264980990e+01   1.8272296881e+01    0.3396963    0.2230218   3.39 0.0008455429    2.512    0.602
       231 -10.3542    185.5160    101.1079   4.4021741975e+01   2.3788458098e+01    0.2358941    0.1558589 -36.52 0.0006749945    1.523    0.343
       232 -12.1023     53.1234     99.8168   7.9587255027e+01   4.9953512386e+01    0.3426819    0.2404086 -19.77  0.001150854    1.912    0.477
       233 -10.0502    226.1579     98.9858   3.5809887060e+01   1.4379664475e+01    0.2792088    0.1764597 -25.32  0.001231186    1.687    0.407
       234 -11.4037    192.5974     99.1898   4.2053186005e+01   2.2407998637e+01    0.4887329    0.2448592  50.26  0.001447149    1.981    0.495
       235 -11.8047     86.8544     98.0695   6.8817701481e+01   4.5744756783e+01    0.4246226    0.3326336  17.06  0.001563755    1.542    0.351
       236  -9.9004    217.4986     98.9854   3.7302388985e+01   1.6410908587e+01    0.2313433    0.1453763 -35.26 0.0006567294    1.540    0.350
       237 -11.5917    200.4258     96.8134   3.9879626973e+01   2.0919920665e+01    0.4014846    0.2849204 -45.89  0.001052953    1.423    0.297
       238 -11.1167    169.4356     97.5569   4.6546683988e+01   2.8423550710e+01    0.5049585    0.3862106  72.05   0.00227554    1.534    0.348
       239 -11.7500    151.6965     97.1044   5.0593145338e+01   3.2791870208e+01    0.6004565    0.4300418  23.58  0.002570348    1.769    0.435
       240 -10.3572    102.7598     83.4002   5.9982527129e+01   4.6200993684e+01    0.3104224     0.223279  48.02 0.0009693199    1.493    0.330
