#   1 NUMBER                 Running object number                                     
#   2 MAG_AUTO               Kron-like elliptical aperture magnitude                    [mag]
#   3 X_IMAGE                Object position along x                                    [pixel]
#   4 Y_IMAGE                Object position along y                                    [pixel]
#   5 X_WORLD                Barycenter position along world x axis                     [deg]
#   6 Y_WORLD                Barycenter position along world y axis                     [deg]
#   7 A_WORLD                Profile RMS along major axis (world units)                 [deg]
#   8 B_WORLD                Profile RMS along minor axis (world units)                 [deg]
#   9 THETA_WORLD            Position angle (CCW/world-x)                               [deg]
#  10 FWHM_WORLD             FWHM assuming a gaussian core                              [deg]
#  11 ELONGATION             A_IMAGE/B_IMAGE                                           
#  12 ELLIPTICITY            1 - B_IMAGE/A_IMAGE                                       
         1 -12.0664    213.1238     22.6372   5.5091479486e+01   2.8769025280e+01     1.952415    0.5292214 -21.94   0.00567317    4.902    0.796
         2 -14.6247    242.4445     25.3471   5.2711182156e+01   2.1374059730e+01     5.830178      1.54422 -31.32   0.02109497    3.177    0.685
         3 -13.5899    244.0417    127.7011   7.7246163744e+01   6.8134994782e+00     4.230627     1.811879 -19.39   0.01482077    3.422    0.708
         4 -13.3502    246.9497    162.3530   8.4234056848e+01   1.3573047584e+00     3.827578    0.8354549 -32.15   0.01212414    4.611    0.783
         5 -11.2549    194.8149     23.7278   5.7659978060e+01   3.3310039412e+01    0.8818774     0.292086 -28.85  0.003161785    2.922    0.658
         6 -11.4820    161.2548      9.6032   5.8062597470e+01   4.3553502865e+01     0.474098    0.3611246 -33.98  0.002260733    1.398    0.285
         7  -9.6046    111.4909      5.4985   6.5995970432e+01   5.6301607269e+01    0.1363784    0.1210025  32.32 0.0008105977    1.012    0.011
         8 -12.2739    226.2127     35.0733   5.6877963910e+01   2.4057867893e+01     1.803429    0.4042331 -30.57  0.005682626    3.818    0.738
         9  -9.7755    248.5247    214.4954   9.3730593541e+01  -5.3193384680e+00    0.2304746    0.1672033  21.36 0.0006856546    1.083    0.077
        10  -8.4232    115.5258    250.4237   1.2191795569e+02   1.0843099374e+01    0.1125635   0.08245628  51.34  0.000184809    1.015    0.015
        11 -10.6213    154.1902    225.2318   1.1216135358e+02   8.5877265939e+00    0.4351436    0.4144945  34.30   0.00321415    1.195    0.163
        12 -11.0265    150.5494    219.7879   1.1212142730e+02   1.0008796472e+01    0.4750211    0.2738766 -49.61  0.002677471    2.134    0.531
        13  -8.8816    236.5028    223.4820   9.7218878760e+01  -4.4905142634e+00     0.170873    0.1058958 -40.68 2.114439e-05    2.219    0.549
        14  -9.9098    180.9728    222.6234   1.0685602893e+02   4.5355511712e+00    0.3577602    0.2434676  52.70  0.001304785    1.529    0.346
        15 -10.8225    218.5501    205.3987   9.7305141719e+01   5.3653119002e-01     1.597727     1.135328 -58.25  0.008774966    2.530    0.605
        16 -11.8363    214.1125    238.8305   1.0337006284e+02  -2.7811293236e+00    0.7512324    0.6702307  57.82  0.005223245    1.630    0.387
        17 -13.1676    222.3146    170.9695   9.0254419043e+01   4.6043448831e+00     2.918163    0.9872516 -38.82   0.01128317    3.137    0.681
        18 -10.8390    209.3394    223.5327   1.0189619676e+02  -2.3666371881e-01      0.70344    0.4428432 -50.82  0.003734409    2.509    0.601
        19 -11.5466    233.1312    194.5173   9.2819811392e+01  -5.0762683174e-01     2.289999    0.8062207 -26.20   0.00890947    3.706    0.730
        20 -10.6497    176.4417    240.6747   1.1016085310e+02   2.8737230809e+00       0.3745    0.2871442  55.27 0.0007961949    1.421    0.296
        21  -9.7010    249.3641    234.5652   9.6870369927e+01  -7.5400059103e+00    0.2741089    0.2279861  36.03  0.002062264    1.512    0.339
        22  -9.1860    120.1495    218.6509   1.1774917609e+02   1.5096585201e+01    0.1882529    0.1530083  78.76 0.0005206314    1.291    0.226
        23  -8.9435    204.0527    181.7367   9.5718520933e+01   6.3895959354e+00    0.4020833    0.3104052  11.72  0.001737344    1.304    0.233
        24 -10.6761    197.4218    211.9888   1.0221379282e+02   3.2279446369e+00    0.7857569     0.391172 -42.51  0.004023019    2.454    0.593
        25 -11.2229    201.8183    196.7602   9.8855100029e+01   4.5909662185e+00    0.8531997    0.4892895 -25.22  0.004349913    2.104    0.525
        26 -10.0843    205.9366    189.9603   9.6880707062e+01   4.8348060531e+00    0.4731188     0.390831 -50.51  0.001783058    1.596    0.373
        27  -9.8961    184.9242    210.2297   1.0424703094e+02   5.6096221573e+00    0.3015195    0.2731245  79.40  0.001265518    1.475    0.322
        28  -9.5530    174.2366    207.9846   1.0591506255e+02   7.7877175701e+00    0.3002762    0.1643553 -50.22  0.001536148    2.339    0.573
        29 -10.6796    148.9601    204.5921   1.1030830767e+02   1.2701690683e+01    0.4946133    0.3509126  68.35  0.002737646    1.721    0.419
        30  -9.3243    126.5784    199.1273   1.1400921751e+02   1.7433261335e+01    0.2946642    0.1692498  66.52  0.001394723    2.310    0.567
        31 -11.2155    191.4945    193.9728   1.0031580980e+02   6.8422118168e+00    0.4334606    0.3194265 -27.93  0.002530982    1.524    0.344
        32 -10.6763    192.6241    188.2112   9.9083848663e+01   7.5107588771e+00    0.3195616    0.2325103 -17.92  0.001460513    1.585    0.369
        33 -10.3435    192.0000    184.0076   9.8444081127e+01   8.2750466962e+00    0.2921505    0.1989852 -37.66  0.001112909    1.632    0.387
        34 -11.6674    167.7888    189.0462   1.0411090281e+02   1.1939205081e+01    0.4393228    0.3664409  81.71  0.002572337    1.559    0.359
        35 -10.3844    158.9105    189.6582   1.0600396941e+02   1.3454819398e+01    0.2752575    0.2211188  71.56  0.001043808    1.493    0.330
        36  -9.8024    129.5654    189.2791   1.1199086484e+02   1.8717721837e+01    0.2898521    0.2256575  70.56   0.00106194    1.365    0.267
        37  -9.8681    126.1300    183.8421   1.1190003042e+02   2.0323480425e+01    0.4949651    0.2889132 -89.64  0.001981468    3.412    0.707
        38 -11.7718    213.2704    153.5768   8.8335856055e+01   8.9708884182e+00     1.407238    0.3924576 -44.16  0.004230818    4.675    0.786
        39 -10.3123    200.7388    174.8616   9.5040652392e+01   8.0608659171e+00    0.3735332    0.1812234 -35.77  0.001677884    2.234    0.552
        40 -12.9480    197.2801    166.2444   9.4015402037e+01   1.0095353876e+01     1.311499    0.5404176 -33.46  0.005159858    2.777    0.640
        41 -13.5429    174.1719    171.8806   9.9744781991e+01   1.3652262072e+01     1.048341    0.8165525  60.54  0.005704343    1.452    0.311
        42 -12.3784    181.9109    145.2025   9.2708910538e+01   1.6810805990e+01    0.8997577    0.4436422 -52.96  0.003412754    2.773    0.639
        43  -9.4334    207.4958    171.2986   9.3058943090e+01   7.3306560456e+00    0.4447044     0.270138 -36.97  0.002246228    1.759    0.432
        44 -10.9878    150.4091    168.8351   1.0418341444e+02   1.8766802699e+01    0.3167427    0.2703311 -61.58  0.001816241    1.316    0.240
        45 -11.3701    141.4124    163.6533   1.0520666616e+02   2.1460068498e+01    0.5412858    0.2576478 -60.51  0.002095398    2.929    0.659
        46 -11.9770    206.3977    154.7495   8.9883151966e+01   1.0152775951e+01     1.077761    0.6212487 -33.33  0.005076605    1.797    0.443
        47 -13.1827    181.5763    159.3342   9.5761915414e+01   1.4373966637e+01    0.9234539    0.5874422 -40.08  0.004505284    1.684    0.406
        48 -12.4063    152.1499    162.1284   1.0255887119e+02   1.9700132229e+01    0.6084359    0.4001932  56.00  0.002954862    1.601    0.375
        49  -9.1528    189.9801    162.2538   9.4653200682e+01   1.2192939529e+01    0.2385181     0.199774 -30.31  0.000735605    1.262    0.208
        50 -12.9212    161.8835    153.1733   9.8666963278e+01   1.9471124445e+01    0.6585704    0.5627766  88.64  0.003554565    1.438    0.305
        51 -11.8427    132.8249    151.5545   1.0488474159e+02   2.5499813753e+01    0.6753865    0.2682954  54.47  0.002251662    3.355    0.702
        52 -11.1338    136.9642    143.0770   1.0223121612e+02   2.6441444288e+01    0.3830144    0.2010031 -53.38  0.001347853    2.068    0.516
        53  -9.1134    189.5360    134.5088   8.8738322834e+01   1.7098689485e+01    0.1461411    0.1395459  19.69 0.0002397443    1.026    0.025
        54 -11.8632    206.4726    129.4877   8.4239308253e+01   1.4309063946e+01     1.165213    0.6644266 -32.05   0.00517571    1.778    0.438
        55 -11.1460    154.9804    125.0073   9.4010891068e+01   2.6397986626e+01    0.3971814    0.3292303 -34.31  0.001752767    1.260    0.206
        56  -9.2967     74.6128    124.7411   1.1444021282e+02   4.1140845365e+01    0.2634607    0.1141159 -56.12 0.0009694466    2.107    0.525
        57 -10.7237    227.4438    118.6299   7.7896650086e+01   1.1581714998e+01    0.5351509    0.2492176 -31.73  0.002204022    2.085    0.520
        58 -10.0622    119.7200    119.6730   1.0138808448e+02   3.4748015402e+01    0.3324757    0.2033737 -45.18  0.001498091    1.655    0.396
        59 -10.4534    219.3069    111.7121   7.7640059528e+01   1.4438882152e+01     0.495386    0.3143322 -26.87  0.002310609    1.580    0.367
        60 -12.0952    235.7742    105.0700   7.3287774961e+01   1.1902328536e+01    0.7623047    0.4455903 -16.80  0.003355274    2.006    0.501
        61  -9.9717    205.8865    119.9562   8.2083996891e+01   1.6042587843e+01    0.6039184    0.3440279 -21.58  0.002491682    2.116    0.527
        62 -10.2653    181.8450    102.3981   8.2401826710e+01   2.4618884311e+01    0.7146764    0.3661641 -29.86  0.002746841    2.166    0.538
        63  -9.5913     46.8254    102.1815   1.1824190214e+02   4.9731494047e+01    0.2844754    0.1207142 -59.98  0.001300455    1.966    0.491
        64  -8.8146    227.0000     98.0140   7.2969686045e+01   1.4902769266e+01     0.239316   0.07843883 -32.73 0.0007967011    2.903    0.656
        65  -8.6638    192.0381    110.4989   8.2426595265e+01   2.0802372959e+01    0.2309059    0.1479058  51.21  0.001024773    1.571    0.364
        66 -10.8399    213.5554     88.6279   7.2814316643e+01   1.9457747196e+01    0.9486598    0.3988102 -28.50  0.003436264    2.539    0.606
        67  -9.3844    191.3855     89.9727   7.7176398597e+01   2.4524059049e+01    0.3550654    0.2939973 -14.62  0.001415348    1.289    0.224
        68 -11.4286    248.9797    196.7519   9.0538104574e+01  -3.3617965423e+00    0.8903081    0.3570321 -34.61  0.004058093    2.632    0.620
        69  -9.0428    196.0944     79.3207   7.3385691284e+01   2.5152537741e+01     0.293958    0.2118503 -42.56 0.0009796531    1.393    0.282
        70  -9.1553    216.9388     73.3420   6.8250763101e+01   2.1027750142e+01     0.289059    0.2142109 -21.80  0.001020151    1.398    0.285
        71  -9.7660      4.9736     73.2335   1.2662965950e+02   5.9504253187e+01     0.126237   0.09756982  13.94 0.0008857858    1.654    0.395
        72 -10.8722    227.5623     65.1619   6.4531783186e+01   1.9705404511e+01    0.7607788    0.4314902 -38.82  0.003475063    1.649    0.393
        73 -11.4029    229.0304     58.6372   6.2643010773e+01   2.0278949202e+01    0.6350303    0.4927635 -89.43  0.003220191    1.466    0.318
        74  -9.4665    183.4619     68.5595   7.2680784213e+01   3.0031454644e+01    0.4746983    0.2288084 -24.55   0.00172709    2.463    0.594
        75  -9.8734    206.2988     66.7813   6.8178536474e+01   2.4604911314e+01    0.4394451    0.4179694  -8.99  0.002157165    1.080    0.074
        76  -9.0106    140.6033     65.8432   8.1082277350e+01   4.1060835529e+01    0.2240703    0.1377195 -46.55 0.0007176232    1.745    0.427
        77  -8.7686     46.7516     61.7066   1.0908564516e+02   5.8694955270e+01    0.2568302    0.1194624 -47.93  0.001226006    1.801    0.445
        78  -9.0903    197.5591     58.1598   6.7197350791e+01   2.8072562147e+01    0.3424596    0.1504847 -26.80  0.001251404    2.461    0.594
        79 -10.6091    215.2056     38.8156   5.9221499813e+01   2.6292028474e+01    0.3389775    0.2725761 -14.65  0.001816129    1.382    0.276
        80 -10.0514    147.2770     39.3860   7.0757382230e+01   4.3617010045e+01    0.3421788    0.2029219 -60.88  0.001335141    2.537    0.606
        81  -9.1701    162.0559     36.0485   6.6680449375e+01   4.0308841748e+01    0.2325175     0.225612  68.70 0.0009604951    1.036    0.035
        82  -9.2217    178.9297     34.0941   6.3112421056e+01   3.6184023601e+01    0.3270042    0.2214955 -28.06  0.001018601    1.531    0.347
        83  -9.0046    173.3853     34.5371   6.4172378018e+01   3.7570062371e+01    0.3569787    0.1234439 -33.04  0.001244823    2.768    0.639
        84  -8.6940    176.5877    230.0596   1.0870926113e+02   4.2440355391e+00    0.2328523    0.1323461  64.63   0.00103398    3.442    0.709
        85  -8.9856    127.4822     24.0093   6.9621584708e+01   5.0506755666e+01    0.2046789     0.118427   8.63 0.0008099804    2.521    0.603
        86 -10.6129    247.4244    225.7053   9.5771863842e+01  -6.3578442682e+00    0.3969295    0.2173261 -33.78  0.001969801    2.150    0.535
        87 -10.9981    250.1584    220.1039   9.4405173401e+01  -6.1687078817e+00    0.5051416    0.2582366 -30.74  0.002455073    2.122    0.529
