#   1 NUMBER                 Running object number                                     
#   2 MAG_AUTO               Kron-like elliptical aperture magnitude                    [mag]
#   3 X_IMAGE                Object position along x                                    [pixel]
#   4 Y_IMAGE                Object position along y                                    [pixel]
#   5 X_WORLD                Barycenter position along world x axis                     [deg]
#   6 Y_WORLD                Barycenter position along world y axis                     [deg]
#   7 A_WORLD                Profile RMS along major axis (world units)                 [deg]
#   8 B_WORLD                Profile RMS along minor axis (world units)                 [deg]
#   9 THETA_WORLD            Position angle (CCW/world-x)                               [deg]
#  10 FWHM_WORLD             FWHM assuming a gaussian core                              [deg]
#  11 ELONGATION             A_IMAGE/B_IMAGE                                           
#  12 ELLIPTICITY            1 - B_IMAGE/A_IMAGE                                       
         1 -14.9027    164.8709     41.8336   7.7190090771e+01   3.9173894177e+01     1.369368     1.118633  -9.97   0.00404997    1.412    0.292
         2 -14.8125    182.4148      8.1184   6.4172717462e+01   3.8553962969e+01     2.014263    0.8876556  63.85  0.006983528    1.973    0.493
         3 -10.8937    133.7342    246.9970   1.2900859390e+02   7.2858597311e+00    0.1402527    0.1238434  62.09 0.0003457072    1.172    0.146
         4 -19.9076     72.4131    167.3890   1.3192027400e+02   3.2182102946e+01     17.94327     7.140008 -67.83   0.07502509    2.497    0.600
         5 -11.0318     21.8325    242.5964   1.4817776326e+02   2.3230909038e+01    0.1600822   0.09232309 -85.86  0.001144505    1.539    0.350
         6 -11.4872    119.0019    240.2970   1.3097017823e+02   1.0656407471e+01    0.1984585     0.149441 -72.30  0.001322541    1.571    0.364
         7 -11.3095     16.4486    250.3235   1.4937598334e+02   2.2475777180e+01    0.1203732   0.07468881  82.89 0.0009198337    1.285    0.222
         8 -13.9814    203.3698    172.2016   1.0369030408e+02   7.0549062486e+00     2.140126    0.8357042 -52.89  0.006288131    5.307    0.812
         9 -12.6129    152.8004    183.8371   1.1628055787e+02   1.4859943083e+01    0.4373048    0.3002999 -83.49  0.002016875    2.245    0.554
        10 -11.5996     25.1358    225.4254   1.4674656458e+02   2.5968205062e+01    0.2526912     0.122307 -67.73  0.001556496    2.140    0.533
        11 -10.5951     19.5269    223.0068   1.4758622968e+02   2.7012440891e+01    0.1372335   0.08445524 -79.19  0.000956137    1.510    0.338
        12 -11.4527      3.9152    180.3903   1.4811397642e+02   3.6951735571e+01     0.243093    0.1880202  25.82  0.001785241    1.813    0.448
        13 -12.4711    199.7816    179.5798   1.0585381020e+02   6.5179150509e+00    0.4312764    0.2910902 -70.04   0.00188246    2.811    0.644
        14 -13.4884    195.6847    169.5047   1.0464858370e+02   9.0335491032e+00     0.546865    0.4450736 -44.06 0.0008376123    1.338    0.252
        15 -12.7188    193.6519    164.4868   1.0402058887e+02   1.0324981434e+01    0.4279757     0.354042  26.40  0.001648439    1.186    0.157
        16 -12.0130    170.0768    176.8283   1.1133350546e+02   1.2817337457e+01    0.2675214    0.1869508  53.48  0.001335343    1.444    0.307
        17 -13.5816    138.2519    171.3685   1.1724615339e+02   2.0130928462e+01     0.790233    0.5464908  64.33  0.003836483    1.611    0.379
        18 -14.1809    144.0656    168.4903   1.1540752950e+02   1.9592797337e+01    0.9728926    0.5835239  68.24  0.003955052    2.441    0.590
        19 -12.8918    177.4851    171.0325   1.0865762249e+02   1.2411904856e+01     0.523399    0.2496802 -55.43  0.001959677    2.980    0.664
        20 -11.2978    165.7025    172.3792   1.1140693287e+02   1.4524485952e+01    0.2536704    0.1762504 -57.11 0.0009879303    1.680    0.405
        21 -12.0449    125.7064    171.8832   1.2018263003e+02   2.2392113901e+01    0.3096515    0.2556807 -69.86  0.001143616    1.265    0.210
        22 -10.1568      7.8223    220.7833   1.4948052645e+02   2.8598918415e+01   0.08101512   0.06120241 -88.36 0.0003619615    1.298    0.230
        23 -11.6973    230.0141    167.0023   9.7679123177e+01   2.7964881566e+00    0.3002649    0.1801896 -54.88  0.001324674    2.610    0.617
        24 -11.0859    111.8289    213.8642   1.2931474011e+02   1.6413976355e+01    0.1769725    0.1259489  72.92 0.0003527966    1.436    0.303
        25 -10.4234     24.5566    165.2580   1.4269107739e+02   3.8349032438e+01    0.1658381    0.1463763 -76.83 0.0007580873    1.280    0.219
        26 -10.4429     13.5971    163.3906   1.4495706089e+02   3.9763641357e+01    0.1951045    0.1109112  85.97  0.000430015    1.458    0.314
        27 -10.0260      3.2487    164.2819   1.4725285473e+02   4.0423841428e+01    0.1012783   0.07125206 -65.46 0.0002681684    1.462    0.316
        28 -11.8026    108.7357    209.0099   1.2934144690e+02   1.7831782698e+01    0.4551715    0.2778347  85.18  0.002235928    2.156    0.536
        29 -10.9200     10.7825    174.6972   1.4636864524e+02   3.7562943096e+01     0.163129     0.118217 -82.69 0.0003132647    1.178    0.151
        30 -10.5015    191.5807    157.9852   1.0306572605e+02   1.1918853276e+01    0.3333352    0.1735498  30.11  0.001279742    2.468    0.595
        31 -11.0883    116.5297    212.2365   1.2816496788e+02   1.5947856009e+01    0.2637562    0.1499719 -66.50  0.001361094    2.063    0.515
        32 -13.1385    161.6875    153.4453   1.0844263750e+02   1.9070627268e+01    0.4661932    0.3755158  79.03  0.001971669    1.508    0.337
        33 -11.8643    174.3092    148.7110   1.0465278037e+02   1.7325925754e+01    0.3454424    0.2776016 -76.67  0.001225616    1.586    0.369
        34 -10.0710    150.6001    245.4605   1.2576132173e+02   4.8262728964e+00    0.1190367   0.09413362  45.64 0.0001801402    1.022    0.022
        35 -11.8397      5.3928    137.2378   1.4472021272e+02   4.6233116967e+01    0.3047337    0.2300781 -47.85  0.001588115    1.592    0.372
        36 -11.0884    171.6936    137.9699   1.0278597204e+02   2.0021845315e+01    0.2130206    0.2007958 -50.27  0.000634963    1.091    0.083
        37 -11.3696     21.9974    138.0641   1.4067505357e+02   4.4737815740e+01    0.2178538    0.1812606   8.11 0.0004989302    1.701    0.412
        38 -10.9393     12.7905    137.6181   1.4293458894e+02   4.5597206312e+01    0.2975136    0.1773161  -7.06  0.001553476    3.212    0.689
        39 -12.8453    160.5158    127.8442   1.0288107814e+02   2.4577579631e+01    0.4829817    0.3497546 -52.11  0.001795261    1.442    0.307
        40 -10.0671    130.2593    212.5648   1.2543753822e+02   1.3581938232e+01    0.1324209    0.0906468  76.88  0.000415601    1.804    0.446
        41 -13.0959     11.8296    206.1535   1.4805413812e+02   3.1014381158e+01    0.4027346    0.2480451  34.40  0.002236669    1.917    0.478
        42 -12.6462    163.6389    202.9107   1.1725072044e+02   9.3690360139e+00    0.3864313    0.3022344  79.91   0.00127852    1.685    0.407
        43 -11.1604    167.4011    112.5676   9.7475607251e+01   2.6107090643e+01    0.3502117    0.2533072 -88.96  0.001461276    2.001    0.500
        44 -11.9800    156.7604    199.9851   1.1817298761e+02   1.1139661677e+01    0.5568708    0.3627555  81.28   0.00246466    2.741    0.635
        45 -11.9516      7.3362    111.0199   1.4157935569e+02   5.2060845409e+01    0.2648976    0.1582046 -44.82  0.001171443    1.816    0.449
        46 -10.8170    205.5733    110.1175   8.9091197684e+01   1.7570802547e+01    0.2800208    0.2195557  43.25 0.0006456998    1.321    0.243
        47 -11.5041      7.6198    102.0976   1.4040905949e+02   5.4079472174e+01    0.2484411    0.2106709  53.28  0.001274037    1.376    0.273
        48 -10.8713    153.8024    194.9823   1.1796599680e+02   1.2587280695e+01     0.301903    0.1988368  61.72  0.001149789    1.734    0.423
        49 -12.1280    160.8342    198.0011   1.1701544907e+02   1.0741086299e+01    0.2820913    0.2193651 -46.33  0.001291136    1.464    0.317
        50 -10.3310    139.7557    200.5668   1.2177095174e+02   1.4120081258e+01    0.2799418    0.1892038  41.78  0.000790076    1.319    0.242
        51 -14.4049    153.4543     56.3836   8.4129646249e+01   3.9942345020e+01     1.251143     1.054031  62.38 0.0009794601    1.172    0.147
        52 -11.2957    125.0461    243.5502   1.3021179902e+02   9.1877198664e+00    0.1455937    0.1305657  78.63 0.0008037986    1.234    0.190
        53 -12.8808    169.2443     33.6945   7.3848452577e+01   3.9117980605e+01    0.4127454    0.3646992   9.33 0.0008935745    1.304    0.233
        54 -10.7407     13.4188     59.8857   1.3108536365e+02   6.3116148298e+01    0.1634793    0.1571054 -68.27 0.0004062684    1.233    0.189
        55 -10.7150    140.3575     32.4559   7.8822627359e+01   4.6732701818e+01    0.3676466    0.2081229  77.42  0.001294705    2.323    0.569
