#   1 NUMBER                 Running object number                                     
#   2 MAG_AUTO               Kron-like elliptical aperture magnitude                    [mag]
#   3 X_IMAGE                Object position along x                                    [pixel]
#   4 Y_IMAGE                Object position along y                                    [pixel]
#   5 X_WORLD                Barycenter position along world x axis                     [deg]
#   6 Y_WORLD                Barycenter position along world y axis                     [deg]
#   7 A_WORLD                Profile RMS along major axis (world units)                 [deg]
#   8 B_WORLD                Profile RMS along minor axis (world units)                 [deg]
#   9 THETA_WORLD            Position angle (CCW/world-x)                               [deg]
#  10 FWHM_WORLD             FWHM assuming a gaussian core                              [deg]
#  11 ELONGATION             A_IMAGE/B_IMAGE                                           
#  12 ELLIPTICITY            1 - B_IMAGE/A_IMAGE                                       
         1 -13.6321    237.8784    184.2542   6.0108435750e+01   8.0926608062e-01     2.994251     2.078099   6.10   0.01822948    1.511    0.338
         2  -8.7603    108.7818      7.6048   3.8064315616e+01   5.5524810650e+01    0.2493616    0.2043914 -78.25  0.001532444    1.351    0.260
         3  -9.2313    198.2243    242.1962   7.7256106939e+01  -2.9593584510e+00    0.1902007       0.1594   2.61 0.0002379974    1.157    0.135
         4 -10.3727    249.0940    249.7732   6.9391834427e+01  -9.6261319050e+00    0.7577883      0.35457  33.95  0.004488872    2.449    0.592
         5  -9.8030    249.6757    245.4930   6.8630712839e+01  -9.1590096359e+00     0.541923    0.2639531 -37.59  0.003277133    2.060    0.515
         6  -9.0621      6.3236    250.1737   1.1847337894e+02   1.9466432870e+01    0.1915845    0.1637998  42.19  0.001464049    1.261    0.207
         7  -9.1246      3.1174    248.2583   1.1901738445e+02   2.0128851533e+01    0.2143339    0.1822793 -38.11  0.001583771    1.731    0.422
         8  -7.7692    164.8637    241.2301   8.3779147842e+01   1.5182046565e+00    0.1922075    0.1287676  -2.85 0.0006629985    1.595    0.373
         9  -9.9104      3.5117    237.8875   1.1851753489e+02   2.2152369247e+01    0.3882642    0.2333798 -80.25  0.002466742    1.615    0.381
        10  -9.0844    108.0471    238.7497   9.5796641605e+01   9.8116924535e+00    0.2648593    0.1606194  47.87  0.001389453    1.638    0.390
        11  -9.9250      9.0440    237.6274   1.1738597876e+02   2.1706237542e+01    0.3086007    0.1075719  47.63  0.001534713    2.180    0.541
        12  -8.2428    166.3979    237.1106   8.2847789681e+01   1.9838870415e+00    0.2233559    0.1602263  27.49 0.0003944892    1.233    0.189
        13 -12.7396    243.9001    215.2881   6.4640501249e+01  -4.5493781016e+00     2.173707     1.477489 -12.45   0.01444356    1.189    0.159
        14  -7.5012    177.2078    247.9350   8.2244948132e+01  -1.1609790318e+00    0.1586528    0.1418178  76.63  0.001029614    1.944    0.486
        15  -7.7933    158.3349    220.3196   8.1960872298e+01   6.0294017504e+00    0.1402648   0.09483721  -4.62 0.0005758696    1.701    0.412
        16 -10.1902     86.4654    217.8732   9.8296354439e+01   1.7025901413e+01    0.4317114    0.2994902 -56.56  0.001391263    1.569    0.363
        17  -9.9835     79.7043    219.5937   1.0012148858e+02   1.7571780022e+01    0.5269301   0.09982355  38.19  0.001670442    3.806    0.737
        18 -10.6196     60.5753    214.6348   1.0419117203e+02   2.1129054914e+01    0.4876542    0.3096032 -84.78  0.002539275    1.751    0.429
        19 -10.0846     68.2757    214.4612   1.0230743383e+02   2.0196925951e+01    0.4208043    0.2035571 -39.99  0.001695731    3.118    0.679
        20  -7.7720    157.8330    212.0571   8.0721586589e+01   7.6258758535e+00    0.1850465    0.1734791  20.57 0.0003508235    1.168    0.144
        21 -10.2760    135.4395    226.0825   8.7928606121e+01   8.3228361796e+00    0.5902659    0.4768351  74.00    0.0012875    1.759    0.432
        22 -10.3476     61.0171    207.8281   1.0337535722e+02   2.2615555538e+01    0.5343757    0.2699634   8.63  0.001947101    3.746    0.733
        23  -8.3471     35.6516    205.3070   1.0937672553e+02   2.6133316255e+01    0.1427707   0.08101715  58.63 0.0007043088    1.704    0.413
        24  -9.3929     18.5055    201.6378   1.1323894009e+02   2.8691625161e+01    0.2326124    0.2150903 -87.60  0.001578077    1.158    0.136
        25  -8.2230     32.5217    198.4349   1.0956410262e+02   2.8072696152e+01    0.1314194    0.1126187  67.49 1.054472e-05    1.029    0.028
        26 -10.0858    120.3124    235.3820   9.2620467607e+01   8.7408731465e+00    0.3714154    0.2365366   4.14  0.001826266    2.071    0.517
        27  -7.1969    167.5000    232.4781   8.1912654080e+01   2.6019658664e+00    0.1282956    0.1092078  14.32 1.050893e-05    1.079    0.073
        28  -7.9655    180.2921    190.6438   7.2057821418e+01   8.1516224377e+00    0.1272275    0.1130055 -86.85 0.0007029359    1.687    0.407
        29  -7.3922     85.4147    194.7730   9.5555128587e+01   2.2371669259e+01     0.188356    0.1286167 -48.47  0.000452666    1.569    0.362
        30  -8.7843     21.5968    186.0148   1.1129027757e+02   3.2128977019e+01    0.2110375    0.1800305  38.62 0.0001980481    1.222    0.182
        31 -11.8907    171.7649    148.1821   6.5211478554e+01   1.7972117479e+01    0.8845755    0.7004111 -27.97  0.004585047    1.234    0.190
        32 -11.7335    165.5153    144.3300   6.5720608370e+01   1.9954323928e+01     1.408205    0.5188925 -45.24  0.004906526    2.624    0.619
        33 -12.0379    241.0978    129.4850   4.8963835027e+01   9.1552389659e+00     1.630499     0.689869 -40.72  0.007646865    1.928    0.481
        34 -10.9605    248.7530    128.6839   4.7758892437e+01   8.0910455492e+00    0.8190336    0.3700245 -31.00  0.003071286    2.137    0.532
        35  -7.6604     73.7363    142.4436   9.0301744673e+01   3.7123332392e+01    0.1936426    0.1491024  12.69 0.0003158121    1.487    0.328
        36 -10.7407    185.6041    135.8180   5.9588724584e+01   1.7794561138e+01    0.4297476    0.3121985  31.16  0.002168827    1.534    0.348
        37  -9.8971    171.6399    156.2539   6.6996079420e+01   1.6356565768e+01    0.4256227    0.3277405  58.93  0.001629091    1.653    0.395
        38  -7.7354    197.0211    147.9359   6.0050989063e+01   1.3384712494e+01    0.1701227    0.1492231 -27.98 0.0004914012    1.019    0.018
        39  -7.2368     74.7061    133.7206   8.8250130484e+01   3.9218813327e+01    0.1514263    0.1154222 -23.72 0.0006947677    1.531    0.347
        40  -9.6068    166.8481    159.1396   6.8665293053e+01   1.6644361056e+01    0.2854261    0.2602482 -44.96 0.0003289099    1.152    0.132
        41  -9.9567    171.3442    128.0577   6.0702751712e+01   2.2122919962e+01     0.282818    0.2286521  55.50 0.0007310101    1.380    0.275
        42  -8.5305    110.0804    153.8605   8.1797984578e+01   2.8274845773e+01    0.2345331    0.2137468 -47.31 0.0002584426    1.097    0.088
        43  -7.4869    117.0467    128.3361   7.4121035395e+01   3.3078332286e+01    0.2039516    0.2024993  24.90  0.001082911    1.034    0.033
        44  -8.6784     60.4994    119.3416   8.9979540840e+01   4.4975174145e+01    0.2789263    0.2449588 -86.82 0.0002968546    1.248    0.199
        45 -10.2726    179.5493    151.2368   6.4231258100e+01   1.5909809011e+01    0.4711613    0.3056235  36.37  0.002255859    1.628    0.386
        46 -12.6649    226.1771    134.0956   5.2106342281e+01   1.0818060235e+01     1.918902     1.407196 -47.92   0.01111388    1.311    0.237
        47  -9.0723    175.0419    113.1677   5.6369785649e+01   2.4286078224e+01    0.3914365    0.2763324 -23.87  0.001390755    1.618    0.382
        48  -7.8061     95.5767    110.7977   7.6115518439e+01   4.1337068001e+01    0.3607932    0.1850474  23.12  0.001221951    2.865    0.651
        49  -7.4698     91.1842    102.8401   7.5395926808e+01   4.4015604802e+01    0.2082451    0.1753646 -12.05  0.001023746    1.307    0.235
        50 -10.1049     79.7650    102.4348   7.9128037257e+01   4.6162697572e+01    0.2712368    0.2541079 -24.86 0.0002549842    1.034    0.033
        51  -7.0301    151.8234    100.1665   5.7967478329e+01   3.1823338050e+01    0.1949152     0.173173   9.71            0    1.279    0.218
        52  -8.4445     37.2402     99.9802   9.4397909851e+01   5.2730878494e+01    0.1958042     0.111739 -60.98 0.0008856803    1.621    0.383
        53  -7.3536    129.1692     83.8804   5.8808257320e+01   4.0067679193e+01    0.1971904    0.1737766   1.45  0.001011883    1.286    0.222
        54  -7.2743    192.0582     72.0254   4.3265945353e+01   2.7820974530e+01     0.165395    0.1430368 -51.26 0.0003330866    1.066    0.062
        55  -7.4348    114.6025     60.1890   5.5185039900e+01   4.7616441359e+01    0.1875523    0.1407074 -20.40 0.0003157642    1.529    0.346
        56  -7.6703    153.2686     58.9369   4.6213811130e+01   3.8708043844e+01    0.1881277    0.1810497 -48.45 0.0003385281    1.090    0.082
        57  -8.4469    145.9865     56.7978   4.6979374475e+01   4.0761190058e+01    0.2154879    0.1962298 -40.25 0.0002821196    1.144    0.126
        58  -7.2922    118.6243     53.7081   5.2018231130e+01   4.7716065303e+01    0.1521228    0.1061292  27.48 0.0007022235    1.735    0.423
        59  -8.2791    219.7457     50.0134   3.4734272210e+01   2.5180773708e+01    0.1870515    0.1602667 -86.09 0.0003970388    1.147    0.128
        60  -6.9454    134.2950     50.2801   4.7358844381e+01   4.4515584259e+01    0.1388714     0.106218  29.93 0.0002224511    1.534    0.348
        61  -8.7680    115.0425     48.0320   5.0997597420e+01   4.9403045722e+01    0.2586438    0.1989046 -38.87 0.0003541995    1.382    0.276
        62  -7.7877    232.0445     45.7238   3.2644109607e+01   2.3318051045e+01    0.1573331    0.1322404 -71.06            0    1.085    0.079
        63  -7.0527    183.7178     39.3865   3.6275855987e+01   3.4320425928e+01    0.1423014   0.08500925 -62.24 0.0007005639    1.737    0.424
        64  -7.5027    182.8298     33.1431   3.4810880045e+01   3.5296610939e+01    0.1535481    0.1484613  24.87  0.000233378    1.307    0.235
        65  -7.3997    110.2301     32.6198   4.6788598206e+01   5.2602844737e+01    0.1861226    0.1145305  50.18 0.0003064961    1.462    0.316
        66  -6.7769    205.2796     30.6818   3.1847146018e+01   3.0638997864e+01    0.1296097   0.07714027 -62.65 0.0004009128    1.578    0.366
        67  -8.2614    160.9436     18.7849   3.3667877164e+01   4.2000424271e+01    0.1864333    0.1748825 -55.32 0.0003132646    1.171    0.146
