#   1 NUMBER                 Running object number                                     
#   2 MAG_AUTO               Kron-like elliptical aperture magnitude                    [mag]
#   3 X_IMAGE                Object position along x                                    [pixel]
#   4 Y_IMAGE                Object position along y                                    [pixel]
#   5 X_WORLD                Barycenter position along world x axis                     [deg]
#   6 Y_WORLD                Barycenter position along world y axis                     [deg]
#   7 A_WORLD                Profile RMS along major axis (world units)                 [deg]
#   8 B_WORLD                Profile RMS along minor axis (world units)                 [deg]
#   9 THETA_WORLD            Position angle (CCW/world-x)                               [deg]
#  10 FWHM_WORLD             FWHM assuming a gaussian core                              [deg]
#  11 ELONGATION             A_IMAGE/B_IMAGE                                           
#  12 ELLIPTICITY            1 - B_IMAGE/A_IMAGE                                       
         1 -11.9879      2.0301     80.3536   1.1796766029e+02   5.8624046720e+01     2.418606    0.1192797 -69.86  0.004658134   13.018    0.923
         2 -10.4354     32.7500     39.3052   9.5402508136e+01   6.5184683758e+01     0.763622     0.137704 -52.02  0.002283053    5.374    0.814
         3 -11.2516    213.2514     28.2892   4.4529087635e+01   2.8410761989e+01    0.7784824    0.5570093 -54.23  0.004221563    1.321    0.243
         4 -11.0144    219.4860     23.1497   4.2547553503e+01   2.7530840371e+01    0.5419092    0.3835746  37.96  0.001753081    1.861    0.463
         5 -13.1963      2.6587    132.7681   1.2407131078e+02   4.6534295102e+01     3.821911    0.5830887 -76.35    0.0110804    5.842    0.829
         6  -9.0271     33.0000     11.8922   8.3666171726e+01   6.9737486451e+01    0.3146471   0.05771158 -40.10  0.001045986    4.886    0.795
         7 -11.6341    235.5158      7.1443   3.7277352541e+01   2.5610510988e+01     0.712243    0.5461193 -68.70  0.002777428    1.111    0.100
         8  -8.8046      2.2219      3.2117   9.6155472274e+01   7.3900881830e+01    0.2163451    0.0706156 -50.09  0.001045327    2.801    0.643
         9 -11.1850    120.8207    232.0144   1.0861681409e+02   1.0529587255e+01    0.7998646    0.6396229 -61.47  0.005246526    1.471    0.320
        10 -12.9846    180.6663    243.9396   9.8723026351e+01  -9.2894091804e-01     2.223331     1.225386  36.03   0.01255259    1.466    0.318
        11 -11.2460     27.9725    213.2102   1.2478094277e+02   2.6709551114e+01    0.3741344    0.3127055  48.42 0.0008352879    1.383    0.277
        12 -12.9999     37.9356    203.1956   1.2216112105e+02   2.7656884168e+01     2.096661     1.205434  72.91     0.011212    1.546    0.353
        13  -9.6581     93.3552    220.4429   1.1272678892e+02   1.6873515131e+01    0.3744385    0.3288282 -78.28  0.002551681    1.252    0.201
        14 -10.0558     62.8076    218.5720   1.1856688794e+02   2.1511108357e+01    0.2991767    0.2143266 -72.12  0.001657774    1.437    0.304
        15  -9.4261     67.2421    217.4106   1.1759752405e+02   2.1155530084e+01     0.282256    0.1658527  53.95  0.001070441    1.427    0.299
        16  -9.8943     74.7104    216.1682   1.1600384157e+02   2.0386830300e+01    0.5098363     0.312598  59.68  0.002969296    1.427    0.299
        17 -12.6727     10.5258    206.7443   1.2760709219e+02   2.9752149593e+01    0.8978062    0.8463812  63.75  0.005417855    1.474    0.322
        18  -7.9804     57.0000    200.0355   1.1803484850e+02   2.6042347736e+01    0.2014613    0.1157798  66.08 0.0005963608    1.642    0.391
        19 -11.4890      2.6671    246.1377   1.3073037870e+02   2.3119676779e+01    0.8074539    0.2625085 -86.27  0.004466909    2.756    0.637
        20 -11.2178    162.9507    244.7436   1.0214307488e+02   1.7636739578e+00     0.770911    0.5047466 -39.95   0.00470948    1.904    0.475
        21  -8.0716     48.5116    191.4656   1.1899668883e+02   2.8919782152e+01    0.1247967   0.09950303  77.28  8.14029e-05    1.013    0.013
        22  -9.8859     57.2837    183.9423   1.1634334590e+02   2.9493422153e+01    0.3519465     0.244257 -42.90  0.001137431    1.994    0.499
        23 -13.1726      8.4450    237.7975   1.2947933480e+02   2.4037216695e+01     1.653077    0.7224565  81.84  0.009477438    1.937    0.484
        24  -9.7470     63.1457    177.6455   1.1431355774e+02   3.0151061038e+01    0.2489206    0.2215107 -60.23  0.000446344    1.301    0.232
        25 -10.4123    122.4981    249.0459   1.1022392648e+02   7.4335267885e+00    0.8237066     0.357828  31.24  0.003719947    2.770    0.639
        26 -10.9130      4.2861    144.1610   1.2466703127e+02   4.3811958167e+01    0.5429956    0.4572737  57.99  0.003958487    1.304    0.233
        27  -9.2638     32.6447    168.6551   1.2029505992e+02   3.5759890299e+01    0.6123691     0.113812 -73.65  0.001787403    5.606    0.822
        28  -9.4815     73.5304    167.3091   1.1054504868e+02   3.1109345333e+01     0.244666    0.2235367 -73.03  0.000466499    1.152    0.132
        29 -11.5266     60.1653    163.9097   1.1331243163e+02   3.3696872178e+01    0.4938407     0.279472 -49.21  0.001530222    2.011    0.503
        30 -10.2531     16.5778    166.2272   1.2367341379e+02   3.7835320535e+01    0.3863877    0.1299373 -70.47  0.001799863    2.350    0.574
        31 -10.6685     12.8374    161.5226   1.2412295233e+02   3.9213461644e+01     0.527186    0.1356138 -76.73  0.002064676    3.288    0.696
        32 -10.7013     81.1931    160.1407   1.0761541291e+02   3.1673989439e+01    0.5016065    0.4438713 -11.58  0.001708542    1.514    0.339
        33  -9.3319     33.0000    153.9032   1.1870016165e+02   3.9129060127e+01    0.6427277   0.06092776 -70.22  0.001427643    8.960    0.888
        34 -11.7586     67.8184    144.0111   1.0849760893e+02   3.7423618484e+01    0.7977669    0.4942136  64.00  0.002387281    1.864    0.464
        35  -9.1720     33.1160    138.1367   1.1682224154e+02   4.2844528363e+01    0.4671424   0.07645044 -70.16  0.001252556    5.809    0.828
        36  -9.7136    107.2001    132.3837   9.5678525465e+01   3.3977295411e+01    0.4402313    0.3067287  47.29  0.001904293    1.471    0.320
        37  -8.9033     94.7683    129.4999   9.8457658392e+01   3.6840689075e+01    0.2643395    0.2357611 -13.91 0.0006310196    1.338    0.253
        38  -9.7938     96.8667    144.3615   1.0087578171e+02   3.2936456955e+01    0.4789217     0.283874 -26.45   0.00176739    3.196    0.687
        39  -9.4870     33.0000    124.9024   1.1508312229e+02   4.6023552659e+01    0.5103416   0.06224195 -67.78  0.001241639    6.817    0.853
        40  -7.9829    105.7062    120.9263   9.3500329427e+01   3.6953888076e+01     0.208333    0.1860005 -52.29 0.0003906653    1.079    0.074
        41 -10.4378     83.8108    143.9501   1.0424735143e+02   3.5129763343e+01    0.3433029    0.2601587 -57.47 0.0004251486    1.261    0.207
        42  -9.2114     32.5840    108.2587   1.1264026511e+02   5.0049842755e+01    0.4055284    0.1134801 -67.86  0.001438728    3.210    0.688
        43  -9.9284     32.9359     57.2272   1.0115758990e+02   6.1608115380e+01     0.821385   0.06690202 -56.84  0.001470311   13.624    0.927
        44 -10.9639      1.8677    108.2242   1.2177551069e+02   5.2254971708e+01     1.416612    0.1608211 -73.39  0.003689608    7.014    0.857
        45 -10.2996      2.4972    149.4856   1.2551514974e+02   4.2727699918e+01    0.4562552     0.249735 -83.77   0.00194696    1.431    0.301
        46 -11.8829    115.3758    238.2685   1.1038452781e+02   1.0300521560e+01     1.282486    0.8778461  87.59  0.007676541    1.818    0.450
        47  -9.6795      2.0000     32.9237   1.0760365028e+02   6.8666792718e+01    0.3421602   0.05892104 -60.30  0.001185602    4.548    0.780
        48  -8.7333     12.6590     44.6627   1.0611960490e+02   6.5751245765e+01    0.1312166    0.0656483 -35.09 0.0007050443    1.763    0.433
        49 -10.0718     34.9177    244.8880   1.2547668936e+02   1.9971445887e+01     1.633975    0.8660206  48.18   0.01087872    1.495    0.331
        50 -12.5260      4.0923    185.1795   1.2759589381e+02   3.4771548002e+01     1.708347     1.243475 -45.12   0.01169549    2.007    0.502
        51  -9.7241    107.0004    241.3475   1.1230085459e+02   1.1046478464e+01    0.5697923    0.2059725  51.30  0.002538972    2.530    0.605
        52  -8.6713     59.4831    224.4556   1.1970228427e+02   2.0794528514e+01     0.271243    0.2042189  17.20  0.001681976    2.138    0.532
        53 -12.3174     20.4455    221.7205   1.2665776776e+02   2.5829623586e+01     1.248762    0.6636226  70.14  0.005481457    1.517    0.341
