#   1 NUMBER                 Running object number                                     
#   2 MAG_AUTO               Kron-like elliptical aperture magnitude                    [mag]
#   3 X_IMAGE                Object position along x                                    [pixel]
#   4 Y_IMAGE                Object position along y                                    [pixel]
#   5 X_WORLD                Barycenter position along world x axis                     [deg]
#   6 Y_WORLD                Barycenter position along world y axis                     [deg]
#   7 A_WORLD                Profile RMS along major axis (world units)                 [deg]
#   8 B_WORLD                Profile RMS along minor axis (world units)                 [deg]
#   9 THETA_WORLD            Position angle (CCW/world-x)                               [deg]
#  10 FWHM_WORLD             FWHM assuming a gaussian core                              [deg]
#  11 ELONGATION             A_IMAGE/B_IMAGE                                           
#  12 ELLIPTICITY            1 - B_IMAGE/A_IMAGE                                       
         1 -12.6674     69.3640    144.4833   8.5872716239e+01   3.7241336464e+01      1.41751    0.7356723  63.25  0.003117892    3.502    0.714
         2 -13.1919    206.8308     47.1999   3.0901618839e+01   2.8618249689e+01    0.9204689     0.855661 -71.43  0.005359861    1.233    0.189
         3 -13.3672    218.8656     37.3884   2.7756025666e+01   2.7522661282e+01    0.7576728     0.696698  51.18  0.002726022    1.548    0.354
         4 -12.7350    245.9544     13.1740   2.1377804798e+01   2.5401413049e+01     0.729053    0.4776745 -54.71  0.005093078    1.150    0.130
         5 -10.2080      2.0000      7.9298   7.4954915628e+01   7.5375493851e+01    0.2900063   0.05954678 -45.32   0.00105325    4.952    0.798
         6 -11.4363    103.0003    208.0546   8.6920303682e+01   1.6188447498e+01    0.6101274    0.2541409  31.52  0.002377776    2.226    0.551
         7 -10.1917     75.3522    248.0836   9.8552356210e+01   1.1249765887e+01    0.5541931    0.1999831 -55.52  0.002362103    2.996    0.666
         8 -10.1942     71.9021    244.2289   9.8975442224e+01   1.2464277946e+01    0.2952189    0.2524852 -87.57   0.00108543    1.302    0.232
         9 -14.2604     47.5108    181.8689   9.8480768150e+01   3.0194066893e+01     10.01977     1.692223  45.19  0.005065076    7.785    0.872
        10 -15.5898     34.4987    189.1806   1.0299081744e+02   2.9752168238e+01     9.982982     3.699299  57.06   0.02965327    3.634    0.725
        11  -9.9167     85.2903    202.1892   9.0685576509e+01   2.0115324211e+01    0.2787201    0.2338124  81.59  0.000931295    1.334    0.250
        12 -11.1214    102.9412    199.4007   8.5621440508e+01   1.8195741756e+01    0.4941117     0.404211 -47.41  0.001350538    1.265    0.209
        13 -15.5200      7.4683    144.0354   1.0648716123e+02   4.4099647549e+01      16.9853     5.045694  88.59   0.03703182    8.313    0.880
        14 -10.3816    193.0084    194.7526   6.3989118557e+01   5.4592565854e+00    0.8384072    0.4292735 -63.18  0.002370199    7.094    0.859
        15 -16.5107      8.6949    237.8597   1.1294383223e+02   2.0706805990e+01     2.260209     1.567232  36.12  0.009482842    1.322    0.244
        16  -8.9952     82.7372    194.5675   9.0283190488e+01   2.2327450172e+01    0.2139364    0.1269811  40.93 0.0009482576    1.615    0.381
        17  -8.4261    185.2768    189.3236   6.4519298693e+01   7.5907673586e+00    0.1394125   0.09485126 -15.57 0.0002718208    1.583    0.368
        18 -10.1410     99.2498    180.8570   8.3572142371e+01   2.3224715504e+01    0.3381919    0.2729386  19.97 0.0009789895    1.275    0.216
        19  -9.6497    120.4812    179.9904   7.7722314367e+01   1.9988050609e+01    0.2760201    0.2021905  50.25 0.0005698862    1.513    0.339
        20  -9.9831     71.0061    172.1548   9.0212162797e+01   2.9692391522e+01    0.3337818    0.2645343  25.35 0.0007952683    1.296    0.229
        21 -12.1883    232.3350    169.1939   5.2347420197e+01   4.5225363505e+00    0.5389596    0.4494153   0.22  0.003639322    1.273    0.214
        22  -9.9678     96.4827    167.6744   8.1993132604e+01   2.6958370091e+01    0.4568824     0.308268  84.99  0.001849383    2.247    0.555
        23 -11.6537     74.7799    166.4417   8.8149239956e+01   3.0643214192e+01     1.796965    0.4632821  32.06  0.001123662    3.590    0.721
        24 -11.2667     62.4229    167.9969   9.2135769297e+01   3.1970009054e+01    0.4554636    0.3090587 -25.20  0.002010799    1.900    0.474
        25 -11.4149     67.3504    163.5058   8.9913896207e+01   3.2482559330e+01    0.5217648    0.3497694 -23.24 0.0008938494    1.971    0.493
        26 -12.8054     64.7102    150.5266   8.8506834647e+01   3.6307400415e+01    0.6138591    0.4834237 -19.23  0.001277243    1.487    0.327
        27 -10.0096    110.6121    167.2576   7.7950525515e+01   2.4706250461e+01    0.2968229    0.2653317 -82.18 0.0006185721    1.258    0.205
        28 -10.7288    102.1848    171.4792   8.1085151467e+01   2.5073759867e+01    0.5454271    0.2969637  37.71   0.00223733    1.797    0.444
        29 -13.1278     59.4489    130.9650   8.6527834384e+01   4.2256009005e+01     2.931216     1.175912 -65.57  0.009805492    2.793    0.642
        30 -11.5075     32.2031    155.6077   9.9810159466e+01   3.8877474277e+01    0.7323854    0.3894471  63.90  0.002185325    2.383    0.580
        31  -9.7803     41.1919    164.8380   9.8195783641e+01   3.5432280710e+01    0.3134479    0.1960483  55.78  0.001238518    1.733    0.423
        32 -10.1491     38.0069    161.5124   9.8746782744e+01   3.6676609750e+01    0.2862712    0.2626014  -3.39  0.001366188    1.219    0.180
        33 -14.1590      9.6062    187.2243   1.0964326148e+02   3.2591519555e+01     1.745156     1.087402  73.30  0.009046278    1.546    0.353
        34 -10.6083    133.8101    145.6072   6.7234169928e+01   2.5680952499e+01       1.2291     0.304561 -54.12  0.002775582    6.041    0.834
        35 -11.5480     84.4045    149.5411   8.2094669862e+01   3.3575099151e+01    0.7077796    0.5170227 -16.74  0.002408992    1.746    0.427
        36  -9.2003    174.8763    149.1530   5.8606855864e+01   1.7258067517e+01    0.2167934    0.1950137 -68.71 0.0006650134    1.271    0.213
        37 -10.8885    108.0780    204.5381   8.5092562120e+01   1.6238917547e+01    0.3566433    0.2565874 -52.42  0.001800179    1.451    0.311
        38 -10.0837     29.3006    142.8468   9.9030668991e+01   4.2620757739e+01     0.429972    0.2957006 -11.93  0.002045993    1.806    0.446
        39  -9.0697     88.2897    140.4619   7.9002959293e+01   3.5272732294e+01    0.2170735    0.1455306  45.80 0.0009351527    1.565    0.361
        40  -9.5930     98.6493    137.6915   7.5213886625e+01   3.4159721198e+01    0.3088493    0.2807119 -12.16 0.0009282374    1.167    0.143
        41  -9.1957    101.5021    134.9727   7.3738747545e+01   3.4316279906e+01    0.3248331    0.2363316 -17.88  0.001065782    1.776    0.437
        42 -11.5441     86.5393    135.6564   7.8503870288e+01   3.6799554985e+01    0.3066089    0.2821837 -31.74 0.0004558409    1.097    0.088
        43  -9.8434     50.7698    134.9917   9.0334718574e+01   4.2343803832e+01    0.2548845    0.2123763  41.37 0.0002066133    1.253    0.202
        44 -15.1294      9.1298    206.7267   1.1109601738e+02   2.7798748832e+01     1.219568      1.21254 -15.15  0.006186084    1.233    0.189
        45  -9.1998    105.4992    130.0381   7.1396589468e+01   3.4778765053e+01    0.3449376    0.3198749  77.64  0.001560657    1.178    0.151
        46  -9.5286    109.4823    128.4527   6.9853349963e+01   3.4399811842e+01    0.3498145    0.2409155  20.32  0.001162297    1.784    0.439
        47  -9.5363     43.9595    129.6657   9.1755300451e+01   4.4606789852e+01    0.2067935     0.199047  30.66 0.0006261994    1.097    0.088
        48 -12.2857     76.5409    155.7000   8.5713028341e+01   3.3200130451e+01     1.189812    0.6304446  58.53 0.0006047647    2.758    0.637
        49  -8.6604    116.3139    123.3073   6.6651873519e+01   3.4272933444e+01    0.1582647     0.123988  -8.67 0.0004232166    1.625    0.385
        50 -14.4677      5.5718    249.3906   1.1415376155e+02   1.8555908595e+01     0.786059    0.3617722  25.72  0.002508313    2.128    0.530
        51 -10.4060    137.1727    118.0655   5.9873669246e+01   3.1188235908e+01      0.66091    0.3842849 -65.11  0.002015746    2.502    0.600
        52 -10.2772     96.5949    123.9175   7.2611550616e+01   3.7939912375e+01    0.3297119    0.2746214  -8.45 0.0009819323    1.393    0.282
        53  -9.1297    106.5051    117.7105   6.8061312904e+01   3.7522970258e+01    0.2153327    0.1527722 -48.34 0.0009645463    1.393    0.282
        54  -9.5309    205.5495    110.1398   4.4689226118e+01   1.9072026365e+01    0.2176435    0.1958315  40.84 0.0005411861    1.329    0.248
        55  -9.3503    134.0000    104.9769   5.7303104731e+01   3.4631658501e+01    0.2582983   0.08483583 -44.06 0.0008091803    2.989    0.665
        56 -10.4193    135.5276    206.2182   7.8570472957e+01   1.1722106491e+01    0.2288943    0.2280294 -29.78  0.001106029    1.169    0.144
        57  -8.1559    156.5134    102.5676   5.1610069250e+01   3.0276348044e+01    0.1463446    0.1363904 -69.53 0.0002458063    1.046    0.044
        58  -8.7293    161.3180     85.3122   4.6301190350e+01   3.2429807745e+01    0.1372211     0.114066  12.37  0.000341343    1.644    0.392
        59  -8.7351     89.7388     84.5835   6.4031048921e+01   4.8229815324e+01    0.1984226    0.1402647  53.11 0.0004773405    1.517    0.341
        60 -12.4135    196.6142     54.0603   3.3505593003e+01   2.9761675858e+01    0.6298994    0.5763389  22.44  0.001200674    1.555    0.357
        61  -9.4840    118.9684    238.2563   8.7275283986e+01   7.5381507666e+00    0.1970002    0.1859296 -32.14 0.0003725652    1.181    0.154
        62  -8.4067    106.6587    236.7354   8.9953174909e+01   9.5003547987e+00    0.1334982   0.09747049  -4.02 0.0002168109    1.597    0.374
        63 -10.8815     13.5538     60.1728   8.8898456599e+01   6.4787785899e+01    0.2937864    0.2272599 -59.50 0.0005492093    1.368    0.269
        64  -9.6323     78.2811     57.9218   5.9078128758e+01   5.5613080142e+01    0.4725388    0.2890189  75.89   0.00163533    4.007    0.750
        65 -10.5609      2.2810     22.9332   8.2282161487e+01   7.2972048754e+01    0.3599994   0.09671005 -52.15  0.001430623    3.713    0.731
        66  -8.6599     60.4896     21.0558   5.0644108605e+01   6.4504583665e+01    0.1671869    0.1250228 -22.95 0.0003897218    1.477    0.323
        67 -11.5115    140.0259    229.1871   8.1152236112e+01   6.4204011517e+00    0.3487011    0.2864034 -24.26  0.002073437    1.216    0.178
        68  -9.2819    189.4912     15.0389   2.5468496467e+01   3.6045387299e+01    0.1649303    0.1050488 -40.54 0.0005435703    1.546    0.353
