#   1 NUMBER                 Running object number                                     
#   2 MAG_AUTO               Kron-like elliptical aperture magnitude                    [mag]
#   3 X_IMAGE                Object position along x                                    [pixel]
#   4 Y_IMAGE                Object position along y                                    [pixel]
#   5 X_WORLD                Barycenter position along world x axis                     [deg]
#   6 Y_WORLD                Barycenter position along world y axis                     [deg]
#   7 A_WORLD                Profile RMS along major axis (world units)                 [deg]
#   8 B_WORLD                Profile RMS along minor axis (world units)                 [deg]
#   9 THETA_WORLD            Position angle (CCW/world-x)                               [deg]
#  10 FWHM_WORLD             FWHM assuming a gaussian core                              [deg]
#  11 ELONGATION             A_IMAGE/B_IMAGE                                           
#  12 ELLIPTICITY            1 - B_IMAGE/A_IMAGE                                       
         1 -13.5092     55.7297    146.6856   1.0209180539e+02   3.8506731243e+01     5.430907     1.374262 -61.13   0.01709604    3.396    0.706
         2 -15.2301     68.6514    144.2769   9.7637491896e+01   3.7424021591e+01     5.384688     2.414884  61.64  0.005179645    5.380    0.814
         3 -13.9353    201.2428     43.1041   4.0524480011e+01   3.0142277036e+01     1.007109    0.8955479 -58.52   0.00310075    1.073    0.068
         4 -14.4212    211.7974     33.0857   3.7112505215e+01   2.9143170737e+01    0.9542605     0.833269  -9.67  0.001963177    1.524    0.344
         5 -12.7734    240.3675      9.5528   3.0030288385e+01   2.6090789254e+01    0.4476183    0.4120161  -1.41  0.002951483    1.622    0.384
         6 -12.9614    234.1370      8.1515   3.0116438430e+01   2.7419326906e+01    0.6199023    0.2962011 -43.63  0.003077741    1.679    0.404
         7 -12.6212    238.6434      3.0911   2.8867387558e+01   2.7072698231e+01    0.5204484    0.2718712 -85.38  0.002984382    1.801    0.445
         8 -11.1584      2.1674      4.9095   8.7508484074e+01   7.5836649582e+01    0.6024869   0.04042069 -47.92  0.001641103    8.287    0.879
         9 -10.2934     59.5297      7.4975   5.6669445515e+01   6.6859155095e+01    0.1281341      0.10653  30.44 0.0003139945    1.002    0.002
        10 -11.1001    111.1492    203.6844   9.5466253754e+01   1.7002479434e+01    0.2481264    0.2293632  33.88 0.0004804529    1.034    0.033
        11 -11.9553    140.0486    247.7986   9.4934506199e+01   4.6304528279e+00    0.5223079    0.2498021 -54.67  0.002598049    2.696    0.629
        12 -11.2849    106.1928    249.0293   1.0231038363e+02   8.8786919925e+00    0.3417355    0.2315217 -86.67  0.001924414    2.218    0.549
        13 -12.2144    101.7500    243.1872   1.0264441092e+02   1.0505910570e+01     0.852249    0.2565725 -56.29  0.002907271    3.687    0.729
        14 -14.2171     53.2888    185.5132   1.0796938091e+02   2.9056038733e+01     1.547718     1.137528  64.58   0.00843676    1.363    0.267
        15 -17.9912     15.3281    240.9026   1.2104405952e+02   2.0831319792e+01     6.389114     2.256468  20.95   0.02694399    3.606    0.723
        16 -11.3734    107.6264    203.8573   9.6353579975e+01   1.7488283219e+01    0.2606787    0.2234298  63.20  0.001496525    1.286    0.222
        17 -10.1873     95.0851    203.2755   9.9372187408e+01   1.9435981815e+01    0.3707507     0.233045 -25.17  0.001637949    2.331    0.571
        18 -11.1853    122.5539    199.2854   9.2021253932e+01   1.6199241798e+01    0.3474595    0.2563053 -77.01  0.001651403    1.847    0.459
        19 -11.1326    111.1360    197.6936   9.4577829493e+01   1.8285766824e+01    0.4217472    0.2442121  -8.14  0.001508337    3.574    0.720
        20 -10.7519     67.8748    197.9695   1.0558037285e+02   2.4324237235e+01    0.2568649    0.1863077 -71.45  0.001009245    1.441    0.306
        21  -9.9923     82.5577    194.9212   1.0142996270e+02   2.3069070960e+01    0.2655135    0.1955911   9.85  0.001209487    1.604    0.376
        22 -10.6372    149.3844    191.5066   8.4352102514e+01   1.3546456418e+01    0.4385357    0.2992102 -77.17  0.001910564    2.703    0.630
        23 -10.3038    147.1254    185.8579   8.3865455023e+01   1.5052250659e+01    0.2554671    0.1903939  41.56   0.00132421    1.373    0.271
        24 -16.2619     41.8798    195.3762   1.1194510137e+02   2.8000206111e+01     7.961852     2.428195  58.07   0.02151315    6.238    0.840
        25 -11.3474    118.3151    190.5802   9.1669488512e+01   1.8717701721e+01    0.4302105    0.2560707 -79.06  0.001670698    3.063    0.674
        26 -11.5862     81.8920    183.0526   9.9972791468e+01   2.5929594462e+01    0.6123704    0.4192529  70.44  0.002055463    1.790    0.441
        27 -10.7588     99.3763    180.9624   9.4985062636e+01   2.3837213998e+01    0.2687767    0.2446376  27.10 0.0006731191    1.066    0.062
        28  -9.5582     87.7753    177.6239   9.7574760973e+01   2.6371578254e+01    0.2130308    0.1755154  37.13 0.0004478262    1.163    0.140
        29 -10.3513     90.5003    175.1456   9.6443026515e+01   2.6557550265e+01    0.2864545    0.1859522 -66.49  0.001332545    1.677    0.404
        30 -12.1155    238.4747    176.2071   6.3973782505e+01   2.6810084705e+00    0.2875382    0.1881162  23.04  0.001717572    1.653    0.395
        31 -10.9437    186.2851    174.2357   7.3052738485e+01   1.0836559946e+01    0.3380497    0.3311931  59.56  0.001462965    1.317    0.241
        32 -12.3568    114.1249    244.1644   1.0004850331e+02   8.6977406870e+00    0.5181323    0.3588644  73.78  0.002849957    2.179    0.541
        33 -13.6421     68.8727    153.5037   9.9145727342e+01   3.5040119436e+01     0.766391    0.4752478 -51.49  0.001269331    1.597    0.374
        34 -11.6520    120.2216    246.0367   9.8946426239e+01   7.5599061180e+00    0.2550788     0.155454  36.48  0.001026616    1.380    0.275
        35  -9.2456     84.2791    173.6659   9.7920347932e+01   2.7835666276e+01    0.1482115    0.1082809  68.64 0.0003236047    1.610    0.379
        36 -10.7302     34.6879    171.6795   1.1155450762e+02   3.4484827063e+01    0.3159052    0.1873823  55.55  0.001058535    1.703    0.413
        37 -12.1982    241.1286    169.3309   6.2265381384e+01   3.3752589324e+00    0.2945142    0.1875619  38.08  0.001746034    1.836    0.455
        38  -9.6768    192.7641    169.5803   7.0833607860e+01   1.0626653912e+01    0.1737511    0.1296726  44.43 0.0006719481    1.546    0.353
        39  -9.8951    110.8936    167.7233   8.9634257607e+01   2.5078506770e+01    0.2746281     0.221021 -68.79 0.0007971866    1.398    0.285
        40  -9.0917    130.8278    157.2175   8.2335083902e+01   2.4023939022e+01    0.2560778    0.1678194  74.14 0.0009540901    2.878    0.652
        41 -11.3058     33.5958    156.1746   1.1017950686e+02   3.8508270483e+01    0.3414829    0.2858144  51.32  0.001099929    1.191    0.161
        42 -12.3767     88.0854    151.7641   9.3093333848e+01   3.2639971991e+01    0.7213479    0.4785654 -22.04  0.003060898    2.092    0.522
        43 -11.4650    133.7925    144.9382   7.8954502904e+01   2.6231819050e+01     1.175154    0.3217365 -54.24  0.002874156    5.437    0.816
        44  -9.5832    112.0803    150.3528   8.5931753885e+01   2.8963367898e+01    0.2126715    0.1846239  36.97 0.0004138939    1.141    0.124
        45 -10.2551    174.8821    149.1690   7.0250541219e+01   1.7596350208e+01    0.2141231    0.2000504 -73.76 0.0006711376    1.295    0.228
        46 -11.1678     28.6654    144.2527   1.1027490920e+02   4.2040027903e+01     0.322889    0.3133442  74.40  0.002016324    1.085    0.078
        47 -10.4402    111.3520    129.1532   8.1474182063e+01   3.4114146564e+01    0.3304252    0.2494746   2.54 0.0007725845    1.697    0.411
        48 -11.0299    102.1215    137.9983   8.6165631702e+01   3.3682560977e+01    0.5979157     0.366771 -18.99  0.002197693    2.703    0.630
        49 -11.0816    106.0468    131.2142   8.3496735663e+01   3.4610083198e+01    0.5252941    0.3508408 -62.86  0.002286448    1.701    0.412
        50 -12.4119     89.3408    137.5471   8.9909796840e+01   3.5973228117e+01    0.3006224    0.2686372 -30.20  0.000484887    1.160    0.138
        51 -10.9531     26.4402    137.6683   1.1017082264e+02   4.3942829773e+01    0.3965068    0.1988254  38.41   0.00126889    2.035    0.509
        52 -11.2301    135.0919    128.6179   7.4860645171e+01   2.9609304008e+01    0.4457645    0.3515268 -55.15  0.001774062    1.338    0.253
        53 -11.2017     44.1608    130.0194   1.0317126291e+02   4.4187357565e+01    0.3202007    0.1934454 -75.88 0.0009757069    1.726    0.421
        54  -9.8768    160.5791    127.7664   6.8516145029e+01   2.4648764503e+01    0.2192501    0.1383596 -52.23 0.0009573959    1.699    0.411
        55 -11.0128     98.4143    124.9022   8.4320562449e+01   3.7509986070e+01    0.3274328    0.2543603  -9.38 0.0008311511    1.590    0.371
        56 -12.3302     67.7756    171.3805   1.0219784150e+02   3.0699272859e+01    0.4591628    0.3188822 -26.02  0.001334307    1.894    0.472
        57 -10.6907    117.2288    123.6172   7.8469903226e+01   3.4274443051e+01    0.2821232    0.2003751  28.08 0.0008548876    1.522    0.343
        58 -12.3234     72.0241    166.7455   1.0030928171e+02   3.1275077599e+01    0.4996441     0.328969 -55.57 0.0006600663    1.513    0.339
        59 -10.3234    135.0073    120.3077   7.2847661251e+01   3.1444537623e+01    0.2843751    0.1543545 -45.02  0.001139814    1.819    0.450
        60  -9.0384    163.3110    120.6917   6.6212708034e+01   2.5517564172e+01    0.1471757    0.1189799 -80.78 0.0003265637    1.621    0.383
        61  -9.8379     85.1172    119.0265   8.7139800368e+01   4.1258710767e+01    0.2849093    0.1902752  61.49 0.0008997023    1.990    0.498
        62 -10.8849     32.8636    118.7190   1.0524636011e+02   4.8282212163e+01    0.2601834    0.1719922 -54.84 0.0007518114    1.367    0.269
        63  -9.9728    107.7863    118.1957   7.9864321501e+01   3.7357272289e+01     0.212548    0.2063712  72.27 0.0003291994    1.095    0.087
        64 -10.7092    231.2593    113.7924   5.2627652395e+01   1.3718558781e+01    0.2521205     0.218783 -37.09 0.0007573914    1.030    0.029
        65  -9.8431    135.0000    112.4918   7.0861817436e+01   3.3126842475e+01    0.3465517   0.08662665 -44.51 0.0009370284    3.953    0.747
        66 -10.1968    205.4970    110.3528   5.5763840059e+01   1.8975713531e+01    0.2607891    0.2299801  28.58 0.0008902241    1.285    0.222
        67 -11.1060    115.6528    108.8783   7.5164034635e+01   3.7923870564e+01    0.4111592    0.3472912  -6.29  0.002026411    1.351    0.260
        68  -9.6027    134.6824    106.5023   6.9371715856e+01   3.4457806924e+01    0.2788807    0.1394714 -43.91  0.001074183    1.979    0.495
        69 -11.3660     34.3773    108.9486   1.0298557967e+02   5.0653420489e+01    0.3226672    0.2674079 -82.90  0.001788847    1.255    0.203
        70 -10.9462     37.8368    102.3000   1.0036312415e+02   5.1995303235e+01    0.2455254    0.1940154  38.98 0.0006037106    1.381    0.276
        71 -10.5444     33.4345    100.2240   1.0166732781e+02   5.2961768723e+01       0.3087    0.1971736  33.32 0.0009906568    1.678    0.404
        72 -10.7668    121.2585     99.0027   7.0896769421e+01   3.8898196020e+01    0.2227828    0.2046336 -35.62 0.0006068815    1.086    0.079
        73 -10.4813     42.2720     98.7678   9.7871864834e+01   5.2401870974e+01    0.3341165    0.1832215  51.70  0.001383608    2.425    0.588
        74 -12.8136     80.6304    158.5137   9.6489960060e+01   3.2097804930e+01    0.9198772    0.5494724  60.86 0.0001449193    2.184    0.542
        75 -14.6903     18.4053    218.9857   1.1926608577e+02   2.5045801931e+01    0.7574052    0.6309928 -18.37  0.004391801    1.672    0.402
        76  -9.4705     75.2827     85.2781   8.1603803900e+01   5.0898340203e+01    0.1964515    0.1719637  64.31 0.0008311945    1.363    0.267
        77  -9.7313     31.6865     85.6973   9.9246437548e+01   5.6728765932e+01    0.1470124    0.0931967 -31.83 0.0003538235    1.614    0.381
        78  -9.8640    159.0539     83.3359   5.7482608201e+01   3.3525431023e+01    0.2043018    0.1872841  61.38 0.0004557684    1.107    0.096
        79  -9.5722    150.9697     82.9488   5.9066894004e+01   3.5433479039e+01    0.2408425    0.1782115 -75.88  0.001117536    1.746    0.427
        80  -9.1102     69.2299     81.4098   8.2705726164e+01   5.2781551351e+01    0.1920007    0.1356828  45.72 0.0004207186    1.549    0.355
        81  -9.5988    109.5709     79.8835   6.8608080391e+01   4.5311014033e+01    0.2300867    0.1928706  45.53  0.000582371    1.179    0.152
        82 -10.6701     13.4723     59.9470   1.0139219046e+02   6.4282270447e+01    0.2236961    0.2076187 -33.56 0.0003975088    1.122    0.109
        83 -13.6453    191.0001     50.5658   4.3579038424e+01   3.1396824502e+01     1.013872    0.7532384  44.84   0.00101473    1.607    0.378
        84 -15.8203      9.5760    207.5787   1.2062600531e+02   2.8316284713e+01      1.39805     1.035808 -23.45  0.004962334    1.964    0.491
        85 -12.1257    184.3012    211.9723   8.0344318081e+01   4.4913048559e+00    0.3075105    0.2380125  -6.75  0.001866922    1.172    0.147
        86 -10.0311      2.8856     29.8243   9.8232102438e+01   7.1339638711e+01    0.1512858    0.1399036  19.41  0.001014687    1.360    0.265
        87  -9.6838    198.0581     23.5336   3.6188562805e+01   3.3194476357e+01    0.1884892    0.1477979 -44.50 0.0006652691    1.234    0.189
        88 -10.2981    187.9590     31.2644   3.9114660675e+01   3.4544660593e+01    0.1819314    0.1546584  89.54 0.0005238093    1.085    0.078
        89  -9.5380    189.5174     14.9748   3.4923645638e+01   3.6006407004e+01    0.1744525    0.1143223 -35.51 0.0006029431    1.543    0.352
        90 -12.5907    133.8315    210.5385   9.1097278860e+01   1.2203161074e+01    0.6636486    0.3003977  27.89  0.002795519    2.168    0.539
        91  -9.9152     88.3482    209.9887   1.0190163458e+02   1.8921092374e+01    0.2233188    0.1861411  11.51   0.00129326    1.298    0.229
        92 -12.8773    192.8985    194.7251   7.5596293950e+01   6.1637499839e+00     1.583709     1.120267 -62.81  0.006225152    2.392    0.582
        93 -16.1524      5.9615    175.2226   1.1960159619e+02   3.6107517852e+01     8.031943    0.9893842 -74.50   0.02293724    5.600    0.821
