#   1 NUMBER                 Running object number                                     
#   2 MAG_AUTO               Kron-like elliptical aperture magnitude                    [mag]
#   3 X_IMAGE                Object position along x                                    [pixel]
#   4 Y_IMAGE                Object position along y                                    [pixel]
#   5 X_WORLD                Barycenter position along world x axis                     [deg]
#   6 Y_WORLD                Barycenter position along world y axis                     [deg]
#   7 A_WORLD                Profile RMS along major axis (world units)                 [deg]
#   8 B_WORLD                Profile RMS along minor axis (world units)                 [deg]
#   9 THETA_WORLD            Position angle (CCW/world-x)                               [deg]
#  10 FWHM_WORLD             FWHM assuming a gaussian core                              [deg]
#  11 ELONGATION             A_IMAGE/B_IMAGE                                           
#  12 ELLIPTICITY            1 - B_IMAGE/A_IMAGE                                       
         1 -10.8112      9.7469     31.2829   7.0863712319e+01   7.2142142656e+01    0.5450425    0.3639732   1.98  0.002225771    1.464    0.317
         2 -10.7467     78.4031     34.1830   3.5652493117e+01   6.0078655465e+01    0.6183801    0.5041447   5.76  0.003422343    1.650    0.394
         3 -12.1665    104.5573     13.4323   2.0992919364e+01   5.6608427862e+01    0.4424855    0.3864845 -19.14  0.002795204    1.466    0.318
         4 -12.3308    106.2379     20.8921   2.3305160506e+01   5.5349126465e+01    0.4775761    0.3273366 -81.52  0.001343946    1.551    0.355
         5 -11.7783     35.6855     19.1890   4.7825320322e+01   7.0942229399e+01    0.5983118    0.3243652 -32.73  0.002400884    2.233    0.552
         6 -12.0432    163.2575     28.0516   1.6630330707e+01   4.1062605770e+01      0.46924     0.327449  56.18   0.00072881    1.634    0.388
         7 -12.1505    164.9275     18.0821   1.3910728981e+01   4.1873370469e+01    0.4784637    0.2889013  49.89  0.002594569    2.157    0.536
         8 -11.0564      6.5573     11.2575   6.5144910265e+01   7.6269773310e+01     0.691767     0.585073 -65.74  0.004669028    1.528    0.346
         9 -11.5486     20.2999     22.1503   5.9333816614e+01   7.2763871003e+01    0.6668873    0.4312168 -29.43  0.003395785    1.709    0.415
        10 -10.6797     12.7539      8.2714   5.8139836814e+01   7.6092751192e+01    0.3557225    0.2345344 -63.57  0.001322468    2.258    0.557
        11 -12.3168     16.3042     13.8630   5.8269176930e+01   7.4718202909e+01    0.7106367    0.4013537 -19.35  0.003442349    2.471    0.595
        12 -12.1755     22.5583     10.6498   5.1809698287e+01   7.4374113826e+01    0.5155285    0.3315162  29.88   0.00221763    1.373    0.272
        13 -11.8556    135.0916     22.1256   1.8673944870e+01   4.8281613046e+01     0.743025    0.4012969 -51.56  0.003761262    1.825    0.452
        14 -11.2066    127.2012     11.2028   1.6485032821e+01   5.1387384355e+01    0.3794541    0.2023539 -61.50  0.001753317    1.962    0.490
        15 -11.2537    127.4954     16.4423   1.8076447285e+01   5.0747533981e+01    0.5058395    0.1887358  56.59  0.001288784    2.495    0.599
        16 -10.8478    132.9880     15.5035   1.6994226725e+01   4.9541465898e+01     0.333059    0.2012774  43.28  0.001684804    2.210    0.547
        17 -10.9350    136.5284     14.4717   1.6206489186e+01   4.8815237641e+01    0.3449833    0.2239498 -81.17  0.001285507    1.428    0.300
        18 -11.1645     67.6444     19.1444   3.3090227476e+01   6.4582089676e+01     0.496899    0.3369727  82.56  0.002247303    1.898    0.473
        19 -11.0013     86.2032     13.7676   2.5206283484e+01   6.0967433389e+01    0.6842714    0.4907743  12.01  0.003549478    2.089    0.521
        20 -10.4574     89.5214      8.5567   2.2307277831e+01   6.0740741934e+01    0.2784255    0.2227707 -26.96 0.0009433953    1.525    0.344
        21 -10.4602    225.6824     13.6916   8.3539800772e+00   3.0105362620e+01    0.2032413    0.1450096 -53.26 0.0008212948    1.148    0.129
        22 -10.4336    218.8258     13.4449   8.6975497769e+00   3.1381096843e+01    0.2234918    0.1431656 -64.91  0.001553954    1.182    0.154
        23 -11.3298    191.2369     11.7228   1.0133885808e+01   3.6947114901e+01    0.3620488     0.139479 -37.41  0.001843561    2.303    0.566
        24 -11.3491    192.7572      8.2405   9.2544799741e+00   3.7009372057e+01    0.3792205    0.2128747 -20.88   0.00205564    2.694    0.629
        25 -12.0215     48.1241     12.9524   3.8073172359e+01   6.9515714442e+01     0.636994    0.2602507  51.98  0.002800583    2.157    0.536
        26 -11.2756    207.1446      2.6243   7.1764171998e+00   3.4735457832e+01    0.5585356    0.1874937 -85.95  0.002497048    3.345    0.701
        27 -12.0443    212.3593      9.3208   8.2500359688e+00   3.3036979626e+01    0.4702204     0.302598 -23.15  0.002349738    2.185    0.542
        28 -10.7736    218.6029      3.6333   6.7758793553e+00   3.2463898803e+01    0.2540118    0.1703313  79.41 0.0008628687    1.520    0.342
        29 -10.4759    223.9569      2.9504   6.3794303923e+00   3.1553868529e+01    0.2165073    0.1461486 -70.55 0.0005455802    1.122    0.109
        30 -10.3757    121.0503     11.7742   1.7572649980e+01   5.2803953803e+01     0.331997    0.1367245  76.41  0.001211479    2.294    0.564
        31 -11.9349    168.6217      9.4247   1.1388607068e+01   4.2005178461e+01      0.60282    0.2037239  71.01   0.00260974    2.579    0.612
        32 -10.2535    165.1796      3.9933   1.0321475818e+01   4.3325544794e+01    0.3328318    0.2277131  23.85  0.001808526    2.829    0.646
        33 -11.5388    152.3689      8.2328   1.2605413050e+01   4.5784666741e+01    0.3229802    0.2794595  76.11 0.0009613106    1.248    0.199
        34  -9.9632      1.2773      7.6216   6.8301967481e+01   7.7397854449e+01     0.312807   0.07986283 -54.14  0.001277443    3.568    0.720
        35 -10.5949      2.1705      2.0775   6.4449056476e+01   7.8280208660e+01     0.259212    0.1715116 -21.46  0.001419486    1.508    0.337
        36 -11.5345    184.3277      5.2942   9.1734322315e+00   3.9060095554e+01    0.4334755    0.2380289 -42.64  0.002607847    1.631    0.387
        37 -11.5739    177.1075      5.9926   9.8638960640e+00   4.0519200533e+01    0.2686127    0.1711886 -79.96 0.0003777478    1.297    0.229
        38  -9.6361     78.0229      7.5181   2.4720602363e+01   6.3569240098e+01    0.2038229     0.111066  65.24 0.0006358839    1.561    0.360
        39  -9.9572     62.9042      6.7236   2.8960604860e+01   6.7114754202e+01    0.2498086    0.1712775  51.64  0.001400215    1.241    0.194
        40  -9.5604    231.9444      6.2513   6.6227101109e+00   2.9788415893e+01    0.1496359    0.1036891 -70.11  0.001134465    1.110    0.099
        41 -11.0476    233.6069      2.8631   5.9177733674e+00   2.9848538289e+01    0.2839721    0.1395734 -59.72  0.001877464    1.485    0.327
        42 -10.8565    242.9353      4.2234   5.7603891322e+00   2.8115563161e+01    0.2578038    0.1169359 -60.01  0.001449084    1.614    0.381
        43  -9.4270    245.7847      1.3323   5.1320534166e+00   2.7936555637e+01    0.1175927   0.07896597  83.77 0.0002851949    1.556    0.357
        44 -12.4110    135.5956      3.0971   1.2945804400e+01   5.0205246362e+01    0.8331896    0.2958228  80.62  0.003438832    2.690    0.628
        45 -11.5271    113.5538      2.6730   1.5675595610e+01   5.5520239724e+01     0.546212    0.2848275  89.60  0.002537788    1.905    0.475
        46 -10.4480    105.4465      2.1402   1.6759745228e+01   5.7529511442e+01    0.3422121    0.1827857 -78.04  0.001504189    2.148    0.534
        47  -9.4169     64.3676      2.2230   2.6270947597e+01   6.7252073898e+01    0.1493598    0.1173281 -45.15 0.0003802736    1.494    0.331
        48  -9.6758     13.1850      2.2795   5.4201988173e+01   7.6978936847e+01    0.2096227    0.1264129  29.46 0.0005175994    1.434    0.303
        49  -9.6629    152.4643      1.4484   1.0762939311e+01   4.6440386819e+01    0.2303495    0.1016027  78.41 0.0006206128    1.945    0.486
        50 -10.7336     41.9004      3.6602   3.6020997343e+01   7.1910475495e+01    0.3120984    0.2076313  32.34  0.001115943    1.509    0.337
        51 -10.4992     73.6673      3.5367   2.4133533757e+01   6.4987495532e+01    0.5272841    0.1893357  57.37   0.00228174    2.175    0.540
        52 -10.9510    104.6411    122.3657   5.3218331527e+01   3.6800432966e+01    0.3441001    0.3266612 -85.42 0.0009170418    1.058    0.055
        53 -10.3332     56.9815    122.3671   6.9103333212e+01   4.4804790764e+01    0.4841625    0.2198166  48.86  0.001473223    2.411    0.585
        54 -11.5874    245.3399    118.7459   2.6091790612e+01   1.3109081440e+01    0.3767928    0.2147129 -66.44  0.002046129    2.753    0.637
        55  -9.9731     44.5206    119.9934   7.3431584355e+01   4.7085318055e+01    0.2899728    0.2038193  73.82 0.0009483841    1.630    0.386
        56  -9.7889     43.4851    116.4800   7.3242390014e+01   4.8143007174e+01    0.2772513    0.1868894  65.63 0.0009104111    1.698    0.411
        57  -8.8703     58.2744    118.6525   6.7926880818e+01   4.5586207797e+01    0.1578248    0.1118279  67.52 0.0004511632    1.629    0.386
        58 -10.7806      7.8818    114.8580   8.7633658286e+01   5.1898739782e+01    0.2861767    0.2581091 -12.74 0.0003648325    1.183    0.155
        59 -12.0635      2.5591    111.7779   8.9574333898e+01   5.3027880503e+01    0.4594294     0.349479 -82.27  0.000899329    1.262    0.207
        60 -11.3442      4.3890    105.5629   8.8207615671e+01   5.4575113158e+01    0.4576821    0.3932072   4.83  0.001943176    1.222    0.182
        61  -9.3986     79.1803    115.2326   5.9709483327e+01   4.3120931449e+01    0.2131776    0.1749745  69.15 0.0008518067    1.308    0.235
        62  -9.1702     67.7923    115.0125   6.3683283319e+01   4.5069537655e+01    0.2344308    0.1550938  54.11 0.0009420895    1.608    0.378
        63  -9.7529     31.5185     97.0328   7.4831744938e+01   5.4623861076e+01    0.4703268    0.2349547  52.45  0.001852922    2.373    0.579
        64  -9.9921     35.9129    102.9066   7.3972930013e+01   5.2609983052e+01    0.7896811    0.3583189   5.51  0.002569812    3.595    0.722
        65  -9.5126     28.5594    100.5465   7.6781733901e+01   5.4018405345e+01    0.2369515    0.1781222  57.06 6.980461e-05    1.411    0.291
        66 -11.5611     25.3780    107.0364   7.9221399078e+01   5.2619506950e+01    0.8160721    0.4342911 -39.39  0.003418732    2.135    0.532
        67 -11.8002     22.4822    114.5165   8.1510075642e+01   5.0890317583e+01    0.6334099    0.2890409   8.74  0.001570243    2.621    0.619
        68 -11.5652     28.4856    113.0518   7.8802676231e+01   5.0721438471e+01    0.4538031    0.3272986  26.62  0.002203804    1.364    0.267
        69 -10.0954     49.1753    112.1302   7.0195827628e+01   4.8552973669e+01    0.3268334    0.1979309  34.25  0.000918624    1.566    0.362
        70 -12.2765     80.0856    108.0267   5.7776144874e+01   4.4723248546e+01     0.359329    0.3115226  27.18 0.0004037195    1.202    0.168
        71 -11.1744     15.5591    109.2697   8.3767736891e+01   5.2858414721e+01    0.4763185    0.3434294   7.30  0.001678531    1.476    0.322
        72 -11.0772     50.8945    100.2970   6.7104939133e+01   5.1359841894e+01    0.7952983    0.4508127 -27.18  0.002987854    2.726    0.633
        73  -8.4664    182.6685    104.6705   3.1828845440e+01   2.5313575836e+01    0.1258035    0.1031473  -3.26 0.0007051808    1.717    0.418
        74  -9.8681     85.8826    103.5712   5.4744894434e+01   4.4729328428e+01    0.2443577    0.2070571 -42.80 0.0005309109    1.278    0.218
        75 -11.4463     17.6525    100.7891   8.1717473330e+01   5.4941565621e+01    0.3396936    0.2645255  41.76 0.0006339698    1.291    0.225
        76 -11.6694      9.3964     96.9212   8.4979160936e+01   5.6551157904e+01    0.5297596    0.4326992  30.00 0.0007701402    1.239    0.193
        77 -11.2452     79.4168     92.2413   5.4123915004e+01   4.8578891665e+01    0.6864267    0.6097946  55.89  0.003663407    1.083    0.077
        78 -11.5965     75.9741     79.6693   5.1930133932e+01   5.2061191188e+01    0.9429263    0.6466253  77.88  0.002028359    2.077    0.519
        79  -9.0746     64.6895     98.6904   6.1213628581e+01   4.9642889372e+01    0.2077878    0.1922613 -18.28 0.0003854683    1.194    0.163
        80 -11.4448     68.8418     95.4799   5.8841755405e+01   4.9721844790e+01    0.5344456    0.2787527  40.47  0.001395221    1.809    0.447
        81  -9.1248    210.4109     98.4751   2.6543005344e+01   2.1437861249e+01    0.1209231    0.1005695 -50.30 0.0001474074    1.030    0.029
        82 -11.9696    125.5734     94.7967   4.0998618413e+01   3.8630731666e+01    0.3270007    0.2569136  67.17 0.0002118743    1.300    0.231
        83 -11.8423     21.8686     93.8855   7.8710858379e+01   5.6389542282e+01    0.7194098    0.3969457  50.24  0.001251231    2.000    0.500
        84 -10.3639     17.8800     86.6967   7.9410691433e+01   5.8581781525e+01    0.4914554    0.2539485   7.32  0.002100131    2.161    0.537
        85 -10.4417     25.4036     87.5466   7.5898598002e+01   5.7687594331e+01    0.5391297    0.2619949  54.99   0.00204304    2.666    0.625
        86 -10.0050     28.1274     84.5324   7.3982539955e+01   5.8173953276e+01    0.4834224    0.3293467  42.89  0.001534484    1.495    0.331
        87 -11.4357    248.3632     94.7577   2.1594876321e+01   1.6090567558e+01    0.3027124    0.1924039 -18.30  0.001770344    2.510    0.602
        88 -10.1882     43.3234     94.3290   6.9036775446e+01   5.3905272406e+01    0.3112338     0.254077  15.96  0.001099091    1.266    0.210
        89 -10.9437     42.3343     90.7213   6.8682592852e+01   5.4942418352e+01    0.5033055    0.2732441  42.91  0.001072351    1.839    0.456
        90 -10.5229     35.4231     92.3814   7.2157376635e+01   5.5379798004e+01    0.3286693    0.2501868  83.25  0.001016857    1.512    0.339
        91 -11.7696     98.6511     91.1135   4.7463024865e+01   4.5040908546e+01    0.3659655    0.2461076  52.48  0.001695937    1.449    0.310
        92 -10.2526     49.6038     91.1011   6.5579245363e+01   5.3846990599e+01    0.4245815    0.3012773  72.28  0.001966833    1.765    0.433
        93 -11.5318      6.7971     88.2890   8.5106315791e+01   5.8951816425e+01    0.6333776    0.3948961   3.79  0.002644658    1.697    0.411
        94  -9.8672     66.5669     88.4720   5.7934327467e+01   5.1778915992e+01    0.3279175     0.222124 -14.81 0.0008372522    2.356    0.575
        95  -9.6553     90.6094     85.7792   4.8564043736e+01   4.7836249914e+01    0.3713077    0.2857018  74.44  0.001802768    1.490    0.329
        96  -9.4296     51.9029     86.9062   6.3573400929e+01   5.4534582393e+01    0.1938679    0.1667539  67.59  0.001018851    1.250    0.200
        97 -11.3370     44.6510     84.8468   6.6275246602e+01   5.6083930201e+01     0.542087    0.4634242  34.43  0.001823074    1.129    0.114
        98 -10.3518     37.5480     85.7157   6.9745861791e+01   5.6801117682e+01    0.3920015    0.2534672   6.83  0.001779747    1.830    0.454
        99 -10.3301    143.1481     84.4499   3.4408229962e+01   3.6869091153e+01    0.2381188    0.1863035 -57.03 0.0003907087    1.238    0.192
       100  -9.7484    112.7719     83.2312   4.1271659227e+01   4.3698839950e+01    0.4282183    0.2309398  58.41  0.001770266    1.966    0.491
       101 -10.3045     67.2941     81.6750   5.5814209588e+01   5.3222597581e+01    0.3378754    0.2877015  -5.18  0.001689587    1.416    0.294
       102  -9.7542     60.1088     83.2541   5.9153517400e+01   5.4100833624e+01    0.2177763     0.202274   0.21  0.000521605    1.163    0.140
       103 -11.2139     52.9632     74.9432   5.9934494253e+01   5.7192341995e+01     0.617237    0.3448555 -62.38  0.002290708    2.017    0.504
       104 -10.8193     88.7506     78.0612   4.6992390446e+01   4.9859537372e+01    0.5736351    0.3053001  51.82  0.002379636    1.859    0.462
       105 -10.0684     94.6473     76.5687   4.4658703050e+01   4.8935260048e+01    0.3860496     0.215635  44.76  0.001366103    1.718    0.418
       106 -10.1577     58.0525     77.8545   5.8537163166e+01   5.5693808740e+01    0.2393892    0.2147091 -57.46 0.0005903105    1.169    0.144
       107 -11.6223    247.8160     76.6809   1.8449574744e+01   1.8641235239e+01    0.2753677     0.209035 -76.48  0.002083674    1.360    0.265
       108  -9.3560      4.1922     77.7006   8.4975748191e+01   6.1792469137e+01    0.1848485    0.1166598  -3.82 0.0003716157    1.672    0.402
       109  -9.2652     92.6288     72.2906   4.4031730609e+01   5.0227009824e+01    0.2623695    0.1784444 -83.71  0.001128103    2.131    0.531
       110 -11.0617     14.1300     74.6560   7.9180727758e+01   6.1910538077e+01    0.3509294    0.2903362  84.27  0.001971926    1.335    0.251
       111  -8.6857    112.3223     75.6402   3.9285735442e+01   4.5284761442e+01     0.155527    0.1108575 -86.34 0.0007043391    1.773    0.436
       112  -9.6679    103.2943     74.9005   4.1572867409e+01   4.7410146965e+01    0.2631857    0.1940749  62.31  0.001064325    1.338    0.253
       113 -10.8298      2.0053     71.5590   8.5263922220e+01   6.3435733098e+01    0.4187495    0.2232102 -69.86  0.002013246    1.782    0.439
       114 -12.4787      6.8504     61.4355   8.0754460872e+01   6.5632231189e+01    0.8796495    0.5188338 -21.94  0.004346586    1.797    0.444
       115 -11.7687     10.9208     50.9242   7.5893938374e+01   6.7801299002e+01    0.5128782    0.2120207 -47.96  0.002235887    2.250    0.556
       116  -9.5121     24.7177     73.8744   7.3409938244e+01   6.1163160663e+01    0.2304742    0.1589018 -46.12  0.001169812    1.444    0.307
       117  -8.9703     88.6543     73.2532   4.5606690826e+01   5.0871749285e+01     0.149624    0.1103213  73.37 0.0005605108    1.586    0.369
       118 -10.2891     81.1936     71.9148   4.7750253764e+01   5.2683726496e+01    0.4343329    0.2403104 -38.36  0.001804431    2.195    0.544
       119 -10.0735     77.9434     67.7864   4.7639925566e+01   5.4187869163e+01    0.3425986    0.2136491 -79.20  0.001327016    2.798    0.643
       120  -9.0719     44.6644     69.2153   6.2139678264e+01   5.9777239761e+01    0.1923527    0.1262221 -47.09 0.0004185062    1.586    0.369
       121 -10.6740     34.4505     71.8316   6.7901686141e+01   6.0557446259e+01    0.5289967    0.2104196  33.06   0.00207227    2.297    0.565
       122  -9.8498     41.2014     72.8355   6.4821637365e+01   5.9435403023e+01    0.2941245    0.2317731 -15.25 0.0008753467    1.454    0.312
       123 -10.8295     40.2944     69.0827   6.4234101659e+01   6.0432504902e+01    0.2972125    0.2346981  28.58 0.0006088719    1.211    0.174
       124  -9.2630    154.0554     72.4329   2.9296806009e+01   3.6622589068e+01    0.2007371    0.1277549  59.13 0.0006369947    1.565    0.361
       125 -10.5367    122.8031     68.7772   3.4724604834e+01   4.4212727284e+01    0.4317832    0.2312836  52.23  0.001690622    1.794    0.442
       126 -10.4836     13.6882     67.4320   7.8002829839e+01   6.3713667569e+01    0.4086736    0.2081324  10.46  0.001724632    2.047    0.511
       127  -9.8395     96.5040     65.5046   4.0764843477e+01   5.0707228886e+01    0.2471627    0.2266814  68.58 0.0005304072    1.002    0.002
       128 -10.8845     92.6739     62.8449   4.1107024229e+01   5.2047024395e+01    0.4131841    0.2525151  60.73  0.001082194    1.686    0.407
       129 -10.2735    201.7884     64.9112   2.0741526983e+01   2.8061657987e+01    0.2036627    0.1566632 -87.04 0.0002600893    1.277    0.217
       130  -9.7130    158.5011     63.0116   2.6180464684e+01   3.7190551223e+01    0.2557526    0.1665091  50.10 0.0008628403    1.733    0.423
       131  -9.6695    104.7312     63.5713   3.7796028926e+01   4.9235356252e+01    0.2026061    0.1306121  64.92 0.0008240428    1.591    0.372
       132  -9.8846     51.4199     56.0173   5.4762755876e+01   6.1568078899e+01    0.4712598    0.2389376 -39.72  0.001976848    2.335    0.572
       133 -10.2471     51.2296     61.3986   5.6636499901e+01   6.0473498260e+01    0.3659278    0.2272145  46.19  0.001725778    1.595    0.373
       134 -10.6574     40.3509     56.8338   6.0513744241e+01   6.3154594579e+01    0.3567426    0.1815665  31.40 0.0009342618    1.858    0.462
       135 -11.2214     43.1026     60.8679   6.0398298818e+01   6.1872186491e+01    0.3942669    0.2567583 -59.15  0.001163703    1.675    0.403
       136 -10.7425     46.4509     59.5011   5.8307017795e+01   6.1652433195e+01    0.2958212    0.2620732  76.59 0.0008646274    1.300    0.231
       137 -10.1774     65.5950     61.4318   5.0355516756e+01   5.7903192997e+01    0.2791176    0.2240528 -72.22  0.001460053    1.467    0.318
       138  -9.6498     57.9220     61.9594   5.3784786700e+01   5.9205671112e+01    0.2319536    0.1745147  72.11  0.001139485    1.692    0.409
       139  -9.2367    113.7393     60.9966   3.4654294340e+01   4.7647987514e+01    0.1826826     0.123593 -44.90 0.0008923262    1.557    0.358
       140  -9.8438    122.9569     44.6681   2.7611770074e+01   4.8142447758e+01    0.2535016    0.1907582  65.54 0.0006889655    1.211    0.174
       141 -11.1726    118.2216     55.6516   3.1972426179e+01   4.7521856498e+01     1.428161    0.7314447 -74.86  0.004281251    4.925    0.797
       142 -11.8250    119.5644     37.6499   2.6135979394e+01   4.9965283001e+01    0.5476075    0.3185103 -53.95  0.001569275    1.822    0.451
       143 -11.1097    117.4176     45.0665   2.8913394052e+01   4.9387698674e+01    0.5625355    0.3530889 -51.35  0.002481976    1.657    0.396
       144 -11.0280    111.3053     40.7419   2.8908651161e+01   5.1478193788e+01     0.765071    0.4244669 -58.21  0.003444286    2.126    0.530
       145 -10.7831     31.3922     52.8574   6.4076799629e+01   6.5250103583e+01      1.04355    0.3367227  19.39  0.002775863    5.788    0.827
       146  -9.6708     29.7779     59.9019   6.7118556405e+01   6.3892526106e+01    0.3574543    0.3034102  72.35  0.002030194    1.400    0.286
       147 -10.4318     25.0931     59.6623   6.9670417834e+01   6.4484977929e+01    0.6364617    0.1913271  39.24  0.002197663    3.339    0.701
       148 -10.4168     25.1037     55.9297   6.8612557012e+01   6.5329846919e+01    0.3600471    0.2689546  -6.81  0.001106614    1.433    0.302
       149 -12.2115     74.6318     53.0116   4.3958113417e+01   5.7732920915e+01    0.4735223    0.4326183 -69.72 0.0009109071    1.183    0.155
       150 -11.9483     72.9647     47.5084   4.2610784450e+01   5.9073403220e+01    0.7012721    0.3274567 -56.18  0.002469113    2.986    0.665
       151 -10.0831     88.0111     56.3616   4.0481005685e+01   5.4261856851e+01    0.3695656    0.1969396 -36.27  0.001207149    2.289    0.563
       152  -9.1944    106.5277     58.4776   3.5740824466e+01   4.9734670090e+01     0.146259     0.128828  81.22 0.0002058489    1.069    0.065
       153  -9.7524    157.1774     56.8320   2.4830657974e+01   3.8441558190e+01    0.2114467    0.2088498 -16.44 0.0002383747    1.321    0.243
       154  -9.8510    157.0036     54.0000   2.4134333715e+01   3.8908896747e+01     0.570433    0.2915809 -74.90  0.002249004    3.021    0.669
       155 -10.1000    124.8770     56.6249   3.0767340654e+01   4.5820522166e+01    0.2542959    0.1942179 -58.93  0.000577477    1.315    0.239
       156 -10.4029     60.4875     52.0259   4.9269306648e+01   6.0731836018e+01    0.3419103    0.2015553 -47.88   0.00160178    1.844    0.458
       157 -10.7140     60.6156     47.0755   4.7404261391e+01   6.1640610022e+01    0.4853487    0.3481903 -15.81  0.001954801    1.989    0.497
       158  -8.9006    211.6891     53.7048   1.7376798938e+01   2.7782366997e+01   0.09903257   0.09335613  12.72 0.0002021015    1.594    0.372
       159  -8.8228    201.2780     53.3491   1.8343718258e+01   2.9790869077e+01    0.1049884   0.09562231  -2.68 0.0003636768    1.640    0.390
       160  -9.4051    215.2311     51.9706   1.6691355497e+01   2.7366728596e+01    0.1598542    0.1220534 -57.37 0.0002616317    1.046    0.044
       161 -12.1900     43.6466     45.0509   5.4678717713e+01   6.5060028904e+01    0.6989876    0.5520568  57.44   0.00195886    1.427    0.299
       162  -9.4399     55.4853     50.4787   5.0929491632e+01   6.1958398499e+01    0.1402485    0.1288703  40.29 0.0001114072    1.011    0.011
       163 -10.1211     51.8847     48.4616   5.1864556579e+01   6.2994897087e+01    0.2841021    0.2428231  42.83 0.0007253276    1.093    0.085
       164  -9.7134    239.8764     51.1214   1.4469387573e+01   2.3227248875e+01    0.1339217    0.1178506 -50.25 0.0004888909    1.301    0.231
       165  -9.3637    144.9660     50.7646   2.5238844451e+01   4.2108308818e+01    0.1708013    0.1478907 -15.83 0.0004139802    1.584    0.368
       166 -10.3181     31.4404     45.2407   6.1477740608e+01   6.6850024707e+01    0.5386973    0.2118354  30.07  0.002180249    2.382    0.580
       167 -10.5585     23.0910     37.2548   6.3708448384e+01   6.9541863223e+01    0.5363452    0.1837335  37.19   0.00212064    2.740    0.635
       168 -10.9526     20.6295     46.2907   6.8396497427e+01   6.7938120071e+01    0.4182225    0.2878778 -45.76  0.001796184    1.448    0.309
       169 -10.1385     26.4285     42.6049   6.3544136952e+01   6.8044263464e+01     0.280734    0.2608999   0.66  0.001120006    1.030    0.029
       170  -9.6705      2.0350     48.7359   8.1180291567e+01   6.8879836529e+01    0.2212879    0.1714013  61.30 0.0009906796    1.547    0.354
       171  -9.4608     82.4576     46.7780   3.8998398163e+01   5.7160614112e+01    0.1809241    0.1400323 -24.76 0.0009368229    1.640    0.390
       172 -10.1964    200.2235     45.1641   1.6698049484e+01   3.1100448782e+01    0.2514583    0.1553184  83.57  0.001140471    1.634    0.388
       173  -9.0617    179.7328     45.3125   1.8927662803e+01   3.5233293841e+01    0.1298902   0.07942966 -65.51 0.0002619424    1.545    0.353
       174  -9.5748    139.1303     44.0148   2.4370879485e+01   4.4448250667e+01    0.3124003    0.1766503  44.93  0.001434853    2.246    0.555
       175 -10.3335    156.0949     42.1927   2.1213161979e+01   4.0817844590e+01     0.254593    0.2006107 -46.10 0.0008293241    1.301    0.231
       176  -9.9215     57.3250     41.9353   4.6878921534e+01   6.3205801185e+01    0.2582125    0.1697483  49.94  0.001300628    1.440    0.305
       177 -10.9952      4.1455     36.5939   7.6704729784e+01   7.1453171665e+01    0.5316947    0.3507139 -53.70  0.003047927    1.457    0.314
       178  -8.8765     34.6775    245.3253   8.8552490728e+01   1.7453141709e+01    0.1367253   0.06942764  49.59 0.0007047747    1.685    0.407
       179  -9.3624     91.0922     41.4692   3.4402811808e+01   5.6087261144e+01    0.2107442    0.1261127  57.22 0.0004151109    1.503    0.335
       180 -10.4766     80.5974     39.2113   3.6846134674e+01   5.8812421286e+01    0.4750465    0.2791419  77.37   0.00194285    2.620    0.618
       181 -10.4129    131.4701    240.9910   6.5546420655e+01   7.6066345906e+00     0.201427    0.1406661  21.28  0.001147218    1.196    0.164
       182  -9.6337    195.0456     37.6407   1.5562362021e+01   3.3104433352e+01    0.1600696    0.1260525 -83.59 0.0002924416    1.134    0.118
       183 -11.5149    175.3526     33.7677   1.6683276979e+01   3.7692298514e+01    0.4434093    0.2198381 -47.75 0.0001785436    1.771    0.435
       184 -10.8318     61.2552     36.0709   4.2829688824e+01   6.3439576615e+01    0.4693826    0.3473173  -3.78   0.00153795    1.955    0.488
       185 -10.2366     68.2796     32.3715   3.8514100918e+01   6.2567661122e+01    0.3663054    0.2437121  58.05  0.001513792    1.412    0.292
       186 -11.9368     58.0055     30.0138   4.1668572340e+01   6.5070450075e+01    0.3719441    0.3142731  26.47  0.001448037    1.232    0.188
       187 -11.7810     49.3767     30.3366   4.5766476575e+01   6.6700184569e+01    0.6636141    0.2994186  42.04  0.002681861    1.989    0.497
       188  -9.7467    231.5630     37.4645   1.2525992257e+01   2.6320725589e+01    0.1108839   0.08255981 -59.52 3.290016e-05    1.019    0.019
       189  -9.3340     99.3598     41.6620   3.2162975283e+01   5.4146940324e+01    0.1495779    0.1026626 -83.26 0.0007037526    1.819    0.450
       190 -10.5830    152.9525     36.0226   2.0026445071e+01   4.2368338158e+01    0.2330389    0.1684606  71.74 0.0003361024    1.284    0.221
       191 -10.8419     67.7699    240.7717   8.0277916784e+01   1.4943015676e+01      0.23347    0.1781537  -3.99  0.001070089    1.512    0.339
       192  -9.9540     76.2866    240.1678   7.8173071384e+01   1.4116523270e+01    0.1881805    0.1564996 -30.93   0.00119007    1.429    0.300
       193 -12.3169    113.9787     25.2607   2.3242854636e+01   5.2951507156e+01    0.7655959    0.2880125  52.47  0.002041779    2.572    0.611
       194 -10.0173    241.0336     31.9738   1.0874988957e+01   2.5374714201e+01    0.1382263    0.1319143   1.10  0.001135693    1.708    0.415
       195  -9.4125     22.1475     32.1997   6.2378345661e+01   7.0654939022e+01    0.1923418    0.1579971  -5.30 0.0006561572    1.193    0.162
       196 -11.5740     26.4311     28.5789   5.8019551224e+01   7.0779596708e+01    0.4264183    0.3344053 -53.55  0.001655061    1.462    0.316
       197  -9.9479     31.1913     27.2058   5.4377710118e+01   7.0335683823e+01    0.3168064    0.1654664 -38.82  0.001522888    2.152    0.535
       198 -10.7070     38.8228     22.1992   4.7515405658e+01   6.9926170991e+01    0.2219248    0.1944308  -7.55 0.0003406264    1.228    0.186
       199 -10.4448    147.3064    239.0493   6.1939456541e+01   6.1283946347e+00    0.1661685    0.1461004  -1.22  0.001168867    1.114    0.102
       200 -11.4486    183.0279     26.1492   1.4101505695e+01   3.7003883530e+01    0.4972459    0.3040307 -38.42  0.002930671    1.628    0.386
       201 -11.3078    188.9251     27.6359   1.3898636689e+01   3.5596051806e+01    0.3074285    0.2974297 -64.65  0.001342263    1.386    0.278
       202  -9.1890     15.4322    233.7684   9.2653723306e+01   2.1609779800e+01    0.1547332    0.1118191 -66.67 0.0009408177    1.640    0.390
       203  -9.0622     44.6868    215.3138   8.4131383422e+01   2.2843575856e+01    0.1451671   0.08253545  51.94 0.0007032882    1.637    0.389
       204  -9.3245     86.0064     30.6901   3.1927336182e+01   5.8863256489e+01    0.1978587    0.1643185  58.65  0.001146044    1.071    0.066
       205  -9.8171     32.8330     31.1670   5.5126031561e+01   6.9377952179e+01    0.1842414    0.1660664  38.70 0.0003004053    1.136    0.120
       206 -12.0179    125.9863     28.0879   2.1938752244e+01   4.9716057912e+01    0.4707906    0.3242834  84.67  0.001475472    1.349    0.259
       207  -9.6364    187.4919     22.9501   1.2962179745e+01   3.6451595018e+01    0.1700341    0.1537035 -87.52 0.0005211615    1.272    0.214
       208 -10.4924    230.2831     27.0462   1.0632924384e+01   2.7783672833e+01    0.2074481    0.1481054  80.04  0.001236789    1.485    0.327
       209 -11.7381    144.6937     25.0034   1.8146837953e+01   4.5677653548e+01     0.459794    0.3075953  73.62   0.00214648    1.329    0.247
       210  -9.4279     97.9222     26.6362   2.7224661217e+01   5.6620373781e+01    0.2256819    0.1504697  51.36  0.001067611    1.433    0.302
       211 -10.0190    206.7119     26.0037   1.2066356700e+01   3.2241546538e+01     0.162643    0.1187223 -57.91 0.0004044709    1.095    0.087
       212  -9.3979    164.4992    211.9174   5.4707707283e+01   8.6757782578e+00    0.1707429    0.1156417 -43.96 0.0005555305    1.518    0.341
       213 -10.7801      9.2304    211.2031   9.3302099924e+01   2.7117758992e+01    0.2839223     0.143535  34.39  0.001433264    1.599    0.375
       214 -10.1330     13.9602     23.0267   6.4444625421e+01   7.3353883034e+01      0.22901    0.1674671 -28.85  0.000332182    1.373    0.272
       215  -9.1076     61.4711    206.5464   7.8870360744e+01   2.2968377912e+01    0.1386459    0.1209144  37.47 0.0003992387    1.008    0.008
       216  -9.9183     78.7637    204.2682   7.3969973804e+01   2.1374821473e+01    0.2751399    0.1952851  60.62 0.0008290588    1.548    0.354
       217 -11.1378      5.3885    200.8127   9.3906435243e+01   2.9848710115e+01    0.4877474     0.115151 -65.47  0.001694042    4.106    0.756
       218 -11.1467    155.1032     23.2397   1.6335544369e+01   4.3488068142e+01    0.3989679    0.2789204 -50.74  0.002385944    1.348    0.258
       219  -9.4754      1.6376    199.6989   9.4885506063e+01   3.0396640214e+01    0.1267035   0.09422621 -34.28 0.0007035877    1.724    0.420
       220 -12.3558      4.6527    183.9482   9.3390815231e+01   3.3998649691e+01    0.6684387    0.4537912  79.27  0.003179265    1.403    0.287
       221  -9.7721     28.0043    176.4363   8.5889421383e+01   3.3926897442e+01     0.271416    0.1817788 -57.04  0.001363101    1.615    0.381
       222 -10.4463     15.9754    174.3014   8.9453769955e+01   3.5547249499e+01    0.2768582    0.1645063  61.55   0.00133615    1.615    0.381
       223  -9.3014     39.3405    173.6990   8.2128505611e+01   3.3479531595e+01    0.1582948   0.09247631  53.47 0.0007037183    1.671    0.401
       224 -10.3610     59.8619     22.9038   3.7742307056e+01   6.5749572723e+01    0.2748679      0.19724 -34.58 0.0008073784    1.609    0.379
       225  -9.0977     45.5596     24.5264   4.5028798093e+01   6.8344756327e+01    0.1311006    0.1162175  38.79 3.761686e-05    1.025    0.024
       226  -9.6988    169.4096     23.4915   1.4807396311e+01   4.0252302332e+01    0.2529114    0.1075092  71.80  0.001208426    2.166    0.538
       227  -9.3700     90.9508     23.0086   2.7622787674e+01   5.8738688670e+01    0.1754293    0.1376832  65.99  0.001007021    1.098    0.090
       228  -9.2279    223.6719     22.2809   1.0136016004e+01   2.9508044321e+01    0.1169139   0.06039677 -63.71 0.0003291125    1.601    0.375
       229 -10.8930    178.4892     20.7977   1.3266468705e+01   3.8599858341e+01    0.3447464    0.2486521  42.29  0.002055601    2.101    0.524
       230  -9.2428      5.1365     22.3136   7.1213969313e+01   7.4324480172e+01    0.1759573   0.09402195  27.68 0.0009221358    1.752    0.429
       231  -9.2259    190.3235    170.6805   4.3159541337e+01   1.2437640155e+01    0.1144759   0.09821856 -84.43 0.0007045139    1.674    0.402
       232  -9.5681    216.5527     20.0533   1.0153590774e+01   3.1066332762e+01    0.1645366   0.08805759 -42.86 0.0004550861    1.559    0.358
       233  -9.9406     74.6276     19.5715   3.0928540214e+01   6.2961790261e+01    0.2404541    0.1854259  19.77 0.0009292599    1.678    0.404
       234  -9.5258     46.3652     20.0464   4.2481650591e+01   6.8873405162e+01    0.1722306    0.1665025  28.79 0.0006492377    1.120    0.107
       235 -11.7429      9.7274    155.4723   9.0224011093e+01   4.0930982535e+01    0.4826404      0.32771  61.32   0.00248877    1.398    0.284
       236 -11.9526      9.1871    166.9901   9.1125989913e+01   3.7963740827e+01    0.8598302    0.3421875  23.50  0.003548485    2.297    0.565
       237 -10.5985    199.2753     17.3417   1.0781029291e+01   3.4700912397e+01    0.2051951    0.1478277 -69.95 0.0003629315    1.077    0.071
       238 -11.0256    239.0094     16.5420   8.1696194600e+00   2.7467522932e+01    0.2272288    0.1467551 -88.62  0.001121565    1.470    0.320
       239 -10.9850    228.7934     15.8678   8.5963766020e+00   2.9312003233e+01    0.2124232    0.1485317 -80.03 0.0003663484    1.242    0.195
       240 -11.4774     11.4082    162.2048   9.0113985134e+01   3.9039645658e+01    0.4204496    0.2564155  68.01  0.001527285    1.606    0.377
       241 -10.8425    186.8870     15.1275   1.1230581599e+01   3.7471823751e+01    0.2382155    0.1570739 -86.36 0.0003846214    1.303    0.233
       242  -9.9544    148.0147     15.9976   1.5210040839e+01   4.5954890164e+01    0.3664502   0.09914362  59.78  0.001206725    3.278    0.695
       243 -10.9642     14.2944    159.2488   8.8964370351e+01   3.9589872871e+01    0.3920724    0.2152928 -81.27  0.001203472    1.801    0.445
       244  -9.1056    152.3318    166.6648   4.9960549572e+01   1.8804665388e+01    0.1340506    0.1075239  77.72 0.0007052189    1.733    0.423
       245 -10.7984     18.9145    164.7570   8.7856708478e+01   3.7767372330e+01    0.3668661    0.2520488 -21.59  0.001800825    1.839    0.456
       246  -8.9717     76.2682     14.6918   2.8329729902e+01   6.3182807621e+01    0.1262258   0.09564873 -79.30 0.0002010065    1.538    0.350
       247 -10.8529    205.2968    163.3837   3.9354909464e+01   1.1619726764e+01    0.2170524    0.1848919 -39.05 0.0006990055    1.112    0.101
       248 -10.4243     28.3744    161.5476   8.4498895558e+01   3.7752225223e+01     0.277285    0.2566744 -48.02  0.001447504    1.195    0.163
       249 -10.3223     31.5901    155.9982   8.2892465566e+01   3.8902144143e+01    0.3271417    0.1380374 -74.68  0.001257629    2.408    0.585
       250 -12.7056     22.8187    148.9959   8.5221790531e+01   4.1593795077e+01    0.7102991    0.3557906 -40.81  0.001644992    2.458    0.593
       251 -10.6218     16.3548    147.7561   8.7372752883e+01   4.2470758101e+01    0.2661447    0.2373308 -72.92 0.0007941255    1.136    0.120
       252  -9.6522    104.3068    155.0410   5.9787003889e+01   2.9157339048e+01    0.2098048    0.1983423 -76.52  0.001164457    1.108    0.097
       253 -12.1018    104.3626     32.7809   2.7857526255e+01   5.4263359445e+01    0.6385017    0.2919063  50.06            0    2.135    0.532
       254 -11.1386     46.6709    148.1595   7.6830798937e+01   3.9329292024e+01    0.7953838     0.440217 -53.13  0.003424343    1.883    0.469
       255 -10.4813      4.4047    153.7138   9.1899650126e+01   4.1763835361e+01    0.2574909    0.1432806  33.88 0.0008395116    1.652    0.395
       256  -9.7981     61.1763    152.0372   7.2484687286e+01   3.6462486674e+01    0.2666423    0.2058711  32.42 0.0006428192    1.230    0.187
       257  -9.3644     65.9590     10.4891   2.9718163158e+01   6.6013066582e+01    0.2060062    0.1111231  58.49 0.0005953148    1.568    0.362
       258  -9.8776     30.0895    152.2211   8.3019339514e+01   4.0053793866e+01    0.2958129     0.165273 -11.77  0.001159299    2.644    0.622
       259 -12.0921      4.5145    143.1507   9.1202074675e+01   4.4549197032e+01    0.8887836    0.3948193  53.03  0.003398574    2.214    0.548
       260 -10.3027      3.0874    147.9132   9.2001316113e+01   4.3377564255e+01     0.212995    0.1979754  75.34  0.001287921    1.029    0.029
       261  -9.7348    104.0699    146.9861   5.8381478632e+01   3.1100460790e+01    0.2141638    0.2067811  24.14  0.001189964    1.053    0.050
       262 -10.6770     33.0376    144.3989   8.1139579970e+01   4.1847696990e+01    0.2924077    0.2610287  40.15 0.0008420547    1.075    0.070
       263 -10.3922     40.8377    138.9176   7.7659096109e+01   4.2472683431e+01    0.4124949    0.3114792 -73.61  0.001646504    1.339    0.253
       264 -11.0975     80.1924    138.6717   6.4065423977e+01   3.7089656959e+01    0.3168477    0.2491622  43.68 0.0004389562    1.211    0.174
       265  -9.5236     32.0473    137.4894   8.0681863480e+01   4.3803619536e+01    0.3601054    0.1892586  37.34 0.0008210972    1.761    0.432
       266 -11.7115     23.3531    136.6571   8.3798341601e+01   4.4857091060e+01    0.6746942    0.4990768  33.81  0.001423144    1.298    0.230
       267 -10.6721     30.1164    132.8681   8.0835150057e+01   4.5241131733e+01    0.4083076    0.3242453 -20.11  0.001193981    1.454    0.312
       268 -11.2325     12.4759    135.8956   8.7762741009e+01   4.5944320645e+01    0.6038773    0.3380643 -45.21  0.002716701    1.956    0.489
       269  -9.3290     47.1578    132.1537   7.4382745456e+01   4.3526504327e+01    0.2174964    0.1676898  60.68  0.001069364    1.329    0.247
       270 -10.9261      9.9009    127.6196   8.8012717042e+01   4.8348263360e+01    0.5215276    0.2845228 -60.88  0.001926542    1.761    0.432
       271  -8.8200     26.5126    127.5230   8.1552971029e+01   4.7029096163e+01    0.1439433    0.1371496  65.16 0.0003004129    1.005    0.005
       272  -9.4898     22.9570    126.8032   8.2849052707e+01   4.7547348439e+01    0.1925456    0.1808404  48.93 0.0003982318    1.039    0.038
       273  -9.9636     33.2889    125.9136   7.8712943513e+01   4.6788363578e+01    0.2433242    0.1752499  75.17  0.001171847    1.496    0.332
       274 -10.0056      2.1103    126.1939   9.0912654060e+01   4.9212570295e+01    0.2711765    0.1652009  43.91  0.001304792    1.598    0.374
