#   1 NUMBER                 Running object number                                     
#   2 MAG_AUTO               Kron-like elliptical aperture magnitude                    [mag]
#   3 X_IMAGE                Object position along x                                    [pixel]
#   4 Y_IMAGE                Object position along y                                    [pixel]
#   5 X_WORLD                Barycenter position along world x axis                     [deg]
#   6 Y_WORLD                Barycenter position along world y axis                     [deg]
#   7 A_WORLD                Profile RMS along major axis (world units)                 [deg]
#   8 B_WORLD                Profile RMS along minor axis (world units)                 [deg]
#   9 THETA_WORLD            Position angle (CCW/world-x)                               [deg]
#  10 FWHM_WORLD             FWHM assuming a gaussian core                              [deg]
#  11 ELONGATION             A_IMAGE/B_IMAGE                                           
#  12 ELLIPTICITY            1 - B_IMAGE/A_IMAGE                                       
         1 -11.7850      6.4462    141.7800   1.2868618457e+02   4.4190911558e+01     2.821723    0.6373757 -79.99   0.01028151    4.374    0.771
         2 -13.1164    176.8757     39.3833   6.1134151451e+01   3.6033049417e+01     1.354212     1.133838   7.10  0.003897773    1.342    0.255
         3 -12.5305    181.2558     32.3793   5.8170410346e+01   3.5810258409e+01      1.14165    0.6948456  14.31  0.001515914    2.474    0.596
         4 -10.6344    189.5077     15.0334   5.1556112818e+01   3.5678350316e+01    0.3502437    0.3142965  39.23  0.001364388    1.173    0.148
         5 -13.1913    196.2473      6.8008   4.8249247465e+01   3.4760189406e+01     1.335424     1.013078  53.50  0.005077165    1.305    0.234
         6  -8.7061    224.4939      1.4642   4.3883657039e+01   2.8043376550e+01    0.1355693    0.1198784 -75.17 -1.75268e-05    1.014    0.014
         7 -11.1240     44.2484    178.2664   1.2408144980e+02   3.2971223122e+01    0.5535911    0.3059315  38.76  0.003313661    1.938    0.484
         8 -10.3312    188.0788    247.4650   1.0567383633e+02  -3.9839314498e-01    0.3315796    0.1705949 -42.16  0.001340165    2.568    0.611
         9 -10.3373    140.8830    249.1368   1.1372825505e+02   6.8607864831e+00     0.488822    0.2021949 -64.89  0.002226064    4.561    0.781
        10 -13.7887     11.3761    205.8342   1.3189849644e+02   3.1055837224e+01    0.6237629      0.58382 -16.32  0.005364553    2.023    0.506
        11 -13.9027     13.2423    245.5000   1.3342581681e+02   2.4111293013e+01    0.3983208    0.1677206 -73.76  0.001929915    2.283    0.562
        12 -18.4746     44.1729    240.9348   1.2863734548e+02   2.1502827239e+01     4.086162     3.150551  59.07   0.01741857    1.290    0.225
        13 -10.8060     47.1417    173.4842   1.2306034846e+02   3.3619715284e+01    0.2429526    0.2290509 -84.40  0.001354974    1.380    0.275
        14  -9.3673    233.9720    178.9120   8.6506933562e+01   4.5957460166e-01    0.1962164    0.1664257  16.39 0.0003693579    1.011    0.011
        15  -9.6089    130.8338    214.6315   1.1150054563e+02   1.3666586207e+01    0.2116184    0.1666261  79.21 0.0004252107    1.330    0.248
        16  -8.8792    141.0379    198.9385   1.0745686947e+02   1.4583548739e+01    0.1954816    0.1646525  62.13 0.0004802536    1.088    0.081
        17  -8.3018    121.1840    198.7506   1.1127755764e+02   1.8015693475e+01    0.1523002    0.1412284  37.16 0.0004619453    1.289    0.224
        18  -7.8661      2.2219    177.5376   1.3193945535e+02   3.7221879362e+01    0.1039441    0.0944197  79.98  0.000378322    1.435    0.303
        19 -14.3775     30.5376    223.9774   1.2979273874e+02   2.5880864600e+01    0.6623975    0.2291437  36.86    0.0035315    3.151    0.683
        20 -11.0328    193.4283    196.8650   9.7156847544e+01   5.3865979142e+00      1.14969    0.5364192 -57.97  0.003865189    5.500    0.818
        21  -8.7097      1.1685    194.0322   1.3299208832e+02   3.4156750519e+01    0.1214512   0.05650561 -82.97 0.0007830705    1.673    0.402
        22  -9.4209    235.0128    173.9571   8.5342786769e+01   9.4680925007e-01    0.2021336    0.1680468  15.11 0.0003285103    1.043    0.042
        23 -11.2712    203.2087    166.9742   8.9723017203e+01   8.1201550994e+00    0.5196107    0.3848029 -26.24 0.0008407077    1.441    0.306
        24  -9.1228    163.5524    203.4981   1.0383354737e+02   9.8193922729e+00     0.268944     0.164062  59.06  0.001066878    1.789    0.441
        25  -9.1325     24.8193    191.4902   1.2875418940e+02   3.2431316224e+01    0.1925435    0.1379626 -73.32 0.0007764822    1.418    0.295
        26 -10.0130    142.4730    171.8167   1.0286886542e+02   1.9264410423e+01    0.2959758     0.199168  76.44  0.001407587    2.007    0.502
        27  -9.3877    248.2972    202.0638   8.8432970637e+01  -4.9246899721e+00    0.2144543    0.1559265  36.17 0.0004519936    1.282    0.220
        28  -9.3496    235.1360    169.1079   8.4340396196e+01   1.5982520559e+00    0.2002535    0.1566915  11.78 0.0002637751    1.195    0.163
        29 -10.3286    194.0202    167.7932   9.1653466775e+01   9.8290809335e+00    0.3324229    0.3127581 -53.92   0.00092077    1.238    0.192
        30  -9.6849    190.0900    161.6523   9.1181592955e+01   1.1657759638e+01    0.3692919    0.2749446 -54.44  0.001086112    1.623    0.384
        31  -9.8450    189.4791    156.0680   9.0143410747e+01   1.2745988005e+01    0.3886777    0.3769385 -73.19  0.001292921    1.174    0.148
        32  -8.5717    156.0073    169.2672   9.9591606004e+01   1.7150512682e+01    0.1896723    0.1646488  48.46 0.0002587436    1.054    0.051
        33  -9.6778     17.6063    167.9158   1.2843360337e+02   3.7810800528e+01    0.2606186    0.2226437 -68.35  0.002045523    1.437    0.304
        34 -10.1022    246.0224    183.8392   8.5405832290e+01  -2.3307828343e+00     0.304508    0.2572317 -63.77  0.001334006    1.983    0.496
        35  -8.4215     33.1287    168.1549   1.2538366660e+02   3.6254587464e+01    0.1819766    0.1040297  71.97 0.0003474718    1.581    0.367
        36 -10.4446     26.7646    166.4687   1.2651358649e+02   3.7243620004e+01    0.3486524    0.2064231  27.23  0.001560002    2.350    0.574
        37  -9.5083    229.5262    166.0275   8.4693055149e+01   3.0991651010e+00    0.2047678    0.1280755 -29.46  0.001041363    1.620    0.383
        38 -10.5761     57.8785    165.1602   1.1997353398e+02   3.4078291463e+01    0.2421335    0.1782492 -75.21  0.001131922    1.216    0.177
        39  -8.6038     36.3379    166.2856   1.2456622915e+02   3.6308707421e+01    0.1751441     0.117588 -82.66 0.0003127519    1.215    0.177
        40 -10.6783     36.0939    162.7131   1.2428206079e+02   3.7083744740e+01    0.3502089    0.3169931  60.05  0.002226469    1.339    0.253
        41 -11.0708     36.4580    154.1788   1.2336463689e+02   3.8861544031e+01    0.4267576    0.3051328 -61.94  0.002825685    1.430    0.301
        42 -10.1366     14.6211    131.3076   1.2592799549e+02   4.5812573319e+01    0.2889247    0.1907193  10.53  0.001757936    2.437    0.590
        43  -9.3033    245.1147    244.1881   9.5912189611e+01  -8.8515198716e+00    0.1688619    0.1111964  22.25 0.0003678743    1.182    0.154
        44 -11.4536     32.2772    142.3431   1.2303934426e+02   4.1848079937e+01    0.4552134    0.3578632  35.90   0.00222631    1.574    0.365
        45 -10.5175     14.2416    160.6094   1.2854818307e+02   3.9611854347e+01    0.4410225    0.3567809  62.88  0.002176051    1.276    0.216
        46 -10.4643     27.0401    157.9373   1.2571864085e+02   3.9000818354e+01    0.3302768    0.2198497 -71.29  0.001106548    1.320    0.243
        47 -11.0608     22.4910    156.9901   1.2657855687e+02   3.9629243070e+01    0.3642732    0.2644266 -87.10 0.0008100168    1.062    0.059
        48 -10.1322     98.8088    159.3287   1.1025644182e+02   2.9495983309e+01    0.2349902    0.2045136 -89.13 0.0002928049    1.051    0.048
        49  -8.5161    120.3487    158.1497   1.0526278276e+02   2.6072257855e+01    0.2848412    0.1180692 -46.74  0.001116247    2.694    0.629
        50 -12.0896     88.4381    153.5126   1.1168959461e+02   3.2373781376e+01    0.3268744    0.2627297 -46.60 0.0006384095    1.473    0.321
        51 -10.4103     10.6906    154.0183   1.2876232986e+02   4.1281389802e+01    0.3126256    0.2331173  78.78  0.001170576    1.102    0.093
        52  -8.3945     98.4934    151.5464   1.0907636213e+02   3.1217807587e+01    0.2003346    0.1163564  52.32 0.0005873916    1.704    0.413
        53 -10.3836    102.3530    154.0190   1.0860453072e+02   3.0052131438e+01    0.4010023    0.3862526 -29.06  0.001025334    1.305    0.234
        54 -10.4331    105.5189    150.4944   1.0728444319e+02   3.0281033785e+01    0.3761327    0.2510245  61.25   0.00135488    1.552    0.356
        55 -10.2000    133.6209    145.7955   9.9963272159e+01   2.6165923246e+01    0.9384357    0.2465085 -55.98  0.002324273    6.155    0.838
        56  -8.3720    222.9026    149.2801   8.2308447535e+01   6.9339563533e+00    0.1888979      0.16167  28.34 0.0002803414    1.099    0.090
        57 -10.1800    100.6069    193.9809   1.1467965155e+02   2.2217200945e+01    0.3276858    0.2020652  65.01  0.000344207    1.579    0.367
        58 -10.4140    112.2900    138.7583   1.0354494853e+02   3.1652274927e+01    0.4527579    0.2641955 -42.78  0.001858996    1.944    0.486
        59 -11.5005    101.4787    138.2617   1.0604152496e+02   3.3634662711e+01    0.2685571    0.2532203 -81.23 0.0003394069    1.077    0.072
        60  -9.5099    117.8120    129.8326   1.0040121124e+02   3.2594516689e+01    0.2394997    0.2335672 -63.58 0.0006708659    1.091    0.083
        61  -8.6352    160.1062    127.8027   9.0032856764e+01   2.4367283085e+01    0.2357578    0.2090151  86.70  0.001223202    1.262    0.207
        62  -9.6878    106.2458    125.5850   1.0236416554e+02   3.5629826211e+01    0.2561654    0.2290703 -30.89 0.0005374508    1.302    0.232
        63  -9.8207    102.5236    201.5290   1.1521558871e+02   2.0509129893e+01    0.2335119    0.1890422  63.98 0.0007370427    1.019    0.018
        64 -10.3997     68.4030    116.9549   1.1044065950e+02   4.3448036444e+01    0.2654253    0.1883469  51.65  0.001483021    1.518    0.341
        65  -9.2005    167.6473    113.2563   8.4775505306e+01   2.5551598592e+01    0.3701675    0.2897381 -88.27  0.001700709    1.695    0.410
        66 -10.8481     60.7906    109.3975   1.1108230643e+02   4.6151378087e+01     0.318307    0.2143549  40.70  0.001621479    1.664    0.399
        67  -9.4039     84.8487    108.1297   1.0421759459e+02   4.3100277618e+01    0.2752835    0.2096065  67.13 0.0008816483    1.501    0.334
        68  -9.4033     41.1899    107.8335   1.1618458272e+02   4.8699342939e+01    0.1717444    0.1294613 -50.15 0.0005118178    1.327    0.246
        69  -8.4553    112.2654    119.0166   9.9418317017e+01   3.6002956155e+01    0.1970633    0.1785454 -62.34 0.0003157993    1.055    0.052
        70 -10.4246     65.4564    105.7407   1.0907711260e+02   4.6394994645e+01    0.2629557    0.2280861  13.48  0.001608349    1.463    0.317
        71 -11.5596     27.1894    145.5038   1.2450640577e+02   4.1645756613e+01    0.8603986    0.2053188 -71.39  0.003401021    3.384    0.704
        72  -8.4170    165.3650    100.9315   8.2027512456e+01   2.8485132634e+01    0.2079832     0.190475 -28.26  0.000872608    1.102    0.093
        73  -7.7178    128.2642     99.2929   9.0454339254e+01   3.7135625641e+01     0.144683     0.119142  -7.90 0.0001662301    1.504    0.335
        74  -9.2551    221.7231     94.5161   6.9291506402e+01   1.6080894037e+01    0.2359365    0.2141016  -6.59 0.0004335076    1.104    0.094
        75  -8.0004    113.4715     95.4387   9.3298064034e+01   4.0935953407e+01    0.1466169    0.1399839 -57.91 6.999925e-05    1.018    0.017
        76  -8.3255    149.5175     81.0419   7.9986115594e+01   3.6068389834e+01     0.234102    0.1515318 -38.52  0.000448059    1.522    0.343
        77  -8.5788    108.9929     80.9858   9.0464197696e+01   4.4857573721e+01      0.21117    0.1965137 -55.11            0    1.078    0.072
        78 -12.0945    163.2452     54.3516   6.8558315501e+01   3.7357369815e+01    0.7723149    0.7050054 -39.05  0.001035275    1.107    0.097
        79 -10.2582    122.9196     59.2192   7.9701736290e+01   4.6207041251e+01    0.2479257    0.2173175 -32.44 0.0002700399    1.105    0.095
        80  -9.2687      3.0769    240.9057   1.3468648890e+02   2.5835514783e+01    0.1270906   0.08638455  81.33 0.0005374503    1.185    0.156
        81 -10.0077    105.1694    198.8588   1.1438884339e+02   2.0589035343e+01    0.2890051    0.1906244  61.24 0.0005990012    1.354    0.262
        82  -8.8946    218.7175     45.9243   5.6587233051e+01   2.4227439431e+01    0.3424937    0.1996663 -25.87  0.001500127    1.757    0.431
        83  -9.9631    168.1470    233.2549   1.0721063875e+02   4.6409792178e+00    0.1957742    0.1840399  65.89 0.0004469476    1.247    0.198
        84 -10.7746    105.8794    207.5500   1.1528260568e+02   1.8897247567e+01    0.4929512    0.2659509 -48.02  0.002544018    2.488    0.598
