#   1 NUMBER                 Running object number                                     
#   2 MAG_AUTO               Kron-like elliptical aperture magnitude                    [mag]
#   3 X_IMAGE                Object position along x                                    [pixel]
#   4 Y_IMAGE                Object position along y                                    [pixel]
#   5 X_WORLD                Barycenter position along world x axis                     [deg]
#   6 Y_WORLD                Barycenter position along world y axis                     [deg]
#   7 A_WORLD                Profile RMS along major axis (world units)                 [deg]
#   8 B_WORLD                Profile RMS along minor axis (world units)                 [deg]
#   9 THETA_WORLD            Position angle (CCW/world-x)                               [deg]
#  10 FWHM_WORLD             FWHM assuming a gaussian core                              [deg]
#  11 ELONGATION             A_IMAGE/B_IMAGE                                           
#  12 ELLIPTICITY            1 - B_IMAGE/A_IMAGE                                       
         1 -14.5583    160.2472     49.7031   2.9022768225e+02   6.2920666720e+00   0.08651561    0.0610899 -37.27   0.00597344    1.552    0.356
         2 -14.2408    172.1233     33.9776   2.8999374216e+02   6.4065704082e+00    0.0452016   0.04244066  63.56  0.003038066    1.125    0.111
         3 -13.5777    176.3437     26.6376   2.8990104646e+02   6.4675606624e+00   0.03011709    0.0243427 -43.49  0.001512124    1.302    0.232
         4 -12.9638    190.7653     15.2358   2.8965885515e+02   6.5170901877e+00   0.03195272   0.01970772  56.95  0.002488044    1.926    0.481
         5 -13.7228    188.5482      3.5223   2.8962261391e+02   6.6657105367e+00   0.05799857   0.02814097  17.42  0.004423572    2.195    0.544
         6 -11.1781    137.0513    197.6475   2.9132054346e+02   4.7049299606e+00   0.02624764   0.01248727  52.21  0.002092404    2.628    0.620
         7 -19.1245     60.7742    243.7693   2.9252066159e+02   4.6030836860e+00    0.4151718    0.3374471  -1.64   0.04665083    1.297    0.229
         8 -10.1512    182.4023    189.2853   2.9071002216e+02   4.5429239328e+00   0.01121924  0.006604094 -65.60 0.0005790255    1.821    0.451
         9 -11.1000    178.0118    196.9928   2.9080652238e+02   4.4784224709e+00   0.01777908   0.01251519  45.63  0.001402031    1.428    0.300
        10 -11.6300    180.1703    193.2575   2.9075937474e+02   4.5095075656e+00   0.02359276   0.01506497  76.67  0.001789934    2.155    0.536
        11  -9.8664    169.4916    195.2522   2.9090324362e+02   4.5473937529e+00  0.009114078  0.006664423  88.25 0.0009334432    1.668    0.400
        12 -11.1389    157.9716    193.1776   2.9103556046e+02   4.6373854389e+00   0.01146282  0.009956969  84.87 0.0003381015    1.288    0.223
        13 -12.3635    207.5899    183.7597   2.9036629267e+02   4.4629729904e+00   0.01867924   0.01783006  37.37  0.001167154    1.046    0.044
        14 -12.3440    210.9501    181.2215   2.9031066546e+02   4.4732303600e+00   0.02172279   0.01496891 -47.94  0.001526268    1.520    0.342
        15 -10.3936      1.1840    193.2981   2.9299194723e+02   5.5289248929e+00  0.006330994   0.00472179 -39.68 0.0003050624    1.436    0.303
        16 -10.4529     28.1255    179.8465   2.9258317548e+02   5.5325715584e+00   0.01494531  0.009259773  16.12 0.0009631166    1.639    0.390
        17 -11.3649    197.8253    176.1918   2.9044682498e+02   4.6068684102e+00   0.02010418   0.01496303  89.69  0.001358682    1.615    0.381
        18 -10.2034    145.2708    178.5531   2.9111462088e+02   4.8800651017e+00  0.009546902  0.006438534   9.10 0.0009426219    1.586    0.369
        19  -9.9775      3.0198    176.5899   2.9287900132e+02   5.7129631160e+00   0.00889538  0.007130536  17.44  0.000331882    1.202    0.168
        20 -12.7107    137.1984    171.3737   2.9117636751e+02   5.0096932338e+00   0.03419334   0.01861771  29.70  0.002926327    1.671    0.402
        21 -12.7750    204.3004    198.7699   2.9048872621e+02   4.3073218929e+00   0.02698616    0.0176084 -32.50   0.00222781    1.779    0.438
        22 -11.2775    202.2166    165.8316   2.9033586229e+02   4.7021502746e+00   0.02909946    0.0121209  46.67  0.002238631    2.692    0.629
        23 -11.0718    204.8311    170.1916   2.9032697418e+02   4.6364924131e+00   0.01879382   0.01381013 -11.00  0.001460073    1.564    0.361
        24 -11.8404    145.2313    168.7744   2.9106210141e+02   4.9940202851e+00   0.02171229   0.01617843  72.42  0.002083648    1.612    0.379
        25 -11.1745    226.6599    168.1148   2.9004384988e+02   4.5355382155e+00   0.02465088   0.01230632  73.65  0.001638991    4.284    0.767
        26 -11.7107    230.0009    166.4558   2.8999323659e+02   4.5356624483e+00   0.01317838  0.009832497  83.17   0.00115802    1.630    0.387
        27 -10.1911     25.9387    165.3671   2.9253232689e+02   5.7134881442e+00   0.02215137  0.006999197  18.73  0.001386181    3.884    0.743
        28 -12.4974     24.3649    157.2484   2.9250814319e+02   5.8168978928e+00   0.03097923   0.01724536  22.71  0.002134719    1.714    0.417
        29 -11.5551    164.6557    157.5171   2.9075883056e+02   5.0138523948e+00   0.01276969   0.01157179 -22.11 0.0005687935    1.149    0.130
        30 -13.2110    132.9740    145.2932   2.9108764475e+02   5.3371558517e+00   0.04479193   0.02680787 -79.42  0.004095459    2.081    0.519
        31 -19.2204     49.5515    100.1641   2.9188474306e+02   6.3377710569e+00    0.8601952   0.06678557 -65.30    0.0290581   14.853    0.933
        32 -11.4351    174.2070    148.8314   2.9059259650e+02   5.0601781723e+00   0.01791324   0.01513393 -52.66  0.001339092    1.241    0.194
        33 -10.1098      8.7100    150.0137   2.9266459378e+02   5.9899445477e+00  0.009533304  0.009184473 -38.99  0.001163204    1.089    0.082
        34 -11.7041    165.1215    205.8208   2.9101497732e+02   4.4494760843e+00   0.02655503   0.01423876 -85.39  0.002015135    2.762    0.638
        35 -12.1800    144.3733    145.6158   2.9094718584e+02   5.2682460037e+00     0.022685   0.01439623  55.64  0.002189702    1.814    0.449
        36 -12.1656    142.6535    139.2504   2.9093409692e+02   5.3520978686e+00   0.01771876   0.01404219  57.75  0.001957458    1.365    0.268
        37 -10.5791     12.9799    142.2756   2.9256948219e+02   6.0557513985e+00   0.01314547    0.0092973  18.78 0.0003660407    1.371    0.271
        38 -10.9071      3.4870    144.6142   2.9270068872e+02   6.0823999164e+00   0.01438831   0.01078602  11.90 0.0009245169    1.345    0.256
        39 -11.6070      8.0129    143.5096   2.9263819071e+02   6.0695787435e+00    0.0186484   0.01241347  16.27  0.001549458    1.501    0.334
        40 -11.3462      4.3760    137.0271   2.9264862322e+02   6.1656317546e+00   0.01433879   0.01264956 -44.24  0.001685902    1.187    0.157
        41 -12.0641    119.0420    130.1572   2.9117939824e+02   5.5927712133e+00   0.01862852   0.01791549  78.28  0.001241182    1.113    0.101
        42 -12.7514    124.7517    126.9274   2.9109060927e+02   5.5977123859e+00   0.03374513   0.01432301  48.79  0.002565914    2.816    0.645
        43 -11.9671    106.1009    130.8861   2.9134489136e+02   5.6581846699e+00   0.01897709   0.01481652  46.51  0.001352296    1.287    0.223
        44 -11.6006    107.5212    126.4568   2.9130314099e+02   5.7015897698e+00   0.01699675   0.01175337 -44.51  0.001013705    1.533    0.348
        45 -11.3464    160.4498    128.2679   2.9065246640e+02   5.3779892220e+00   0.01868505   0.01209497 -57.41  0.001892767    1.599    0.374
        46 -12.6304    135.5590    122.2339   2.9093025312e+02   5.5905201431e+00   0.03620797   0.01475826 -74.33  0.002617866    3.407    0.706
        47 -13.9750    194.0098    193.9267   2.9059060468e+02   4.4225324337e+00    0.0618628   0.03773716  76.78  0.003960266    2.374    0.579
        48  -9.9397     23.8244    126.1486   2.9234686046e+02   6.1818010685e+00  0.009302246  0.007669635 -12.67 0.0003205126    1.303    0.233
        49 -11.9349     28.0197    134.8688   2.9234158739e+02   6.0565243090e+00    0.0204226   0.01261123   5.28  0.001523911    1.884    0.469
        50 -11.2496    113.3498    119.2323   2.9119118382e+02   5.7523226403e+00   0.01249024   0.01155944  26.55 0.0002513252    1.016    0.015
        51 -10.0916     22.9432    119.7623   2.9232334204e+02   6.2610955581e+00  0.009084465   0.00550166  22.60 0.0004853042    1.572    0.364
        52 -11.3134    168.0702    113.7401   2.9047846929e+02   5.5032382748e+00   0.01779344     0.012945  66.59 0.0009583863    1.632    0.387
        53 -10.4126    134.7405    111.8936   2.9088432085e+02   5.7154199428e+00   0.01529034   0.00628336 -68.71  0.001183312    2.808    0.644
        54 -11.2553      4.4142    112.2460   2.9251427684e+02   6.4536963293e+00   0.02156626   0.01181942  17.53  0.001369669    1.866    0.464
        55 -10.7015    205.4910    110.2506   2.8999288725e+02   5.3293209143e+00   0.01463648   0.01062402  12.69 0.0009460083    1.396    0.284
        56 -10.6554     18.3586    211.8145   2.9287739898e+02   5.2159870722e+00    0.0118828  0.007726421 -11.46 0.0007847615    1.940    0.485
        57  -9.8875    170.2211    205.2140   2.9094815183e+02   4.4273773143e+00  0.009254183  0.007593442  62.40 0.0004544499    1.336    0.252
        58 -11.2020    134.5418    104.5499   2.9084691395e+02   5.8019284272e+00   0.02381823  0.007163255 -66.75  0.001588873    3.784    0.736
        59 -10.6433    125.1709     94.5995   2.9090985401e+02   5.9711711203e+00   0.01412741  0.009848706 -15.20   0.00140997    1.716    0.417
        60  -9.8026    124.4939     81.4519   2.9084686877e+02   6.1278557761e+00  0.006826598  0.006387681  16.08 0.0002061802    1.024    0.023
        61  -9.7756    147.4985     78.5308   2.9054373782e+02   6.0302045474e+00  0.006829419  0.006402977  19.08 9.501507e-05    1.013    0.013
        62  99.0000     24.0666    203.4487   2.9276111124e+02   5.2809448674e+00   0.02071384   0.00880915 -64.16  0.001392977    2.466    0.595
        63 -11.2282      1.7605    247.8015   2.9327801033e+02   4.8913173850e+00   0.00956777  0.008388785 -28.50  0.001037035    1.201    0.167
        64 -11.2517    203.1706    244.9295   2.9075306532e+02   3.7771816471e+00   0.01070969  0.008997887  56.86 0.0007001316    1.261    0.207
        65 -10.4271     13.5095     59.8305   2.9211690705e+02   7.0115445391e+00   0.01184396  0.009119456  26.77  0.000386913    1.211    0.174
        66 -10.2387    211.0343    201.9850   2.9042232853e+02   4.2313934465e+00   0.01018099  0.009476073  31.47 0.0003329736    1.029    0.028
        67 -10.8226    129.3181     28.0867   2.9049629546e+02   6.7201953383e+00   0.01403752  0.008944173  34.76 0.0007311662    1.453    0.312
        68 -12.0263    181.9674    234.0217   2.9095792586e+02   4.0252364603e+00    0.0158314   0.01352825 -34.71  0.001706241    1.236    0.191
