#   1 NUMBER                 Running object number                                     
#   2 MAG_AUTO               Kron-like elliptical aperture magnitude                    [mag]
#   3 X_IMAGE                Object position along x                                    [pixel]
#   4 Y_IMAGE                Object position along y                                    [pixel]
#   5 X_WORLD                Barycenter position along world x axis                     [deg]
#   6 Y_WORLD                Barycenter position along world y axis                     [deg]
#   7 A_WORLD                Profile RMS along major axis (world units)                 [deg]
#   8 B_WORLD                Profile RMS along minor axis (world units)                 [deg]
#   9 THETA_WORLD            Position angle (CCW/world-x)                               [deg]
#  10 FWHM_WORLD             FWHM assuming a gaussian core                              [deg]
#  11 ELONGATION             A_IMAGE/B_IMAGE                                           
#  12 ELLIPTICITY            1 - B_IMAGE/A_IMAGE                                       
         1 -12.4029      3.0373     50.0329   7.9855272531e+01   6.7241197066e+01     1.129986    0.3666358 -60.91   0.00505482    2.179    0.541
         2 -11.8568      3.7988     18.5969   6.9107234755e+01   7.4016207916e+01    0.7707414    0.1547289 -49.91  0.002818333    3.129    0.680
         3 -11.7451      3.2428     13.2284   6.6952097084e+01   7.5104756792e+01    0.3431908    0.2074162 -29.18  0.001032266    1.505    0.335
         4 -12.3636    132.9436     18.9347   1.9114457969e+01   4.9411951945e+01     0.319486     0.275495  41.59 0.0003787155    1.188    0.158
         5 -11.0564     20.3136     17.5320   5.7926960812e+01   7.2709825888e+01    0.3633428     0.303056 -64.97  0.001283802    1.596    0.373
         6 -11.5734    101.9305      9.8193   2.1319707808e+01   5.8241397402e+01    0.6183298    0.3253759  -0.88  0.001745256    2.551    0.608
         7 -10.4600     76.9306     15.0527   3.0570587498e+01   6.3478653661e+01    0.2902835    0.1700474  10.71 0.0007009692    2.369    0.578
         8 -11.4583     75.7721     10.5773   2.8579739253e+01   6.4253888682e+01    0.6854982     0.212751  49.01  0.002561613    2.877    0.652
         9 -10.2389     15.0327     13.3355   5.8959826462e+01   7.4032346043e+01    0.3286293    0.1322269 -44.02  0.001571042    2.050    0.512
        10 -10.9883     60.1487     13.3247   3.5548318495e+01   6.7157759248e+01    0.3185855    0.1864232 -35.13  0.001345815    1.688    0.408
        11 -10.8646     11.2733     15.1256   6.2410078620e+01   7.4074641755e+01    0.3513995    0.1687127 -24.41  0.001643661    2.607    0.616
        12 -10.9644    119.3478     11.8692   1.8701324971e+01   5.3668506472e+01    0.2435392    0.2092656  57.45 0.0004039666    1.109    0.098
        13  -9.6162    120.6837      8.6526   1.7117924019e+01   5.3638067078e+01    0.2067299    0.1444112  10.07  0.000749126    1.682    0.406
        14  -9.8865     27.3089     11.0783   5.0017770486e+01   7.2946301855e+01    0.2543831    0.0942543 -35.48  0.001094785    2.506    0.601
        15 -11.4458    145.2905      6.3237   1.2508848372e+01   4.7442503464e+01    0.3563533     0.240488 -30.08  0.001810279    1.499    0.333
        16  -9.7256    137.8591     10.2676   1.5002361973e+01   4.9023994377e+01    0.2520675    0.1200737 -59.10 0.0009419018    2.754    0.637
        17 -11.0212    159.8461      8.8103   1.1603090090e+01   4.3392092567e+01     0.286597    0.2072298 -52.97  0.000691983    1.360    0.265
        18 -10.7171    154.4431      8.0152   1.1968623979e+01   4.4883588473e+01    0.3455756    0.1897774  83.67  0.001531676    1.890    0.471
        19 -10.9674      9.5588      8.8082   6.0070300408e+01   7.5381477249e+01    0.3027757     0.226708  28.11  0.001906618    1.563    0.360
        20 -11.1384     11.3110      2.1891   5.4623045967e+01   7.6315875956e+01    0.2826699    0.1790272 -15.04  0.001702595    1.580    0.367
        21 -10.7092     36.4450      7.6533   4.2816079090e+01   7.2116394396e+01    0.3070663    0.2298265  44.51  0.001329059    1.548    0.354
        22 -10.1760    215.9260      7.4961   6.1734980098e+00   2.9467809216e+01    0.1899974    0.1219496  82.15 0.0004531806    1.558    0.358
        23  -9.4647     91.3710      7.2888   2.2568227542e+01   6.1036336750e+01    0.1496598    0.0907831  33.86  0.000384787    1.715    0.417
        24  -9.2678     82.2778      7.2952   2.4938244352e+01   6.3150051911e+01    0.1376848   0.09340431  26.20  0.000315028    1.531    0.347
        25  -9.8907     43.0856      7.2980   3.9285940408e+01   7.1069224731e+01    0.1617019    0.1129375  52.75 0.0005444818    1.742    0.426
        26 -10.1838     20.1176      5.8015   5.1065351841e+01   7.4713057256e+01    0.2779022    0.1161703 -40.48  0.001351167    2.117    0.528
        27 -10.4157    222.9978      5.5731   5.2066827846e+00   2.8023532854e+01    0.2063443    0.1708735 -15.01 8.733578e-05    1.401    0.286
        28 -11.2024    164.7716      4.9627   9.7772397659e+00   4.2465033991e+01    0.2838976    0.2050536 -50.06 0.0004353196    1.337    0.252
        29 -10.7175    168.1670      1.9326   8.4498847407e+00   4.1854539909e+01    0.2035716    0.1826713 -74.20 0.0002870249    1.019    0.019
        30  -9.7547     60.9725      5.9971   3.1000833577e+01   6.7877288785e+01    0.1582525    0.1381637   3.68 0.0005747552    1.034    0.033
        31 -11.3356     74.0793      2.5752   2.4729594608e+01   6.5450295191e+01    0.3740334    0.3164448 -49.11  0.002022318    1.407    0.289
        32 -10.7515     16.8349      3.5115   5.1687467975e+01   7.5472874371e+01    0.3011081    0.1342895 -37.04  0.001538301    1.937    0.484
        33 -11.5574    242.4663      3.1652   3.4862661492e+00   2.3959606238e+01    0.3348381    0.1697685  65.20  0.001755572    2.188    0.543
        34 -10.8969    229.8113      2.2757   3.9704617240e+00   2.6809731036e+01    0.3054728    0.1690921 -19.88  0.001498268    1.957    0.489
        35 -10.6564    178.9708      3.9368   8.0786396611e+00   3.8895184930e+01    0.1999227    0.1808981 -70.24 0.0002945616    1.012    0.012
        36 -11.2816    125.0542      2.4581   1.3853673984e+01   5.3059075123e+01    0.4435104     0.271447  83.30  0.001557925    1.718    0.418
        37  -9.5817     98.0257      3.5071   1.9201792912e+01   5.9784512648e+01    0.1930533    0.1278742  63.94 0.0003842172    1.448    0.310
        38 -11.2332     91.0246      2.1947   2.0116708315e+01   6.1585642723e+01    0.2144568    0.1864726 -18.62 0.0002411444    1.189    0.159
        39 -11.0809     26.7355      2.3536   4.4653499387e+01   7.4324736499e+01     0.300567    0.2044126  27.03   0.00178841    1.474    0.321
        40 -10.4641     22.6662      1.6714   4.6640505705e+01   7.4994001559e+01    0.2038884    0.1433545   2.01  0.001261001    1.410    0.291
        41 -11.1514    234.7504      9.9125   5.5451946577e+00   2.4943934928e+01    0.2598954    0.1231742 -63.72  0.001227714    2.095    0.523
        42 -10.1540     34.4633      1.4101   3.9697798430e+01   7.3261996468e+01    0.2782733    0.1197788  51.33  0.001252849    2.922    0.658
        43 -11.2277    244.1818    179.1194   4.3293881267e+01   4.5827521237e-01    0.2595138     0.139246 -18.78   0.00119122    1.822    0.451
        44 -10.2378    155.6834    250.3073   6.9512903508e+01   4.1991679532e+00    0.1064628   0.07438949  54.50 0.0007029336    1.631    0.387
        45  -9.7046    109.9796    250.2483   7.7674435605e+01   1.0504075522e+01    0.1502997   0.07386518  39.47 0.0005723928    1.555    0.357
        46 -12.5409     21.3597    248.4375   9.3308909772e+01   2.1507467566e+01    0.5005412    0.1237994  46.44  0.002664403    2.388    0.581
        47 -10.8548     12.8742    250.2458   9.4809616968e+01   2.2060009230e+01    0.1565413    0.1267532  36.16  0.001232685    1.555    0.357
        48  -9.8833      1.5698    180.2192   9.4188207004e+01   3.6439765761e+01    0.1537439   0.08762446 -73.93 0.0009375596    1.639    0.390
        49 -10.3343    249.6714    181.9758   4.2988777431e+01  -6.8863483819e-01    0.1989247   0.08173896 -14.34 0.0007047038    4.467    0.776
        50 -11.1865    247.9953    168.7191   4.0732801841e+01   1.2130438445e+00    0.1688787    0.1389598   2.30 0.0005706634    1.074    0.069
        51 -10.5709      5.5678    168.2890   9.2683488515e+01   3.8711906673e+01    0.2295364   0.09451926 -87.57  0.001138441    2.087    0.521
        52 -10.5153     67.9471    165.9556   7.7388869830e+01   3.2310774556e+01    0.2262827    0.1407473  69.98 0.0009198421    1.697    0.411
        53 -10.8219     34.0062    166.0526   8.5755537741e+01   3.6489446848e+01    0.3095316    0.1818748  23.00  0.001629207    2.191    0.544
        54 -10.9940     50.9952    162.0059   8.1136919812e+01   3.5451014789e+01    0.4498856    0.1870268 -73.49  0.001931213    2.353    0.575
        55 -10.4748      7.5970    163.8087   9.1946872137e+01   3.9546336881e+01    0.1538608    0.1292808  78.61 0.0004474308    1.130    0.115
        56  -9.2931    132.5033    161.4989   6.1142393089e+01   2.2702172679e+01    0.1393415    0.1330839  41.86 0.0008104608    1.033    0.032
        57  -9.8758     55.2859    159.3492   7.9740741096e+01   3.5528371913e+01    0.1271867   0.09766473 -44.01 0.0003249135    1.657    0.396
        58 -10.6865     67.0287    157.9137   7.6559382402e+01   3.4290733474e+01    0.1986485     0.171004  77.18 0.0003045207    1.018    0.018
        59 -10.8244     20.1967    157.1706   8.8409064612e+01   3.9943210953e+01    0.3012897    0.1898935 -67.93   0.00128859    1.502    0.334
        60 -11.7510    247.1330    156.7033   3.8489361872e+01   2.9146301660e+00    0.2504883    0.1259416 -22.46 0.0009823801    1.899    0.474
        61  -9.7884    216.3115    154.3080   4.2897841349e+01   8.3910296492e+00    0.1356662   0.09441175   4.38 0.0004143556    1.621    0.383
        62  -9.7694    159.1414    153.6318   5.3698459580e+01   1.9220787025e+01    0.2154528    0.1271442  33.10 0.0009558531    1.825    0.452
        63  -9.8465     40.8622    153.1231   8.2736552742e+01   3.8745161732e+01    0.1717563     0.132429 -66.94 0.0005349877    1.290    0.225
        64 -10.1161     10.8996    152.9920   9.0425513403e+01   4.1749985387e+01    0.2850217    0.1029615  43.49  0.001351888    2.412    0.585
        65  -9.7440    222.5478    151.5212   4.1272220289e+01   7.7158076091e+00    0.1303815     0.114946 -13.08 0.0001047317    1.061    0.058
        66  -9.9675    234.3431    146.8046   3.8393523671e+01   6.3708004250e+00    0.1882556    0.1063899 -23.23 0.0009421434    1.683    0.406
        67 -10.8612     13.9705    147.9908   8.9262595031e+01   4.2660855798e+01     0.185813    0.1453183  81.78 0.0003057198    1.016    0.015
        68  -9.4186    187.4890    144.4136   4.5977105969e+01   1.5368389144e+01    0.1385977    0.1301903   1.35 0.0001487595    1.019    0.019
        69 -10.2526     65.4567    139.0135   7.4192930476e+01   3.9015477502e+01    0.2002642    0.1814553  76.40 0.0006392903    1.058    0.054
        70 -10.8008    236.1093    138.1133   3.6268845836e+01   7.3176955484e+00     0.199817    0.1592026   0.70  0.000756804    1.218    0.179
        71 -12.8569    242.6059    132.7558   3.4145819836e+01   6.9593464673e+00    0.4546385    0.2988026  32.50  0.002532623    1.678    0.404
        72 -10.1635     59.1687    131.5708   7.4775344133e+01   4.1707072248e+01    0.2215306    0.1741586 -74.18 0.0004676936    1.152    0.132
        73 -11.8686     37.5088    129.9788   8.0854624913e+01   4.4747117384e+01    0.4255196    0.2339852 -59.60 0.0008834578    1.678    0.404
        74 -10.8387      3.8860    130.6228   9.0608064764e+01   4.7610378097e+01    0.1627366    0.1500883 -42.33 0.0008026976    1.408    0.290
        75 -10.9523     73.3557    128.9845   7.0226872232e+01   4.0303178632e+01    0.2673003    0.2094736  47.53 0.0006229095    1.297    0.229
        76 -11.2813     53.6359    131.9025   7.6429769463e+01   4.2354367057e+01    0.5761321    0.2428564  53.90   0.00215006    2.785    0.641
        77 -10.2283    234.3145    127.3004   3.4164531605e+01   9.2166550079e+00       0.1339   0.09524448   4.08 0.0002496696    1.611    0.379
        78 -11.1982     56.4150    126.7432   7.4784936647e+01   4.3269897482e+01    0.2680163    0.2366392  -2.69  0.000641194    1.493    0.330
        79 -11.1238     15.8359    125.3050   8.6681731479e+01   4.7984103373e+01    0.3135316    0.1504363  34.51  0.001576489    2.177    0.541
        80  -9.9265     30.4658    124.5337   8.2227573527e+01   4.6836808599e+01    0.1344089     0.111251 -89.44 0.0001116748    1.024    0.024
        81 -12.1133     10.7390    122.3258   8.7891971206e+01   4.9122966482e+01    0.5074922    0.2017924 -75.16  0.002326748    2.035    0.509
        82 -10.5779     69.2612    121.6989   7.0045754979e+01   4.2711097502e+01    0.3293961    0.2182081  18.80  0.001516321    2.100    0.524
        83 -10.8763     56.6553    121.2886   7.3774439668e+01   4.4595036210e+01    0.2461328    0.1902306  85.82 0.0005846355    1.278    0.218
        84 -10.5035     19.9882    121.7574   8.5050483230e+01   4.8507297674e+01    0.1821576    0.1494349 -88.37  0.001127223    1.011    0.011
        85 -12.3936    249.6608    117.7545   2.9866679705e+01   7.8507561366e+00    0.4424173    0.2043471 -32.08  0.002096569    1.804    0.446
        86 -12.5601    248.2377    112.0991   2.8791479468e+01   8.8998137561e+00    0.5427225    0.2865283  35.43  0.002587685    2.406    0.584
        87 -10.5570      1.4100    118.5595   9.0334038381e+01   5.0704504298e+01    0.2298224   0.09739158 -77.92 0.0002264163    1.872    0.466
        88  -9.5964     86.1991    115.9455   6.3806164092e+01   4.1396780871e+01    0.2003907    0.1119175 -57.66            0    1.709    0.415
        89 -10.6015     52.5352    116.0949   7.4119168252e+01   4.6432305858e+01    0.2170081    0.1932068  50.04 0.0001227088    1.208    0.172
        90 -11.2714     25.5011    106.5137   8.1289139018e+01   5.1821905079e+01    0.3870725    0.2542321 -18.90  0.001964228    2.280    0.561
        91 -10.2360      9.7389    111.2376   8.7044710786e+01   5.1932649689e+01    0.2075558    0.1266149 -48.26  0.001131345    1.768    0.434
        92 -11.4466     16.0936    115.3357   8.5503099218e+01   5.0428647418e+01    0.2945726    0.2192547  70.17  0.000541739    1.281    0.219
        93 -13.0201     16.2925    110.1318   8.4810650305e+01   5.1707601129e+01    0.6241074    0.4403239  35.46  0.003699643    1.598    0.374
        94 -10.4941    182.5178    114.4541   3.9877668422e+01   2.1741685622e+01    0.2479958    0.2397951 -41.19 0.0005153077    1.058    0.055
        95  -9.9482    105.5103    114.9824   5.8056467463e+01   3.8094466267e+01    0.2360756    0.1451991 -51.17 0.0007378863    1.574    0.365
        96 -11.8144     37.5291    110.0672   7.7879147105e+01   4.9725287915e+01    0.3834368    0.2807308 -28.62  0.002050311    1.803    0.445
        97  -9.7883     93.4449    111.4850   6.0642434007e+01   4.1182622973e+01    0.3399926    0.1090938  53.19 0.0008098908    5.909    0.831
        98 -11.1866     31.2976    109.0177   7.9753028841e+01   5.0637933434e+01    0.3996226    0.1705729 -84.05  0.001515462    2.853    0.650
        99 -10.7062     55.0413    109.8603   7.2146173047e+01   4.7665331892e+01    0.2443441    0.1851353 -66.41 0.0006031119    1.179    0.152
       100 -10.8228     24.1551    118.6892   8.3401691096e+01   4.8897952679e+01    0.3087429    0.1309608 -73.33  0.001370401    2.001    0.500
       101  -9.6223    111.9215    105.9616   5.3998562282e+01   3.8889981839e+01    0.1777382    0.1639011  51.79 0.0009271789    1.116    0.104
       102 -10.8290     35.5451    100.5086   7.6883854875e+01   5.2340371409e+01    0.2988095    0.1769647  60.39  0.001122049    1.987    0.497
       103 -10.3278     32.4148     96.4827   7.7242178336e+01   5.3673646132e+01    0.3040179    0.1802966  82.78 0.0008086955    2.034    0.508
       104 -11.6872     22.2673     99.5538   8.1328175803e+01   5.3854964874e+01     0.507405    0.2419758  55.65  0.002252934    2.521    0.603
       105 -11.0962     62.1122     98.4835   6.7366209490e+01   4.9510123135e+01    0.3765332     0.239234 -57.80  0.001267461    1.417    0.294
       106  -9.8743      9.7232     99.0298   8.5599107418e+01   5.4962490477e+01    0.1776842    0.1321238 -80.09 0.0003105969    1.094    0.086
       107 -10.0866     67.0156     97.7079   6.5541005337e+01   4.8968127151e+01    0.1895173     0.183185  43.61 0.0003937283    1.148    0.129
       108 -11.0982     15.6754     96.7345   8.3209771549e+01   5.5098431601e+01    0.2104446    0.1631087 -10.18 0.0009611907    1.712    0.416
       109 -10.6937    241.5161     96.5228   2.6081715737e+01   1.2375526813e+01      0.13554    0.1143996 -30.72 1.519726e-05    1.011    0.011
       110  -9.8583     57.1899     96.2050   6.8506728960e+01   5.0772489433e+01    0.1863302    0.1543625  88.41 0.0002882306    1.256    0.204
       111  -9.9116      1.6123     93.1985   8.7713634784e+01   5.6918917738e+01    0.1802256   0.09045989 -66.82 0.0004650333    1.562    0.360
       112 -11.4642    249.5273     91.3707   2.3883574629e+01   1.1580614189e+01    0.2561439    0.1651992 -31.19 0.0006470733    1.287    0.223
       113 -10.3679    231.5519     91.4741   2.6178372978e+01   1.5082227243e+01    0.1387627     0.119063 -32.95 0.0001157138    1.011    0.011
       114 -10.7537    158.1927     90.3405   3.8289867092e+01   3.1781698352e+01    0.3084725    0.2464819  11.17  0.000729518    1.586    0.370
       115 -10.0020     56.4541     90.3365   6.7358012533e+01   5.2318341922e+01    0.2705622    0.1208709 -54.37 0.0008199219    1.960    0.490
       116 -10.9006     10.5377     90.9014   8.4203146166e+01   5.6923720954e+01    0.1943162    0.1900587  -7.47  0.000361236    1.276    0.217
       117  -9.2340     87.3141     89.2957   5.6672212478e+01   4.7535281350e+01    0.1483561    0.1187746 -15.21  0.000427015    1.601    0.375
       118 -10.2017     83.4462     88.8620   5.7787914155e+01   4.8344189097e+01    0.2353164    0.2050826 -16.44  0.001227249    1.345    0.257
       119 -10.9417     21.7896     86.9221   7.9375054048e+01   5.7048261990e+01    0.4323699     0.209592  84.31  0.001709912    3.009    0.668
       120 -11.4677     21.6671     83.3232   7.8751274503e+01   5.7950400041e+01    0.2768276    0.1713745 -58.93  0.001229415    1.348    0.258
       121  -9.5980     94.4911     88.5038   5.4198496877e+01   4.6349381927e+01    0.1525391    0.1437857 -61.10  -2.4997e-05    1.013    0.013
       122 -11.5302    107.2980     84.6974   4.9232743051e+01   4.4580918411e+01    0.3020497    0.2626855 -84.63 0.0002826642    1.282    0.220
       123  -9.9104      9.4344     85.9439   8.3877495128e+01   5.8225152232e+01    0.2423196    0.1051854  58.98  0.000813612    3.119    0.679
       124 -11.3299     30.3920     81.9533   7.5088628021e+01   5.7488824468e+01     0.432617    0.2057339 -62.54  0.001717821    1.743    0.426
       125 -11.2432    247.0302     84.4844   2.2567635536e+01   1.3018377287e+01    0.1756884    0.1345076  61.96 0.0006824007    1.572    0.364
       126  -9.4803     34.3180     84.6947   7.4176338213e+01   5.6413045480e+01     0.136264   0.09767603  74.40 0.0006106806    1.630    0.386
       127 -10.4541     76.6108     82.1674   5.8103844272e+01   5.1111852701e+01    0.2628334    0.1995249  61.11  0.001294029    1.538    0.350
       128 -10.7304      7.2917     81.5210   8.4018183471e+01   5.9453067812e+01    0.2897851    0.1960914 -46.48  0.001703188    1.461    0.316
       129  -9.8619     55.7164     78.7357   6.4574031100e+01   5.5226200306e+01    0.1794998      0.15448  88.98 0.0003594155    1.278    0.218
       130 -10.1075     26.5215     78.3396   7.5827596054e+01   5.8747255205e+01    0.1876954    0.1272183  25.21 0.0005412793    1.743    0.426
       131  -9.6841    155.0505     77.0604   3.5006690971e+01   3.5001330586e+01     0.178916    0.1682659 -42.42 0.0003423496    1.027    0.026
       132 -11.0804     99.9541     76.4866   4.8799341828e+01   4.7894181672e+01    0.2766774    0.2140874 -46.00 0.0001880943    1.233    0.189
       133  -9.6059     36.8743     76.6276   7.1299263304e+01   5.8113501974e+01    0.1719275    0.1230922  44.61 0.0004368417    1.592    0.372
       134 -10.8736     88.0558     77.3146   5.2797316222e+01   5.0108835485e+01    0.2624902     0.203352 -53.93 0.0002146558    1.247    0.198
       135 -11.3789     21.8379     74.9531   7.6988806767e+01   5.9992116974e+01     0.260657    0.1856161 -56.43  0.001500338    1.190    0.160
       136 -12.0692    167.7408     73.4371   3.1390984199e+01   3.2521017982e+01    0.2758835    0.2459017 -51.02 0.0002955981    1.082    0.076
       137 -14.2562     16.7389     67.3041   7.7460267325e+01   6.2258987099e+01    0.5225299    0.3793071 -51.68  0.001234648    1.198    0.165
       138 -12.0884     29.6854     62.3986   7.0540810298e+01   6.2269994041e+01    0.6081497    0.4594333  40.81  0.002999653    1.545    0.353
       139 -10.1038      1.5215     73.0402   8.4997755782e+01   6.1857235349e+01    0.2083649    0.1443477 -52.84   0.00126999    1.294    0.227
       140 -10.7331    245.3348     72.3071   1.9864633217e+01   1.5035563701e+01    0.1288262   0.09907212  10.30 0.0007041066    1.671    0.402
       141 -10.0882     25.9304     72.4883   7.4747493520e+01   6.0227609435e+01    0.1828077    0.1341853  23.01  0.001041685    1.617    0.381
       142  -9.3897     91.0396     69.9553   4.9397070624e+01   5.1111555301e+01    0.1689502    0.1674125 -47.70            0    1.046    0.044
       143 -11.4921     50.2566     68.2111   6.3597620316e+01   5.8460096559e+01    0.2808047    0.2035429 -43.32 0.0005330576    1.281    0.219
       144 -10.7398      6.9369     68.7045   8.1977984362e+01   6.2598294653e+01    0.2657042    0.1936561  84.85  0.001001509    1.421    0.296
       145 -12.0837      3.0648     63.3057   8.2654997296e+01   6.4118015482e+01    0.4926497    0.3165957 -65.85  0.002613707    1.224    0.183
       146 -13.1543     12.4813     47.2475   7.4343763020e+01   6.7272571994e+01    0.5017381    0.3940938 -82.35 0.0008183891    1.393    0.282
       147 -11.6141     22.2782     42.0639   6.7619291963e+01   6.7595456540e+01    0.5510724    0.4538356  -0.14  0.001982218    1.349    0.259
       148 -12.1791     12.3750     58.1925   7.7302150540e+01   6.4749684396e+01    0.6806251    0.5430211 -70.03  0.002637867    1.126    0.112
       149 -10.6991    247.2330    249.6153   5.4409343616e+01  -7.5839671761e+00    0.1445017   0.07063302  24.88 0.0007176332    1.629    0.386
       150 -12.8178     27.6309     37.6956   6.3178600267e+01   6.7973546193e+01    0.2698119    0.2423839 -45.85 0.0003982139    1.118    0.105
       151 -11.3776     24.4936     34.5734   6.3562734088e+01   6.8956510675e+01    0.2501304    0.1874082 -29.93 0.0005611926    1.230    0.187
       152 -11.2579    122.7616     67.4287   3.9366606213e+01   4.4615878726e+01     0.281139     0.245176 -46.05 0.0005012184    1.116    0.104
       153 -10.8671      6.9924     73.6571   8.2846505453e+01   6.1394671447e+01    0.3428606    0.1335445  16.74  0.001530171    3.212    0.689
       154 -12.4942    146.9509     65.5617   3.3079364024e+01   3.9050312166e+01     0.298647    0.2710455 -58.46 0.0003489543    1.096    0.087
       155 -13.0539    232.0187     59.0429   1.8061105870e+01   1.9614108701e+01    0.8733498    0.3660756 -48.53  0.003588817    2.336    0.572
       156 -10.1123    110.3341     64.5024   4.1684576914e+01   4.8062621279e+01    0.2663566    0.1805235 -59.62 0.0009806822    1.748    0.428
       157  -9.8113     81.3738     65.0289   5.0894282901e+01   5.4048310735e+01    0.2064757    0.1852966 -44.93 0.0005742574    1.049    0.047
       158 -11.0566    202.0081     62.5369   2.2673299516e+01   2.5923712166e+01    0.2616809     0.193691 -32.66 4.410596e-05    1.252    0.201
       159 -10.2863    155.4161     62.5154   3.0361781552e+01   3.7445433668e+01    0.3610412    0.2099661 -24.13  0.001455113    1.949    0.487
       160 -11.6141     46.5790     60.5028   6.2648633788e+01   6.0719025394e+01    0.3828453    0.2380069 -31.33 0.0009843489    1.831    0.454
       161  -9.9990     90.0402     61.0263   4.6553812771e+01   5.3153458542e+01    0.2234526    0.1798659 -81.13 0.0003636075    1.600    0.375
       162  -9.5471     93.5996     66.5323   4.7393173362e+01   5.1301899706e+01    0.1501409    0.1402247 -45.71 8.241586e-05    1.028    0.027
       163 -10.1365    119.9967     59.1154   3.7170554612e+01   4.6809870049e+01    0.2764606    0.2270284 -19.24  0.001212644    1.318    0.241
       164  -9.5128    109.2955     60.2752   4.0461394198e+01   4.9103778246e+01    0.1482186     0.119317  11.05 0.0001684033    1.527    0.345
       165  -9.6840     98.0274     60.1865   4.3728663444e+01   5.1632683140e+01    0.1964757    0.1166084  48.17 0.0004119331    1.752    0.429
       166 -10.6481    135.4984     58.3830   3.3176783044e+01   4.3147547057e+01    0.3877713    0.2517108  79.38  0.001592397    2.064    0.515
       167 -10.3100    127.1689     58.8488   3.5287506724e+01   4.5122697457e+01    0.2160324    0.2006395 -64.43 0.0002454163    1.100    0.091
       168 -10.6571     58.3254     59.0378   5.7314210740e+01   5.9339934464e+01      0.30126    0.2072089  14.68  0.001082199    1.911    0.477
       169 -11.0472    161.1479     57.7316   2.7737184527e+01   3.6773343479e+01      0.33808    0.2265264  55.48  0.001211003    1.524    0.344
       170 -10.7020     80.1796     56.5562   4.8197064756e+01   5.6020118014e+01    0.4101309    0.2774221  -5.63  0.001737882    2.308    0.567
       171  -9.4786    177.3319     55.7398   2.4351361760e+01   3.2983540729e+01    0.1524853    0.1096381 -68.33 0.0002780773    1.570    0.363
       172 -12.4701    105.0273     52.5426   3.8782483099e+01   5.1497286253e+01    0.2805718    0.2730694 -13.16 0.0003308856    1.020    0.020
       173 -10.7007     89.6324     52.0778   4.3280362799e+01   5.4972070020e+01    0.4529586      0.20384 -45.40   0.00173428    2.223    0.550
       174 -12.4828     38.6249     50.3248   6.2627813053e+01   6.4000142744e+01    0.6071573    0.4795789 -38.11  0.002967237    1.140    0.123
       175 -10.6485    128.2731     50.2661   3.1944981402e+01   4.6305174022e+01    0.3126656    0.2360105  20.06 0.0008492664    1.657    0.396
       176 -10.6487    120.9571     51.1266   3.4012347360e+01   4.7967546569e+01    0.2179051    0.2072128  18.67 0.0002609524    1.096    0.088
       177 -11.5144     52.0191     47.1624   5.5443211921e+01   6.2817579005e+01    0.5791475    0.3221384 -61.06  0.002498747    2.326    0.570
       178  -9.4959    164.2689     48.3205   2.4154833129e+01   3.7416268709e+01    0.1470585    0.1167537  18.87 0.0002482991    1.563    0.360
       179  -9.4492     82.3431     47.3254   4.3791330652e+01   5.7362470490e+01    0.1513011    0.1122966   4.18  0.000705088    1.737    0.424
       180 -10.1175     77.8152     46.1600   4.4885188808e+01   5.8484786352e+01    0.3791345    0.1718249 -53.41  0.001332491    3.053    0.672
       181  -9.2455     62.3265     47.2786   5.1201746808e+01   6.1128332799e+01    0.1397906    0.1057424  -6.65 0.0002723964    1.593    0.372
       182 -11.2692     44.3100     43.1185   5.7232653765e+01   6.4769946876e+01    0.5306223    0.3587415 -58.86  0.002770064    1.611    0.379
       183 -11.6188     44.9805     38.1069   5.4795404576e+01   6.5674556240e+01    0.2462583    0.2386678 -46.88            0    1.191    0.160
       184 -12.3473    112.3058     45.5230   3.4074071299e+01   5.0988665034e+01    0.2659979    0.2564357 -22.99 0.0002609269    1.022    0.022
       185  -9.6738    104.4788     46.4619   3.6563348044e+01   5.2679616715e+01    0.1468957    0.1434139 -25.58 2.657545e-05    1.014    0.014
       186 -10.0335    152.0934     45.3098   2.5285234231e+01   4.1000621221e+01    0.3047179     0.117426  54.65  0.001074937    2.505    0.601
       187  -9.9955    142.4689     45.1631   2.7064684441e+01   4.3504503500e+01    0.2989436    0.2002274  87.83  0.001014765    1.899    0.473
       188 -10.3731    121.7795     42.7380   3.0644570423e+01   4.9115575425e+01    0.2449702    0.2039308 -16.95 0.0006206441    1.270    0.212
       189 -10.9745     97.4523     41.4514   3.6544516931e+01   5.5125161182e+01    0.4000083    0.2594183  17.73 0.0008450849    2.228    0.551
       190 -10.6172     72.9756     43.0016   4.5299327112e+01   6.0007187536e+01    0.2109028     0.197132 -33.02            0    1.063    0.059
       191 -10.3598     27.6401     53.8378   6.8924429834e+01   6.4452747124e+01    0.2089063    0.1708412 -19.71 0.0006333221    1.317    0.241
       192 -10.0917    163.0060     42.0198   2.2306628849e+01   3.8646262974e+01    0.2166132    0.2041654 -60.36            0    1.011    0.011
       193  -9.8677    130.8010     41.7772   2.8247367926e+01   4.6993750886e+01     0.208124    0.1707226 -62.08 0.0004425181    1.314    0.239
       194 -10.9045     88.8490     40.9112   3.8950447677e+01   5.7123725545e+01    0.4215688    0.2962793 -71.29  0.001322128    2.175    0.540
       195 -10.7201     83.5743     37.1655   3.9034492061e+01   5.8876534216e+01    0.3450175    0.2531573  -7.38  0.001621491    1.596    0.374
       196 -10.0337     78.4917     41.4885   4.2662206926e+01   5.9192353741e+01    0.1421598    0.1340864 -23.26 9.092564e-06    1.031    0.030
       197  -9.6085     67.4922     41.4858   4.6713228884e+01   6.1316073057e+01    0.1396085    0.1299101 -30.24 0.0002070209    1.057    0.054
       198 -10.4305    235.8424     39.9025   1.2877419092e+01   2.1276774106e+01    0.1885122    0.1744066 -15.50 0.0004959608    1.237    0.192
       199 -10.2914    226.4231     40.2872   1.3850002514e+01   2.3308968189e+01    0.1982566    0.1058849 -39.90 0.0009456141    1.565    0.361
       200 -10.7716    109.5294     38.4176   3.1958618801e+01   5.2776221353e+01    0.3473276    0.1985117 -27.60 0.0009952893    1.802    0.445
       201 -11.9358    111.2705     34.7723   3.0024904740e+01   5.2895199391e+01     0.299203    0.2588421  44.84 0.0003731227    1.152    0.132
       202 -12.2819     57.4488     34.8396   4.7773797574e+01   6.4308926732e+01    0.5164952     0.380995  -9.86  0.002747645    1.529    0.346
       203 -10.2259      1.3823     37.4329   7.7425714256e+01   7.0187080201e+01    0.2179901   0.08743304 -60.32 0.0003625968    1.868    0.465
       204 -10.9874      2.2606     32.2497   7.5318876422e+01   7.1272907790e+01    0.3327464    0.1918686 -80.73  0.001729925    2.145    0.534
       205 -11.4990    248.0962     36.4125   1.0992812009e+01   1.9105446244e+01    0.2336251    0.1794666 -41.63 0.0002589363    1.066    0.062
       206 -10.0204    202.0091     37.2656   1.5573273704e+01   2.9414833994e+01    0.1907998    0.1702337 -65.02 0.0003323307    1.051    0.049
       207 -11.0710     65.5910     36.7065   4.5320865544e+01   6.2526924656e+01    0.3172148    0.2258217  41.94 0.0002181812    1.482    0.325
       208 -10.5052     97.2494     36.1576   3.4364904975e+01   5.6013468110e+01    0.2092816    0.1905316   1.61 0.0004891561    1.108    0.097
       209 -11.3566     74.9430     35.5547   4.1284517202e+01   6.0923661534e+01    0.3615261    0.2742878 -11.56 0.0008900001    1.433    0.302
       210 -10.1969     73.4774     31.5260   3.9941726670e+01   6.1876903256e+01    0.2245131     0.217858  33.75  0.001017889    1.130    0.115
       211 -11.4463    241.1171     34.2843   1.1040961344e+01   2.0827267291e+01    0.2293187    0.2037443 -56.96 0.0003539948    1.091    0.083
       212  -9.7008    134.8189     34.8011   2.4812103681e+01   4.6961099708e+01     0.208215     0.167511 -64.15 0.0005550364    1.345    0.256
       213 -11.2159     18.4988     31.3786   6.5550417896e+01   7.0213046308e+01    0.4375951    0.2551093  10.34  0.001681542    2.121    0.528
       214 -11.0030     10.1451     34.6508   7.1560848733e+01   7.0230004517e+01    0.3290677     0.212514  22.16  0.001960519    1.805    0.446
       215 -11.4566      6.9661     29.8648   7.1684463980e+01   7.1480004818e+01    0.3461488    0.2216537 -72.98  0.001043018    1.756    0.430
       216  -9.4612    146.3511     33.7847   2.2293351272e+01   4.4103870055e+01    0.1936386    0.1406149 -13.29 0.0003666086    1.565    0.361
       217 -10.9184    122.5325     33.5151   2.6880736027e+01   5.0275293639e+01    0.3943832    0.2591228  68.14  0.001520081    1.611    0.379
       218  -9.8534     34.2374     33.4530   5.7963576197e+01   6.8048640806e+01    0.1604487    0.1234876  42.84 0.0009356976    1.580    0.367
       219  -9.3566     30.6446     32.2917   5.9304349661e+01   6.8721662121e+01    0.1186031    0.1018857  80.97 0.0007029023    1.684    0.406
       220 -10.9511    156.7962     28.1593   1.8621136770e+01   4.2085605031e+01    0.2522298    0.2175559  70.10 0.0003279053    1.144    0.126
       221 -10.5241    160.1413     24.8948   1.7019299718e+01   4.1600586938e+01     0.238181    0.2021956 -39.04 0.0003803137    1.157    0.136
       222 -10.9948    101.3116     28.5234   2.9925848965e+01   5.6176367490e+01    0.2840364    0.2537203 -70.72  0.000520915    1.274    0.215
       223 -10.3521     50.1696     27.7655   4.7536579851e+01   6.6771152434e+01    0.3667163     0.206463 -11.44  0.001465594    3.033    0.670
       224  -9.5081     11.8485     29.3634   6.8582474494e+01   7.1214930589e+01    0.1448252    0.1062993 -10.32 0.0001727655    1.467    0.318
       225 -10.4088    197.7456     28.1946   1.3450698919e+01   3.1581047460e+01    0.2181479   0.08970048  60.11 0.0008692339    2.429    0.588
       226 -10.8426    118.5718     27.7929   2.5454956528e+01   5.2039716112e+01    0.2672562     0.193263  57.76  0.000801934    1.350    0.259
       227 -11.1608    112.3438     27.0997   2.6574871628e+01   5.3685859332e+01    0.3482344    0.2591384  -6.99  0.001728998    1.510    0.338
       228 -10.0273    234.4039     27.2571   9.8478359570e+00   2.3110869342e+01    0.1837183   0.09993825 -40.03 0.0002812999    1.501    0.334
       229  -9.7649    144.6579     27.2733   2.0241499744e+01   4.5376566826e+01    0.1524612    0.1069041 -67.32 0.0005658311    1.615    0.381
       230 -11.5474    216.4343     25.2495   1.0829534530e+01   2.7425536597e+01    0.2750459    0.2205297  70.46 0.0003140807    1.339    0.253
       231  -9.6285    176.7115     26.7081   1.5414654486e+01   3.7074889529e+01    0.1390131    0.1083056  32.88 0.0002062918    1.544    0.352
       232 -10.6252     82.0998     23.2803   3.3061512511e+01   6.1287995370e+01    0.5627518     0.316878   1.43  0.002169884    2.955    0.662
       233 -10.2742     70.4560     25.7285   3.8228564209e+01   6.3383021951e+01    0.2447888    0.1533256  29.27 0.0008151666    1.806    0.446
       234  -9.8203     16.1806     26.5890   6.4846548382e+01   7.1402615750e+01     0.153164     0.109051  -5.47 0.0004119775    1.546    0.353
       235 -11.2514    224.5302    247.7840   5.7640450911e+01  -4.6838081326e+00    0.2731544   0.09504463 -31.92  0.001458257    3.191    0.687
       236  -9.8112     90.6510    249.2057   8.1080367282e+01   1.3233249608e+01    0.1234007    0.1002191 -59.27 0.0003990599    1.607    0.378
       237 -12.0964    128.8299     23.9626   2.1822504200e+01   4.9898735992e+01    0.3104238    0.2719349 -20.87 0.0003153398    1.179    0.152
       238 -10.8921    219.0201    247.7045   5.8504193883e+01  -3.9843154994e+00    0.1600361    0.1325644 -31.99  0.001226862    1.684    0.406
       239 -10.4912     10.8489     24.4812   6.7154323686e+01   7.2295588728e+01    0.2809694    0.1232305 -38.24  0.000846257    2.068    0.516
       240 -10.0847     54.2621     23.2134   4.3382363155e+01   6.6824895232e+01    0.2445161     0.171243 -49.20  0.001299919    1.662    0.398
       241 -10.8829     22.4498     24.0514   5.9985870240e+01   7.1262447775e+01    0.2543766    0.1924699 -12.07 0.0003959225    1.334    0.250
       242  -9.9736     31.4995     15.3426   5.0175848792e+01   7.1684071788e+01    0.2743055    0.1474375  35.02   0.00143194    1.999    0.500
       243 -12.3580     28.0407     19.7607   5.4579806638e+01   7.1390681708e+01    0.4173947    0.2470471  25.74  0.002280653    1.865    0.464
       244 -11.8529      6.0665    244.9488   9.5781226076e+01   2.3604827149e+01    0.3440839    0.1400865  63.36  0.001879702    1.810    0.448
       245 -11.6183     63.7474     21.7175   3.8707366461e+01   6.5299683642e+01    0.3539835    0.2225914 -15.30  0.001213913    1.768    0.434
       246 -10.6439     59.0532     21.1143   4.0257075203e+01   6.6279589729e+01    0.2279179    0.1911182  45.25 0.0004438043    1.303    0.233
       247 -10.1947     35.0049     21.9953   5.1967655965e+01   7.0071970347e+01    0.2652054    0.2071229  13.32  0.001624544    1.328    0.247
       248 -10.9944    249.0448     20.9933   7.2777431655e+00   2.0691590366e+01    0.1935573    0.1532776 -49.35 0.0003242394    1.010    0.010
       249  -9.4246    120.7074     21.3437   2.2365698475e+01   5.2292977343e+01    0.1507612    0.1053245 -58.95 0.0007028557    1.659    0.397
       250 -10.0461    161.8773     19.5977   1.4994754309e+01   4.1749332756e+01    0.3106364    0.1711309  -1.54  0.001216959    2.715    0.632
       251 -10.3633     98.0463     18.8925   2.6440896640e+01   5.8191023794e+01    0.3662022    0.2184381 -56.19  0.001440638    2.268    0.559
       252 -10.5678     72.8894    244.8328   8.3971126654e+01   1.6207361548e+01    0.2176407    0.1714372  56.61  0.001333513    1.066    0.062
       253 -10.5552     87.0827     20.0424   2.9975796578e+01   6.0604091338e+01    0.2056396    0.1872186  16.19 0.0002835381    1.048    0.046
       254 -12.2573    238.2114     17.7212   7.2215081913e+00   2.3354254197e+01    0.2546203    0.2152703 -57.22 0.0002652898    1.049    0.047
       255 -11.1774    233.4161     15.2054   6.9314963273e+00   2.4677970358e+01    0.2275485    0.1742523 -86.01 0.0008794051    1.308    0.235
       256 -11.2610    141.7407     17.4026   1.7090743860e+01   4.7278592769e+01    0.5850756     0.202132  52.51   0.00080291    2.738    0.635
       257 -10.8909    137.1171     14.9099   1.6878932043e+01   4.8753955883e+01    0.2752796    0.1852084 -55.45  0.000323717    1.605    0.377
       258 -10.1302     41.1648     19.1884   4.7285424192e+01   6.9636720434e+01    0.1915736    0.1529102 -14.30 0.0005318203    1.142    0.124
       259  -9.5842    108.2245     17.7512   2.3495649391e+01   5.5845919836e+01    0.2174038    0.1166369  -8.03 0.0008717578    2.409    0.585
       260 -10.2968    169.3900     16.7555   1.3121723186e+01   4.0095758217e+01    0.2786505    0.1225803 -29.93  0.001138508    2.137    0.532
       261 -10.0121    193.0508     16.2544   1.0462721342e+01   3.4102703057e+01    0.1943528    0.1606153 -86.26 0.0003545108    1.161    0.139
       262 -11.8571     75.3371    239.0023   8.3079808940e+01   1.6857931448e+01    0.4347625    0.3483367 -73.02  0.003258496    1.480    0.324
       263 -10.9298     72.4319     16.0827   3.2587389493e+01   6.4313357078e+01     0.292743    0.2561367  60.30  0.001033948    1.292    0.226
       264 -10.0091     45.2267    244.2278   8.8935431319e+01   1.9628937592e+01    0.1523945   0.08818946  58.96 0.0003977912    1.319    0.242
       265 -10.2403    195.2316    238.4743   6.1144825770e+01   1.7549099859e-01    0.1827909    0.1472892 -18.79  0.001096129    1.369    0.270
       266 -10.7269    249.6750     15.0743   5.8566813526e+00   2.1207556578e+01    0.1796061    0.1353086 -42.04 0.0005537453    1.099    0.090
       267 -10.4852    130.6488     13.9698   1.7567212327e+01   5.0539027862e+01    0.1990916    0.1826513 -28.46 0.0005146477    1.126    0.112
       268 -10.9725     18.1016    236.7029   9.3406204625e+01   2.3844937363e+01    0.3563804   0.09840056  49.66  0.001882333    2.325    0.570
       269 -11.3802    183.3143    234.3925   6.2637086188e+01   2.3423950078e+00    0.2195616    0.1727082  34.78  0.001333073    1.175    0.149
       270  -9.5208     54.1372     14.1277   3.8444970891e+01   6.8189184871e+01    0.1623015    0.1568939 -51.27 0.0005868885    1.305    0.234
       271 -11.2616    184.9358    228.2519   6.1491044515e+01   2.8941766680e+00    0.3812894    0.2159844 -13.60  0.001994661    2.662    0.624
       272  -9.8014     67.6499    235.7115   8.4268629508e+01   1.8389862859e+01   0.09804893   0.08562898  11.70 0.0005517679    1.665    0.399
       273 -11.5559     30.3641    234.1651   9.1087753385e+01   2.3014544311e+01    0.3462282    0.1393028  61.83  0.001935313    2.087    0.521
       274  -9.5004     24.2866    232.3025   9.2105003730e+01   2.3989155311e+01   0.08593621   0.08105177 -74.08 0.0002642852    1.560    0.359
       275 -10.5698     39.5973    229.4070   8.9124970041e+01   2.2849465461e+01    0.2205172    0.1118911  53.88  0.001363537    1.492    0.330
       276  -9.7547    151.5328    228.5118   6.7599973482e+01   7.7839689246e+00    0.1184741   0.09648208  36.06 0.0001560196    1.028    0.027
       277 -10.3031    191.1703    226.6805   6.0168402326e+01   2.1939370786e+00     0.179363       0.1615 -33.30  0.001337279    1.428    0.300
       278 -10.2740      3.4958    226.0295   9.5618043481e+01   2.7170417817e+01    0.1493064   0.08376846  89.71 0.0009071812    1.568    0.362
       279  -9.4172    230.0000    221.9441   5.2931369662e+01  -2.6512936230e+00    0.1609539   0.05768288 -33.03 0.0007936124    2.882    0.653
       280 -10.0016    211.8227    218.5905   5.5390672952e+01   2.4195484584e-01    0.1713269    0.1285769 -28.39  0.001178062    1.457    0.314
       281 -11.0681     48.4418    218.5221   8.6731109767e+01   2.3835631926e+01    0.3789564    0.1924321  27.70  0.002022799    2.376    0.579
       282 -11.2289    160.5067    235.1706   6.6807521250e+01   5.5239250718e+00    0.2382978    0.1275481  25.61 0.0009786062    1.917    0.478
       283  -9.7704    135.5553    216.5094   6.9097143681e+01   1.2055587009e+01    0.1222997    0.1031446  40.53 0.0002185955    1.007    0.007
       284 -10.8832     29.4525    215.6271   9.0281861000e+01   2.6529901042e+01    0.2066076    0.1224927  37.04     0.001144    1.608    0.378
       285 -10.5764     14.5169    215.4693   9.3161936034e+01   2.8092956001e+01    0.1995412   0.08894619  36.22 0.0007927823    2.004    0.501
       286 -12.5993     12.0532    210.6035   9.3419803520e+01   2.9270583157e+01    0.4402791    0.1910903  76.31  0.001877633    2.038    0.509
       287 -10.6913    217.2448    210.5379   5.3186792192e+01   4.5545702211e-01    0.2763333    0.1252109 -22.99  0.001347932    2.660    0.624
       288  -9.6659    110.2563    212.0151   7.3602589256e+01   1.6675849374e+01    0.1417329    0.1065989 -63.07 0.0008798683    1.533    0.348
       289 -12.2226      5.5979    210.1954   9.4649637134e+01   2.9957130257e+01    0.2989703    0.1644067 -71.10  0.001899355    1.900    0.474
       290 -10.2921     67.0229    202.5734   8.1621091029e+01   2.4607254566e+01    0.1854387    0.1468708  89.00 0.0005922707    1.222    0.182
       291 -10.7720     20.1028    200.3843   9.1306266141e+01   3.0511259936e+01    0.3792546    0.1220621 -62.98  0.001754693    3.280    0.695
       292  -9.4893    238.3088    200.6619   4.8091290187e+01  -1.3347983136e+00   0.09745625   0.09269032 -40.57 0.0003997581    1.683    0.406
       293 -10.9532    175.3424    202.3610   5.9321362585e+01   7.9911925293e+00    0.2180806    0.1870506  33.50 0.0005032028    1.105    0.095
       294 -11.8483     15.7385    192.0837   9.1758422116e+01   3.2649762881e+01    0.3149809     0.298106  86.69  0.001852282    1.388    0.279
       295  -9.4057    186.4911    193.4714   5.5749565288e+01   7.5247247793e+00    0.1273228    0.1087389  16.03 0.0008098035    1.025    0.024
       296  -9.6704    145.2575    190.3487   6.3344678434e+01   1.4945556911e+01    0.1258539   0.09915593  -5.49 0.0003546214    1.599    0.375
       297 -11.0171    244.3625    187.9017   4.4884866415e+01  -6.5438758272e-01    0.1866487    0.1529974  29.46 0.0007528053    1.358    0.264
       298 -10.1305     61.8704    184.3757   8.0958186345e+01   2.9053691330e+01    0.2234723    0.1538009  89.53  0.001296589    1.406    0.289
       299 -12.2350     16.7257    182.0259   9.0964582638e+01   3.4690702590e+01    0.4305674    0.2377527  49.60  0.002575877    1.525    0.344
       300 -11.3304     23.3712    180.4610   8.9381229021e+01   3.4377600949e+01    0.3723994    0.1323991  58.60  0.001660792    2.629    0.620
