#   1 NUMBER                 Running object number                                     
#   2 MAG_AUTO               Kron-like elliptical aperture magnitude                    [mag]
#   3 X_IMAGE                Object position along x                                    [pixel]
#   4 Y_IMAGE                Object position along y                                    [pixel]
#   5 X_WORLD                Barycenter position along world x axis                     [deg]
#   6 Y_WORLD                Barycenter position along world y axis                     [deg]
#   7 A_WORLD                Profile RMS along major axis (world units)                 [deg]
#   8 B_WORLD                Profile RMS along minor axis (world units)                 [deg]
#   9 THETA_WORLD            Position angle (CCW/world-x)                               [deg]
#  10 FWHM_WORLD             FWHM assuming a gaussian core                              [deg]
#  11 ELONGATION             A_IMAGE/B_IMAGE                                           
#  12 ELLIPTICITY            1 - B_IMAGE/A_IMAGE                                       
         1 -14.7878    242.2138     13.2540   3.4984037419e+01   2.4149298320e+01     3.446818     1.541715 -50.17   0.01758943    1.924    0.480
         2 -15.9967    180.0263     14.4626   4.1338134737e+01   3.8401394780e+01      3.80113     1.591378  49.40   0.01388033    2.500    0.600
         3 -12.3330     19.7200     14.1929   8.7467297433e+01   7.0884214686e+01    0.4479392    0.2348026 -16.44  0.001920569    1.972    0.493
         4 -13.2536     10.8926     24.4446   9.6606966923e+01   6.9926831050e+01    0.9622741    0.3516009 -29.58  0.004331187    2.857    0.650
         5 -13.1062     24.4513      4.2484   7.9934772670e+01   7.1801205456e+01     0.939748    0.3541757  23.92  0.004361489    3.003    0.667
         6 -11.7191      1.6712     24.8945   1.0169369021e+02   7.0420984878e+01    0.5059824    0.1160389 -54.36  0.001909887    3.165    0.684
         7 -13.1569      5.9642     11.7422   9.4046529754e+01   7.2422216242e+01    0.8804203    0.4069069 -28.20  0.004373306    1.852    0.460
         8 -12.4061      8.0430      2.0948   8.8147811160e+01   7.3736298584e+01    0.8176395    0.2073801  25.63  0.003578656    4.017    0.751
         9 -11.7227     13.4287     12.7852   9.0265161402e+01   7.1673237725e+01    0.3414391    0.2034612 -29.17  0.001297546    1.318    0.241
        10 -12.0568     15.6623      7.1772   8.6295459203e+01   7.2319387673e+01    0.4190803    0.2322811 -13.10  0.002143253    1.734    0.423
        11 -12.0165     25.8186     16.4917   8.5329311523e+01   6.9915596127e+01    0.3981895    0.1860256 -17.80  0.001841124    2.729    0.633
        12 -11.5962     40.7759     11.1807   7.5387204948e+01   6.8827847386e+01    0.2479278    0.1447406  21.47  0.001420581    1.625    0.385
        13 -12.0883     29.2329     10.1671   8.0501696521e+01   7.0448695773e+01    0.3727293    0.1911235  -1.18   0.00179401    2.648    0.622
        14 -11.6648     48.3728      6.0076   6.9375191189e+01   6.8330932738e+01    0.3446341    0.1377883  33.21  0.001610919    2.407    0.585
        15 -12.1865     40.6565      3.0545   7.1248271959e+01   6.9828430386e+01    0.3673504    0.2218822  16.08  0.002187279    1.537    0.350
        16 -11.2417     54.1937      1.9059   6.4878185998e+01   6.7820250861e+01    0.2747162    0.1445914  38.42  0.001518249    1.656    0.396
        17 -11.6640     20.2822    211.7196   1.2367677290e+02   2.7382579265e+01    0.2119201    0.1377451  68.42 0.0009915604    1.250    0.200
        18 -15.3227    236.0071    238.4273   8.3694903782e+01  -8.3762831392e+00     3.193957      1.77225  15.42   0.01808011    1.743    0.426
        19 -14.3817     10.9438    216.9133   1.2574955364e+02   2.7218974472e+01     1.447145    0.4769239  55.28  0.007214854    2.545    0.607
        20 -12.8091     13.6522    232.1241   1.2605704290e+02   2.3975785128e+01    0.5830121    0.2742599  53.23  0.003095342    1.665    0.400
        21 -12.2573     19.4209    249.6629   1.2593529816e+02   2.0145226497e+01    0.4036469    0.2965802  44.19  0.001895337    1.397    0.284
        22 -12.6440      4.0077    227.7984   1.2753911811e+02   2.5715714708e+01    0.7974881     0.283407  83.66  0.003974047    2.763    0.638
        23 -13.6112      6.1593    246.0169   1.2797152271e+02   2.2114693427e+01     1.159041    0.4887923  47.96  0.007363867    1.786    0.440
        24 -13.4306     15.2280    240.3330   1.2619160235e+02   2.2273259144e+01    0.7547614    0.3328641  49.05  0.003259628    1.744    0.427
        25 -12.3186      5.4350    236.2445   1.2767276362e+02   2.3980381085e+01    0.4913231     0.240226  50.89  0.002931318    1.592    0.372
        26 -10.4681    233.0317    210.2924   7.9333592418e+01  -4.1837875974e+00    0.1724434    0.1393953   9.58 0.0002856042    1.063    0.060
        27 -12.4170     11.7359    204.8119   1.2491066352e+02   2.9628203580e+01    0.3126626    0.2114692  57.23  0.001522085    1.274    0.215
        28 -13.1039     70.4272    199.7205   1.1216191130e+02   2.4133638000e+01    0.4537539     0.322066 -56.69  0.002617528    1.531    0.347
        29 -11.4650      3.2517    196.6606   1.2609767349e+02   3.2084165392e+01    0.3151953    0.1283693  59.91  0.001661388    2.199    0.545
        30 -10.0165    123.3330     91.3117   7.6452634160e+01   4.0311210145e+01    0.1602844    0.1219502   2.57 0.0007044146    1.678    0.404
        31 -10.0795    144.5004     83.4694   6.8569416999e+01   3.7123861169e+01    0.1535459    0.1505114   5.77 0.0003091692    1.004    0.004
        32 -10.5873    120.1971     80.7941   7.4149142920e+01   4.3118601418e+01    0.2187269    0.1814687   3.25 0.0009064017    1.348    0.258
        33 -11.2966    216.5854     79.6937   5.3429201656e+01   2.0762673751e+01    0.2333361    0.1709882 -86.39  0.000587625    1.686    0.407
        34 -10.5008    152.9867     80.7608   6.5743860876e+01   3.5631774391e+01    0.2093134    0.1291109  51.12 0.0007428068    1.619    0.383
        35 -10.6658      3.0000     76.9674   1.1416112287e+02   5.9593489191e+01    0.2055216   0.05522539 -68.02 0.0008013944    2.935    0.659
        36  -9.4967    152.3109     73.3392   6.3679846645e+01   3.7131588465e+01    0.1584972    0.1195849  13.75 0.0007045195    1.691    0.409
        37 -10.6630    116.1203     72.8485   7.2790497429e+01   4.5533648090e+01    0.2301669    0.2147929 -74.85 0.0008568455    1.252    0.201
        38 -10.8746    129.0388     72.5114   6.9128557464e+01   4.2739424077e+01     0.236426    0.1481382  47.87 0.0008024724    1.583    0.368
        39 -11.1034    122.5011     69.0698   6.9778027966e+01   4.4838345596e+01    0.2327839     0.147387 -36.51  0.001030955    1.584    0.369
        40 -10.5218      9.4013     68.7795   1.1013039347e+02   6.1101526569e+01    0.1876278   0.08194734 -54.28  0.000953575    1.674    0.403
        41 -11.5862      3.2310     68.2345   1.1244915620e+02   6.1530871215e+01    0.3513399    0.1025307 -42.96  0.001519697    2.740    0.635
        42 -10.9521    148.0983     67.8329   6.2958323808e+01   3.9100418907e+01    0.2352792    0.2139262 -84.67  0.001038535    1.223    0.182
        43 -13.9194    248.7215     61.4859   4.4923979861e+01   1.6608068520e+01     1.237458    0.5875145 -29.07  0.005565581    2.230    0.552
        44 -11.8613     37.1697    249.6127   1.2289706886e+02   1.8246378864e+01     0.326611    0.1431902  51.03  0.001557676    1.742    0.426
        45 -11.5932     44.6748    245.3253   1.2130026580e+02   1.8168687412e+01    0.2089184    0.1330875  65.44  0.001138897    1.270    0.212
        46 -14.6501    150.3111     48.3047   5.6342702169e+01   4.1645972139e+01     1.413086    0.6219903  55.81  0.005544305    2.125    0.529
        47 -11.7202      8.2233     44.0873   1.0453270765e+02   6.6384205210e+01    0.4015771   0.09176805 -53.37   0.00167811    2.771    0.639
        48 -12.3550     11.8698     37.6627   1.0082093401e+02   6.7423732404e+01    0.4554147    0.1759209 -43.60  0.002301451    1.927    0.481
        49 -11.1867    124.1262     63.8246   6.7616305658e+01   4.5405510698e+01    0.2258799    0.2130917 -85.26 0.0008758842    1.220    0.181
        50 -11.1729      2.8425     41.4972   1.0632848846e+02   6.7185967092e+01    0.4061575    0.0583706 -53.15  0.001583109    3.262    0.693
        51 -14.2227    139.2580     55.3603   6.1042891600e+01   4.3270740486e+01    0.8254462    0.6233918 -23.36   0.00410859    1.414    0.293
        52 -10.1252     24.9883     37.5184   9.4448503027e+01   6.6436699277e+01      0.17372   0.08859359  -9.84 0.0008102751    2.569    0.611
        53 -12.6220      2.5813     50.1141   1.0871977458e+02   6.5443825046e+01    0.5684916    0.2054236 -59.49  0.002791012    2.074    0.518
        54 -11.1994      2.2618     33.7346   1.0431809171e+02   6.8735122680e+01    0.2639414    0.1315992 -46.39 0.0008619439    1.459    0.315
        55 -11.4907     18.2322     31.0167   9.5339267480e+01   6.8198702934e+01     0.377537    0.1687226 -29.35   0.00188134    2.154    0.536
        56 -11.0045     11.4276     56.3095   1.0640140375e+02   6.3683181645e+01    0.2495532   0.08508676 -56.24  0.001147418    2.141    0.533
        57 -10.3463     56.6736    243.1335   1.1895603423e+02   1.7136428413e+01    0.2131619   0.09571684 -83.27  0.001085893    2.580    0.612
        58 -12.5282     29.0695    240.9458   1.2381348081e+02   2.0726908113e+01    0.3696833    0.1947801  73.58  0.001379147    1.672    0.402
        59 -10.8639     38.0082    241.0298   1.2222321781e+02   1.9727778555e+01    0.1890958   0.09735221  64.22  0.001123935    1.669    0.401
        60 -12.2631     45.8887    236.5592   1.2048184168e+02   1.9666336629e+01    0.2975722    0.2232843   9.19   0.00187074    2.284    0.562
        61 -12.3937     49.3169    230.5043   1.1939236774e+02   2.0428761960e+01    0.2572551    0.1815512  74.92  0.001716685    1.213    0.175
        62 -11.9798     39.9196    231.7809   1.2126365571e+02   2.1272975521e+01    0.2581422    0.1683995  73.41  0.001701299    1.296    0.228
        63 -13.1041     24.9400    229.1009   1.2386501371e+02   2.3422645169e+01    0.4791621    0.2622281 -81.71  0.002246052    1.654    0.395
        64 -11.2505     32.1657    229.9390   1.2258593245e+02   2.2491632175e+01    0.1845595    0.1183584  66.99  0.001021725    1.256    0.204
        65 -11.3513     21.2963     22.8527   9.0507709095e+01   6.9350466250e+01    0.3049715    0.1830386  -3.73  0.001799473    1.695    0.410
        66 -10.8231     32.7114    235.9724   1.2286493879e+02   2.1269685843e+01    0.1603586    0.1157833  76.70 0.0008446373    1.119    0.107
        67 -11.2563     34.2132     16.4560   8.1096294797e+01   6.8962186646e+01    0.2914194    0.1636859   6.52  0.001550123    2.022    0.505
        68 -11.9131     18.3000    222.3150   1.2469005291e+02   2.5432027957e+01    0.2837212     0.148397  65.39  0.001076358    1.596    0.373
        69 -11.6190     33.6185    218.1496   1.2151892314e+02   2.4683959650e+01    0.2799332    0.1480573  71.11  0.001403637    1.757    0.431
        70 -12.6158     10.0991    225.5549   1.2635531193e+02   2.5585988415e+01    0.7042986    0.2304914  53.37   0.00366267    2.403    0.584
        71 -12.9694     61.6646    213.4532   1.1547214809e+02   2.2348782345e+01    0.6839625    0.2873689  28.79   0.00299561    2.927    0.658
