#   1 NUMBER                 Running object number                                     
#   2 MAG_AUTO               Kron-like elliptical aperture magnitude                    [mag]
#   3 X_IMAGE                Object position along x                                    [pixel]
#   4 Y_IMAGE                Object position along y                                    [pixel]
#   5 X_WORLD                Barycenter position along world x axis                     [deg]
#   6 Y_WORLD                Barycenter position along world y axis                     [deg]
#   7 A_WORLD                Profile RMS along major axis (world units)                 [deg]
#   8 B_WORLD                Profile RMS along minor axis (world units)                 [deg]
#   9 THETA_WORLD            Position angle (CCW/world-x)                               [deg]
#  10 FWHM_WORLD             FWHM assuming a gaussian core                              [deg]
#  11 ELONGATION             A_IMAGE/B_IMAGE                                           
#  12 ELLIPTICITY            1 - B_IMAGE/A_IMAGE                                       
         1 -13.3245     61.9585     44.5612   3.6398710481e+01   6.3171113566e+01     1.009061    0.6489013 -75.39  0.001549882    2.673    0.626
         2 -13.0714     58.1286     24.9232   2.8386055249e+01   6.7394820473e+01     1.923082     1.195033 -89.10  0.007150991    3.632    0.725
         3 -13.8915     77.4253     22.0804   1.9643445180e+01   6.3352576814e+01     2.065219     1.166349  80.18   0.00848252    2.426    0.588
         4 -14.1745     50.2113     57.8127   4.7348603534e+01   6.2581109133e+01      2.60412     1.159862  44.82   0.00788374    2.329    0.571
         5 -11.9913    248.3142     44.5294   2.3122293564e+00   2.0000925875e+01    0.9485217    0.2328151 -37.59  0.003471754    2.642    0.621
         6 -12.7827    201.4486     35.6207   3.8609187271e+00   3.0463206852e+01     1.668153     0.627134 -49.57  0.007180586    2.237    0.553
         7 -12.4536    188.0873     35.4524   5.0610919181e+00   3.3511723522e+01    0.7771388    0.5679452 -55.41  0.003955998    1.152    0.132
         8 -14.0001    219.0040     57.2518   7.4937809102e+00   2.3899269860e+01     1.501059     1.140889 -45.23  0.009346626    1.086    0.079
         9 -14.4966     96.8934     73.9363   3.4692994137e+01   4.9538906464e+01     5.507078     3.096546 -81.80    0.0146552    5.240    0.809
        10 -14.2958     10.8896     35.7222   6.3010151852e+01   7.2663883153e+01     1.862267     1.243186 -73.81   0.01008275    1.628    0.386
        11  99.0000     41.3896     25.7963   3.7318918763e+01   7.0588624495e+01     3.170467     1.772855  62.84   0.01276295    3.040    0.671
        12 -13.5820    117.9679     62.4472   2.4860336267e+01   4.6763834677e+01     5.646569     2.159591 -56.45  0.009780941    4.589    0.782
        13 -14.3682     10.4509     67.6502   7.1733032505e+01   6.4894454881e+01     2.615266     1.503302  -2.08   0.01233026    2.115    0.527
        14 -12.5203     26.1425     39.3522   5.3634085473e+01   7.0257805675e+01     1.673648    0.7257202 -53.74  0.007190457    2.173    0.540
        15 -11.7361    210.9062     21.6847   3.5968174127e+02   3.0083647066e+01    0.5286533    0.4878653 -29.84  0.003642083    1.358    0.263
        16 -12.3044    219.5997     27.9779   5.9376970436e-01   2.7520117596e+01    0.6426412    0.3918141  51.20  0.001489512    2.273    0.560
        17 -12.6710    226.8821     22.7451   3.5892444524e+02   2.6647193450e+01    0.5134457    0.2780955  75.70  0.001113129    1.986    0.497
        18 -11.7072    135.8009     19.7267   6.3103888660e+00   4.8510267508e+01    0.5796145    0.4548757  38.12 0.0008626687    1.590    0.371
        19 -11.2142    123.5233     24.6476   9.9939559500e+00   5.1162046716e+01    0.6060639    0.3547411  -8.66  0.002511894    2.651    0.623
        20 -12.1596    244.1675     22.2219   3.5785272737e+02   2.3370216242e+01    0.5230342    0.3166716 -84.82  0.002923799    1.691    0.409
        21 -10.8906    203.8993     16.8613   3.5895985490e+02   3.2153698715e+01     0.425889    0.1899149 -82.83  0.001807538    2.395    0.583
        22 -10.5253    116.3507     17.1468   8.3105559312e+00   5.3936942104e+01    0.3019425    0.2620517 -88.85  0.001262481    1.029    0.028
        23 -10.5076    109.1754     10.5647   6.8258973348e+00   5.6528376174e+01    0.3641604     0.343543  18.08  0.002199647    1.260    0.206
        24 -11.1993    114.8061     12.8054   6.8234590736e+00   5.4811895862e+01    0.3006482    0.2175371 -74.78 0.0006560193    1.358    0.263
        25 -12.4518    115.6609      8.0338   4.7631850762e+00   5.5060096306e+01    0.9276049    0.3857314 -58.76  0.003463137    2.906    0.656
        26  -9.3715    229.4574     15.5083   3.5715269489e+02   2.6941229814e+01     0.324001    0.2844694 -55.68  0.002357507    1.224    0.183
        27 -12.4803    221.5439      9.6847   3.5623395401e+02   2.9168712422e+01    0.6519815    0.2279216 -38.37  0.003168032    2.064    0.515
        28 -12.0850    227.9805      9.6486   3.5591565086e+02   2.7865440243e+01    0.3723775    0.2047889 -63.33 0.0003531183    1.487    0.328
        29 -13.7929    245.4113      8.8957   3.5499418615e+02   2.4580866609e+01     1.104829    0.3913525 -70.26  0.005242938    2.903    0.655
        30 -12.0752    237.5089      9.5023   3.5545355538e+02   2.6010475772e+01    0.4067272    0.1872365  66.17  0.002230436    2.568    0.611
        31 -10.9281     94.3024     16.0069   1.2148218414e+01   5.9845857504e+01    0.2394906    0.2133212 -54.33 0.0005299071    1.166    0.142
        32 -10.1420     93.1860     12.1450   1.0597856007e+01   6.0554014666e+01    0.2087519    0.1745531 -62.92 0.0003020974    1.229    0.186
        33  -9.8968    187.0054     13.9460   3.5936994534e+02   3.6318511678e+01    0.2624874    0.1703834 -21.17  0.001406272    1.822    0.451
        34 -10.1736    155.5104     12.7099   1.6652378700e+00   4.4171109485e+01    0.3014493    0.1432346 -11.35  0.001149373    3.429    0.708
        35  -9.8768     88.5391     12.0681   1.1614066518e+01   6.1758832052e+01    0.1903058    0.1400749 -24.29 0.0008032537    1.516    0.340
        36 -10.3716    124.8409      9.5554   4.0751030432e+00   5.2483737008e+01    0.3690854    0.1784595 -34.23  0.001651615    2.030    0.507
        37 -10.6146    102.0695     10.2685   7.9520333542e+00   5.8429061782e+01    0.2369267    0.2112907 -71.34 0.0006355639    1.103    0.093
        38 -11.1629     72.2404      5.8794   1.2564232606e+01   6.6487276046e+01    0.5513605    0.2192554 -25.13  0.002265705    2.712    0.631
        39 -11.5540     87.4385      1.4053   6.5823252156e+00   6.3047358600e+01    0.4578596    0.1305151  62.85 0.0007980489    2.713    0.631
        40 -11.8937     76.6451      5.6467   1.1247215675e+01   6.5415689898e+01    0.4525908    0.2700869  10.74  0.002053715    2.415    0.586
        41 -10.6723     78.6306      9.8352   1.2966131179e+01   6.4503008894e+01    0.2472376    0.1911246  59.09 0.0003738682    1.171    0.146
        42 -10.6851     83.3503      7.6096   1.0617605455e+01   6.3535935448e+01    0.5114113    0.2136841  44.95  0.001508433    2.569    0.611
        43 -10.8194     26.2390      9.8878   3.6920667071e+01   7.5831690704e+01    0.2726498    0.1904238  12.85  0.001267435    1.650    0.394
        44 -11.8311    193.9673      8.0582   3.5735018421e+02   3.5331662178e+01    0.2731323    0.2298301 -82.48  0.001254288    1.167    0.143
        45 -13.1929    173.2473      5.6186   3.5804503401e+02   4.0472242503e+01    0.5169319    0.2890806 -17.86  0.002527552    2.227    0.551
        46 -11.8146     63.0026      7.5342   1.6401800213e+01   6.8552245893e+01    0.4851563    0.2935136  77.20   0.00173742    1.908    0.476
        47 -12.3229     65.3514      2.9927   1.2900733087e+01   6.8442203953e+01    0.3241416    0.3152701 -82.28 0.0001182052    1.107    0.097
        48  -9.9001     46.5096      7.6788   2.3189130691e+01   7.2255813827e+01    0.4971754    0.2568092  51.19  0.002401662    1.750    0.428
        49  -9.7976    215.5224      8.4121   3.5623961369e+02   3.0557140597e+01      0.12528     0.092482 -59.58 8.821455e-05    1.030    0.029
        50 -10.9808    150.1654     13.0246   2.3070368645e+00   4.5506510243e+01    0.2622025     0.225689 -59.51  0.001301765    1.100    0.091
        51  -9.5200    131.4406      8.4793   2.8390237685e+00   5.0847654778e+01      0.13805    0.1219217  88.80 0.0001592255    1.065    0.061
        52 -10.1847     54.4732      7.9732   1.9867518323e+01   7.0474482890e+01     0.186237    0.1581799  49.48  0.001115933    1.073    0.068
        53 -11.2573     56.6524      3.1207   1.5883407164e+01   7.0490258713e+01    0.4013074     0.296954  38.42  0.002287947    1.316    0.240
        54 -10.1896    142.9018      6.9063   1.0201320839e+00   4.8001677081e+01    0.1985866    0.1616921 -73.94 0.0003319004    1.054    0.051
        55  -9.5629    210.3653      5.9882   3.5592400708e+02   3.1907027670e+01    0.1841328     0.151665 -89.86 0.0007708921    1.275    0.216
        56 -11.2071    216.2615      2.4030   3.5479599985e+02   3.1017293823e+01    0.4284965    0.1955481  79.91  0.002175009    2.186    0.542
        57  -9.1923    102.5926      5.2351   5.6281536331e+00   5.8768693153e+01    0.3156224    0.1933894  17.05   0.00112884    2.380    0.580
        58  -9.2371     91.3880      6.4416   8.2629322705e+00   6.1583742685e+01    0.1361613    0.1216116 -86.83 0.0001720374    1.073    0.068
        59 -11.0567      4.0443      5.5565   5.4059155314e+01   7.9529543611e+01     0.361463    0.1966257  -2.12  0.001122578    2.394    0.582
        60 -11.6731    184.1978      3.3684   3.5670084397e+02   3.8071624264e+01    0.2868931    0.2154678  59.02  0.001255582    1.602    0.376
        61  -9.1062    122.6779      3.7461   2.1288227374e+00   5.3598582755e+01    0.1358177   0.09359758  52.15 0.0003344983    1.541    0.351
        62 -10.7306     46.3724      2.2699   1.9462017200e+01   7.2894205066e+01    0.2363899    0.1816998  23.08  0.001079665    1.356    0.263
        63 -10.1450    232.7638      1.8086   3.5398217034e+02   2.7723759735e+01      0.32189    0.1257627 -78.70  0.001586834    2.562    0.610
        64  -9.6766    203.0033      1.0000   3.5507193482e+02   3.4012833158e+01    0.1736732   0.06288645  82.20 0.0003824639    2.671    0.626
        65 -13.4382    242.9138     60.6262   6.1228961854e+00   1.8930536493e+01    0.8388934    0.4570672  75.57  0.001123318    2.271    0.560
        66 -12.2302    238.5175     51.4169   4.4935897971e+00   2.0916293965e+01    0.4067257    0.2036984 -52.01 0.0009892609    1.658    0.397
        67 -12.8316    230.2565     47.1869   4.2092184366e+00   2.3017071569e+01    0.8316585    0.6268566  47.96  0.005238093    1.829    0.453
        68 -14.8239     50.6851     72.6680   5.2172921151e+01   5.8996320546e+01     3.228705     1.550922  29.09   0.01249762    2.354    0.575
        69 -13.2101    102.5376     96.0354   3.9710876661e+01   4.3356800412e+01    0.6958508    0.5475832  54.79  0.001834083    1.256    0.204
        70 -11.7759     95.3473     90.2215   4.0282538571e+01   4.6253961642e+01    0.5117185    0.4359092  72.94  0.001349303    1.199    0.166
        71  -9.3949     73.0425    119.0133   5.5092017868e+01   4.3414403870e+01    0.1817259    0.1690633  70.04 0.0009500117    1.019    0.018
        72 -11.8804     11.0584     97.1435   7.5907330639e+01   5.7028801136e+01    0.5052417    0.2637822  80.77  0.002192497    2.024    0.506
        73 -10.6655    250.2618     95.5739   1.2704643945e+01   1.3007110339e+01    0.3891899     0.131411 -32.59  0.001514746    2.518    0.603
        74  -9.7147    244.5245     96.9432   1.3577740118e+01   1.3735287733e+01     0.184105   0.09550184 -35.83 0.0004872547    1.519    0.342
        75 -10.7203    224.9891     96.5064   1.5697300827e+01   1.7115528177e+01    0.2909144    0.1154049 -47.87   0.00125291    2.405    0.584
        76 -10.2889     27.4630     96.9695   6.8599728854e+01   5.5665423022e+01    0.2243947    0.1340618 -72.59 0.0005557662    1.566    0.362
        77 -11.7731    183.1992     94.5359   2.1094437217e+01   2.5586361504e+01    0.3150765    0.2544813  43.99 0.0003863866    1.423    0.297
        78 -10.0749    158.2400     95.5409   2.5816902544e+01   3.0861034977e+01    0.2837004    0.1473419  60.03  0.001144078    2.148    0.534
        79 -12.5073     45.6366     92.9385   5.9847387654e+01   5.4562871646e+01    0.4745777      0.33235  24.46  0.001591743    1.569    0.363
        80 -13.1792      3.5859     54.7952   7.3325536538e+01   6.8574959263e+01     1.154582     0.582608 -76.55  0.005433355    1.883    0.469
        81 -10.6556    226.4172     91.9098   1.4528146819e+01   1.7540603960e+01    0.2421046    0.1747571  85.01 0.0009006303    1.800    0.444
        82 -11.8300    224.2393     87.3925   1.3789667497e+01   1.8599156743e+01    0.4113483    0.2814654  24.45  0.002179126    2.356    0.576
        83 -11.6031    213.9394     90.7866   1.5794613840e+01   2.0011885902e+01    0.3673722     0.233809 -69.35 0.0009836557    2.026    0.507
        84 -11.0804    207.0287     89.6920   1.6438086297e+01   2.1516065290e+01    0.3275682    0.1503838 -45.64 0.0005617839    1.912    0.477
        85  -9.2315    228.0323    119.0000   2.0069367009e+01   1.3233656897e+01    0.1804708   0.07202809  51.76 0.0008142624    3.025    0.669
        86 -10.1556    204.0165    116.4391   2.2916395999e+01   1.7788803555e+01    0.3121724    0.1963732  78.58  0.001418391    2.796    0.642
        87 -10.8055    112.7008     75.8614   3.0673351013e+01   4.5441021392e+01    0.2749397    0.2225941 -29.11 0.0009745536    1.453    0.312
        88 -12.8372    114.9096     80.5851   3.1559515946e+01   4.3944175034e+01    0.5651807    0.5263764  25.53  0.001743492    1.260    0.207
        89 -12.1076    114.5173     86.5193   3.3473490610e+01   4.2784282492e+01    0.2794776    0.2339001 -60.98 0.0007927258    1.182    0.154
        90 -10.2239    171.8691    116.4266   2.8366911228e+01   2.4011416357e+01    0.2352231    0.1809657 -52.27 0.0003435506    1.273    0.215
        91 -10.3357    248.0239     87.4708   1.1279681156e+01   1.4470445496e+01    0.2070008    0.1340526 -37.32 7.817557e-05    1.202    0.168
        92 -11.4258    248.9968     83.3267   1.0335811286e+01   1.4872401992e+01    0.3955946    0.2101001 -61.30  0.002072348    2.325    0.570
        93 -12.0802    236.3069     86.1335   1.2188045690e+01   1.6628350909e+01    0.4859033     0.299948  89.11  0.001710381    2.427    0.588
        94 -10.6528    156.6445     86.1223   2.3606280735e+01   3.2984651533e+01    0.4228974    0.2425356  79.04  0.001605771    2.658    0.624
        95 -10.8959    125.8915    115.8888   3.8422729272e+01   3.3805530616e+01    0.2267371    0.2118926   1.62  0.000271088    1.243    0.196
        96 -11.7560    147.9941     84.5071   2.4884215544e+01   3.5306603012e+01    0.4829535     0.366747  67.37  0.001355967    1.362    0.266
        97 -12.3937    147.3723     79.3358   2.3538965898e+01   3.6421018592e+01    0.3619043    0.2956615 -64.42 0.0001834075    1.194    0.163
        98 -11.8932     47.8590     85.3064   5.7022440983e+01   5.6241645431e+01    0.3051897    0.2634858  33.87 0.0005096266    1.204    0.169
        99 -11.7132    100.1073     54.2961   2.6740295819e+01   5.2674055607e+01    0.8219049    0.6098411  39.66  0.002604486    1.513    0.339
       100 -13.0216    206.8962     79.2565   1.4006644414e+01   2.3155060310e+01    0.7094014    0.3183492  59.80  0.001558347    2.505    0.601
       101 -11.5866    162.5446     83.6812   2.1836117665e+01   3.2065177875e+01    0.4891518      0.39347 -85.17  0.001801097    1.330    0.248
       102 -12.4063    217.3848     83.3630   1.3686929283e+01   2.0477239651e+01     0.521601    0.2243714  53.05  0.002389538    2.719    0.632
       103 -12.2990    168.9724     80.6324   1.9883699730e+01   3.1125745785e+01    0.6874074    0.4084792 -62.27  0.002434255    1.959    0.490
       104 -11.0579    168.5115     76.4916   1.8844161848e+01   3.1943370647e+01    0.3931677    0.2726442  80.60  0.001070715    1.641    0.390
       105  -9.5960    238.0282     80.9894   1.0914976529e+01   1.7048698689e+01    0.1423517    0.1145077 -44.97            0    1.023    0.023
       106 -11.8689     82.2186     71.5415   3.8832032173e+01   5.3311975185e+01    0.3951662    0.3520475 -89.13 0.0004990533    1.154    0.134
       107 -10.9062     82.2580     79.0426   4.1296440824e+01   5.1612281112e+01    0.3695447    0.2515783  34.60  0.001394966    1.640    0.390
       108 -11.1974     86.8030     75.8305   3.8654209351e+01   5.1373499281e+01    0.6156884    0.2940314 -49.85  0.001133626    2.114    0.527
       109  -9.5525     80.4381     84.4631   4.3639136970e+01   5.0720065706e+01    0.1544345    0.1487195 -89.81 2.395884e-05    1.025    0.025
       110 -11.0897     66.2984     70.0395   4.4471302670e+01   5.6882739423e+01    0.4922173    0.1977979  49.42  0.001540631    2.757    0.637
       111 -12.0847     73.5921     75.3170   4.3315935112e+01   5.4239247603e+01    0.7184516    0.4362535  58.94  0.002962242    1.925    0.480
       112  -9.9588    182.9424    115.2820   2.6089654184e+01   2.1998815705e+01    0.1845281     0.179219  75.13  0.000382138    1.116    0.104
       113 -10.3033    155.4864     76.6809   2.1198537774e+01   3.4968145523e+01    0.3292165     0.128023  55.78  0.001187891    2.605    0.616
       114 -10.8154    104.1835     75.8715   3.3101966279e+01   4.7446470004e+01    0.2714256    0.2490819  59.92 0.0005769244    1.086    0.079
       115 -11.2392    249.4653     73.6684   8.3028456367e+00   1.6084591524e+01    0.3445343    0.2335675 -40.11  0.001251674    1.130    0.115
       116 -11.9938    246.0652     52.4538   4.1408325956e+00   1.9417567302e+01    0.8161336    0.2236813 -47.97  0.001921727    2.867    0.651
       117 -10.5309    240.0070     68.2984   8.0131812672e+00   1.8433266790e+01    0.2231466    0.1606027 -56.94  0.001435334    1.242    0.195
       118 -10.6032    239.9926     72.7648   8.9698705603e+00   1.7833438923e+01    0.2347089     0.155356 -32.48  0.001425563    1.330    0.248
       119 -10.3230    243.9761     72.4421   8.5358609394e+00   1.7182154811e+01    0.2071955      0.14644  68.49  0.000694476    1.736    0.424
       120 -11.8666    209.2106     58.3255   8.7271914033e+00   2.5750869519e+01    0.3183141    0.2302947 -85.19  0.000832809    1.466    0.318
       121 -11.0494    128.0199     58.5765   2.1202158758e+01   4.4931971515e+01    0.5017604    0.2740375  40.98  0.001911254    2.393    0.582
       122 -11.3885    160.6541     50.7883   1.2775132610e+01   3.7975006634e+01    0.3885323    0.3541051  -5.83   0.00126365    1.399    0.285
       123 -11.1900    162.9599     57.0772   1.4275268795e+01   3.6444527728e+01    0.3895857    0.3300883  59.53  0.001344106    1.286    0.222
       124  -9.6826    157.3833     54.6125   1.4423447174e+01   3.8198595957e+01    0.5305769    0.2613516  68.70  0.002148608    2.111    0.526
       125 -11.6085    174.0532     56.4060   1.2460461904e+01   3.3880275458e+01    0.3999155    0.2909345  60.42 0.0007185241    1.471    0.320
       126 -12.7120    104.9892     66.0264   2.9563928756e+01   4.9261868407e+01    0.7876232    0.4611342  46.68  0.001096972    1.753    0.430
       127 -11.3946    144.4576     53.3909   1.6236916165e+01   4.1628339336e+01    0.5712661    0.3025061  39.29  0.001856312    2.871    0.652
       128 -10.0754    149.5386     48.5292   1.3827997989e+01   4.1097713006e+01    0.2344139    0.1942859  20.05 0.0008813916    1.673    0.402
       129 -10.7120    123.2694     53.6422   2.0580325620e+01   4.6981568966e+01    0.3312254    0.2328004  60.10 0.0009113723    1.382    0.277
       130 -12.1245    234.1382     37.0219   1.6576274796e+00   2.3537645775e+01    0.5096202    0.2231727 -63.19   0.00170536    2.356    0.576
       131 -10.5125    167.5804     51.6924   1.2031411032e+01   3.6142308849e+01    0.3699383    0.1849851  46.77    0.0014973    2.590    0.614
       132 -10.8182    131.5802     51.8164   1.8181546118e+01   4.5161289566e+01    0.3155124    0.2046421 -62.41   0.00140854    1.662    0.398
       133 -11.5911     74.5673     96.2879   4.9146445805e+01   4.8971090327e+01    0.3945414    0.2367848 -66.45  0.001615593    1.825    0.452
       134  -9.6711     33.9286     49.4663   5.2881490117e+01   6.6977659424e+01    0.1891386    0.1356811  29.38 -4.079851e-05    1.427    0.299
       135 -11.4823    126.8347     45.5910   1.7005392167e+01   4.7371797035e+01    0.3758286    0.2372957  83.35  0.001470596    1.771    0.435
       136 -10.4583    136.0121     43.4910   1.4516901748e+01   4.5318477908e+01      0.31727    0.1439041  73.87  0.001166977    2.488    0.598
       137 -11.5329    133.4688     39.9982   1.3781953011e+01   4.6491503561e+01    0.4017669    0.3393072 -83.80  0.001292734    1.096    0.088
       138 -11.0984    163.8144     31.0307   6.4240069739e+00   3.9935834824e+01     0.404697    0.2185858 -52.33  0.001217249    1.696    0.410
       139 -11.6969    142.4778     46.4869   1.4366004920e+01   4.3204651734e+01    0.3697559    0.2627359  34.84  0.001724075    1.922    0.480
       140 -12.6394    161.0279     38.3433   8.9821761049e+00   3.9667933788e+01     0.787435    0.6171337 -83.10  0.004317048    1.184    0.156
       141 -11.9602    172.6006     44.3681   9.2594048642e+00   3.5985562622e+01    0.5186043     0.369171  59.78  0.001312399    1.519    0.342
       142 -12.4757    178.4745     38.2055   6.8230293195e+00   3.5415555288e+01    0.5407482    0.4343441   3.18  0.001169795    1.814    0.449
       143 -11.2214    155.0852     42.7710   1.1168534684e+01   4.0543283857e+01    0.3320805    0.2786815  14.97  0.001479727    1.662    0.398
       144 -12.3190    150.0227     41.1734   1.1425599481e+01   4.2055327781e+01     0.629248    0.4217192  78.18  0.002141597    1.463    0.316
       145 -10.8656    133.2820     46.6174   1.6085954912e+01   4.5548334397e+01    0.4297663    0.3433329 -69.64  0.001578904    1.214    0.176
       146  -9.4552    103.6155     45.7161   2.2473094854e+01   5.3298345888e+01    0.1553026    0.1135285  32.28 0.0007008879    1.737    0.424
       147 -10.6549    214.5403     41.5099   4.1807135052e+00   2.6900298177e+01    0.4663274     0.224193 -60.20  0.002238987    2.028    0.507
       148 -11.6277     97.1760     42.4289   2.2930371484e+01   5.5453245955e+01    0.6530934    0.2700193  54.98  0.001365958    2.260    0.557
       149 -11.7475     91.3189     34.2454   2.1148513848e+01   5.8201155609e+01    0.5715154     0.307907  54.54  0.001632888    1.734    0.423
       150 -10.9553    131.7551     33.3534   1.1759531307e+01   4.7870636759e+01    0.3140476    0.2160726 -53.44 0.0005101112    1.411    0.291
       151 -10.6132     75.4586     33.5616   2.5921084851e+01   6.2144553587e+01     0.286737    0.2408298 -86.28  0.001037271    1.337    0.252
       152 -11.1035     65.3378    114.7193   5.6893832347e+01   4.5819914761e+01    0.2767698    0.2261717  71.03 0.0007294499    1.234    0.190
       153  -9.1068    247.7142    113.7238   1.6604271017e+01   1.0899820592e+01     0.108958   0.08178785  -9.93  0.000170494    1.511    0.338
       154 -11.3289    133.3066    112.8147   3.5795873202e+01   3.2887995619e+01    0.3135367    0.2345068 -18.29  0.000624945    1.851    0.460
       155  -9.8882    173.1614     33.1334   5.9755218285e+00   3.7360816103e+01    0.1988599    0.1374614 -70.04 0.0004969688    1.338    0.253
       156  -9.8169    121.8886     33.0652   1.3449714842e+01   5.0496062150e+01    0.2155484    0.1737461 -72.62 0.0006246609    1.204    0.169
       157 -10.1025    111.8097     32.8699   1.5438235606e+01   5.3159228587e+01    0.2146612    0.1987946  49.66 0.0005471713    1.183    0.155
       158  -8.8811    241.6196     29.8745   3.5962462928e+02   2.2971201351e+01     0.272298    0.2031489 -59.70  0.001159832    1.100    0.091
       159  -9.6261    237.6733     30.6705   3.3819987115e-02   2.3621380210e+01     0.170862    0.1346695 -77.24 0.0006986046    1.254    0.202
       160 -11.2068    226.9621     30.2099   6.1392734676e-01   2.5761550282e+01    0.3710403    0.3189976  69.11  0.002012587    1.454    0.312
       161 -11.4234    159.0511     27.0283   5.7642378025e+00   4.1634743551e+01     0.395946    0.2651355 -13.17  0.001919958    2.027    0.507
       162  -9.8660    138.4154     29.8272   9.4491190966e+00   4.6595321164e+01    0.1746622    0.1421591 -15.27 0.0009169419    1.526    0.345
       163 -10.7004     97.5805     22.1679   1.4179298864e+01   5.8269780830e+01     0.274543     0.229902 -27.07 0.0009088465    1.328    0.247
       164 -11.0172    103.2337     28.7488   1.5694552667e+01   5.5954211206e+01     0.402832      0.30312 -51.61  0.001391759    1.360    0.264
       165  -9.3036    102.3431     23.2822   1.3577720663e+01   5.6896216079e+01    0.1811942    0.1493993   6.49 0.0005282542    1.544    0.352
       166 -10.1962    102.1017     20.0672   1.2243250026e+01   5.7350758667e+01    0.2527851    0.2210016  48.54 0.0006641603    1.207    0.172
       167  -9.4312    114.3949     28.2424   1.3072808538e+01   5.3109634704e+01    0.1502433    0.1007411  44.95  0.000693065    1.669    0.401
       168 -10.6805    234.0624     24.7971   3.5896179531e+02   2.4996215742e+01    0.3252397    0.2407097 -28.65  0.002130945    1.444    0.307
       169 -11.0179    153.5835     25.1074   5.8151747532e+00   4.3260163750e+01    0.4171095    0.2588148 -79.81  0.001724022    1.607    0.378
       170 -10.2265    148.0949     25.1553   6.5181556493e+00   4.4665310404e+01     0.242649    0.1801544  63.47  0.001286811    1.367    0.269
       171 -10.2716    134.5405     26.5726   8.9097815615e+00   4.8022725068e+01    0.2598272    0.2195243  19.60 0.0009109117    1.566    0.361
       172 -10.4835    210.0914    111.9704   2.1040206117e+01   1.7406833088e+01    0.1932969    0.1838599  64.69 0.0007102963    1.220    0.180
       173 -10.2132    203.1642     26.0202   1.3026668523e+00   3.1262374871e+01    0.1990603    0.1594284 -56.47  0.000802179    1.036    0.035
       174 -10.6935    174.2706    112.0565   2.6887748109e+01   2.4328886629e+01     0.359845    0.1998516  41.80 0.0005052873    2.062    0.515
       175 -11.1025    119.4664     21.9852   9.6767868048e+00   5.2555881871e+01    0.2582382    0.2050792  86.18 0.0003915773    1.157    0.135
       176 -10.7611    112.8578     23.3314   1.1419744785e+01   5.4136425443e+01    0.4535602    0.3289434  26.68  0.002213822    1.848    0.459
       177 -13.7517    177.0817     84.0158   1.9429411939e+01   2.8716404463e+01     2.115302     1.314788   5.73  0.006911579    4.736    0.789
       178 -10.9241    176.0750     23.8019   3.0085366694e+00   3.7805946712e+01     0.259549    0.1716164 -39.01 0.0003178413    1.400    0.286
       179 -10.8226     71.9854    109.9692   5.3467853443e+01   4.5944090689e+01    0.2302779    0.2156428  79.91            0    1.002    0.002
       180 -11.1150    202.0382     20.8955   9.7612057908e-02   3.2109921232e+01    0.3037062    0.2168066 -40.02  0.000774995    1.268    0.211
       181 -10.1126    233.5416    108.9908   1.7308058544e+01   1.3809683438e+01    0.1760833    0.1594744  -0.57  0.000448239    1.268    0.211
       182 -10.0888    180.6923     21.0657   1.8204910524e+00   3.7014993864e+01    0.2341161    0.1550738 -79.06 0.0005299124    1.386    0.279
       183 -10.2758    162.0330     20.3979   3.3963650759e+00   4.1672197628e+01    0.4854064    0.2110962 -70.81  0.001852148    2.766    0.639
       184  -9.6975    151.4224     20.3807   4.5556506323e+00   4.4372584354e+01    0.1415458    0.1164357 -74.44            0    1.050    0.048
       185  -9.5120    170.4394     19.4898   2.2960733882e+00   3.9684044880e+01    0.1344297    0.1175174 -72.03 0.0008063348    1.075    0.070
       186  -9.8932    194.1504     17.6352   3.5982863091e+02   3.4257475032e+01    0.2104094    0.1285803 -69.73  0.001019141    1.454    0.312
       187 -10.6346    196.2241    107.2918   2.2061597801e+01   2.0774063745e+01    0.2771633     0.208203 -45.05  0.001550023    1.191    0.160
       188 -11.3979     63.4161    108.0824   5.6161940273e+01   4.7878498383e+01    0.2836019    0.2149072  47.77 0.0003561073    1.295    0.228
       189 -12.2225    160.7637    105.1876   2.7792329527e+01   2.8467685616e+01    0.3064194    0.2552671 -64.29 0.0002908963    1.221    0.181
       190 -11.1615    161.0287     99.9826   2.6420601889e+01   2.9400608825e+01    0.2638099    0.2542045   5.17 0.0009865966    1.182    0.154
       191 -12.1564    151.0974    106.1157   3.0020701305e+01   3.0394532568e+01    0.6764784    0.4177082  85.89  0.002468492    3.026    0.670
       192 -10.3060     15.6404    106.6357   7.5075507017e+01   5.4108758678e+01    0.2149085    0.1488488 -43.30 0.0005413733    1.597    0.374
       193 -10.9110    210.4771    105.2118   1.9495823381e+01   1.8411529095e+01    0.3227535    0.2760289 -82.17  0.001762916    1.364    0.267
       194 -10.1101    182.0848    104.8770   2.3792290050e+01   2.4016069269e+01    0.2110348    0.1757101 -63.92  0.001171843    1.235    0.190
       195 -10.6963    144.4065    103.1511   3.0719322421e+01   3.2470021730e+01    0.3215021    0.2781967 -33.38  0.001668164    1.237    0.192
       196 -10.2685     90.8990    104.2203   4.5595702203e+01   4.3843000190e+01    0.2351404    0.2032029  72.73 0.0003537821    1.166    0.142
       197 -14.2640     64.7154     85.2151   4.9867165449e+01   5.3529410741e+01     1.416249     1.267671 -49.46  0.006707892    1.151    0.131
       198 -10.3251     36.6722    248.9911   7.9268940976e+01   1.8104511203e+01    0.1639169   0.06472713 -50.82 0.0007051839    4.369    0.771
       199  -9.4837    160.3721     13.7966   1.5362442042e+00   4.2823463940e+01    0.1675687    0.1302557 -12.02 0.0005670529    1.656    0.396
       200 -10.6763    180.9291    244.1342   4.9347297882e+01   1.5464593133e+00    0.1631023    0.1316513  27.57  0.001227855    1.300    0.231
       201  -9.6962    146.7521     12.3504   2.4467853692e+00   4.6457885124e+01    0.1463513   0.08584281 -57.30 0.0006940123    1.586    0.370
       202 -10.8548    130.4981     19.1298   6.8466820390e+00   4.9973936838e+01    0.2612457    0.2126448  86.58 0.0003526846    1.101    0.092
       203  -9.6728    218.5201    239.5243   4.2368168306e+01  -2.0405029362e+00    0.1043591   0.07769959   2.68 0.0002281541    1.028    0.027
       204  -9.4247     38.1940     12.3588   3.0818578637e+01   7.3324420223e+01    0.1238469    0.0929675  -4.80 0.0002690923    1.541    0.351
       205 -10.3195     15.9178    238.8148   8.3319868949e+01   2.2104549370e+01    0.1613322    0.1446951  41.44 0.0007017055    1.292    0.226
       206 -12.6874     51.1277     45.1179   4.1736814795e+01   6.5156340885e+01    0.9545547    0.4920619  23.06  0.003363294    3.365    0.703
       207 -13.1979     79.4940     41.3242   2.8034042417e+01   5.9914555005e+01     1.168679    0.3878494  47.37  0.003893938    2.972    0.664
       208 -14.4930     76.8571     59.0773   3.6306470315e+01   5.7132372330e+01      1.04874    0.5386254  55.97  0.004088749    2.143    0.533
       209 -13.5689     78.9677     50.1571   3.1982523459e+01   5.8434725548e+01    0.9690819    0.7570032  42.85  0.001411879    1.299    0.230
       210 -11.5075    169.0873     98.3281   2.4474217359e+01   2.7943441121e+01    0.6275118    0.4403709  -2.84  0.002722738    2.416    0.586
       211 -10.3058     46.9739    101.9800   6.1260929726e+01   5.1972460318e+01    0.1830494    0.1663419 -82.21   0.00033022    1.041    0.039
       212 -11.2150    216.0309     99.7533   1.7535220716e+01   1.8242447103e+01    0.2979642    0.1643392 -37.97  0.001527661    1.526    0.345
       213 -11.7492    152.2251     98.5031   2.7814124866e+01   3.1643734620e+01    0.4928408    0.3752357 -67.27  0.002022748    1.424    0.298
       214 -11.8281     83.2347     98.2654   4.6591801577e+01   4.6823716794e+01    0.4687524    0.3831345 -25.80  0.001696494    1.542    0.352
       215  -9.9408     87.8625     97.8235   4.4896329722e+01   4.6011295950e+01    0.3504319    0.2759393  24.33  0.001235935    1.540    0.350
       216 -12.4097    199.5663     96.4717   1.9052641089e+01   2.1906584174e+01    0.5292369    0.2623639 -36.94  0.002427161    1.795    0.443
       217 -13.3260    186.4312     60.2214   1.1842969034e+01   3.0434337903e+01     1.187511    0.7981662  56.22 0.0006420834    1.667    0.400
       218 -11.3213    154.1772     63.1938   1.7520687147e+01   3.7607781233e+01    0.6878208    0.3380914 -49.30  0.002665939    1.979    0.495
       219  -9.8235    236.7390    145.9956   2.4226102193e+01   7.9634175456e+00    0.1630406    0.1258349 -27.30 0.0003405647    1.051    0.048
       220 -13.2601    191.0153     45.3052   7.3745896566e+00   3.1530515385e+01     1.370404     0.814504  63.66  0.004203006    1.796    0.443
       221  -9.4248    147.5567    128.4904   3.6202958125e+01   2.6594721444e+01    0.1454764    0.1408426 -67.61 0.0001651496    1.026    0.025
       222  -9.5206    222.0129    125.0059   2.2117869432e+01   1.3311400418e+01    0.1491901    0.1265741 -32.01  0.000406267    1.009    0.009
       223 -12.1768    175.1659     69.9798   1.6020796271e+01   3.1489027695e+01     1.423452    0.6892223 -89.15  0.004146569    5.171    0.807
       224 -12.1856    163.8543     65.9708   1.6690901874e+01   3.4802744603e+01    0.8995466    0.5224054  56.48  0.004104632    1.796    0.443
       225 -13.0579    143.1318     67.1980   2.0791875500e+01   3.9644485459e+01     1.498752     1.064721  34.17  0.004885383    1.902    0.474
       226 -11.6068    136.8013     59.7801   1.9741258353e+01   4.2508864635e+01     0.846715    0.3038566 -35.22  0.002852092    2.901    0.655
       227 -14.1583    195.8524     82.1711   1.6157257152e+01   2.4970505212e+01     1.307812     1.147975 -21.17  0.005229278    1.288    0.223
       228 -12.2721    208.5966     46.8931   6.0107403532e+00   2.7446484569e+01    0.8107397      0.40626 -89.44  0.003704296    2.522    0.603
       229 -14.4031    207.3981     68.1275   1.1289091014e+01   2.4718478299e+01     2.827994    0.9766772  70.63  0.004817433    4.086    0.755
       230 -12.8859    200.9215     61.7831   1.0482734209e+01   2.7008166027e+01    0.7350122    0.4326087  61.44  0.003526869    1.874    0.466
       231 -10.0718    222.4153    121.5481   2.1348830355e+01   1.3773236975e+01    0.2507347    0.1270351  53.05   0.00126174    2.404    0.584
       232 -12.5010    221.3170     38.8616   3.0085731519e+00   2.5842147007e+01       0.7129    0.3085224 -61.86  0.001171982    2.411    0.585
