#   1 NUMBER                 Running object number                                     
#   2 MAG_AUTO               Kron-like elliptical aperture magnitude                    [mag]
#   3 X_IMAGE                Object position along x                                    [pixel]
#   4 Y_IMAGE                Object position along y                                    [pixel]
#   5 X_WORLD                Barycenter position along world x axis                     [deg]
#   6 Y_WORLD                Barycenter position along world y axis                     [deg]
#   7 A_WORLD                Profile RMS along major axis (world units)                 [deg]
#   8 B_WORLD                Profile RMS along minor axis (world units)                 [deg]
#   9 THETA_WORLD            Position angle (CCW/world-x)                               [deg]
#  10 FWHM_WORLD             FWHM assuming a gaussian core                              [deg]
#  11 ELONGATION             A_IMAGE/B_IMAGE                                           
#  12 ELLIPTICITY            1 - B_IMAGE/A_IMAGE                                       
         1 -11.0102    249.7375     26.1771   3.4519645784e+01   2.1337441273e+01    0.9970027    0.5182315 -27.74  0.003899534    2.354    0.575
         2 -12.1444    240.5882     47.5509   3.9783983593e+01   2.0414025191e+01     2.505337    0.5507643  58.60  0.008834057    4.423    0.774
         3  -7.5364    192.2169      9.6017   3.5862336074e+01   3.5887122010e+01    0.1677484    0.1022267  63.74 0.0002945799    1.533    0.348
         4  -8.1016    235.9478      6.1561   3.1469717810e+01   2.6491190336e+01    0.2504099    0.1566134 -33.14  0.001519448    1.725    0.420
         5  -7.6128     15.3148    234.6630   1.2355106530e+02   2.2645719228e+01    0.1248214   0.06095329  64.26 0.0004085891    1.695    0.410
         6  -7.2861    139.6836    231.6583   9.7762152257e+01   6.2472932232e+00      0.13137   0.09929345  -1.08   0.00070485    1.710    0.415
         7  -9.0279    202.6013    226.5907   8.4044503499e+01  -2.8674342439e+00    0.3006073    0.2549855  71.72  0.001112324    1.990    0.498
         8  -9.0989    191.1408    221.0051   8.5363400851e+01  -1.9847924743e-01     0.262457    0.2069899  33.87 0.0003485795    1.225    0.184
         9  -8.8936    192.2079    216.4186   8.4355872777e+01   3.9401066398e-01    0.2278347     0.202274   2.97 0.0002656909    1.057    0.054
        10 -10.3151    222.7529    220.4410   7.9138249412e+01  -4.9164733522e+00    0.2277314     0.191566   9.44 0.0003473641    1.104    0.094
        11  -7.1558    114.0000    216.0533   1.0117429951e+02   1.3431834064e+01    0.1973928   0.07811601 -57.44 0.0004845216    2.778    0.640
        12  -8.2983    192.9578    211.9281   8.3412243592e+01   1.0317599804e+00    0.1965579    0.1732282   6.64 0.0004201505    1.026    0.026
        13  -7.2025    219.5847    208.5706   7.7593749165e+01  -2.6204071140e+00    0.1288828    0.1088931  -1.77 0.0001355689    1.024    0.023
        14 -10.2389    159.9200    206.1476   8.9367196407e+01   7.6637307690e+00    0.2467695     0.236773 -25.69 0.0003661731    1.122    0.109
        15  -8.3108    111.9969    203.0690   9.9763827639e+01   1.6511917702e+01    0.1990967    0.1821007  58.54            0    1.021    0.020
        16  -9.2965     44.3623    192.9645   1.1439358294e+02   2.8543766820e+01    0.2102045    0.1894782  50.33 0.0003095377    1.220    0.180
        17  -8.9258    182.1013    191.3209   8.1851207143e+01   6.5976246939e+00    0.2315885    0.1972555 -39.11 0.0002863296    1.223    0.182
        18  -7.5992    167.8335    188.7608   8.4455581878e+01   9.6733143608e+00    0.1921391    0.1746648  84.88  0.001057788    1.368    0.269
        19  -6.8982     90.7840    180.9818   1.0154970827e+02   2.5009765028e+01    0.1688798    0.1135796 -62.61 0.0008115427    1.480    0.324
        20  -7.4886    109.6802    179.8064   9.6604808997e+01   2.2168034359e+01    0.1913164    0.1346666 -67.36 0.0003889521    1.522    0.343
        21  -9.2692      1.5009    175.0036   1.2274396302e+02   3.6927351199e+01    0.3513507    0.1850968 -77.70   0.00196621    1.529    0.346
        22  -8.7662     46.0501    177.2719   1.1230663735e+02   3.2091245158e+01    0.2225976    0.1689494 -84.28 0.0003139098    1.174    0.148
        23  -7.1616    140.9911    161.4719   8.5260863299e+01   2.0643675901e+01    0.2143847    0.1497337  40.88 4.002079e-05    1.419    0.295
        24 -10.0194     46.3222    151.6269   1.0896336073e+02   3.8433922956e+01    0.6471905    0.4358307 -12.23  0.003082938    2.333    0.571
        25 -10.1409     32.4638    158.2534   1.1358240077e+02   3.8257528970e+01    0.5280826    0.3966439 -72.50  0.001608482    1.153    0.133
        26 -10.0971     37.6864    155.9194   1.1190367216e+02   3.8302740970e+01    0.5226091    0.3321216 -56.99  0.002751654    1.481    0.325
        27  -9.5992    187.6749    138.1050   6.9289141269e+01   1.6117073038e+01    0.2497483    0.2463302  54.85 0.0003650489    1.091    0.084
        28  -8.7766    131.0926    136.9662   8.2332066178e+01   2.8311700689e+01    0.2263111    0.2191881 -79.56  0.001179733    1.054    0.051
        29  -8.0346    192.8821    134.8766   6.7469144021e+01   1.5677287681e+01    0.2252638    0.1967219 -11.06 0.0003914774    1.212    0.175
        30  -7.9593     93.9780    129.2393   9.0918478268e+01   3.7263655016e+01    0.2017668    0.1954785  22.45   0.00108873    1.094    0.086
        31  -7.8835    136.0131    111.1873   7.4541788375e+01   3.3155732934e+01    0.2314515    0.2075252   6.10            0    1.241    0.194
        32  -8.3956     78.7917    107.9706   9.0558759712e+01   4.5006964125e+01    0.2243972    0.2125058  25.01 0.0002619367    1.120    0.107
        33  -7.6813    230.4532    103.4779   5.3547267186e+01   1.3749264690e+01    0.1404012    0.1225715 -45.90 0.0001766576    1.005    0.005
        34 -11.4185    242.1917     93.0850   4.9571309634e+01   1.3162226230e+01    0.9895172    0.3199221 -40.38  0.003791705    2.560    0.609
        35  -8.5041    248.8769     91.8497   4.8440426227e+01   1.2070067028e+01    0.1916821    0.1679221 -27.19 0.0003851277    1.235    0.190
        36  -8.8209    159.9381     88.6128   6.2541236311e+01   3.2298352911e+01    0.3430211    0.2236391 -35.33 0.0005422249    1.571    0.363
        37 -10.3695     96.1122     88.8987   7.9703731216e+01   4.6339047191e+01    0.2486895    0.2354438 -31.27            0    1.027    0.026
        38  -8.2906    179.7541     89.4116   5.8681087120e+01   2.7449866458e+01    0.2054738    0.1411118  44.31 0.0004063684    1.570    0.363
        39  -7.7974    107.7237     88.0571   7.5870052829e+01   4.4215616053e+01     0.210899    0.1895299 -30.94 0.0002801668    1.095    0.087
        40  -8.4754    186.2618     85.9941   5.6556886406e+01   2.6538982243e+01    0.2483937    0.2118049  61.75 0.0004896158    1.204    0.169
        41  -7.7880    112.2085     96.0743   7.6906087305e+01   4.1574410844e+01    0.3112591    0.1949444  15.80  0.001032524    2.599    0.615
        42  -9.0148    192.2416     91.1566   5.6812546260e+01   2.4220211998e+01    0.3905612    0.2542594 -35.30  0.001136854    1.523    0.343
        43  -7.9759    196.6476     81.0208   5.3458460444e+01   2.4986348534e+01    0.2630102    0.1911326  42.59 0.0006626558    1.582    0.368
        44  -9.8124    239.2453     74.0947   4.5743129335e+01   1.6787022614e+01    0.3241329    0.1494639 -44.40  0.001483549    1.838    0.456
        45  -8.3091    202.6304     78.4642   5.1841880838e+01   2.4041037517e+01    0.3099899    0.2623936   5.46  0.001399873    1.556    0.357
        46  -9.8109    178.7161     76.5236   5.5417539933e+01   2.9994088549e+01    0.4243508    0.3432705   2.09  0.001364818    1.643    0.391
        47  -8.1738    250.2098     77.4130   4.5174384156e+01   1.4089513650e+01     0.169219     0.119089  87.06 0.0009459023    1.664    0.399
        48 -10.8940    219.1844     71.2084   4.7647466823e+01   2.1499418385e+01    0.7570048    0.5703511 -33.79  0.004141164    1.348    0.258
        49  -9.8924    226.8210     68.8069   4.6084702162e+01   2.0212956574e+01    0.4229976    0.2069733 -49.13  0.001332706    1.870    0.465
        50 -12.2016    233.4910     64.7727   4.4349360023e+01   1.9409385686e+01     1.272896     1.143836  43.29  0.007697843    1.408    0.290
        51  -7.5923     91.7355    247.9219   1.0970059129e+02   1.0559085304e+01    0.1628756    0.1372639  68.85 0.0004654531    1.129    0.115
        52  -9.4446    249.3006     62.4594   4.2084843724e+01   1.6518558738e+01    0.2639905    0.2109744 -84.23  0.001664239    1.255    0.203
        53 -10.0640    250.3151     39.4937   3.7183246020e+01   1.9519677257e+01    0.6182171    0.2154958 -42.86  0.002071733    2.258    0.557
        54  -9.6891    244.4341     71.9050   4.4650380474e+01   1.6075033810e+01    0.3325917    0.2146199  88.26 0.0004786446    1.883    0.469
        55  -9.8676    221.7628     40.2472   4.0096347464e+01   2.5453885549e+01    0.3623012    0.2034763 -57.08   0.00183426    1.681    0.405
        56  -7.6489    190.8148     37.8480   4.3179495681e+01   3.2937027965e+01    0.1976624    0.1418424 -63.59    0.0010105    1.372    0.271
        57  -7.5207    165.4399     38.5146   4.7076557700e+01   3.9041186251e+01    0.1385335    0.1284175  77.18 2.305927e-05    1.031    0.030
        58  -8.5149    157.7623     36.9637   4.7902579461e+01   4.1138221503e+01    0.2264562    0.1848676  64.82 0.0004961605    1.133    0.118
        59  -8.7173    129.0182     37.4792   5.3661675980e+01   4.8095305334e+01    0.2048939     0.176633  58.20 0.0004133318    1.085    0.078
        60  -9.2103    125.7255     31.6804   5.2415803075e+01   4.9612963665e+01    0.4328276     0.218289 -28.71 0.0004328983    2.156    0.536
        61  -9.4238    228.0717     30.3222   3.7234389519e+01   2.5354770762e+01    0.3038273    0.2712211  -7.74   0.00172384    1.565    0.361
        62  -9.0423    231.1738     24.4673   3.5679409039e+01   2.5407611272e+01    0.3643247    0.1807041 -37.64 0.0009780264    1.872    0.466
        63  -8.5603    203.9235    244.1694   8.6666447146e+01  -5.6721198880e+00    0.1810388    0.1543236  -0.93 0.0003339191    1.135    0.119
        64  -8.4438    213.9180     19.4377   3.6109922548e+01   2.9805974293e+01     0.253969    0.1686709 -34.30 0.0009808876    1.589    0.371
        65  -8.4145    243.0880     19.0051   3.3573739230e+01   2.3556107164e+01    0.1744865    0.1442861 -67.40  0.001207387    1.083    0.077
        66  -7.7878    232.4512     16.7465   3.3925751093e+01   2.6047883928e+01    0.2141748    0.1009181 -39.27  0.001111362    1.906    0.475
        67  -7.3109    119.3854     16.5579   4.8491828213e+01   5.2784999551e+01    0.1293283    0.1177414  55.82 8.754677e-05    1.043    0.041
        68  -8.9802    242.6261    238.8806   7.8722565851e+01  -1.0165095823e+01    0.2044547    0.1289343  14.94 0.0007072779    1.380    0.275
        69  -7.6993    143.9090     65.6758   5.9392296680e+01   4.0278506373e+01    0.2279372    0.1677213  35.82 0.0002825221    1.487    0.327
