#   1 NUMBER                 Running object number                                     
#   2 MAG_AUTO               Kron-like elliptical aperture magnitude                    [mag]
#   3 X_IMAGE                Object position along x                                    [pixel]
#   4 Y_IMAGE                Object position along y                                    [pixel]
#   5 X_WORLD                Barycenter position along world x axis                     [deg]
#   6 Y_WORLD                Barycenter position along world y axis                     [deg]
#   7 A_WORLD                Profile RMS along major axis (world units)                 [deg]
#   8 B_WORLD                Profile RMS along minor axis (world units)                 [deg]
#   9 THETA_WORLD            Position angle (CCW/world-x)                               [deg]
#  10 FWHM_WORLD             FWHM assuming a gaussian core                              [deg]
#  11 ELONGATION             A_IMAGE/B_IMAGE                                           
#  12 ELLIPTICITY            1 - B_IMAGE/A_IMAGE                                       
         1  99.0000     65.2805     52.3927   6.5938005755e+01   5.9574791522e+01     2.963412     1.653136  12.92   0.01060759    3.615    0.723
         2 -14.9305      6.4047     71.1375   9.8004105427e+01   6.2253137505e+01     1.192638    0.7293898 -59.86  0.006296162    1.352    0.260
         3 -14.3472    166.3713     28.9612   3.2530772893e+01   4.0103579169e+01     1.080084    0.7895258  79.91  0.004232589    1.282    0.220
         4 -13.1083    120.7294     26.5947   3.9413236243e+01   5.1559633675e+01    0.7244802    0.6390945  36.16  0.004044284    1.208    0.172
         5 -14.5478    147.1536     29.7490   3.5613321778e+01   4.4700339028e+01      1.42774    0.8407784  65.36  0.006979824    1.572    0.364
         6 -13.4241    132.0710     32.3263   3.9121078096e+01   4.8077274756e+01    0.6893247     0.586598 -65.91  0.002537321    1.207    0.172
         7 -13.6427      2.9155     10.2667   8.1235214917e+01   7.5153839561e+01    0.7236361     0.470469 -50.63  0.004663273    1.547    0.354
         8 -13.2479      7.9682      2.6053   7.3344454285e+01   7.5938462394e+01    0.6279481    0.3803862  40.10  0.003775065    2.159    0.537
         9 -15.9883     12.9300     20.9446   7.9386052783e+01   7.2434119439e+01      1.91775    0.9988338 -30.30  0.008457146    1.860    0.463
        10 -14.3131     24.8531     13.5595   6.8294114398e+01   7.2340178019e+01    0.7616786    0.3814857  32.20   0.00407917    1.941    0.485
        11 -13.6808    188.3258     25.0982   2.8845979332e+01   3.5360602588e+01     1.138406    0.4658291 -53.57  0.004837498    2.455    0.593
        12 -12.9036    187.9309      9.7096   2.4943528192e+01   3.7173498026e+01    0.4968436    0.2652712 -54.39  0.001662012    1.711    0.416
        13 -15.1445     98.7945     11.4022   3.8430679494e+01   5.8472153213e+01      1.56387    0.8105001  64.23  0.007489686    1.780    0.438
        14 -12.8382     85.6455     14.0125   4.2875467579e+01   6.1201913348e+01    0.5637558    0.3535573 -44.01  0.002467857    1.861    0.463
        15 -12.4316     70.1690     16.1292   4.8648606778e+01   6.4277082680e+01    0.3624372    0.3176158 -79.54  0.001953971    1.500    0.334
        16 -12.0541     59.0393     16.0056   5.2714928360e+01   6.6491369738e+01    0.3455038    0.2871877  38.52  0.002181921    1.126    0.112
        17 -13.1315    215.0627     10.1325   2.2872169517e+01   3.1082960164e+01    0.3892294    0.2739995 -51.86   0.00140669    1.204    0.169
        18 -11.7806     46.6577     12.8335   5.6391420562e+01   6.9140425890e+01    0.2646831    0.2384041  36.15  0.001551011    1.216    0.178
        19 -13.7904     41.9533      4.1846   5.3834227929e+01   7.1003580526e+01    0.6227907     0.482495  22.64  0.003430467    1.123    0.110
        20 -11.8997    153.2416      8.5947   2.8253686456e+01   4.5550516035e+01    0.2217267    0.2123528 -84.24 0.0006957893    1.143    0.125
        21 -10.6868     59.2201      7.5849   4.8390199327e+01   6.7441399140e+01    0.1798385   0.09918838  40.90 0.0003187942    1.625    0.385
        22 -12.1465    224.2390      4.7412   2.1069098525e+01   2.9722420893e+01    0.2243953    0.1517393  38.77  0.001292444    2.452    0.592
        23 -11.9548    118.8691      2.7726   3.1179690688e+01   5.4477196837e+01    0.4583307    0.2294009 -80.98  0.001879533    2.914    0.657
        24 -10.6258     66.8243      3.8177   4.3792526535e+01   6.6290169230e+01    0.1592286      0.14555  84.61 0.0005973444    1.334    0.251
        25 -11.3982     74.9864      8.1117   4.3302800427e+01   6.4146485785e+01    0.3583898    0.1796273 -14.10  0.001105617    2.529    0.605
        26 -11.0768     81.9825      1.2200   3.8131434002e+01   6.3254002062e+01    0.3702238   0.08190284  60.62   0.00127129    3.594    0.722
        27 -11.3869     61.3380      1.4657   4.4439229144e+01   6.7637456239e+01    0.3271112    0.1083602  56.03  0.001335143    2.709    0.631
        28 -12.2776    164.7408    196.2525   7.2996299478e+01   9.8071408295e+00    0.2985484     0.203099 -73.37  0.001385457    2.565    0.610
        29 -12.9251    107.5868    246.5099   9.2143416590e+01   9.1499351860e+00    0.6595766    0.4735067  77.83  0.004010845    1.796    0.443
        30 -13.2068     98.4668    238.9593   9.3273982050e+01   1.1740048863e+01    0.7902516    0.4042552  32.89  0.004099547    1.687    0.407
        31 -13.8980     91.9221    230.8480   9.3841231926e+01   1.4163304268e+01    0.5653074    0.5344776 -67.08  0.003904212    1.238    0.192
        32 -12.0499     51.2875    248.7270   1.0393835852e+02   1.5891369638e+01    0.3285585    0.2117587  78.89  0.002078282    1.573    0.364
        33 -13.5591      9.4994    245.5650   1.1201469113e+02   2.0926679715e+01    0.7117168    0.3423907  57.87  0.003501115    1.586    0.369
        34 -10.8848     79.8492    192.6669   9.2296634388e+01   2.3924889210e+01    0.3748221   0.06407342  40.57  0.001087223    4.295    0.767
        35 -11.9164    200.9220    191.9942   6.5032858418e+01   4.8997552362e+00    0.2581466    0.2011851 -17.50  0.001245602    1.198    0.165
        36 -11.9407     49.0671    181.8195   9.8887744779e+01   3.0528719263e+01    0.3792014    0.1969863 -68.26  0.001796938    1.853    0.460
        37 -12.2627    198.5111    181.5005   6.3572888097e+01   7.0465032300e+00    0.2516631     0.247279 -78.65  0.001645763    1.316    0.240
        38 -10.2338    100.9815    176.0135   8.4565369502e+01   2.4575687376e+01    0.1631112    0.1540555  61.80            0    1.007    0.007
        39 -12.6524    124.0738    166.7325   7.7096740258e+01   2.2805185013e+01    0.6475975    0.4124334 -74.40  0.002759661    2.186    0.543
        40 -11.2458      1.9443    159.1722   1.0944230043e+02   4.0615732538e+01    0.2946956    0.1509083 -74.69  0.001519221    1.672    0.402
        41 -12.0656     77.0504    156.8057   8.7954520198e+01   3.2952962453e+01    0.4631869    0.2849689  24.46  0.001539582    1.881    0.468
        42 -13.4547     73.3631    153.2789   8.8441535592e+01   3.4382734560e+01    0.7555046    0.5240804  25.43  0.003111112    1.610    0.379
        43 -11.9114    212.4927    153.5026   5.5580913564e+01   9.6172529308e+00    0.1335381    0.1176106 -23.58 0.0008106473    1.002    0.002
        44 -11.4864    103.3671    149.9524   7.9359660818e+01   3.0377927226e+01    0.3782788    0.2499841 -35.19  0.001660085    1.858    0.462
        45 -12.3046      6.5050    145.4923   1.0718192152e+02   4.3683219723e+01    0.3055644    0.2045597  77.15  0.001725229    1.354    0.262
        46 -11.8860    244.8675    147.4882   4.9238984428e+01   5.4473432684e+00    0.2123568    0.1574003 -46.24  0.001312661    1.353    0.261
        47 -12.5008     60.9647    147.1460   9.1115064283e+01   3.7682174526e+01    0.4536705    0.3227539  11.78  0.002170653    1.813    0.448
        48 -12.0172     25.2982    159.2581   1.0303301127e+02   3.8658945670e+01    0.3869212    0.2354806 -10.59  0.001773983    2.735    0.634
        49 -12.4028    246.9593    135.4679   4.6581196930e+01   7.0037035631e+00    0.2948219    0.2093919  85.83  0.001563957    2.643    0.622
        50 -12.1263     45.1427    133.1707   9.3858672007e+01   4.3269199614e+01    0.5327297    0.3092654 -87.88  0.002344954    1.968    0.492
        51 -12.0259    136.0674    132.7672   6.7062485798e+01   2.8233970138e+01    0.4264617    0.2239917  42.90  0.001024589    1.923    0.480
        52 -13.1411     82.9861    113.1922   7.7609440424e+01   4.2959911181e+01     1.324434    0.7979851  50.37  0.005689203    1.815    0.449
        53 -14.4241    106.4964    105.5499   6.8417520459e+01   4.0420230418e+01     2.465812     1.161739 -38.56  0.008790369    2.516    0.603
        54 -13.2980     95.4620    110.4737   7.3009739776e+01   4.1394008844e+01    0.9145639    0.5847957 -65.53  0.003914418    1.782    0.439
        55 -13.7242    108.7219    124.1334   7.2369187059e+01   3.5624217915e+01    0.8874786    0.7188145  26.46  0.004356228    1.371    0.271
        56 -13.4532    111.7645    116.7988   6.9748053095e+01   3.6762906589e+01    0.6706632    0.3743427  32.06  0.002636424    2.106    0.525
        57 -11.8010    135.0396    125.9322   6.5728151655e+01   2.9970176237e+01    0.2371179    0.2341826 -37.36 0.0006968151    1.034    0.033
        58 -11.5279    181.0254    120.7633   5.4248962100e+01   2.1512826498e+01    0.1898372    0.1234498  49.34 0.0008862931    1.640    0.390
        59 -11.9557      4.1084    119.7202   1.0561840100e+02   5.0353348117e+01    0.4790147    0.1797942  13.86  0.001994987    3.298    0.697
        60 -12.6765     42.3026     90.5481   8.6843561858e+01   5.4457401172e+01    0.3187062    0.2490348 -69.71 0.0003912544    1.264    0.209
        61 -14.5899     24.6681     93.6903   9.4491564338e+01   5.5461261571e+01     1.326097     1.179176 -29.30   0.00815897    1.183    0.155
        62 -14.8142     15.9551    107.8367   1.0008629462e+02   5.2582813014e+01     1.500855      0.91269  66.59  0.007468107    1.893    0.472
        63 -13.4104      2.3085     97.2718   1.0374901329e+02   5.6102167833e+01    0.7745302    0.2993221 -78.99  0.003271977    2.383    0.580
        64 -11.7714    121.6984    112.3314   6.5873450915e+01   3.5778085032e+01    0.2957321    0.2713935 -67.84 0.0007892357    1.097    0.089
        65 -11.7997     62.6882    110.5197   8.3794141576e+01   4.6821757516e+01    0.4665903    0.2792698  64.59  0.001897169    2.359    0.576
        66 -12.3129     36.6825     92.9336   8.9590364840e+01   5.4494315986e+01    0.4557706    0.2639705  12.76  0.001422908    2.141    0.533
        67 -11.2315     42.6760    106.9764   9.0179436735e+01   5.0303016801e+01    0.2538662    0.1842435   2.85  0.001277114    1.722    0.419
        68 -12.4885    136.1072    103.1582   5.9737895281e+01   3.4713957796e+01    0.6980748     0.312621  49.83  0.002197936    2.304    0.566
        69 -12.2086    121.0404    101.2026   6.3133240376e+01   3.8392457900e+01    0.3658703    0.2339804 -36.35  0.001565806    1.709    0.415
        70 -11.7704     47.1525     99.8239   8.7054647229e+01   5.1579917346e+01    0.3986398    0.3038782  69.65  0.002054531    1.546    0.353
        71 -11.8285     52.4377     97.7367   8.4609843330e+01   5.1429073633e+01    0.4223721    0.2608781 -19.76   0.00171027    2.404    0.584
        72 -11.9213     60.9919     97.7216   8.1447092695e+01   5.0249954790e+01    0.4103883    0.2928395  71.81  0.001918324    1.841    0.457
        73 -12.9599    136.3088     95.0686   5.7503007960e+01   3.6357334735e+01    0.4990409    0.3792146  49.45  0.002411057    1.332    0.250
        74 -12.1313     49.0618     93.5328   8.4908047259e+01   5.2902212894e+01     0.368282    0.3028071  79.99  0.001984695    1.404    0.288
        75 -10.6721     81.3466     93.3276   7.3105068478e+01   4.8016515285e+01    0.1562667    0.1173905 -14.51 0.0007049995    1.752    0.429
        76 -11.1028    125.6559     92.3307   5.9446497101e+01   3.9290137343e+01    0.1611643    0.1212512 -86.74 0.0007050654    1.753    0.430
        77 -11.6684     35.4702     86.6026   8.8683535220e+01   5.6180106099e+01    0.2589635    0.2314491 -42.61 0.0006851751    1.064    0.060
        78 -13.1075    188.0739     84.3660   4.4121860026e+01   2.6692318677e+01    0.6023035    0.2596937  46.65  0.002336012    2.707    0.631
        79 -11.8924    158.8462     64.9897   4.4088190460e+01   3.6712692959e+01    0.7322364     0.241162 -48.66  0.002315199    3.484    0.713
        80 -13.9914    164.0652     71.7436   4.5008249146e+01   3.4340939326e+01      1.31339    0.5886329  50.61  0.005180985    2.304    0.566
        81 -14.4422    169.6581     77.0716   4.5428369183e+01   3.2118932328e+01     1.300909    0.4808346  53.85   0.00472447    2.723    0.633
        82 -12.2272    158.1951     83.5995   4.9418725481e+01   3.3601508826e+01    0.4186407    0.2613231  59.41 0.0007855258    1.671    0.401
        83 -13.0511    161.3022     80.1762   4.7858044751e+01   3.3505981397e+01    0.6004736    0.3707827  38.91  0.002245048    1.990    0.498
        84 -13.3079     28.5449    245.9171   1.0832317184e+02   1.8945973770e+01    0.4451347    0.2763666  62.49  0.002905633    1.309    0.236
        85 -13.3740     91.7706     58.0907   5.8505776935e+01   5.3405185547e+01     0.538752    0.4711268 -37.47  0.002980487    1.161    0.139
        86 -12.8024     52.1718     69.2537   7.7095980651e+01   5.8177581880e+01    0.8077612    0.5962563  70.65   0.00400096    1.961    0.490
        87 -12.4766     56.7986     65.9700   7.4135656202e+01   5.8213246920e+01    0.5247058    0.4372163  31.20   0.00214916    1.236    0.191
        88 -13.5027     87.4154     65.1080   6.2370559277e+01   5.2965039616e+01    0.9654982    0.6109123  11.73   0.00376093    2.793    0.642
        89 -12.8968     54.6949     81.9785   7.9770856161e+01   5.4924131260e+01     0.605369    0.4331585 -67.22  0.003042435    1.507    0.337
        90 -14.0844     61.1788     75.6882   7.5408209333e+01   5.5409803392e+01    0.7234411    0.5202329 -37.00  0.001236455    1.400    0.286
        91 -13.2270     71.4150     74.9236   7.1262388431e+01   5.3908762681e+01    0.7916498    0.5055221   3.24  0.003177065    2.664    0.625
        92 -12.3371     77.1737     73.1183   6.8585122279e+01   5.3281086669e+01    0.4978631    0.3589769 -12.40  0.001690511    1.861    0.463
        93 -13.0394    212.2888     78.5689   3.9095630832e+01   2.2464143951e+01    0.5297875    0.3549933 -78.45  0.002690269    1.836    0.455
        94 -12.2109    237.1988     80.4292   3.6408048606e+01   1.7258600950e+01    0.2835567    0.1283939  65.17  0.001311338    2.721    0.633
        95 -11.4330     41.6048     76.2212   8.3563288011e+01   5.7972234550e+01    0.2467634     0.188551 -68.25 0.0007276197    1.368    0.269
        96 -13.9768    171.0585    242.5941   7.8819932997e+01   1.1107372726e+00    0.8270192    0.5433125  19.53  0.005067274    1.367    0.268
        97 -14.1155      4.8238     63.4290   9.7220766510e+01   6.4144058333e+01     0.631125    0.5777582 -16.91  0.003971518    1.174    0.149
        98 -11.5317     26.6977     75.4537   8.9814450922e+01   5.9728975093e+01    0.4487294    0.2529881  73.83   0.00179157    3.271    0.694
        99 -12.6951    135.6826     79.7926   5.3318733559e+01   3.9533081606e+01    0.6517267    0.3656551  53.19   0.00238395    1.790    0.441
       100 -13.5652    199.2674     70.0881   3.8859166329e+01   2.6584213500e+01    0.6976883    0.4381169  49.41  0.003152718    1.832    0.454
       101 -10.8673    117.7823     72.2170   5.5557548116e+01   4.5078296112e+01     0.200174    0.1780325   1.67 0.0005845199    1.310    0.237
       102 -11.9247    113.9299     79.9546   5.9005260108e+01   4.4417342477e+01    0.4050242    0.3406895 -43.69   0.00111625    1.192    0.161
       103 -12.4265    134.5123     66.2812   4.9539095699e+01   4.2288024643e+01    0.5642523    0.3103833  50.62  0.001933824    1.794    0.443
       104 -12.1730     31.4554     62.8282   8.4334447450e+01   6.2171637436e+01    0.5510006    0.2939631 -70.23   0.00243966    2.360    0.576
       105 -11.8956     24.9614     59.0977   8.6349536976e+01   6.3649226792e+01    0.5075942    0.2672435 -52.69  0.001985705    1.645    0.392
       106 -11.6870    199.9140     61.8271   3.6735452203e+01   2.7719078289e+01    0.1971315    0.1913875  13.80  0.001230696    1.283    0.220
       107 -12.6011     79.2471     60.6800   6.3671849347e+01   5.5427376237e+01    0.4773991     0.451251 -25.03  0.002210284    1.046    0.044
       108 -13.0764     82.2554     54.4322   6.0372964294e+01   5.6016533683e+01    0.6692014    0.5060881  23.52  0.003439929    1.467    0.318
       109 -13.4832    177.8513     57.3906   3.8748299867e+01   3.3423367710e+01    0.8179162    0.5305059 -52.19  0.003035906    1.480    0.324
       110 -11.0887     39.0572     60.1042   7.9979898915e+01   6.1908121790e+01    0.2599036    0.1756105  60.79  0.001257976    2.221    0.550
       111 -11.3099    111.5038     58.9893   5.2960042648e+01   4.8924018639e+01     0.279513     0.224366  22.77 0.0007150377    1.470    0.320
       112 -14.5533    120.4613     54.7107   4.9195147383e+01   4.7579329150e+01    0.9700768     0.617894  50.38    0.0020255    1.521    0.343
       113 -11.3785     17.6834     55.4051   8.8910384363e+01   6.5102605790e+01     0.337081    0.1579642 -64.61  0.001562697    2.112    0.526
       114 -13.5693    102.9590     50.2985   5.2329001810e+01   5.2335335662e+01     0.997903    0.5410252 -57.32  0.002555346    2.656    0.623
       115 -13.0913     97.8688     50.1402   5.3760246275e+01   5.3491397214e+01    0.5013359    0.3631156 -52.99  0.001701125    1.551    0.355
       116 -11.7606     37.3344     52.2965   7.8205173726e+01   6.3772013578e+01    0.4413463    0.2376741 -27.10  0.001959739    2.320    0.569
       117 -11.6836    136.3118     49.6010   4.3911833239e+01   4.4602592151e+01    0.2665723    0.2469806  45.08 0.0006988947    1.144    0.126
       118 -10.8049     99.9737     65.4900   5.8476185174e+01   5.0287386283e+01    0.2261909    0.1429694  47.91  0.000716635    1.564    0.360
       119 -12.0819    155.2809     48.6563   3.9987031991e+01   4.0134535991e+01    0.4903252     0.302171 -85.12  0.002056149    2.138    0.532
       120 -13.0506    158.9895     43.1755   3.7744242847e+01   4.0023356117e+01    0.8233474    0.3535348  47.88  0.003202725    2.661    0.624
       121 -12.9606      3.9828     43.1771   9.2806638366e+01   6.8702659243e+01    0.4953371    0.3308241 -21.73  0.003012367    1.456    0.313
       122 -12.1829     11.6302     43.5476   8.8634869199e+01   6.8125964508e+01    0.4223188    0.2271333  -3.41  0.001828131    2.210    0.547
       123 -13.0722    204.9858     39.9961   3.0778678649e+01   2.9696899494e+01     1.013448    0.4141897  89.76  0.003307941    4.718    0.788
       124 -13.0192    213.0002     43.0015   3.0646710095e+01   2.7546362747e+01    0.5739568    0.2533821  61.59  0.002683824    2.342    0.573
       125 -13.3313    219.6204     41.6684   2.9669835501e+01   2.6314447202e+01    0.5755647    0.3560225 -83.77  0.002351513    1.718    0.418
       126 -12.6333      2.8316    248.8895   1.1339264375e+02   2.0925041901e+01    0.4441319    0.2637942  75.65  0.002605197    1.407    0.289
       127 -12.1818    109.6711     41.9871   4.7514590435e+01   5.2107939577e+01    0.5010788    0.1915814  53.33  0.001302909    2.412    0.585
       128 -12.4902    147.6708    239.1228   8.3001071806e+01   4.8618381779e+00    0.1734303    0.1576997  77.41 0.0008694801    1.441    0.306
       129 -12.4179     24.7432    217.0754   1.0752488277e+02   2.5177243533e+01     0.475252    0.2802277  60.84  0.002787255    1.425    0.298
       130 -14.2750    122.2609     36.9595   4.2725897853e+01   4.9842853690e+01     1.289199    0.4943764  51.10  0.004949283    2.431    0.589
       131 -11.3801     13.6942    222.4364   1.1018043852e+02   2.5137822574e+01     0.304624    0.1479811  77.45  0.001400012    1.907    0.476
       132 -12.9727    139.2942     21.5143   3.4271562288e+01   4.7613304471e+01    0.8127608    0.2441439  63.19  0.002373552    2.836    0.647
       133 -12.2587     75.8175     37.1039   5.5909640582e+01   6.0240730958e+01    0.3615916    0.2296091  42.97 0.0009015382    1.500    0.334
       134 -11.6130     70.5848     36.2397   5.7460687217e+01   6.1406411014e+01    0.3263169    0.2222393  50.22  0.001028147    1.501    0.334
       135 -12.4908    242.3736     36.0996   2.6454162600e+01   2.2435262166e+01    0.4696744    0.2364271  79.70  0.002191648    2.182    0.542
       136 -14.0286     26.3508    226.5203   1.0772698249e+02   2.3026984053e+01    0.7623852     0.380489 -55.68  0.004009595    2.537    0.606
       137 -13.7591     20.3153    224.1244   1.0887137228e+02   2.4138602647e+01    0.5174782    0.4665788  78.31  0.002475454    1.227    0.185
       138 -13.2154     63.8173    224.0176   9.9389835719e+01   1.9233875098e+01    0.8096721    0.5476388  36.28  0.004770496    1.334    0.250
       139 -13.0520     59.3708    212.7546   9.9388100036e+01   2.2173557274e+01    0.4170359    0.2715664 -53.06  0.001342038    1.820    0.451
       140 -11.0744     34.9674     34.7304   7.2686243863e+01   6.7492408756e+01    0.2192744     0.156129  15.99 0.0006935115    1.417    0.294
       141 -12.7429     44.3550     33.3672   6.7405648456e+01   6.6414704371e+01    0.7231063    0.4317734  39.57  0.003802358    1.718    0.418
       142 -13.9311     64.2904    214.2800   9.8394175183e+01   2.1223065472e+01    0.6841878    0.3973135  62.99  0.003529408    1.750    0.429
       143 -13.0391     55.5097     27.0688   5.9472126993e+01   6.5606658878e+01    0.6332335    0.3210437  47.61  0.002390257    2.043    0.510
       144 -12.2410     63.2123     25.2535   5.5468014546e+01   6.4463002272e+01    0.4753091    0.3073767  13.32  0.002072213    1.985    0.496
       145 -11.5457     31.1471     25.1691   7.0482613380e+01   6.9663950032e+01    0.3181405    0.1769133  16.16  0.001585735    2.109    0.526
       146 -11.2969     36.2467     23.1712   6.6794125570e+01   6.9293825715e+01    0.2787535    0.1904474 -22.88  0.001618838    1.442    0.307
       147 -12.4352     94.3266    218.2341   9.1919800408e+01   1.6332982659e+01    0.2610079    0.1985047  44.43  0.001271629    1.141    0.124
       148 -11.0890     51.5138     20.5217   5.8104338475e+01   6.7261151238e+01    0.2249037    0.1531166  38.86 0.0007077475    1.383    0.277
       149 -12.0373     46.7777     20.4589   6.0231555416e+01   6.8076293695e+01    0.4028029    0.2428145  28.78  0.002152696    1.655    0.396
       150 -11.3738    223.8493     20.8993   2.4625701982e+01   2.8014379827e+01     0.172603    0.1626313 -81.07  0.001219657    1.279    0.218
       151 -11.6881    156.7637    214.2736   7.7594669611e+01   7.7799945471e+00    0.1995931   0.09661525 -37.42  0.000896723    2.396    0.583
       152 -12.1060      3.9630    211.8602   1.1175848775e+02   2.8270310756e+01    0.4382587    0.1580923 -88.75  0.002032952    2.627    0.619
       153 -10.8019     13.3098    212.3212   1.0975898757e+02   2.7322299739e+01    0.1081585   0.08781083 -49.65 0.0007035914    1.646    0.393
       154 -10.9405    136.6803    211.3203   8.1474276489e+01   1.1394815312e+01    0.1329703   0.09893668  62.69  0.000631204    1.667    0.400
       155 -12.8506    219.0015     15.5170   2.3794757009e+01   2.9650318449e+01    0.2468448    0.1879411 -82.00  0.001389288    1.158    0.136
       156 -11.6139     72.5203    206.9953   9.5736375593e+01   2.1726180907e+01    0.2948514    0.1989581  67.56  0.001588267    1.518    0.341
       157 -12.0793     41.1526    206.4494   1.0308275907e+02   2.5732938492e+01    0.2624062    0.1447777  77.37  0.001324692    1.880    0.468
       158 -12.3894     57.4832    203.1495   9.8930759203e+01   2.4528294584e+01    0.5486107    0.2667263 -89.67  0.002370238    2.605    0.616
       159 -13.3101     16.1068    197.3391   1.0829198945e+02   3.0382796069e+01    0.7454439    0.2384383 -63.67  0.003179416    2.993    0.666
       160 -13.4487     40.5663    195.2792   1.0230221437e+02   2.8336290611e+01    0.6268476    0.2790859  57.38  0.002795988    2.232    0.552
       161 -12.5269     21.9704    166.3113   1.0458505728e+02   3.7214022576e+01    0.3883949    0.2633972   8.03  0.001463579    1.985    0.496
       162 -13.6494     30.2620    169.1716   1.0260559303e+02   3.5702384477e+01    0.9447691    0.5451086 -37.81  0.003486688    2.487    0.598
       163 -13.9188     22.0989    181.1710   1.0574477032e+02   3.3587897266e+01    0.8940046    0.3609162 -61.29  0.004018304    2.407    0.584
       164 -15.2820      8.1329    183.4787   1.0936253762e+02   3.4295986632e+01     1.271372     1.036642  74.86  0.008452761    1.015    0.014
       165 -12.1427    216.5099     28.4818   2.6936794210e+01   2.8657104498e+01    0.2567191    0.1109119 -33.96  0.001211634    2.168    0.539
       166 -15.3167     15.8776    174.8723   1.0686288065e+02   3.5675093533e+01      2.17608     1.039748  62.00   0.01040025    2.017    0.504
