#   1 NUMBER                 Running object number                                     
#   2 MAG_AUTO               Kron-like elliptical aperture magnitude                    [mag]
#   3 X_IMAGE                Object position along x                                    [pixel]
#   4 Y_IMAGE                Object position along y                                    [pixel]
#   5 X_WORLD                Barycenter position along world x axis                     [deg]
#   6 Y_WORLD                Barycenter position along world y axis                     [deg]
#   7 A_WORLD                Profile RMS along major axis (world units)                 [deg]
#   8 B_WORLD                Profile RMS along minor axis (world units)                 [deg]
#   9 THETA_WORLD            Position angle (CCW/world-x)                               [deg]
#  10 FWHM_WORLD             FWHM assuming a gaussian core                              [deg]
#  11 ELONGATION             A_IMAGE/B_IMAGE                                           
#  12 ELLIPTICITY            1 - B_IMAGE/A_IMAGE                                       
         1 -13.3913    249.1570     50.2459   1.0070794736e+00   1.8638678981e+01     1.223266    0.3106697 -48.06  0.005076069    3.062    0.673
         2 -16.5041    241.6573    112.5702   1.4187293399e+01   1.1077798983e+01     3.158368     1.297407 -40.88   0.01361632    1.980    0.495
         3 -13.9516    234.6685     46.4950   1.4380842992e+00   2.1803067522e+01    0.8228221    0.5116615 -42.78   0.00340504    1.347    0.257
         4 -15.9681    238.0651     62.2889   4.3899050315e+00   1.9049051643e+01     3.168576     1.731461 -87.01   0.01618303    2.478    0.596
         5 -13.5055     95.4045     37.2802   2.1147725414e+01   5.5887350229e+01    0.6994706    0.4986866  54.24  0.003552171    1.262    0.208
         6 -13.9582     44.4634     23.4625   3.5236290619e+01   6.8722068430e+01      1.08689     0.894863 -26.24   0.00661637    1.266    0.210
         7 -13.2221    178.4217     23.6937   1.5098241466e+00   3.6847704751e+01    0.8214176    0.4492442 -75.71  0.003386872    1.928    0.481
         8 -12.2145    248.2665     22.1510   3.5560078558e+02   2.2227281001e+01    0.4287283    0.2884949  -3.63  0.002343441    3.227    0.690
         9 -11.7662    227.3460     16.0073   3.5565855814e+02   2.6941862383e+01    0.4364292     0.262347 -82.65  0.002423974    1.512    0.339
        10 -13.9295    163.9005     11.3202   3.5973396468e+02   4.1737685558e+01    0.9516736    0.5035588  59.50  0.004460032    1.836    0.455
        11 -13.9094    156.2781     11.5121   6.2396406506e-01   4.3607723417e+01    0.7499045    0.6083061  56.50   0.00404192    1.345    0.257
        12 -11.8622     22.1587     11.1725   4.2266634111e+01   7.4071054775e+01     0.256422    0.2092896 -17.26  0.001421663    1.157    0.136
        13 -10.8082    231.3428      9.4496   3.5407530985e+02   2.6864831162e+01     0.257601    0.1742295 -55.52   0.00172402    1.143    0.125
        14 -13.9644    155.2772      4.2977   3.5865484281e+02   4.4564366664e+01      1.83152    0.4211724  70.09  0.006420685    3.361    0.702
        15 -13.5725      3.8623      3.2198   5.2391003621e+01   7.7394687322e+01     1.024613    0.3826611  31.46  0.004929794    2.658    0.624
        16 -13.0604     40.0136     10.9481   3.0891466160e+01   7.1304249745e+01    0.6401424    0.3409496 -39.16  0.003252091    2.142    0.533
        17 -12.1207    207.4183      4.1239   3.5437717467e+02   3.2377144364e+01    0.5275664    0.2242641  86.46  0.002607163    2.224    0.550
        18 -10.3631    192.4870      5.0234   3.5559987926e+02   3.5598478331e+01    0.1801194     0.110123 -38.07  0.001035772    1.604    0.376
        19 -10.9223    224.4281      5.4769   3.5365271495e+02   2.8671151815e+01    0.2947021    0.1064478 -61.10  0.001389162    2.477    0.596
        20 -10.7754     86.0312      3.2809   9.4315041694e+00   6.2138516772e+01    0.2002939    0.1567081  63.58  0.001177514    1.091    0.083
        21 -10.9709    217.5840      1.6714   3.5324041697e+02   3.0470093593e+01    0.2205168    0.1228241 -89.99  0.001308026    1.595    0.373
        22 -10.1006     53.6812    143.6478   6.5591277246e+01   3.9453099005e+01    0.1561221    0.1102372 -32.86 0.0007047298    1.743    0.426
        23 -10.8946     12.0255    140.5268   7.9187701490e+01   4.4533661009e+01    0.2099545   0.07626288  44.60 0.0008100835    2.617    0.618
        24 -12.3549    220.3669    137.0546   2.2106681287e+01   1.0694210796e+01    0.4982283    0.3349122 -16.49  0.001967993    1.729    0.421
        25 -13.4139    248.4407    156.5493   2.1675322724e+01   3.4634361147e+00    0.9580229    0.2823645 -40.45  0.004068417    2.853    0.650
        26 -14.1716    247.0623    224.9006   3.3486699438e+01  -5.7031227876e+00    0.9159499    0.5526772 -14.80  0.004384578    1.370    0.270
        27 -11.5413    142.1104    126.0989   3.5243617516e+01   2.7839318809e+01    0.3498012    0.2291837 -25.22   0.00144467    2.022    0.506
        28 -12.2210    133.2646    120.0124   3.6033690478e+01   3.1048956740e+01    0.3719513    0.2322557  44.27  0.001488596    1.573    0.364
        29 -10.6362    188.6237    116.5684   2.3071985430e+01   2.0055212437e+01    0.2740278    0.1740849 -14.12  0.001148661    2.488    0.598
        30 -14.7500    244.6017    198.8551   2.9669752941e+01  -2.0564562725e+00     1.622707    0.5689811 -34.89  0.007951013    2.446    0.591
        31 -12.4960    148.0099    109.5570   2.9773105386e+01   3.0058693248e+01    0.6217028    0.3146317 -55.01  0.002313539    2.348    0.574
        32 -10.9680     94.2088    110.8085   4.5219112016e+01   4.1303084504e+01    0.2782535    0.1743295  76.78 0.0009594233    2.875    0.652
        33 -10.9387     86.3996    110.7890   4.7831752129e+01   4.2800968344e+01    0.2272653     0.144964 -43.81 0.0009518818    1.664    0.399
        34 -11.6972    143.6732    103.0599   2.9135098642e+01   3.2364991569e+01    0.3329633    0.1913959 -50.04  0.001369423    1.802    0.445
        35 -11.3154     91.9993    100.9876   4.3406293740e+01   4.4092619812e+01    0.2613553    0.2012407  -8.80  0.001152458    1.748    0.428
        36 -12.3851     58.9930     96.9154   5.4564683938e+01   5.0933133208e+01    0.3111968    0.2495357  61.05  0.001539775    1.398    0.285
        37 -10.9152    112.6698    100.5981   3.6750296050e+01   3.9847898571e+01    0.3211671    0.2059001 -51.20  0.001363082    1.625    0.385
        38 -10.6849      2.7005     88.5612   7.7380091027e+01   5.8644113436e+01    0.2390534    0.1502961  74.57  0.001206757    1.778    0.438
        39 -10.2377     83.4934     88.5232   4.2895863582e+01   4.8687540237e+01    0.1542035    0.1496798  30.09 9.515345e-05    1.017    0.017
        40 -10.7614     20.4567     88.5049   6.9354653263e+01   5.7552425028e+01    0.1378698    0.1265583 -52.98 0.0002279651    1.009    0.009
        41 -10.2724    101.0022     83.2597   3.5354049672e+01   4.6205921907e+01    0.2093738    0.1313417  45.32 0.0008647646    1.531    0.347
        42 -10.6699    144.5344     80.3798   2.2777044160e+01   3.6603805244e+01    0.3087767    0.2503236 -71.59  0.001537548    1.330    0.248
        43 -10.3925     12.6761     89.3321   7.3014592876e+01   5.7898396592e+01    0.1416947    0.0956812  59.71   0.00070505    1.705    0.413
        44 -10.9570     12.3290     71.6655   7.0076838461e+01   6.2356253414e+01    0.1365912   0.09636954  58.76 0.0006222834    1.724    0.420
        45 -10.6914     74.4845     69.0655   4.0219664768e+01   5.4758119666e+01    0.2485669    0.1970509  38.09  0.001059852    1.211    0.174
        46 -13.8504    246.2247     81.8707   7.5459022176e+00   1.4847072004e+01     1.070852    0.5700301  70.15  0.005809269    2.428    0.588
        47 -10.4286    179.1013     65.8744   1.2381767898e+01   3.0868798134e+01    0.2274761    0.1812896 -73.30  0.001241018    1.230    0.187
        48 -11.5014    199.7832     63.4824   8.8790800609e+00   2.6584402193e+01    0.2468094     0.212666 -31.92 0.0009252785    1.293    0.227
        49 -10.2364    132.3807     63.2454   2.0484428843e+01   4.2636600765e+01    0.2112293    0.1367936 -49.61  0.000678584    1.621    0.383
        50 -11.7316    195.5377     56.5721   7.7627163757e+00   2.8536051457e+01    0.2442064    0.2138094 -72.85  0.001071019    1.027    0.026
        51 -10.6377    121.2710     56.6538   2.1049729842e+01   4.6506372372e+01    0.2838795    0.1831236 -51.27  0.001278707    1.692    0.409
        52 -11.3230    164.4502     53.0421   1.1274186804e+01   3.6331257983e+01    0.3112387    0.2489217 -36.98   0.00111692    1.332    0.249
        53 -14.2613    245.3287    178.8774   2.6133296630e+01   6.3634442196e-01     1.367292    0.6062385 -38.46  0.006778171    1.945    0.486
        54 -12.9179    182.1279     42.3323   5.8991174622e+00   3.3611464071e+01     0.723659    0.5359177 -53.53  0.004096409    1.239    0.193
        55 -13.2127     81.3770     39.4079   2.6537411958e+01   5.8823938797e+01    0.7619792    0.4710671 -39.12  0.003621474    1.765    0.434
        56 -12.0611    197.2315     43.3208   4.3632887942e+00   3.0009074226e+01    0.2692773    0.1826188 -32.69  0.001020429    1.569    0.363
        57 -10.9383      2.8657     41.1122   6.8509731462e+01   7.0025299277e+01    0.1809775    0.1762197  58.77  0.001252424    1.260    0.206
        58 -10.6118    175.5526     39.6514   6.0389759551e+00   3.5534282940e+01     0.244614    0.2041497  77.30 0.0009386603    1.143    0.125
        59 -12.0981    191.0007     37.1594   3.5518313340e+00   3.2234679761e+01    0.4961016    0.1496795 -46.71  0.001883142    2.935    0.659
        60 -13.1928    157.3199    224.3458   5.0122016248e+01   5.5477442362e+00    0.5855852    0.4074686  21.55  0.003409826    1.234    0.190
        61 -12.5447    236.2613     29.2764   3.5778309291e+02   2.3648267130e+01    0.4996851    0.2306485  85.08  0.002601527    2.371    0.578
        62 -11.5193    240.7688     25.6605   3.5675187672e+02   2.3216190203e+01      0.28218    0.2184823 -73.21  0.001781241    1.125    0.111
        63 -12.2313    209.2118    215.5446   3.8409809860e+01  -9.9333585842e-02    0.5204484    0.3726834   0.36  0.003104296    1.218    0.179
        64 -12.0190    244.0940     33.2605   3.5803490829e+02   2.1686954626e+01    0.2974957    0.2365381  78.59  0.001415541    1.402    0.287
        65 -13.5115    185.4182    216.7018   4.3127971737e+01   2.8652251727e+00    0.6761129    0.4846308   2.89  0.004094868    1.303    0.233
        66 -13.8613    175.4992    218.4281   4.5403559139e+01   3.9620066470e+00    0.7751114     0.249146  35.50  0.003146136    2.769    0.639
        67 -10.5882    247.6900     16.3017   3.5451158076e+02   2.2994359690e+01    0.2445818    0.1072328 -52.70  0.001027762    1.709    0.415
        68 -12.0302    228.2341     33.6842   3.5929015596e+02   2.4684904846e+01    0.2907357    0.1646504 -31.23 0.0009480887    1.853    0.460
        69 -11.1960    224.2644     22.3939   3.5720412643e+02   2.6836639995e+01     0.293553    0.1935678 -67.53  0.001337225    1.261    0.207
        70 -11.7435    169.1822     26.5362   3.3160932772e+00   3.8742528360e+01    0.2386544    0.1844078 -43.90 0.0007656832    1.314    0.239
        71 -13.7614    203.2845    221.9739   4.0527511264e+01  -2.8246721586e-01     1.012545    0.9041365  59.11  0.006843869    1.918    0.479
        72 -11.3500     48.8053    218.5996   7.5142844342e+01   2.1737193900e+01    0.2040494   0.09299096  39.71  0.000960942    1.729    0.422
        73 -13.1875    174.7815    207.2319   4.3760413123e+01   5.9190785318e+00    0.7460746    0.4985228 -22.80  0.004114697    1.570    0.363
        74 -10.5681    128.5412     18.2204   6.5894446288e+00   4.9954374890e+01    0.2726243    0.1745065  70.41  0.001081957    1.360    0.265
        75 -12.5868     21.0233     14.4857   4.4948623773e+01   7.3689275837e+01    0.5502774    0.2588061   7.84  0.002017664    4.052    0.753
        76 -12.0931    151.8614    203.5910   4.8132874682e+01   1.0030055210e+01    0.5808744    0.4141138  29.06  0.003186812    1.246    0.197
        77 -11.6157    136.8768    205.4031   5.1866439856e+01   1.2018055164e+01    0.4215688    0.3697252  31.88  0.002522813    1.085    0.078
        78 -12.0842    203.2584    194.9892   3.6056492559e+01   3.8253137770e+00    0.5563448    0.2771747 -24.44  0.002532109    2.326    0.570
        79 -12.4157    190.7681    186.0760   3.6866649679e+01   7.1291510333e+00    0.3061795    0.1845162 -27.04  0.001562042    1.704    0.413
        80 -12.5288    195.8656    185.1069   3.5700711651e+01   6.5194283089e+00    0.3679512    0.3622452 -72.12  0.002448024    1.394    0.283
        81 -11.6331    221.1299    173.2510   2.8972661793e+01   4.7252192276e+00    0.3076092    0.2231644 -16.90  0.001879141    1.270    0.213
        82 -11.2521    162.4819    151.8185   3.6151386950e+01   1.8362856384e+01    0.2759348    0.2411916  22.69  0.001506912    1.137    0.121
        83 -12.7157    240.5511    143.4150   2.0340478018e+01   6.5380188109e+00    0.2873882    0.2741112  -6.13  0.001365695    1.206    0.171
        84 -10.1146    173.5019    144.0709   3.2124018600e+01   1.7814591356e+01    0.2146375    0.1373066 -42.74 0.0005747377    1.526    0.345
