#   1 NUMBER                 Running object number                                     
#   2 MAG_AUTO               Kron-like elliptical aperture magnitude                    [mag]
#   3 X_IMAGE                Object position along x                                    [pixel]
#   4 Y_IMAGE                Object position along y                                    [pixel]
#   5 X_WORLD                Barycenter position along world x axis                     [deg]
#   6 Y_WORLD                Barycenter position along world y axis                     [deg]
#   7 A_WORLD                Profile RMS along major axis (world units)                 [deg]
#   8 B_WORLD                Profile RMS along minor axis (world units)                 [deg]
#   9 THETA_WORLD            Position angle (CCW/world-x)                               [deg]
#  10 FWHM_WORLD             FWHM assuming a gaussian core                              [deg]
#  11 ELONGATION             A_IMAGE/B_IMAGE                                           
#  12 ELLIPTICITY            1 - B_IMAGE/A_IMAGE                                       
         1 -13.5735     68.0709    144.0313   1.0618317383e+02   3.7353548205e+01     2.782932     1.313451  87.93  0.007407425    3.901    0.744
         2 -12.4356    193.1704     39.9127   4.9905755003e+01   3.1823428815e+01     1.144297    0.9202227 -37.17  0.003978473    1.119    0.106
         3 -12.5774    201.0933     31.1519   4.6396109457e+01   3.0993105015e+01    0.9130043    0.7122799 -26.93  0.001432408    1.206    0.171
         4 -10.7765     41.2422     22.4490   8.2592576615e+01   6.9718107872e+01    0.5153004    0.1553587 -41.17  0.001844671    3.034    0.670
         5 -11.9217    224.3860      4.9639   3.7168590956e+01   2.8353316468e+01    0.8373544    0.6259376  88.66  0.004402866    1.404    0.288
         6 -10.6460     52.3076      7.1880   6.7823509369e+01   7.0284564673e+01    0.2925754    0.2234443  85.10   0.00153356    2.130    0.531
         7 -10.8345     58.5536      3.8138   6.2962858490e+01   6.9472202763e+01    0.4017881    0.3093765 -70.19  0.001835657    1.920    0.479
         8  -9.3441    191.9138    193.0342   8.6631848584e+01   8.6300060009e+00    0.4884336    0.2600708 -59.15  0.001718882    6.382    0.843
         9  -9.7223    101.8997    248.4542   1.0998481088e+02   1.3223940568e+01    0.3487028    0.1562077 -67.50  0.001719181    3.157    0.683
        10 -19.0552      8.7094    148.0367   1.2250891959e+02   4.2745983429e+01     18.38957     3.172403 -82.59   0.05422835    5.811    0.828
        11  -8.7137     99.1940    180.8316   1.0354681699e+02   2.4961087285e+01    0.1919082     0.156197  60.56 0.0007131579    1.156    0.135
        12  -8.7434     82.0055    194.9566   1.0898580836e+02   2.4619836879e+01    0.1954269    0.1605409  57.69  0.001310043    1.040    0.038
        13  -7.7108    150.3417    179.0099   9.2243974541e+01   1.7303551523e+01    0.1937146    0.1085511 -70.44 0.0007051223    4.444    0.775
        14 -10.4838     74.5247    174.0242   1.0839635907e+02   2.9813061750e+01    0.2738673    0.2695141 -71.42  0.000622761    1.235    0.190
        15 -10.9857     78.8984    168.9600   1.0674902976e+02   3.0289398368e+01    0.4759793    0.2971035 -43.33   0.00187263    2.089    0.521
        16 -10.1011     54.8469    173.7229   1.1302647977e+02   3.2369550959e+01    0.2915078    0.1758943  52.31 0.0008240133    1.450    0.311
        17  -8.6022    187.5131    172.9975   8.3963818722e+01   1.2185055009e+01    0.1627326    0.1108636 -61.49 0.0008100667    2.535    0.606
        18  -9.8294    114.0882    172.7056   9.9050699658e+01   2.4291540814e+01    0.2227195    0.1497199  54.29  0.001194302    1.497    0.332
        19  -9.7142    103.6827    171.8921   1.0130466267e+02   2.6065378832e+01    0.3520711    0.2510185  66.26  0.001944183    1.536    0.349
        20 -10.1574     57.5632    165.3364   1.1152650891e+02   3.3865156650e+01    0.4297102    0.1302808 -55.23  0.001639724    3.548    0.718
        21 -12.4883     47.7885    147.6045   1.1210542051e+02   3.9070929520e+01     1.452137    0.8049008  20.63  0.006962807    2.378    0.579
        22 -11.2386     85.9654    160.4420   1.0389892057e+02   3.1115199204e+01    0.6936969    0.5297853  62.70  0.002710954    1.262    0.208
        23 -12.1856     75.0651    155.1306   1.0589642984e+02   3.3846626284e+01     0.576193    0.5102137 -39.53 0.0009157282    1.384    0.278
        24  -9.4022    119.4480    245.2807   1.0657262713e+02   1.1487066910e+01    0.2135873    0.1293902 -47.65  0.001450377    2.167    0.539
        25  -9.0119     77.3263    134.4520   1.0215969516e+02   3.8288781851e+01    0.2492525    0.1235752 -63.30  0.001078438    1.970    0.492
        26  -9.3403    105.8830    130.7885   9.3735506918e+01   3.4499255117e+01    0.3265506    0.2638662 -71.61   0.00141901    1.287    0.223
        27 -10.0205    113.8795    129.3989   9.1371076221e+01   3.3378922308e+01    0.3773178    0.3002026 -24.14  0.001184834    1.554    0.357
        28  -9.4101    101.0175    125.6044   9.3969088108e+01   3.6523952663e+01    0.2916466    0.2433776 -11.32 0.0008915093    1.567    0.362
        29 -10.5986    119.9301    122.6432   8.8343998335e+01   3.3730840145e+01    0.4536107    0.3405718   6.83  0.002120366    1.905    0.475
        30 -10.7547     93.1151    153.3181   1.0105961449e+02   3.1593449549e+01    0.5640889    0.4235886 -18.87  0.002894657    1.994    0.499
        31  -8.6270    109.0758    118.9296   9.0344093239e+01   3.6590829324e+01    0.2172853    0.2100379 -73.90 0.0004327674    1.018    0.017
        32  -9.4491    112.1266    197.5458   1.0286430671e+02   1.9959815592e+01    0.2127024     0.138736 -31.80  0.001152784    2.235    0.553
        33  -9.6725    134.8141    110.6187   8.1738621329e+01   3.3335560477e+01    0.7293367    0.1118666 -42.90  0.001564402    6.818    0.853
        34 -11.1764    118.2490    109.5039   8.5652858196e+01   3.6930870647e+01    0.6530353    0.5115497  72.11  0.003198686    1.513    0.339
        35  -9.4847     57.2956    111.5533   1.0412424448e+02   4.6683836217e+01    0.2544762     0.128476  38.49  0.001101212    2.027    0.507
        36  -8.7842    205.6752    110.0895   6.7307707483e+01   1.8685210863e+01     0.221084    0.1988423  63.64 0.0008855721    1.345    0.257
        37  -9.4776     60.9397    107.4438   1.0217368341e+02   4.7219511862e+01    0.2955855    0.1627461  52.09   0.00130608    1.996    0.499
        38  -8.6625     94.9419    187.5123   1.0532855184e+02   2.4275407500e+01    0.1751007    0.1567842  72.79 0.0004716762    1.100    0.091
        39 -10.5285     50.8401    155.5301   1.1217446945e+02   3.6878506468e+01    0.3320858    0.2640557 -39.74  0.001980992    1.656    0.396
        40  -7.6962    109.3102    147.6528   9.6073672798e+01   3.0208534026e+01    0.1446442    0.1047369  76.03 0.0007045144    1.709    0.415
        41  -8.0779    144.0000    145.9678   8.7588669311e+01   2.4413156687e+01      0.22956   0.07884754 -46.37 0.0008098041    2.994    0.666
        42  -9.9330    105.5853    138.6161   9.5347363342e+01   3.2807780177e+01    0.4717768    0.2968991 -25.72  0.001965079    2.644    0.622
        43  -8.0486    155.9952     81.7514   6.8890021880e+01   3.4318859397e+01    0.1926098     0.131936  53.37 0.0007979558    1.538    0.350
        44 -10.5876     93.2559    138.7118   9.8578122452e+01   3.4833459730e+01    0.2686369    0.2524753 -37.78 0.0004621126    1.209    0.173
        45  -8.2035    145.4127    180.8155   9.3548077442e+01   1.7792050954e+01    0.1770097    0.1168435 -32.78 0.0009534538    1.780    0.438
        46  -9.7608    153.5545     56.5852   6.1425459716e+01   3.9249813810e+01     0.344395    0.2619061 -82.60 0.0007421023    1.607    0.378
        47 -12.2160    181.3973     49.9211   5.4554114852e+01   3.3348759234e+01    0.9220877    0.6855108   0.10  0.001565291    1.646    0.393
        48  -9.9390    160.7409    223.7923   9.6742315821e+01   8.9449875156e+00    0.4470671    0.0678562  39.16  0.001445681    5.182    0.807
        49  -8.9594    135.4822    219.4854   1.0088321534e+02   1.3060550731e+01    0.1154995   0.09442078  32.54 0.0001599342    1.035    0.034
        50 -10.3495    182.9115    213.2454   9.1345166375e+01   7.2471860525e+00    0.3637207    0.1179687  31.67  0.001529601    3.126    0.680
        51 -10.0719    133.8193    144.9733   8.9699914370e+01   2.6467536779e+01      1.03371    0.2401822 -53.56  0.002522017    6.692    0.851
        52  -8.4466     68.3079     11.3207   6.3916596015e+01   6.6487399580e+01    0.1432784   0.09954648  16.49 0.0007033498    1.641    0.391
        53  -9.1954    113.8619    207.4791   1.0369879068e+02   1.7997643039e+01    0.2238063    0.1559233  86.00  0.000718881    1.976    0.494
        54  -8.2028    107.6414    203.3428   1.0448806704e+02   1.9580059274e+01    0.1291372   0.08002055  61.64  0.000703533    1.830    0.453
