#   1 NUMBER                 Running object number                                     
#   2 MAG_AUTO               Kron-like elliptical aperture magnitude                    [mag]
#   3 X_IMAGE                Object position along x                                    [pixel]
#   4 Y_IMAGE                Object position along y                                    [pixel]
#   5 X_WORLD                Barycenter position along world x axis                     [deg]
#   6 Y_WORLD                Barycenter position along world y axis                     [deg]
#   7 A_WORLD                Profile RMS along major axis (world units)                 [deg]
#   8 B_WORLD                Profile RMS along minor axis (world units)                 [deg]
#   9 THETA_WORLD            Position angle (CCW/world-x)                               [deg]
#  10 FWHM_WORLD             FWHM assuming a gaussian core                              [deg]
#  11 ELONGATION             A_IMAGE/B_IMAGE                                           
#  12 ELLIPTICITY            1 - B_IMAGE/A_IMAGE                                       
         1 -14.8964    162.1150     40.2600   2.9023093624e+02   6.3303908605e+00   0.06448296   0.04365754 -49.41  0.004031362    1.491    0.329
         2 -14.4100    174.9394      7.3213   2.8987800950e+02   6.6287370591e+00    0.0458378   0.04519799  16.77  0.003918027    1.009    0.009
         3 -12.6517    125.0497    246.2441   2.9192273982e+02   4.1951671290e+00   0.02509326  0.008767844 -60.53  0.001903254    2.820    0.645
         4 -20.0343     76.5032    175.2793   2.9206460508e+02   5.3058545079e+00    0.9114799    0.3604445 -64.42   0.07155298    2.719    0.632
         5 -12.3237    153.4712    189.1026   2.9124064729e+02   4.6770317320e+00   0.02131121  0.009039599 -59.40  0.001360854    2.321    0.569
         6 -12.0975    160.9016    194.4867   2.9118580552e+02   4.5698101458e+00   0.01306406    0.0106728  17.34 0.0008644651    1.242    0.195
         7 -12.4355    157.1795    191.8592   2.9121369815e+02   4.6227222033e+00   0.01589393    0.0117011  53.20 0.0004058303    1.471    0.320
         8 -10.6324    153.4788    194.4955   2.9127335831e+02   4.6151195608e+00  0.006658114    0.0064448  43.05 1.128341e-06    1.035    0.034
         9 -14.2302    206.2999    179.9626   2.9056243574e+02   4.4583702744e+00   0.04061962   0.03219584  17.03    0.0035053    1.290    0.225
        10 -13.4334    197.2078    173.5020   2.9063018993e+02   4.5881629397e+00   0.03680249   0.02197129 -79.57  0.002423505    2.173    0.540
        11 -10.3590     19.1524    234.4160   2.9309964542e+02   4.9762738339e+00  0.006750311  0.004235526 -46.28 0.0006498475    1.640    0.390
        12 -10.9950     25.9119    184.9630   2.9272056105e+02   5.5028969047e+00  0.009462632  0.008979197  -3.09 0.0003116707    1.065    0.061
        13 -11.4331     30.5383    183.0263   2.9265420688e+02   5.4969789454e+00   0.01380668   0.00935531  25.89 0.0005376673    1.456    0.313
        14  -8.7827     13.7739    233.0439   2.9315478895e+02   5.0247229026e+00   0.01054394   0.00791848   5.71  0.001122411    1.486    0.327
        15 -11.9078      4.3410    178.8591   2.9293826944e+02   5.7041235852e+00   0.01814766   0.01489801  10.17  0.001492743    1.275    0.216
        16 -11.7718    156.9862    178.2987   2.9113347238e+02   4.7794555826e+00   0.01128913  0.009505836 -82.72 0.0007396067    1.305    0.233
        17 -11.0507     28.8173    228.2046   2.9294808322e+02   4.9888054367e+00  0.009591557  0.008377716 -30.45 0.0004944059    1.197    0.164
        18 -12.0329     25.0246    225.7857   2.9297818832e+02   5.0396443291e+00   0.02020858  0.008724631 -48.84  0.001295937    2.342    0.573
        19 -11.2211    168.2810    175.9919   2.9098627292e+02   4.7367822560e+00   0.00937819   0.00870195 -57.64 0.0003953517    1.097    0.089
        20 -12.5194    178.9804    173.9965   2.9084800412e+02   4.6941536316e+00   0.01724437   0.01063983  62.72  0.001582036    2.156    0.536
        21 -12.6097    177.4828    169.4965   2.9083825132e+02   4.7549324723e+00    0.0197876   0.01090902  38.77  0.001865836    1.761    0.432
        22 -12.5604    148.0172    173.0054   2.9120702049e+02   4.8950527285e+00   0.01980397   0.01203108  50.76  0.001491658    1.839    0.456
        23 -13.1836    144.4112    168.7589   2.9122370671e+02   4.9658260785e+00   0.02337015   0.01598333  26.65  0.002449331    1.436    0.304
        24 -12.6984    123.5539    166.4781   2.9145586864e+02   5.1195398112e+00    0.0254044   0.01158297  50.72  0.001850972    2.795    0.642
        25 -13.0991    138.6977    172.2662   2.9131243517e+02   4.9605402249e+00   0.02896081    0.0180503  68.31  0.002637111    2.264    0.558
        26 -10.8869    219.3262    224.1879   2.9067831983e+02   3.8715242383e+00   0.01122062  0.008597981 -78.36 0.0005712872    1.463    0.316
        27 -12.0830    202.6843    166.4318   2.9052258351e+02   4.6356633579e+00   0.02155459   0.01600537  43.56  0.001597414    1.354    0.261
        28 -11.4004    223.9760    164.2444   2.9025844391e+02   4.5301905668e+00   0.01350162   0.01000451 -82.74 0.0007367184    1.579    0.367
        29 -10.5315     25.3658    165.1507   2.9260691014e+02   5.7336459821e+00   0.01043007    0.0088059   4.31 0.0007629789    1.253    0.202
        30 -11.4439     19.7049    222.9681   2.9302390085e+02   5.1043414855e+00   0.01006963  0.008179853 -35.28  0.001132133    1.299    0.230
        31 -13.6088     35.7521    157.9417   2.9244051315e+02   5.7531797070e+00   0.04700956   0.03622343  16.65  0.003346692    1.338    0.252
        32 -12.8295     43.1855    154.6066   2.9233247691e+02   5.7461941028e+00   0.02583568   0.01302103  21.73  0.002264993    2.117    0.528
        33 -10.2068     13.6388    244.5186   2.9322572808e+02   4.8938092622e+00  0.006539159  0.006290814 -39.57 6.471769e-05    1.053    0.050
        34 -11.0471    237.5239    159.4857   2.9006989147e+02   4.5016200994e+00   0.00664835  0.006448866  41.47 0.0003145169    1.031    0.030
        35 -10.4449     23.0363    156.1862   2.9258005522e+02   5.8507152336e+00  0.009908252  0.008745049 -13.17 0.0005083962    1.200    0.167
        36 -14.3433    134.1577    145.5466   2.9120336751e+02   5.2948182098e+00   0.06180335   0.02121447 -69.62  0.003957315    4.247    0.765
        37 -14.3450    135.8598    128.5036   2.9107947543e+02   5.4798810509e+00   0.08681937   0.01964748 -65.47   0.00452593    6.213    0.839
        38 -11.2746    174.4926    148.9375   2.9074825286e+02   5.0090094758e+00   0.01345569   0.01079379  47.31 0.0007862776    1.274    0.215
        39 -13.0376    152.3967    145.2357   2.9098628976e+02   5.1867739775e+00   0.01792111   0.01598988  18.65  0.002142549    1.114    0.102
        40 -14.2875    143.5017    143.4386   2.9108027951e+02   5.2618276714e+00   0.04493833   0.02611853 -84.94  0.003896933    2.506    0.601
        41 -10.2357      1.6180    140.0353   2.9273514130e+02   6.1663138367e+00  0.008849926  0.008188657 -56.18 0.0003953713    1.098    0.089
        42 -10.5581      7.4276    138.3028   2.9265597924e+02   6.1508890135e+00   0.01179512  0.008056087  12.35 0.0006568368    1.623    0.384
        43 -12.4749    148.5163    133.3989   2.9095995134e+02   5.3462771778e+00   0.01775439   0.01013375  51.31  0.001626164    2.019    0.505
        44 -12.3985    160.7230    128.0006   2.9078303560e+02   5.3334340465e+00   0.01744137   0.01422197 -75.39  0.001980517    1.325    0.245
        45 -10.6992     23.7248    214.5404   2.9292548382e+02   5.1766494201e+00   0.01778037   0.00780734 -47.28  0.001474655    2.361    0.576
        46 -11.0376     14.0000    240.8190   2.9319911383e+02   4.9340862795e+00   0.01447761  0.003818668 -62.30  0.000926535    3.869    0.742
        47 -13.2075     11.7174    206.0391   2.9301572903e+02   5.3472567283e+00   0.03033555    0.0176403  16.70  0.002163666    1.924    0.480
        48 -10.7656    205.4927    110.1808   2.9014636220e+02   5.2632201241e+00   0.01227029  0.009354345  24.56 0.0006923757    1.298    0.229
        49 -11.5518    138.9585    249.6737   2.9177966052e+02   4.0708691509e+00   0.01707791   0.01138435  41.22  0.001761708    1.488    0.328
        50 -11.0219    157.2344    106.0679   2.9069044331e+02   5.6062673063e+00   0.01288361  0.009064767  40.86 0.0006223573    1.407    0.289
        51 -13.0463    163.4443    203.4119   2.9121012045e+02   4.4518744854e+00   0.02723106   0.01463682 -73.24  0.001300391    2.281    0.562
        52 -12.2634    159.0363    205.4695   2.9127458291e+02   4.4552381181e+00   0.01593162   0.01307527  45.97  0.001560686    1.234    0.190
        53 -12.2207    133.7687    248.2354   2.9183208142e+02   4.1190715391e+00   0.01398863  0.009229467 -56.04 0.0006904756    1.514    0.340
        54 -10.3639    150.6111    247.0838   2.9162666573e+02   4.0293798213e+00   0.00983485  0.006421739 -60.70 0.0006945864    1.553    0.356
        55 -11.8483    169.0137    202.5778   2.9113941263e+02   4.4273632807e+00   0.01170503  0.009384125  87.65 0.0001788966    1.446    0.309
        56 -11.8254    137.8206    198.0384   2.9147950387e+02   4.6702292578e+00   0.03168971   0.01355791  49.23   0.00241014    2.932    0.659
        57 -10.3574    143.5063     79.5432   2.9069063494e+02   5.9944052484e+00  0.006626931  0.006454848  25.85 0.0001446409    1.008    0.008
        58 -14.4806    150.6958     55.1784   2.9045695189e+02   6.2295366005e+00   0.05209643   0.04582303   3.94  0.002063239    1.181    0.153
        59 -10.7828    160.0897    248.7403   2.9152506826e+02   3.9524438282e+00   0.01162651  0.008969887 -74.81 0.0006800822    1.418    0.295
        60 -12.9710    165.6481     32.1105   2.9013938709e+02   6.4020322830e+00   0.01922393   0.01649733 -35.74 0.0008312032    1.210    0.174
        61 -10.8917     13.6501     59.9480   2.9210625459e+02   7.0118712390e+00  0.009337105  0.008498171 -69.24 0.0004772644    1.139    0.122
