#   1 NUMBER                 Running object number                                     
#   2 MAG_AUTO               Kron-like elliptical aperture magnitude                    [mag]
#   3 X_IMAGE                Object position along x                                    [pixel]
#   4 Y_IMAGE                Object position along y                                    [pixel]
#   5 X_WORLD                Barycenter position along world x axis                     [deg]
#   6 Y_WORLD                Barycenter position along world y axis                     [deg]
#   7 A_WORLD                Profile RMS along major axis (world units)                 [deg]
#   8 B_WORLD                Profile RMS along minor axis (world units)                 [deg]
#   9 THETA_WORLD            Position angle (CCW/world-x)                               [deg]
#  10 FWHM_WORLD             FWHM assuming a gaussian core                              [deg]
#  11 ELONGATION             A_IMAGE/B_IMAGE                                           
#  12 ELLIPTICITY            1 - B_IMAGE/A_IMAGE                                       
         1 -14.0906     68.4772    144.7134   9.4229604139e+01   3.7389033067e+01     4.373938     2.389003  80.94   0.00492835    3.613    0.723
         2 -13.3822    222.5031     30.1250   3.0866826603e+01   2.7335334369e+01     1.240729    0.8657526  44.12  0.007128641    1.947    0.486
         3 -13.6091    207.9767     42.7804   3.5342713285e+01   2.8897718477e+01     1.861467     1.356984  34.69  0.008390992    1.943    0.485
         4 -12.3132    247.3239      6.2110   2.3972129428e+01   2.4991456908e+01     0.691924    0.4313891 -52.14  0.004573757    1.337    0.252
         5  -9.6047      2.1565      3.6740   8.1399565426e+01   7.3548776174e+01    0.3014531   0.04344529 -42.75  0.001131337    4.756    0.790
         6 -10.7409    139.7511    217.5023   8.8276032845e+01   9.0526187081e+00    0.3258207    0.2408311  81.79  0.001638447    1.956    0.489
         7 -15.1085      6.0480    186.3078   1.1529239379e+02   3.3745453665e+01      10.1037     1.283441 -74.92   0.02922322    5.923    0.831
         8  -9.2268    111.2911    203.9357   9.2731622045e+01   1.6568657475e+01    0.1856374    0.1803675 -81.91 0.0003777161    1.079    0.073
         9  -9.2491    122.5573    199.9020   8.9445324124e+01   1.5605966181e+01    0.2871323     0.209285  61.45  0.000871942    1.542    0.352
        10 -10.4343    194.4211    197.6297   7.2920460170e+01   3.6673985735e+00    0.3685397    0.2266685 -62.06  0.001566554    2.737    0.635
        11 -12.5548     32.3216    198.1600   1.1041712897e+02   2.8572572647e+01    0.5411111    0.4567578 -36.14  0.001346685    1.594    0.373
        12  -8.6863     65.0138    191.6487   1.0212435794e+02   2.6244550211e+01    0.1890247    0.1573454  60.43 0.0005072778    1.128    0.114
        13  -8.5105    169.0177    235.9959   8.4839056432e+01   9.2863920067e-01    0.1496439    0.1364458  -7.21 0.0003988291    1.134    0.118
        14  -9.0320     99.6537    180.8624   9.1963600915e+01   2.3759537231e+01    0.2275337    0.1992381  26.01 0.0004872173    1.231    0.188
        15 -11.4086     60.7334    172.8218   1.0075414871e+02   3.1359965302e+01    0.4673582     0.304863 -31.89  0.002126071    2.151    0.535
        16 -11.2343     65.7165    167.8742   9.8748941886e+01   3.1939879620e+01    0.3385227    0.2611299 -38.68 0.0008388663    1.502    0.334
        17  -9.0166    186.2596    173.9234   6.9954502551e+01   9.6816094135e+00    0.2636862    0.2133094  64.65   0.00133616    1.620    0.383
        18  -9.5568     84.5018    173.4505   9.4663632175e+01   2.7910208440e+01    0.2279123    0.1902123 -52.21 0.0005794315    1.224    0.183
        19 -11.8566     83.3033    152.7280   9.1453492627e+01   3.3238947495e+01     1.097505    0.5729988 -54.29  0.001498576    1.796    0.443
        20 -12.8419     62.8051    154.7098   9.7526614384e+01   3.5617396123e+01    0.5133301    0.3489423 -40.01  0.001243465    1.659    0.397
        21 -12.1284     75.6403    158.5811   9.4607222575e+01   3.2899067337e+01    0.9260486    0.6236246  57.39 0.0006107394    1.645    0.392
        22 -10.9493    115.4113    248.7811   9.7764130487e+01   6.8733936120e+00    0.3461071    0.2309506  24.78   0.00194079    1.595    0.373
        23  -8.4908     43.3019    164.5866   1.0421168787e+02   3.5458955980e+01    0.1622415    0.1345418  12.35 0.0009388606    1.511    0.338
        24 -10.8120     32.5303    156.5816   1.0606817229e+02   3.8550300978e+01    0.4115768    0.2702289 -83.32 0.0007937785    1.410    0.291
        25  -8.1005    127.6629    152.3409   7.9291061039e+01   2.5680505815e+01    0.1619063    0.1229746  79.82 0.0007050513    1.762    0.433
        26  -8.6033    174.7055    149.3080   6.7178317734e+01   1.7015134341e+01    0.1482792     0.122678 -84.77 0.0002799238    1.586    0.370
        27  -9.8755    133.8205    144.8875   7.6050031996e+01   2.6244831964e+01     1.109084    0.2221226 -53.80  0.002023722    8.944    0.888
        28  -8.9609     47.4993    145.5250   1.0041632937e+02   3.9770729034e+01    0.1389358    0.1230134 -75.31 3.753595e-05    1.016    0.016
        29  -9.9177     29.5058    143.0775   1.0518831593e+02   4.2190481793e+01    0.3545692    0.2563174  -6.23  0.001955734    1.865    0.464
        30 -10.0784     98.7764    138.7443   8.4275804974e+01   3.4225234063e+01    0.5657228    0.3689868 -14.54  0.002207289    2.526    0.604
        31 -11.6041     85.6194    138.1864   8.7973185807e+01   3.6522144937e+01    0.3163717    0.2730647 -50.90 0.0004570163    1.106    0.096
        32 -10.1752    107.3483    130.1772   7.9899296042e+01   3.4797847225e+01    0.5466756    0.3546242  21.35  0.002294511    1.947    0.486
        33  -8.6358     82.5445    129.0687   8.6971128061e+01   3.9267588567e+01    0.2240706    0.1403762 -56.61 0.0004648167    1.511    0.338
        34 -10.0914     48.0456    169.6235   1.0361346480e+02   3.3682656722e+01    0.3697137    0.2550985 -66.73 0.0007519023    1.307    0.235
        35  -9.9947    240.2095    169.1954   5.8569164816e+01   1.2023781571e+00    0.1743353    0.1491179 -47.15 0.0004644185    1.322    0.244
        36  -8.9381     96.9122    124.8530   8.1704520892e+01   3.7941919711e+01    0.2316978    0.1970568 -22.23 0.0004550584    1.280    0.219
        37  -9.7535    161.2040    118.2551   6.2855245219e+01   2.6481918711e+01    0.5178552    0.3068929 -66.36  0.001861567    2.704    0.630
        38  -9.0727    106.1238    118.4061   7.7422223520e+01   3.7828695040e+01    0.2419919    0.1972451 -36.95 0.0004518164    1.224    0.183
        39  -9.8301    231.2717    113.7437   4.8319074325e+01   1.2589857080e+01    0.2541183    0.2507397 -10.31 0.0007855855    1.139    0.122
        40  -8.0222     77.4547    112.4879   8.4796003403e+01   4.4095690080e+01    0.1463546     0.138288 -65.32 0.0008070296    1.096    0.087
        41 -16.2335     17.1201    242.6726   1.1658704424e+02   2.0618081051e+01     7.256497     3.795725  25.18   0.04098033    2.541    0.606
        42  -9.3249    205.3697    110.2593   5.1842763821e+01   1.8468465434e+01    0.2874434     0.206369  47.42 0.0009361115    1.507    0.336
        43  -8.8973    110.5343    167.5003   8.6819886684e+01   2.5156279202e+01    0.2704492    0.1468813 -68.45  0.001028661    2.348    0.574
        44 -10.0220    247.2311    107.5809   4.4645249221e+01   1.0645969790e+01    0.1712879    0.1255424  39.98 0.0009569846    1.694    0.410
        45  -9.3160    247.3169     91.3362   4.1200754442e+01   1.3314511704e+01    0.1245273    0.1014948  -4.19 0.0005294513    1.698    0.411
        46  -9.7736     53.1064     90.3151   8.7619538879e+01   5.2613586839e+01    0.2241052    0.1671618 -13.55 0.0009340912    1.469    0.319
        47 -14.4622      9.6543    207.6423   1.1595732726e+02   2.8641864499e+01      1.35413     1.208243 -62.64  0.006202208    1.401    0.286
        48  -9.0581    161.4789     83.9209   5.3734251075e+01   3.3230053030e+01    0.2271298    0.1467797 -38.90 0.0004902344    1.551    0.355
        49  -8.2846     26.2923     68.6313   9.2322167424e+01   6.0110257689e+01    0.1182261   0.09813182  82.18 0.0007026361    1.718    0.418
        50  -9.6649     31.4238    205.4671   1.1123636634e+02   2.7002465792e+01    0.3099877    0.1523621  50.88  0.001602439    1.861    0.463
        51  -8.4104     37.8160     63.8194   8.6223661455e+01   6.0039803328e+01    0.1552364    0.1514787 -48.38  0.000436169    1.291    0.225
        52 -11.1815     13.3631     60.0693   9.5527519234e+01   6.2851929216e+01    0.3360654    0.2324918 -70.11   0.00075156    1.656    0.396
        53 -14.1363     42.9448    187.8445   1.0697897486e+02   2.9836885128e+01     2.323734     1.417111  68.05  0.009340684    1.681    0.405
        54 -11.5584    199.8454     48.2574   3.7703548172e+01   2.9990561657e+01    0.6257286    0.4089701  49.26  0.001633895    1.709    0.415
        55 -10.9584    119.9602    213.1039   9.2081801257e+01   1.3189587272e+01    0.3667426    0.2669221  74.42   0.00187162    1.720    0.419
        56  -9.8805     41.6936     59.2265   8.3203241753e+01   6.0539078196e+01    0.2644626    0.2033577  37.68   0.00118431    1.576    0.365
        57  -8.7401     23.8740     57.6296   9.0304175825e+01   6.2584583662e+01    0.1591189    0.1079974  30.00 0.0005430527    1.723    0.420
        58  -9.9711      6.9202     50.5160   9.5859543132e+01   6.5177349668e+01    0.1621881    0.1091896   5.96  0.001032289    1.590    0.371
        59  -9.3136    198.0963     24.0033   3.2071252121e+01   3.3502127556e+01    0.2747648    0.1853622 -16.07   0.00121679    2.078    0.519
        60  -8.7357    189.7030     14.9958   3.0848858645e+01   3.6431948261e+01     0.173146    0.1516433 -74.41 0.0006083696    1.084    0.078
        61 -10.3564    117.9457    237.5785   9.5869469923e+01   8.5834387011e+00    0.1925634    0.1713394 -66.95 0.0005729942    1.271    0.213
