#   1 NUMBER                 Running object number                                     
#   2 MAG_AUTO               Kron-like elliptical aperture magnitude                    [mag]
#   3 X_IMAGE                Object position along x                                    [pixel]
#   4 Y_IMAGE                Object position along y                                    [pixel]
#   5 X_WORLD                Barycenter position along world x axis                     [deg]
#   6 Y_WORLD                Barycenter position along world y axis                     [deg]
#   7 A_WORLD                Profile RMS along major axis (world units)                 [deg]
#   8 B_WORLD                Profile RMS along minor axis (world units)                 [deg]
#   9 THETA_WORLD            Position angle (CCW/world-x)                               [deg]
#  10 FWHM_WORLD             FWHM assuming a gaussian core                              [deg]
#  11 ELONGATION             A_IMAGE/B_IMAGE                                           
#  12 ELLIPTICITY            1 - B_IMAGE/A_IMAGE                                       
         1  -8.7801    189.5394     14.3420   6.4217250703e+01   3.5718663020e+01    0.3663285    0.2871673 -76.17   0.00114437    1.455    0.313
         2  -9.5575    233.6671      9.3402   5.7978288253e+01   2.5001941655e+01    0.3800429    0.2541034 -18.05  0.001132977    1.455    0.313
         3  -7.8578    206.1142      4.3822   5.9142303480e+01   3.2324000724e+01    0.2148333    0.1851806   8.38 0.0004674945    1.218    0.179
         4  -8.4217     27.9910    241.8400   1.4244985497e+02   2.4545805204e+01      0.16727   0.05778983  55.90  0.001100084    2.028    0.507
         5  -8.9333     48.2008    244.7910   1.3954989230e+02   2.2113006430e+01     0.119328    0.1140782  19.88  0.001148629    1.742    0.426
         6  -9.4584     51.7924    249.3327   1.3923186690e+02   2.1103738722e+01    0.2622571   0.09011512  50.71  0.001697119    1.982    0.495
         7 -10.2946     41.7640    247.2464   1.4063037644e+02   2.2426971947e+01    0.3940726    0.1923873 -89.11  0.002947606    2.111    0.526
         8  -9.8530     46.9142    248.4927   1.3992045157e+02   2.1727707924e+01    0.3877122    0.1552008  71.47  0.002420291    2.685    0.628
         9  -7.3695    134.4367    241.2265   1.2559342490e+02   1.2114102412e+01    0.1143864   0.09300119  78.60 0.0002628562    1.501    0.334
        10  -7.9350    120.1670    240.3555   1.2784510843e+02   1.4148776682e+01    0.2351788    0.0800053 -62.73  0.001148019    4.689    0.787
        11 -11.8942     56.9570    229.5801   1.3736120874e+02   2.3395832221e+01    0.8376893    0.4802168  52.85  0.005840931    1.283    0.220
        12  -7.0414    114.4003    237.4955   1.2853667960e+02   1.5289410845e+01    0.1016385    0.0781765  47.81 0.0001551874    1.052    0.049
        13  -7.1050    110.2698    233.2772   1.2884852210e+02   1.6405799520e+01   0.08933394   0.07316706  25.68 0.0001849559    1.486    0.327
        14  -6.9172    101.3147    233.3064   1.3034134602e+02   1.7566467517e+01   0.09104807   0.07505307  21.04 0.0003702563    1.624    0.384
        15  -8.0672     79.9660    232.5645   1.3380813867e+02   2.0320500582e+01    0.1393321    0.1162969  59.51 0.0004507325    1.167    0.143
        16  -7.4756    104.2285    228.4042   1.2943374481e+02   1.7881263008e+01    0.1427146   0.07410433  48.77 0.0002240612    1.486    0.327
        17  -7.6434     30.0695    229.8218   1.4163889414e+02   2.6120966807e+01    0.1463256   0.08459803  62.34  0.000548088    1.250    0.200
        18  -7.2236    130.7849    224.3844   1.2450529216e+02   1.4823208067e+01    0.1503266   0.08421542  35.39 0.0003039332    1.580    0.367
        19  -7.2646     88.3979    224.1345   1.3175936546e+02   2.0530430462e+01    0.1271006   0.08666726  84.23 0.0005697527    1.579    0.367
        20  -7.8223    158.0833    223.0347   1.1965032236e+02   1.1033058499e+01      0.16448    0.1283982  40.67   0.00033901    1.035    0.034
        21  -7.5103    137.7625    222.0755   1.2304846592e+02   1.4140212076e+01    0.1450077    0.1160228  42.86  0.000260576    1.039    0.038
        22  -7.1381    106.7422    222.6700   1.2848674666e+02   1.8375694699e+01   0.09017637   0.07980103  11.30 0.0002238733    1.562    0.360
        23  -7.4267     75.9937    221.6723   1.3367725566e+02   2.2420001372e+01    0.1419494    0.1042014  53.91   0.00035996    1.060    0.056
        24  -7.5285     94.9552    221.5354   1.3041937243e+02   2.0087479046e+01     0.154735   0.08157914  43.86 0.0004254914    1.485    0.327
        25  -7.4770    117.4546    220.2633   1.2639341165e+02   1.7269074626e+01    0.1222627   0.09670071  81.25 0.0003692871    1.423    0.297
        26  -7.1884    111.5765    219.1904   1.2731462059e+02   1.8232638013e+01    0.1192769    0.1025215 -47.60 0.0003508269    1.549    0.354
        27  -7.5997     84.7624    218.7143   1.3194316556e+02   2.1804787895e+01    0.1446587   0.09255113  60.48 0.0007015694    1.323    0.244
        28  -7.6461     78.4218    217.6985   1.3295838384e+02   2.2741107593e+01    0.1196478   0.09377789 -66.38 0.0009368902    1.543    0.352
        29  -7.3546    106.5882    236.4908   1.2973654928e+02   1.6446419402e+01    0.1015273   0.07763733  49.93 8.443754e-05    1.043    0.041
        30  -8.8069     73.3941    216.1805   1.3371088572e+02   2.3583220742e+01    0.1454494    0.1106617  68.93 0.0005048454    1.116    0.104
        31  -7.0833    122.2526    214.9444   1.2499505834e+02   1.7369183061e+01    0.1153887   0.09461045 -70.21 0.0004129108    1.477    0.323
        32  -6.8983    146.5955    214.5179   1.2062178555e+02   1.3872301045e+01    0.1120634   0.09000104  43.32 0.0001858051    1.028    0.027
        33  -6.8812    139.3039    214.7420   1.2194143001e+02   1.4926325422e+01     0.108644   0.07294229  57.99 0.0001608402    1.514    0.339
        34  -9.5317     64.8162    211.2472   1.3483650663e+02   2.5375953753e+01     0.285291    0.1373607 -54.68   0.00171917    2.745    0.636
        35 -10.0796     72.9717    206.5606   1.3303335187e+02   2.5181319712e+01    0.3335082    0.2309148  83.39  0.002264539    1.408    0.290
        36  -8.8730     63.9566    202.7722   1.3435689681e+02   2.6873622264e+01    0.1758528    0.1271592  39.98 0.0007030743    1.388    0.280
        37  -7.7207    114.9590    212.4736   1.2603576820e+02   1.8763469725e+01    0.1532661    0.1273809  56.48 -8.30214e-05    1.069    0.065
        38  -8.1438     87.0462    213.2180   1.3108281323e+02   2.2372626019e+01    0.1745073    0.1332787  35.92  0.000843141    1.391    0.281
        39  -9.8840     67.2399    206.0713   1.3402092421e+02   2.5941875130e+01    0.2846315    0.1577392  53.16  0.001112548    1.448    0.309
        40  -7.2746    127.5711    210.2190   1.2351940236e+02   1.7298937384e+01    0.1263501    0.1081498 -37.63  0.000440674    1.523    0.343
        41  -7.6952    110.5797    208.7094   1.2643221568e+02   1.9947997018e+01    0.1899338    0.1145263  35.20 0.0006852045    1.579    0.367
        42  -6.9270    132.4976    234.4381   1.2524671609e+02   1.3243970927e+01    0.1071642   0.07970501  45.56 0.0002946565    1.014    0.013
        43  -8.1214     96.2892    208.0717   1.2896045785e+02   2.1988897475e+01    0.1780602    0.1254127  50.03 0.0003788851    1.139    0.122
        44  -7.5788    135.6243    207.2654   1.2171232257e+02   1.6544685915e+01    0.1271932    0.1085867 -36.59 0.0003280122    1.491    0.329
        45 -10.6151    124.0075    206.0009   1.2368492150e+02   1.8449758611e+01    0.1612817    0.1309021  48.25            0    1.006    0.005
        46  -7.8125    118.1711    205.5950   1.2470952033e+02   1.9356014041e+01    0.1669497    0.1371121  70.36 0.0005007106    1.234    0.190
        47  -8.2972    174.4410    203.3109   1.1416682185e+02   1.1059120936e+01    0.1719846     0.115232 -32.87 0.0005583319    1.816    0.449
        48  -6.9067    159.4440    204.4546   1.1702417741e+02   1.3284734398e+01    0.1174003   0.09488814  37.96  0.000806234    1.002    0.002
        49  -7.4531    153.4003    203.9313   1.1805013277e+02   1.4304781435e+01    0.1432325    0.1154667 -46.68 0.0004148793    1.531    0.347
        50  -6.9557    106.6981    204.7333   1.2672516828e+02   2.1108621528e+01   0.09868279   0.08277742  19.51 0.0002156318    1.524    0.344
        51  -8.5215     79.4504    203.4545   1.3160045920e+02   2.4901622715e+01    0.2044265    0.1442377  65.66 0.0008253156    1.228    0.185
        52  -8.1470     57.4196    202.9671   1.3554618646e+02   2.7583090612e+01    0.1390857   0.09042988 -79.91 0.0004287693    1.531    0.347
        53  -7.1794    123.6728    202.3045   1.2331647554e+02   1.9065044828e+01    0.1168014   0.07655738  63.25 0.0007034658    1.648    0.393
        54  -7.0643    178.2653    201.6548   1.1324184698e+02   1.0662226539e+01    0.1063062   0.08890867  67.49 0.0002357874    1.606    0.377
        55  -9.8155     69.1790    199.8413   1.3317402801e+02   2.6756608787e+01    0.3118229     0.213882  71.95  0.001503691    1.304    0.233
        56  -6.8213     49.3352    200.7147   1.3683570641e+02   2.8848348951e+01    0.1102341   0.05785809  61.94 0.0002891794    1.624    0.384
        57  -7.4595    194.0000    198.9800   1.1004808940e+02   8.4545185585e+00     0.166272   0.06777978 -37.04  0.000678184    2.908    0.656
        58  -7.7311     76.1374    199.1550   1.3183349421e+02   2.6031063841e+01    0.1479441    0.1005402  64.33  0.001025229    1.275    0.216
        59  -7.9314     59.9409    199.5269   1.3483745734e+02   2.7882836598e+01    0.1527899    0.0893424  40.43 0.0007579324    1.558    0.358
        60  -7.6901    107.0675    197.8225   1.2591240450e+02   2.2168426066e+01    0.1692551     0.123493  58.58 0.0003167802    1.216    0.177
        61  -8.0608     91.7824    197.1322   1.2872146164e+02   2.4371974391e+01     0.180744    0.1315397  46.74 0.0003825921    1.179    0.152
        62  -6.8307    141.7196    196.3273   1.1919255931e+02   1.7242741468e+01    0.1139674   0.08428238  67.53  0.000278909    1.598    0.374
        63  -8.1407     63.9131    196.2647   1.3385380115e+02   2.7987349196e+01    0.1479679    0.1167324  61.46 0.0004739029    1.041    0.039
        64  -8.4578    192.8141    194.2073   1.0950190931e+02   9.2475957561e+00    0.1742691    0.1252681  16.05 0.0005224833    1.370    0.270
        65  -7.1266     57.6584    194.7091   1.3488940614e+02   2.8971333429e+01   0.08964385   0.08371415 -21.28 0.0007025643    1.650    0.394
        66  -6.7630    237.2800    192.2828   1.0160438326e+02   2.2504202271e+00    0.1192134   0.07267954  15.31 0.0006925386    1.512    0.339
        67  -7.2097     87.6129    192.4669   1.2904401346e+02   2.5714165149e+01    0.1089682   0.09258774  63.08 7.306672e-05    1.050    0.047
        68  -7.9174     82.0998    189.3819   1.2979580619e+02   2.6964978424e+01    0.1575268    0.1425371  88.50 0.0003832182    1.194    0.162
        69  -7.4145    190.2882    189.3340   1.0916432548e+02   1.0297449382e+01    0.1237982   0.08408504  12.78  0.000395881    1.628    0.386
        70  -6.8859    141.6212    189.5550   1.1828425099e+02   1.8299313516e+01    0.1176908     0.101246  47.01 0.0001404092    1.044    0.042
        71  -7.6755     16.8172    188.7320   1.4195122863e+02   3.4088619806e+01    0.1409491   0.08172616  66.31 0.0004664793    1.335    0.251
        72  -7.3417     75.2041    187.6068   1.3095724702e+02   2.8148758916e+01    0.1397367   0.09801348  34.70 0.0004011565    1.523    0.343
        73  -7.1773     89.0026    185.9809   1.2810158917e+02   2.6660213151e+01     0.134639    0.1114745  60.81 0.0003549858    1.009    0.009
        74  -6.9602    143.9939    182.7548   1.1684572487e+02   1.8989552512e+01    0.1518455   0.09106652  41.49            0    1.431    0.301
        75  -7.2924     77.0229    181.6477   1.3001743014e+02   2.8991450342e+01    0.1530288    0.1230982  60.39  0.001091508    1.048    0.046
        76 -10.2656    100.9977    175.9859   1.2453834402e+02   2.6786219887e+01    0.1695554    0.1453989  60.98   0.00116791    1.012    0.012
        77  -7.2296     42.5724    174.4981   1.3622254279e+02   3.4262583382e+01    0.1077298   0.08560899  75.50 0.0001829264    1.021    0.020
        78  -7.4369     97.9775    170.2956   1.2444227326e+02   2.8260056566e+01    0.1693641    0.1375952  53.17 0.0005544994    1.094    0.086
        79  -7.4110    121.5390    169.5195   1.1941639970e+02   2.4846668516e+01    0.1244046     0.109311  56.14 -1.306334e-05    1.035    0.034
        80  -7.4944     50.3017    166.5193   1.3399577755e+02   3.4975547425e+01    0.1680122    0.1206808 -54.48 0.0007775753    1.668    0.401
        81  -7.5301     39.0840    164.1119   1.3610985611e+02   3.6605431818e+01    0.1491417    0.1314648 -84.16 0.0003003007    1.230    0.187
        82  -7.1388     50.6701    157.3413   1.3306250570e+02   3.6742974733e+01    0.1242725   0.07078469  68.05 0.0002013941    1.744    0.427
        83  -6.8294    117.6152    156.7013   1.1828974666e+02   2.7819261598e+01    0.1266291    0.1001746   2.84 0.0007018335    1.777    0.437
        84  -7.7016      3.5707    155.4636   1.4278950791e+02   4.1336670253e+01    0.1322116    0.1017569   7.61 0.0004891841    2.035    0.509
        85  -7.2583    190.9604    152.7916   1.0238114819e+02   1.5319937115e+01    0.1827538   0.09813495  42.34   0.00059279    1.694    0.410
        86  -8.5337    121.0161    148.6960   1.1621446388e+02   2.8779530475e+01    0.2284618    0.1852257 -39.81 0.0004914716    1.386    0.279
        87  -6.9662     62.3036    150.3017   1.2974615783e+02   3.6853205970e+01    0.1081579   0.08944895 -39.60 0.0002704851    1.592    0.372
        88  -8.0967    185.9896    139.9846   1.0067896814e+02   1.8250723420e+01    0.2066154     0.185787  14.31 0.0003423102    1.019    0.019
        89  -8.2546    133.1104    139.3194   1.1178144120e+02   2.8477405680e+01    0.3062727    0.2122071 -17.16  0.001465405    2.156    0.536
        90  -8.7024    118.8902    133.3379   1.1391103594e+02   3.2141716250e+01    0.2243762    0.2027988 -46.62 0.0001882385    1.154    0.134
        91  -7.3731    231.1971    133.6239   9.0987571419e+01   1.0274781418e+01    0.1946829    0.1104447  34.78 0.0004606294    1.675    0.403
        92  -7.3153    113.6299    130.2928   1.1457774185e+02   3.3649969621e+01    0.1404003    0.1015932  72.89 0.0007026141    1.723    0.420
        93  -7.5276     42.9912    117.0000   1.3033039433e+02   4.6060174174e+01    0.1750711   0.06839918  29.73 0.0007991392    2.920    0.657
        94  -7.8366    214.1946     93.6360   8.4151046079e+01   1.9359823590e+01    0.2103902    0.1242277  39.71 0.0005663458    1.704    0.413
        95  -7.5059    179.3242     88.6830   8.9336640978e+01   2.8110867695e+01    0.1502369    0.1214719 -69.44 0.0005404902    1.669    0.401
        96 -10.1207    147.7747     84.1755   9.5002567212e+01   3.6102948162e+01    0.5591015    0.3724228  -2.13  0.002294321    2.199    0.545
        97  -8.6549    185.2786     77.0542   8.4813399572e+01   2.8579425033e+01    0.4226542    0.2276091  19.30  0.001395518    3.253    0.693
        98  -8.9008    149.8782     72.8797   9.1100331064e+01   3.7664563561e+01    0.2520279    0.2076688   9.19  0.001243956    1.309    0.236
        99  -6.8049     11.7298     73.6895   1.3349678736e+02   5.8269014208e+01    0.1184648   0.06858157 -51.55 0.0002279205    1.546    0.353
       100  -8.8165    187.9344     70.2996   8.2309370857e+01   2.8978463212e+01    0.2611399    0.2078112 -15.87 0.0002917248    1.230    0.187
       101  -7.2474    139.4846     70.5740   9.2880153864e+01   4.0446628405e+01    0.1518415    0.1437265  -1.79 6.881863e-05    1.013    0.013
       102 -10.1089    158.2612     66.3477   8.7129306914e+01   3.6810548489e+01    0.5451154    0.3044489  36.21  0.002171225    2.001    0.500
       103  -9.8059    243.3646     57.9954   7.0232136958e+01   1.7493855259e+01    0.2620897    0.2296158  -1.03 0.0002275387    1.081    0.075
       104  -8.3679    247.4157     53.8870   6.8644591907e+01   1.7076114146e+01    0.2503224    0.1949921  44.17 0.0007240564    1.369    0.269
       105  -6.6580    125.7212     55.7009   9.1456931862e+01   4.6187198987e+01    0.1508901    0.1143946   5.85 0.0002456921    1.540    0.351
       106 -10.4384    168.0726     48.5520   7.9231127976e+01   3.7157648443e+01    0.6480221    0.4728309  25.83  0.003010092    1.483    0.326
       107  -9.0573    152.4183     54.5875   8.4555860874e+01   4.0138470004e+01     0.273708    0.2568863   4.74 0.0006291516    1.010    0.010
       108  -7.5897    115.2064     41.8713   8.9242530822e+01   5.0870927241e+01    0.2080728    0.1676559   8.97 0.0006774173    1.303    0.232
       109  -7.2265    228.5211     40.4705   6.7255919243e+01   2.3002799991e+01    0.1428585    0.1315653  -4.18 -1.043598e-05    1.046    0.044
       110  -6.7507    102.7145     39.6833   9.2029386102e+01   5.3878383445e+01    0.1482544    0.1082414   1.97 0.0002428372    1.586    0.370
       111  -7.3043    157.1062     36.8342   7.7343322545e+01   4.1590908371e+01    0.2131706     0.169772  14.58 0.0004258985    1.310    0.237
       112  -9.4069    139.4511     34.2600   8.0165658641e+01   4.6379920881e+01    0.2724612    0.2542233 -17.25  0.000439303    1.073    0.068
       113  -7.0747    150.0033     30.0180   7.6285812968e+01   4.4307316147e+01    0.1801827    0.1682472   8.38 0.0003259953    1.008    0.008
       114  -8.9884    167.4574     24.4646   7.0991153702e+01   4.0462409419e+01    0.5710561    0.3094032  47.34  0.002390579    1.788    0.441
       115  -8.8431    184.0188     24.1257   6.8234143021e+01   3.6143746999e+01    0.4227678     0.281538 -79.05  0.001163581    2.008    0.502
       116  -7.3177     76.9588    249.2163   1.3539808912e+02   1.8344773603e+01    0.1259214    0.0573055  42.94 0.0002809031    1.619    0.382
       117  -8.3046     31.3256    246.3266   1.4213417716e+02   2.3586812151e+01   0.07076361   0.06890604  66.81 0.0007049611    1.696    0.410
