#   1 NUMBER                 Running object number                                     
#   2 MAG_AUTO               Kron-like elliptical aperture magnitude                    [mag]
#   3 X_IMAGE                Object position along x                                    [pixel]
#   4 Y_IMAGE                Object position along y                                    [pixel]
#   5 X_WORLD                Barycenter position along world x axis                     [deg]
#   6 Y_WORLD                Barycenter position along world y axis                     [deg]
#   7 A_WORLD                Profile RMS along major axis (world units)                 [deg]
#   8 B_WORLD                Profile RMS along minor axis (world units)                 [deg]
#   9 THETA_WORLD            Position angle (CCW/world-x)                               [deg]
#  10 FWHM_WORLD             FWHM assuming a gaussian core                              [deg]
#  11 ELONGATION             A_IMAGE/B_IMAGE                                           
#  12 ELLIPTICITY            1 - B_IMAGE/A_IMAGE                                       
         1 -12.7064    242.8630     28.6213   3.5254241892e+02   2.3457987769e+01    0.7525042    0.4729571 -78.60   0.00492262    1.601    0.375
         2 -12.1316    243.5640     22.2742   3.5118796144e+02   2.4040118957e+01    0.6110152    0.3201596 -88.67  0.003455058    2.070    0.517
         3 -11.7312      2.1478      7.3127   5.2448864949e+01   7.8810735875e+01    0.6364424    0.4238462 -54.04   0.00381116    1.510    0.338
         4 -11.4999      2.0000     22.0143   5.9857542230e+01   7.5784306746e+01    0.5648814    0.1498679 -65.66  0.002052412    3.655    0.726
         5 -10.1074    227.2975      9.5227   3.4931806378e+02   2.8446949725e+01    0.2210959    0.1649716 -54.34 0.0006956596    1.027    0.027
         6  -9.7048    163.8982    237.2973   4.5226673290e+01   4.3975520454e+00      0.16718    0.1492252  -2.83  0.000343625    1.245    0.197
         7  -9.4671    101.0092    250.4308   5.9836254861e+01   9.9062611846e+00    0.1683168    0.1189723  28.35  0.001087215    1.098    0.089
         8  -9.1639     99.6025    243.1875   5.9453834324e+01   1.1288740479e+01     0.219777    0.1478673  61.24 0.0004857233    1.865    0.464
         9  -9.7068     75.0000    250.0267   6.5467578196e+01   1.2982764467e+01    0.2363978    0.1576588 -67.17  0.001102517    1.892    0.472
        10  -8.9887     76.0000    245.0691   6.4861265428e+01   1.3740991809e+01     0.262653    0.1549257 -69.24  0.001258402    2.136    0.532
        11 -14.7164     68.3224    148.6837   5.6141881423e+01   3.6121967254e+01     3.973512     2.296155 -88.58   0.01577054    2.323    0.569
        12 -10.4620    165.2334    215.7925   4.1938971206e+01   7.5032364817e+00    0.2998115     0.142963 -23.02  0.001282573    3.100    0.677
        13  -9.6187    106.5035    215.1984   5.4832166368e+01   1.5499651121e+01    0.2772719    0.1864452  -8.85  0.001418706    1.988    0.497
        14 -11.0375     63.7986    183.0326   6.2075320923e+01   2.8156412032e+01    0.3202768    0.2254604  76.29 0.0007073196    1.565    0.361
        15 -15.6141      6.4890    141.2159   7.6050674579e+01   4.4712441800e+01     7.689334     1.702016 -78.31   0.02402667    3.926    0.745
        16  -9.9009    210.7443    198.7274   3.0707297011e+01   4.2858911608e+00    0.2159057    0.1706498  -1.55 0.0005500038    1.048    0.046
        17  -9.9499    194.1582    197.4545   3.3434977492e+01   6.5764090439e+00    0.3572465    0.1775337 -52.70  0.001602302    3.268    0.694
        18 -10.9969    179.4279    165.9633   3.0622446355e+01   1.3874392233e+01    0.6020868    0.5014713 -42.06  0.003606465    1.269    0.212
        19 -10.7557    171.5027    174.5370   3.3818109400e+01   1.3594805347e+01    0.3347286    0.3122276 -31.03  0.001200828    1.196    0.164
        20 -11.2025    173.6329    170.6568   3.2665765524e+01   1.3954391269e+01    0.4877654    0.3593676  60.22  0.002257158    2.031    0.508
        21 -10.0976    111.0420    167.4223   4.6749286427e+01   2.4863463993e+01    0.3625164     0.265254  85.92  0.001000581    1.921    0.480
        22 -11.7949     46.0710    158.5850   6.4591039367e+01   3.6445338617e+01    0.3844531    0.2490133  63.87  0.001377873    1.581    0.368
        23  -9.8906    124.5315    151.7810   4.0287054343e+01   2.6069135372e+01     0.363047    0.2575428 -76.72  0.001067406    1.972    0.493
        24 -11.0767    133.3324    142.9873   3.6225754316e+01   2.6402113702e+01     0.825861    0.2502713 -54.04   0.00234656    4.250    0.765
        25 -10.7651    108.8909    145.2845   4.3225507993e+01   3.0353532413e+01    0.3075078    0.2933979  53.79 0.0006845397    1.045    0.043
        26 -10.4651     28.6364    142.7521   6.8615111794e+01   4.2505509507e+01    0.3419441    0.3327837  -7.77 0.0009598862    1.175    0.149
        27 -10.3065     36.8006    142.4285   6.5776145030e+01   4.1765004823e+01    0.3105763    0.2386145 -79.58 0.0008992546    1.261    0.207
        28  -8.9391     37.9472    137.4492   6.4771780762e+01   4.2986801558e+01    0.2814663    0.1619647  57.96 0.0008969195    1.822    0.451
        29 -10.4646     17.8496    133.3426   7.1487620651e+01   4.6000673053e+01    0.5077247    0.2562935  62.97  0.001774557    2.071    0.517
        30 -11.8173     85.8054    144.5553   4.9921687704e+01   3.4488673376e+01    0.6693447     0.511232 -12.54  0.002314371    1.723    0.419
        31 -11.8182    103.6504    131.8156   4.1928625447e+01   3.4531184503e+01    0.8320652    0.5658912   9.27  0.003049388    2.151    0.535
        32 -11.6262     87.9119    131.7927   4.6774824794e+01   3.7360957200e+01    0.2882833    0.2831293 -70.84 0.0003737441    1.044    0.042
        33 -11.2184     42.3789    131.6037   6.2405917339e+01   4.4077952249e+01    0.7161332    0.4603838  -2.47  0.003090424    2.135    0.532
        34 -15.0521      9.8910    206.3621   7.8194676907e+01   2.8424741235e+01    0.8767421    0.4855926   5.16  0.002675618    2.463    0.594
        35  -8.3314    149.6820    126.2649   2.8556503389e+01   2.6792715252e+01    0.1421083    0.1172528  85.66 0.0002235712    1.551    0.355
        36  -8.5538    219.0285    125.7602   1.5714395734e+01   1.4214256654e+01    0.1357223    0.1081367  44.95 0.0003109025    1.491    0.329
        37 -15.3009     44.1727    234.1735   7.1336545051e+01   1.9303035010e+01     2.938026     1.776082 -71.41   0.01737363    1.929    0.481
        38 -10.0027    110.4781    126.2261   3.8672477352e+01   3.4576974743e+01    0.2891154    0.2491439  10.81 0.0007363773    1.322    0.244
        39 -10.6807    115.5142    121.4582   3.6111304125e+01   3.4704940236e+01    0.3175741    0.2609515  74.19   0.00136493    1.416    0.294
        40 -10.2097     97.3839    121.1684   4.1441972241e+01   3.8302768400e+01    0.2953949    0.2536731   7.99 0.0007967267    1.355    0.262
        41  -9.7039    106.9432    120.6445   3.8400703920e+01   3.6591353994e+01    0.3011664    0.2687703  23.59 0.0009246035    1.191    0.161
        42 -14.2882      2.9868    249.6863   8.1009914674e+01   2.0242587108e+01    0.6315625     0.311944  33.40  0.003873714    1.511    0.338
        43 -16.4233     35.0163    176.1223   6.9660568375e+01   3.3197616482e+01     8.748862      3.69731  45.36   0.03717351    2.055    0.513
        44  -9.7621     35.4986    116.9179   6.2839414765e+01   4.8867437684e+01    0.3682425    0.1847419  55.32  0.001433067    2.275    0.560
        45 -17.6107      5.3688    218.5329   7.9691001974e+01   2.6176396739e+01     3.358364     1.846327  69.75   0.01616527    1.619    0.382
        46  -9.6672    106.9755    116.0123   3.7267901077e+01   3.7687104638e+01    0.2288845    0.2239777  78.35  0.001210573    1.010    0.009
        47  -9.4948    171.4883    218.9918   4.1162385338e+01   6.2004370847e+00    0.1439237    0.1120938 -75.43 0.0008104851    2.571    0.611
        48  -8.7709     71.5284    232.7451   6.4881036498e+01   1.6530679383e+01    0.1557017    0.1138505  76.12 0.0007325787    1.593    0.372
        49  -8.4079    134.3442    105.6652   2.7110189485e+01   3.4280350530e+01    0.1607038    0.1214149 -86.73 0.0007049901    1.765    0.433
        50 -10.9912    112.9788    103.7359   3.2329654996e+01   3.9303093834e+01    0.3588631    0.2125233 -40.77   0.00146339    1.785    0.440
        51 -12.7242    128.9420    229.6368   5.1499604440e+01   9.9423567423e+00    0.9131668    0.3720833  29.25  0.004255492    2.044    0.511
        52  -9.2772     89.9896    102.9942   3.9337442115e+01   4.4187027994e+01    0.2458236     0.187622  76.72 0.0005406176    1.619    0.382
        53  -9.2006     69.5196    102.4841   4.6563357945e+01   4.8055761303e+01    0.1547501    0.1506446  81.09 2.382308e-05    1.007    0.007
        54  -9.6935     59.9356     99.9852   4.9701809508e+01   5.0259183182e+01    0.3088477    0.2194289  64.22 0.0009457944    1.653    0.395
        55  -9.6319     34.1308     97.3754   6.0080091655e+01   5.4363978243e+01    0.3115695    0.1631348  41.06  0.001301032    1.940    0.485
        56  -9.3239     57.4462     94.2921   4.9324124338e+01   5.2131147609e+01    0.2118498    0.1485968 -76.12 0.0009404062    1.602    0.376
        57 -10.2754     27.6673     94.0708   6.2377433025e+01   5.5918438334e+01    0.3429879    0.1752139  40.13  0.001444655    1.995    0.499
        58  -8.5750    104.6713     93.3393   3.1904879530e+01   4.3438614217e+01    0.1650865    0.1245724  87.32 0.0007051738    1.736    0.424
        59 -10.4985     56.5984     86.3294   4.7600223799e+01   5.4314436343e+01    0.5724549    0.3435141  68.00  0.002015708    2.601    0.616
        60  -9.7792     50.4535     82.5489   4.9285346684e+01   5.6213053841e+01    0.2643088    0.1886217  33.72 0.0006225038    1.412    0.292
        61  -8.8274    111.3034     86.0280   2.7757433443e+01   4.3584754078e+01    0.2174032    0.1995455 -59.07 0.0003820985    1.087    0.080
        62  -9.1077     71.8013     86.1915   4.1280919105e+01   5.1756632336e+01    0.2260658    0.2044734  71.99 0.0004828406    1.166    0.142
        63  -9.5341     37.9590     84.3677   5.5553691566e+01   5.7411053664e+01     0.418505    0.1733765  46.27  0.001475064    2.818    0.645
        64 -10.9942     17.6322     84.4040   6.5443695469e+01   5.9390027652e+01    0.3934414    0.2272597  36.74   0.00126341    1.792    0.442
        65  -8.5302     63.9989     80.9382   4.2893119966e+01   5.4436998978e+01     0.176429    0.1742786  46.06 0.0003008931    1.014    0.014
        66  -9.2637     46.4329     80.4972   5.0575904601e+01   5.7314645975e+01    0.1476561    0.1426523 -51.11 9.257124e-05    1.012    0.012
        67  -8.5895     70.5955     78.8323   3.9523508227e+01   5.3753745652e+01    0.2004945    0.1480781 -66.31 0.0003273391    1.504    0.335
        68  -9.2653     57.9795     77.4984   4.4449046748e+01   5.6301975561e+01    0.2284053    0.1487236  34.37 0.0005213622    1.543    0.352
        69  -8.8890    184.6709     76.6978   9.5403249091e+00   2.8578066316e+01    0.1322301     0.108819  13.67 0.0004616731    1.647    0.393
        70  -9.7141     82.1644     71.4683   3.2611695185e+01   5.3138856452e+01    0.3053711    0.2056048 -67.54 0.0007024913    1.900    0.474
        71 -11.9943    192.7032     63.4399   5.0681015842e+00   2.8892610642e+01    0.7348211     0.410189  47.69  0.001354892    2.218    0.549
        72 -12.9292    206.3290     54.0425   1.1739741007e+00   2.7359634862e+01    0.8835254    0.7350994 -54.21  0.003383596    1.005    0.005
        73 -13.0094    214.5905     48.0263   3.5893353522e+02   2.6481530772e+01    0.6360651    0.6214076 -73.19  0.001521222    1.263    0.208
        74 -11.0139      1.8311     61.1795   7.0082579131e+01   6.6419492062e+01    0.4333597    0.1387607 -70.92  0.001652761    2.635    0.620
        75 -11.1909     13.3705     59.9412   6.2888008930e+01   6.6095588369e+01    0.3050807    0.2367796 -63.46 0.0005014518    1.200    0.167
        76  -8.2970     55.3193     57.6258   3.8914471557e+01   6.1403413798e+01    0.1525831    0.1172893  79.96 0.0004049114    1.806    0.446
        77  -8.9462    222.2475    224.3700   3.2828128864e+01  -4.4724852322e-01     0.112754   0.06450114 -10.95 0.0006947182    1.625    0.385
        78 -10.1856    174.8793    222.7457   4.1049248039e+01   5.2085996353e+00    0.2030516    0.1423157 -22.23  0.001109359    1.382    0.276
        79  -9.1405    194.9849    226.4871   3.7829309603e+01   2.2759203068e+00    0.1702933    0.1296361 -17.72 0.0005155373    1.203    0.169
        80 -10.8897    225.0317     39.9939   3.5620909519e+02   2.5441536090e+01     0.194051    0.1504214 -52.78 0.0005404787    1.008    0.008
        81  -8.5310     40.9624     36.2418   3.7388461646e+01   6.8323478456e+01    0.1713308     0.112801  35.88 0.0003016496    1.477    0.323
        82 -10.0391     30.0800     35.9556   4.4008107872e+01   7.0019031067e+01    0.2231309    0.1538856 -17.50 0.0007151345    1.664    0.399
        83  -9.6599     95.7257    184.2747   5.3479757330e+01   2.3449515158e+01    0.3617521    0.2226846 -18.82 0.0009718986    2.646    0.622
        84 -10.0199     68.1107    245.7705   6.6673199418e+01   1.4511419866e+01    0.3253747    0.2360992  82.83  0.002109855    1.669    0.401
        85  -9.8153     18.5557     26.0510   4.7550094360e+01   7.3501043250e+01    0.1973437    0.1611836  13.82 0.0003518082    1.179    0.152
        86 -10.1934    125.0621    243.8546   5.4005624662e+01   8.0922660764e+00    0.2326649    0.1752537 -54.54 0.0009141231    1.707    0.414
        87 -10.0958    102.8173    238.9268   5.8318599676e+01   1.1632474801e+01    0.2248866    0.1942137 -47.38  0.000778947    1.418    0.295
        88  -9.4390     60.7125     21.1613   1.9422244057e+01   6.7032038154e+01    0.2328236    0.1810145  61.48 0.0006575263    1.328    0.247
        89  -8.7403    189.3985     14.8121   3.5287766217e+02   3.5857409503e+01    0.1600846    0.1184473 -20.17 0.0008012811    1.624    0.384
        90 -10.8642      4.8342     25.6659   5.8765764191e+01   7.4808721739e+01     0.607767    0.1680145  25.40  0.002351709    3.306    0.697
