#   1 NUMBER                 Running object number                                     
#   2 MAG_AUTO               Kron-like elliptical aperture magnitude                    [mag]
#   3 X_IMAGE                Object position along x                                    [pixel]
#   4 Y_IMAGE                Object position along y                                    [pixel]
#   5 X_WORLD                Barycenter position along world x axis                     [deg]
#   6 Y_WORLD                Barycenter position along world y axis                     [deg]
#   7 A_WORLD                Profile RMS along major axis (world units)                 [deg]
#   8 B_WORLD                Profile RMS along minor axis (world units)                 [deg]
#   9 THETA_WORLD            Position angle (CCW/world-x)                               [deg]
#  10 FWHM_WORLD             FWHM assuming a gaussian core                              [deg]
#  11 ELONGATION             A_IMAGE/B_IMAGE                                           
#  12 ELLIPTICITY            1 - B_IMAGE/A_IMAGE                                       
         1 -15.6593     12.5832     24.7267   9.6996291240e+01   6.9711852895e+01     3.104048     1.383758 -35.95   0.01685506    1.775    0.437
         2 -13.9014     24.4016     49.6490   1.0005752515e+02   6.4053775371e+01     1.212119    0.6601931 -28.42  0.006476615    1.775    0.437
         3 -14.5221     36.9871     84.9285   1.0450969325e+02   5.5258944126e+01     2.066451     1.080091 -50.46   0.01030041    1.553    0.356
         4 -14.7882     44.6103     42.3330   8.8625657064e+01   6.3450573693e+01     2.736554     1.255963 -36.03   0.01136247    1.946    0.486
         5 -14.5884     80.2480     69.7439   8.4572680694e+01   5.3022245918e+01     2.943186     1.612453 -15.92   0.01037867    3.353    0.702
         6 -14.4003     69.7615     55.8095   8.3538803808e+01   5.7458589926e+01      1.44333     1.237115 -10.20  0.005262214    1.054    0.051
         7 -13.1476     80.6741     31.9379   7.0189952535e+01   5.9565965107e+01    0.9601461    0.6341794  45.72  0.003770941    1.574    0.365
         8 -12.7243    138.0721      4.4144   4.5019766303e+01   4.9722064593e+01     1.272684    0.3085329  59.86  0.004516665    2.996    0.666
         9 -11.6654     73.4392      1.5984   5.8860751328e+01   6.4459652953e+01    0.2541106    0.1529406  51.65 0.0007224916    1.608    0.378
        10 -13.2669     83.3500     22.6541   6.5313728219e+01   6.0291027427e+01    0.8018721    0.5308598  50.96 0.0006862993    1.599    0.374
        11 -13.3560    123.6686     10.4987   4.9835406784e+01   5.2686362982e+01     1.247641    0.4639691  53.03 0.0004909695    2.191    0.544
        12 -12.6713     75.7636     13.5635   6.3752539364e+01   6.2823238359e+01    0.3414472    0.3106869  21.09 0.0009535402    1.191    0.161
        13 -15.2169     86.8087      6.8878   5.7266532788e+01   6.1296369255e+01     3.161665     1.129001  56.21   0.01297361    2.678    0.627
        14 -12.6638    185.8410     12.6310   4.0882797320e+01   3.7083821582e+01    0.7088553    0.5824818 -10.80  0.004179486    1.460    0.315
        15 -12.0349    192.8195      5.8801   3.8286763197e+01   3.6035257816e+01    0.5237787    0.3450461 -43.36  0.001870019    1.513    0.339
        16 -11.5556    188.3354      5.3336   3.8611971592e+01   3.7182050352e+01    0.3288108    0.2210326  41.88  0.001402207    1.720    0.419
        17 -12.0093     64.6583     17.7429   6.9683905761e+01   6.4345465551e+01    0.4863462    0.3148158  24.99  0.001622841    1.434    0.303
        18 -11.9737    175.8170     13.5607   4.2384283976e+01   3.9482551730e+01     0.523098    0.3165084  20.19  0.002374599    2.478    0.596
        19 -10.3821    132.9517     14.1527   4.9336431238e+01   5.0102716398e+01    0.2206877    0.1935163 -12.11 0.0006126025    1.238    0.192
        20 -10.4200    169.6515     10.7968   4.2381836483e+01   4.1295517490e+01     0.189051    0.1144756 -38.44 0.0007363324    1.721    0.419
        21 -11.6222    149.7093      8.6249   4.4564597351e+01   4.6481833642e+01    0.6406216    0.2607543  70.22   0.00257905    2.370    0.578
        22  -9.6527    211.9558      1.4988   3.5389962928e+01   3.1886571459e+01    0.1863393    0.1111604  76.89 0.0005403291    1.520    0.342
        23  -9.8390    186.1936      1.3333   3.7759416260e+01   3.8072841218e+01     0.183654    0.1078155  85.88 0.0003531359    1.645    0.392
        24 -10.4438     97.4023     33.7765   6.5548495872e+01   5.5989446592e+01    0.2740422    0.2010124  25.01 0.0008748421    1.324    0.245
        25  -9.5591    246.4622    183.5060   7.3432370042e+01  -2.5423875914e+00    0.1320888    0.1077607  -6.50 0.0008094176    1.011    0.011
        26 -10.4782     34.4842    177.2560   1.1904545690e+02   3.3390611651e+01    0.2279107    0.1613081   7.34  0.001298681    2.212    0.548
        27 -11.3055    203.1031    171.9041   7.9167448630e+01   6.8507131938e+00    0.4148484    0.1824905 -37.73  0.001666665    2.249    0.555
        28 -14.5589     96.8636     71.2427   7.9523693118e+01   4.9748082346e+01     1.638915     1.195505  13.68   0.00459767    1.601    0.375
        29  -9.7549    185.3331    167.6801   8.1960683391e+01   1.1028189345e+01    0.1425187    0.1203486  86.50 0.0003649275    1.698    0.411
        30 -14.9596     60.3933     71.7636   9.2358945180e+01   5.5579551842e+01      1.99191     1.114642  33.02  0.009514857    1.958    0.489
        31 -11.5585    199.5269    154.9026   7.6198880451e+01   1.0647438522e+01    0.3711151    0.2660031 -50.73  0.001786839    1.600    0.375
        32 -12.0746    233.5426    153.8729   6.9484651394e+01   4.3329751544e+00    0.4133203    0.2366851  39.95  0.001975708    1.848    0.459
        33 -12.8252    141.5182     96.3561   7.4545165520e+01   3.5197225996e+01    0.7189121    0.5979776 -27.93  0.002874078    1.216    0.178
        34 -12.0552    134.8205     98.2022   7.6821193473e+01   3.6310388631e+01    0.6247015    0.3889986  28.40  0.001042554    1.987    0.497
        35 -12.1916    134.7591     92.6151   7.5207997757e+01   3.7489348777e+01    0.5145616    0.3933389  39.25 0.0005159281    1.335    0.251
        36 -10.9279    114.2241     97.1965   8.2247371535e+01   4.0888540721e+01    0.3553782     0.272857 -43.65  0.000705349    1.257    0.204
        37 -11.4540    188.8192     94.5092   6.3372601937e+01   2.4451803233e+01    0.4051445    0.3240471  89.61  0.000941527    1.577    0.366
        38 -13.0140     70.6749     91.6620   9.4413525621e+01   4.9716922439e+01    0.7183811    0.5862111   9.40  0.003912079    1.374    0.272
        39 -12.6658      8.5298     65.8309   1.1096554324e+02   6.1647988137e+01    0.5605436    0.2850494 -56.91  0.002320746    1.457    0.314
        40 -13.6554      5.2830     83.2995   1.1548492959e+02   5.7870152457e+01     1.471973    0.4827411 -53.21   0.00677186    2.145    0.534
        41 -11.7041    117.8840     91.0127   7.9379799675e+01   4.1473807464e+01     0.357032    0.2659621  57.70  0.001057606    1.569    0.363
        42  -9.4055    152.5115     88.4728   6.9519720400e+01   3.4231428435e+01    0.1559405    0.1531782 -20.31 0.0002487466    1.017    0.016
        43 -10.1804    249.5451     86.1688   5.1472347058e+01   1.2394998587e+01    0.2715737    0.2024537 -66.08  0.001482245    1.518    0.341
        44 -13.2644    125.4096     72.4132   7.1451825259e+01   4.3570197810e+01     1.129101    0.5201978  59.02  0.003778627    3.068    0.674
        45 -10.8749    114.0002     86.7957   7.9232214476e+01   4.3167373255e+01    0.2973659    0.2179889 -34.31 0.0003221141    1.342    0.255
        46 -12.3299    128.0403     82.0709   7.3810198007e+01   4.1120402200e+01    0.4473578    0.3644449 -49.69  0.001317909    1.291    0.226
        47 -11.3737    112.8190     82.1214   7.8134229903e+01   4.4379637127e+01    0.3778647    0.3049268  55.80  0.001861408    1.407    0.289
        48 -13.0144    121.2505     81.0874   7.5380707135e+01   4.2805843197e+01    0.7532379     0.549444  14.93  0.002110854    1.702    0.413
        49 -13.1552    116.0736     76.8514   7.5511419252e+01   4.4756932165e+01    0.8327969    0.4716271 -42.97  0.002722778    1.749    0.428
        50 -11.3556    116.0000     68.7150   7.2863038814e+01   4.6332945987e+01    0.3201163    0.2788791  -4.44  0.001162531    1.162    0.140
        51 -11.7442    118.6895     65.0343   7.0860297229e+01   4.6419990208e+01    0.3381211    0.3004677  -0.53 0.0009061669    1.122    0.109
        52  -9.1731    164.9723     81.7504   6.4696993706e+01   3.2512812099e+01    0.1914728     0.132719  51.43 0.0002144732    1.456    0.313
        53 -13.1233    145.1625     76.3781   6.7629445436e+01   3.8263419955e+01    0.7533681    0.6045916 -76.22  0.003277701    1.609    0.378
        54 -13.0491      2.7841     70.7550   1.1417651125e+02   6.0832963192e+01     1.096287    0.3016496 -68.97  0.004349753    3.067    0.674
        55 -11.3207    152.5031     73.3774   6.4965862947e+01   3.7046854838e+01     0.343549    0.2573473  28.70  0.001586494    1.503    0.335
        56 -10.6352    171.0513     72.4829   6.0692045587e+01   3.2664355033e+01    0.4260095    0.2775489  74.48   0.00178353    1.979    0.495
        57 -10.3857    182.7459     72.0042   5.8278901641e+01   2.9867916075e+01     0.237935    0.2125301  63.96 0.0004762709    1.142    0.124
        58 -10.9480    146.4630     66.8343   6.4317563019e+01   3.9653527102e+01    0.2861448       0.2172  51.80 0.0006840064    1.310    0.237
        59 -10.8485    214.3142     61.0464   5.0134721095e+01   2.3981079114e+01    0.3988152    0.3060737 -13.21  0.001596478    1.565    0.361
        60  -9.5522    210.1796     61.8196   5.0931838230e+01   2.4839814975e+01     0.183993    0.1665402  20.93  0.000275406    1.291    0.226
        61 -10.9792    169.0989     63.0655   5.8279444741e+01   3.4711101701e+01    0.5550818    0.2149922  58.11  0.001824772    2.622    0.619
        62  -9.9741    189.8975     59.3302   5.3423163171e+01   3.0131115981e+01    0.2037605    0.1805349  70.45 0.0005037243    1.133    0.118
        63 -11.9003    124.7798     57.3849   6.6583763333e+01   4.6373885062e+01    0.4696488    0.2924073  41.39 0.0009154059    1.590    0.371
        64 -11.1323    174.5974     56.4115   5.5247369501e+01   3.4380348418e+01     0.266157    0.2485334 -80.19  0.000370071    1.091    0.084
        65 -11.4711    152.7554     53.8235   5.8749671355e+01   4.0228242187e+01    0.5419589    0.3132672  33.94 0.0008694209    2.113    0.527
        66  -9.5095    227.6288     56.7245   4.7265150553e+01   2.1545503618e+01    0.1347481    0.1047115  29.91 0.0007005344    1.684    0.406
        67 -12.1385    133.3701     53.7223   6.3140139818e+01   4.4960443581e+01    0.5561644    0.3197959  60.60  0.002337658    1.921    0.479
        68 -11.4703    137.6452     48.3661   6.0297564089e+01   4.4756543223e+01    0.3901289     0.296307 -47.59 0.0009668411    1.453    0.312
        69  -9.6031    121.9804     52.6742   6.5685383478e+01   4.7783701267e+01     0.200296    0.1822029  33.18 0.0003516624    1.058    0.055
        70 -11.6354    145.3538     50.4510   5.9253012197e+01   4.2565662515e+01    0.4057841    0.3055492 -40.14 0.0008145476    1.378    0.274
        71 -10.6081    175.7147     45.2958   5.1747505969e+01   3.5716511187e+01    0.4905333    0.2738919 -20.35  0.002057944    2.166    0.538
        72 -12.5440    122.0148     43.8099   6.2515198426e+01   4.9132397994e+01    0.3144155    0.2744095  -6.34 0.0006976852    1.153    0.132
        73 -10.1055    203.5857     43.7517   4.7084144306e+01   2.9017479039e+01    0.2593007    0.1559946  54.12 0.0009497662    1.696    0.411
        74 -10.5561    181.6282     43.3282   5.0198078546e+01   3.4501983585e+01    0.2656588    0.2355292  52.63 0.0005873732    1.139    0.122
        75 -11.4323    157.0146     43.5933   5.4609868935e+01   4.0656644315e+01    0.3738156    0.2423229  53.81 0.0008690156    1.460    0.315
        76 -10.9662    139.8454     43.6463   5.8192986722e+01   4.4905865710e+01    0.4440697    0.2536489  67.37  0.001184486    2.040    0.510
        77 -12.2057    216.8616     38.8418   4.4125741243e+01   2.6496571500e+01    0.6507319    0.3058538  56.28   0.00288664    2.160    0.537
        78 -11.3131    196.6032     40.2481   4.7097870845e+01   3.1192442963e+01    0.4796155    0.2695794 -52.87  0.001773896    1.892    0.471
        79 -11.3595    202.6825     38.6267   4.5838724875e+01   2.9918208425e+01    0.4412853     0.328801  68.79  0.001839998    1.314    0.239
        80 -10.9782    159.9007     36.1450   5.1702915480e+01   4.0923091142e+01    0.2224525    0.2099299  66.08 0.0002815142    1.015    0.015
        81  -9.8789    129.9996     37.0161   5.8125012252e+01   4.8197206464e+01    0.2095342    0.1719594 -73.99 0.0003156657    1.550    0.355
        82  -9.8564    140.6673     34.8781   5.5023321701e+01   4.5883539263e+01     0.229953    0.1770259  12.03 0.0006751934    1.488    0.328
        83 -12.3467    248.2232    147.2144   6.5517612898e+01   2.8058433262e+00    0.7400836    0.3900934 -45.34   0.00338712    2.042    0.510
        84 -11.8453     59.0791    144.6724   1.0893167833e+02   3.8377851050e+01     1.084824     0.389368  49.53  0.003861906    3.488    0.713
        85 -12.4712     46.5725    142.2822   1.1195844981e+02   4.0413020668e+01    0.4605817    0.3949199  -5.24  0.002793312    1.519    0.342
        86 -11.9237     51.5134    141.5171   1.1050413085e+02   4.0049265212e+01    0.6246268    0.2853008 -68.28  0.002733772    1.990    0.498
        87 -11.8575    213.8026    142.3057   7.0506793320e+01   1.0115322679e+01    0.7492765    0.3331807  52.32  0.002813568    2.759    0.638
        88 -11.4194     76.3867    141.2109   1.0360613851e+02   3.6923135357e+01    0.3460831    0.2148818 -79.02   0.00125532    1.883    0.469
        89  -9.9081    138.9218    152.1187   8.9298561874e+01   2.3480462958e+01    0.2339328    0.2122886  78.46 0.0008284828    1.223    0.182
        90 -10.6838    150.8220     31.8220   5.1980271143e+01   4.3744116807e+01    0.3786393    0.2716874  59.29  0.001930882    1.302    0.232
        91 -10.4497    104.8783     29.5187   6.1687472678e+01   5.4951529124e+01    0.2788604    0.2039133  30.54 0.0006924355    1.296    0.228
        92 -10.1072    108.7966     28.1643   6.0090068879e+01   5.4253135923e+01    0.2823016    0.1868928  43.38 0.0009003632    1.379    0.275
        93 -10.1291    216.2399     29.1364   4.1761367600e+01   2.7867601016e+01    0.1889601    0.1835127 -15.04  0.001205536    1.222    0.182
        94 -11.5325    241.7223     22.6522   3.7754376649e+01   2.2872007434e+01    0.3614169    0.2385624 -77.73  0.001085106    1.479    0.324
        95 -10.1863    235.4164     21.3409   3.8007990848e+01   2.4410036904e+01    0.2442752    0.1500849  79.99  0.001335296    1.608    0.378
        96 -11.5735    150.9250     21.4876   4.8568870236e+01   4.4907443978e+01    0.5711004    0.2877859  52.77  0.002551711    1.778    0.437
        97 -10.7174    139.7259     21.0366   5.0452220567e+01   4.7740268259e+01    0.3084084    0.1893317  61.39 0.0009515349    1.499    0.333
        98 -10.5707    208.7829     19.0363   4.0023059215e+01   3.0815644887e+01    0.3219939    0.2226492 -56.89   0.00119057    1.384    0.277
        99 -10.7671     82.4356    134.2398   1.0058912163e+02   3.7741795926e+01    0.2952081    0.1258608 -53.21  0.001141359    2.135    0.532
       100 -10.5152     33.9246    135.5152   1.1445966306e+02   4.3343998030e+01    0.1766757    0.1300543  30.31  0.001034218    1.595    0.373
       101 -11.2310    223.9192    133.5898   6.6611548574e+01   9.6506504162e+00    0.3992233    0.2184832  47.73  0.001765502    1.998    0.499
       102 -12.6197    199.7932    128.4353   6.9938102635e+01   1.5594752882e+01    0.8158628    0.3805035 -33.22  0.003075019    2.179    0.541
       103  -9.7998    240.5024     34.4598   4.0538128613e+01   2.1692410324e+01    0.1287603    0.1119875 -62.78 0.0001413066    1.024    0.023
       104 -12.7894    204.7372    124.0602   6.7896640125e+01   1.5354828182e+01    0.7583734    0.4507596 -40.43  0.003330918    1.594    0.373
       105 -10.9526    121.8495    127.3481   8.8058658342e+01   3.2512393089e+01    0.4110623    0.3307332  26.45  0.001408133    1.355    0.262
       106 -12.8981    218.5221    121.1959   6.4635876698e+01   1.2950521965e+01    0.5075101    0.3282371  48.11  0.002396635    1.673    0.402
       107 -10.0441     73.6538    114.6765   9.9072098482e+01   4.3819709636e+01    0.1520897    0.1062811 -26.84 0.0004162869    1.740    0.425
       108 -10.8035    176.4892     33.4899   4.8124595171e+01   3.7074759430e+01    0.2722262    0.2386258  60.07 0.0006575978    1.102    0.093
       109 -11.0155    248.5211    129.7466   6.1599619442e+01   5.5858329978e+00    0.2633755    0.1791556  66.24  0.001299208    2.199    0.545
       110  -9.4618    199.5019    105.5033   6.4220628630e+01   1.9957212594e+01    0.1526513    0.1439263 -37.63 0.0008104724    1.032    0.031
