#   1 NUMBER                 Running object number                                     
#   2 MAG_AUTO               Kron-like elliptical aperture magnitude                    [mag]
#   3 X_IMAGE                Object position along x                                    [pixel]
#   4 Y_IMAGE                Object position along y                                    [pixel]
#   5 X_WORLD                Barycenter position along world x axis                     [deg]
#   6 Y_WORLD                Barycenter position along world y axis                     [deg]
#   7 A_WORLD                Profile RMS along major axis (world units)                 [deg]
#   8 B_WORLD                Profile RMS along minor axis (world units)                 [deg]
#   9 THETA_WORLD            Position angle (CCW/world-x)                               [deg]
#  10 FWHM_WORLD             FWHM assuming a gaussian core                              [deg]
#  11 ELONGATION             A_IMAGE/B_IMAGE                                           
#  12 ELLIPTICITY            1 - B_IMAGE/A_IMAGE                                       
         1 -11.1269     73.2326     27.6079   5.4608635495e+01   6.3493897735e+01     0.740724    0.5403479  -2.88  0.003506974    1.720    0.419
         2 -11.3223    133.0036     12.6916   3.1093436433e+01   5.0083089793e+01    0.2764063    0.2631997  74.03   0.00027936    1.036    0.035
         3 -10.6285    131.2996     21.5391   3.4852293471e+01   4.9568292649e+01     0.631496    0.3038327 -24.44  0.002520805    2.246    0.555
         4 -10.9628     41.0227     21.1453   6.8497328455e+01   7.0825753975e+01    0.9633142    0.3421927  45.51  0.003280274    3.618    0.724
         5 -11.0295     50.5152     22.0833   6.3113828227e+01   6.9053182456e+01    0.3436854    0.2549342 -30.70 0.0006508489    1.359    0.264
         6 -11.1328     86.1630     22.3360   4.6932152154e+01   6.1306612922e+01    0.4466093    0.3242276  82.20 0.0005231129    1.822    0.451
         7 -11.4585    182.4182     17.7049   2.6369736178e+01   3.6562763461e+01    0.5289937    0.3650431 -18.36 0.0006664116    1.562    0.360
         8 -11.1083    174.5849     13.2916   2.5837787778e+01   3.8973890530e+01    0.7266307     0.576573   5.51  0.003936845    1.534    0.348
         9 -12.2450    105.0400     21.1547   4.0597792221e+01   5.6657210725e+01    0.3848143    0.3469225   1.72 0.0005062191    1.201    0.167
        10 -11.6022     61.7970     22.0845   5.7026730666e+01   6.6875793387e+01    0.7304781    0.4681312 -48.88  0.001793312    1.823    0.451
        11 -10.8715     68.3945     16.8782   5.1039932244e+01   6.6295389075e+01    0.6942624    0.3697926  57.85  0.002916428    2.054    0.513
        12 -10.0145     72.1403     15.1566   4.8472253391e+01   6.5692707516e+01    0.3151815    0.2438546 -48.48 0.0006758341    1.509    0.337
        13 -10.8170     69.6195     11.6042   4.7485963047e+01   6.6774210779e+01    0.4033951    0.2552611  43.49 0.0009014816    1.461    0.316
        14 -11.2332    151.9329     18.2726   3.0244507539e+01   4.4377705223e+01    0.5598243    0.3818125  -7.84  0.000197754    1.773    0.436
        15 -10.4262    205.1561     18.8099   2.4571114161e+01   3.1027207973e+01    0.3786152    0.2547301 -41.94  0.001018769    1.319    0.242
        16 -11.0215    210.8407     11.2438   2.2135017074e+01   3.0476207964e+01    0.8547432     0.299747 -13.64  0.002950905    4.316    0.768
        17 -11.1313    207.8223      3.5805   2.0337509135e+01   3.1856678184e+01    0.4941293    0.2577556 -52.33  0.002535008    1.724    0.420
        18 -10.4266    165.9777     18.4212   2.8436025316e+01   4.0663667950e+01    0.3925349    0.2655144  33.85  0.001132274    1.806    0.446
        19  -9.3182    160.4357     19.3841   2.9456792706e+01   4.2007658044e+01    0.5130641    0.1284491 -42.55  0.001577351    3.813    0.738
        20 -10.4673    144.4007     13.9577   2.9794421321e+01   4.6855013547e+01     1.569585    0.8681323  42.40  0.006760662    2.025    0.506
        21 -10.3320    165.1804      1.6186   2.3063721318e+01   4.2473483851e+01    0.3314236    0.2034153  61.57 0.0003034944    1.577    0.366
        22 -11.9712    156.0677      3.5566   2.4629459205e+01   4.4708607957e+01    0.2854122    0.2447399  56.45 0.0003756844    1.198    0.165
        23 -12.1093    160.1109      1.6421   2.3561685317e+01   4.3802020885e+01    0.6166887    0.3054843 -43.56  0.001401007    1.939    0.484
        24 -10.1966    237.4438     18.1480   2.2049094338e+01   2.4195275342e+01    0.3624138    0.2009657  -4.01  0.001277095    2.572    0.611
        25  -9.8446     13.9340     18.7057   8.8076602539e+01   7.4432383422e+01    0.4367295    0.1991654 -21.97  0.001742893    2.675    0.626
        26  -9.2922    127.0928     16.8137   3.3778135453e+01   5.1252193189e+01    0.3309574    0.2228735  -3.92 0.0007142366    1.853    0.460
        27 -10.5224    116.7848     15.0130   3.5089184976e+01   5.4254875550e+01    0.3800384    0.3398109 -74.86 0.0007443629    1.171    0.146
        28  -8.7551    112.6301     14.6643   3.5839596311e+01   5.5418364932e+01    0.2867188     0.187218  35.38  0.001302677    1.685    0.407
        29 -10.9651      6.2640     16.6194   9.4076307923e+01   7.5341635811e+01    0.4820658    0.3135428  42.43  0.001665031    1.857    0.462
        30 -10.8020      9.4759     15.0075   9.0585611222e+01   7.5554921694e+01    0.5265023    0.2450685 -30.36  0.002215116    2.162    0.537
        31  -9.0612     85.3709     14.2776   4.3089584819e+01   6.2608630431e+01    0.3139156    0.1830378  38.79 0.0005656524    1.753    0.430
        32  -8.9177     88.7018     13.6736   4.1700795746e+01   6.1842995993e+01     0.298819    0.2024052  36.87 0.0007431544    1.495    0.331
        33 -10.0360     90.6287      9.0139   3.8706190447e+01   6.1898828129e+01    0.4862887    0.2364989  50.24   0.00202547    1.834    0.455
        34  -8.7117     87.5590      6.5162   3.8279501894e+01   6.2970059973e+01    0.2241819    0.2120264  41.90 0.0007596294    1.046    0.044
        35  -9.6234    243.9629     13.7307   2.0645636890e+01   2.3335953327e+01    0.3013935    0.1596554  43.40 0.0009928254    2.713    0.631
        36 -10.6036    101.3591     11.2394   3.6929471033e+01   5.8826426053e+01    0.4053193    0.3527828 -75.66   0.00011055    1.263    0.208
        37  -9.9749     96.9769     12.9252   3.8898320611e+01   5.9792402376e+01    0.2502272     0.208968  53.98  0.000429828    1.094    0.086
        38 -10.3068    107.5562      7.1765   3.3558378019e+01   5.7589641516e+01    0.3703386    0.2404363  62.01  0.000871438    1.379    0.275
        39 -10.1534    106.9239      2.3531   3.1428080267e+01   5.8221013854e+01    0.6645324    0.3177572  29.42  0.002459503    2.870    0.652
        40 -10.4933     30.7774     12.1732   7.0728985814e+01   7.4083852749e+01    0.3828478    0.2963002  44.32  0.001314097    1.517    0.341
        41  -9.2171     51.1697     12.1859   5.6931604057e+01   7.0654007183e+01    0.3289284    0.1884745  33.85  0.000940197    1.755    0.430
        42  -9.9042     54.4408      8.4627   5.2736496168e+01   7.0568363940e+01     0.491179    0.3323605 -28.17  0.001520346    1.530    0.346
        43 -10.0310    218.8380     11.3613   2.1615574951e+01   2.8702859890e+01    0.3465446    0.2471177 -89.63    0.0015921    1.436    0.304
        44  -9.3933    191.4986     11.0342   2.3578846262e+01   3.4998213217e+01    0.2750276    0.2052703 -43.30  0.001126818    1.227    0.185
        45  -9.6304    190.8630      7.1212   2.2516562942e+01   3.5516781539e+01    0.3437499    0.2423244 -36.89  0.001386259    1.318    0.241
        46  -9.8200    195.2218      3.7239   2.1229271097e+01   3.4775900220e+01     0.467307     0.241621  76.32  0.002295226    1.898    0.473
        47  -9.3086    199.2785      2.6921   2.0661669202e+01   3.3907490976e+01    0.2203462    0.1690755  47.58 0.0002527566    1.527    0.345
        48  -8.8364    126.5358      1.4639   2.7606454624e+01   5.2916399799e+01    0.1956735    0.1422576   6.08 0.0006776809    1.661    0.398
        49  -9.0909    120.3879      9.8448   3.2157580690e+01   5.3824010697e+01    0.3126159    0.1778615  69.63  0.001198973    1.634    0.388
        50  -8.6664    124.7957     11.9108   3.2206903000e+01   5.2406750410e+01    0.2857122    0.2051923 -21.46 0.0009264033    1.521    0.343
        51 -10.1441    125.6902      7.1590   3.0090377409e+01   5.2634614457e+01    0.6543555    0.3733353 -84.02  0.002731816    2.110    0.526
        52  -8.9616     23.5710     11.9901   7.6532280554e+01   7.5023405442e+01    0.3552843    0.1671938   3.48  0.001265636    3.772    0.735
        53  -9.6725      1.6759      8.7031   9.5838009971e+01   7.7334826480e+01    0.3004382    0.1867871 -53.18 0.0008245842    1.341    0.254
        54  -8.7122     44.1162     10.3193   6.0024706700e+01   7.2287886557e+01    0.2223488    0.1350694   0.01 0.0005611508    2.603    0.616
        55  -9.9481      7.8010      9.2437   8.9846076592e+01   7.6948915487e+01    0.2453821    0.1766208  13.21   0.00145609    1.434    0.303
        56  -8.7148    229.2182      9.6000   2.0533235030e+01   2.6666955860e+01    0.1535445    0.1064126  64.75 0.0006109331    1.618    0.382
        57  -9.2302    200.6936      8.8443   2.2236921135e+01   3.3021601834e+01    0.3608577    0.1736901  42.57  0.001560029    2.848    0.649
        58  -9.2626    223.6954      6.2587   2.0048159216e+01   2.8129089558e+01    0.4156362   0.08206599 -25.69  0.001465085    3.917    0.745
        59 -11.3004     74.3107      3.6200   4.0921688386e+01   6.6637997864e+01    0.5354368    0.4085009  -7.10  0.002263014    1.431    0.301
        60  -8.8689     48.8223      8.0068   5.5594585472e+01   7.1772840368e+01    0.1953357    0.1872365 -66.95 0.0006862365    1.321    0.243
        61 -11.0709     23.4086      6.4288   7.3306624360e+01   7.6155289424e+01    0.4329513     0.237652  41.28  0.001831669    2.128    0.530
        62  -9.6488    171.2343      6.1581   2.3942614679e+01   4.0505730948e+01    0.3865713    0.2322823  53.73  0.001037277    1.729    0.422
        63 -11.3127     79.3811      4.3679   3.9625890593e+01   6.5291668638e+01     0.258617    0.2444286  29.47 0.0004024914    1.062    0.058
        64  -8.4286    231.3262      6.2977   1.9626273942e+01   2.6531864266e+01    0.1105586   0.08850198  32.85  0.000702574    1.631    0.387
        65  -9.1137     98.6446      6.0804   3.5081685050e+01   6.0098927781e+01    0.2799233     0.175643  43.25  0.001298489    1.550    0.355
        66 -11.1252     37.7271      4.6326   6.0477637557e+01   7.4356410037e+01     0.284661    0.2387653  17.70 0.0005589047    1.089    0.082
        67  -9.4407     43.0370      1.3464   5.4455719212e+01   7.3890472841e+01     0.412523    0.1240005  47.65  0.001080467    3.223    0.690
        68 -10.1573    238.6669      2.9777   1.8474112637e+01   2.5342992029e+01    0.3181407    0.2312597  65.00  0.001704883    1.598    0.374
        69  -9.9402    233.2227      2.4457   1.8619315225e+01   2.6484654785e+01    0.2726085    0.1390829 -54.21 0.0008957396    1.712    0.416
        70 -10.0586    218.3108      2.8592   1.9518811469e+01   2.9588743740e+01    0.2880459     0.243349  57.29  0.001913134    1.385    0.278
        71 -10.7903    178.7482      2.8316   2.2244357583e+01   3.8890482200e+01    0.5878318    0.2600737  77.35  0.002552313    2.176    0.540
        72  -9.8458     14.1866      3.0070   8.0041071003e+01   7.7821194235e+01    0.4256772    0.2856367  18.70  0.002438241    1.480    0.324
        73 -11.0147    249.8304      1.6071   1.7655900112e+01   2.3300814626e+01    0.1737529    0.1450209 -74.50 0.0003592203    1.219    0.179
        74  -8.5925    245.3203      3.6598   1.8312029114e+01   2.3981996142e+01    0.1282968   0.06266618 -51.46 0.0007050043    1.716    0.417
        75  -8.5962    142.8523      3.1433   2.6021183063e+01   4.8302755713e+01    0.1926103    0.1552459  49.95 0.0002782715    1.269    0.212
        76 -10.0127    135.0110      2.0985   2.6648494918e+01   5.0533904716e+01     0.402405    0.2519441 -86.52  0.001872753    1.657    0.397
        77 -10.5595     92.2165      2.4800   3.4849361804e+01   6.2163964007e+01    0.4964832    0.2611953  83.62  0.001936736    2.484    0.597
        78 -10.4296    115.6692      1.9295   2.9578148961e+01   5.5865769777e+01    0.2583852    0.1929111  67.87 0.0003087371    1.205    0.170
        79  -8.5656     50.7594      2.4130   5.0629350425e+01   7.2189073269e+01    0.1952398    0.1158041  38.89 0.0006482862    1.575    0.365
        80  -9.7401      5.0074      1.7826   8.9365688166e+01   7.8740498684e+01    0.2634113    0.1507579 -16.21  0.001197018    1.734    0.423
        81 -10.2525     30.7644      2.8402   6.4494755196e+01   7.5795698237e+01    0.2988867    0.2012333 -50.20  0.001126079    1.765    0.433
        82  -8.6151     22.7083      1.3287   7.0438728493e+01   7.7207617611e+01    0.1166595    0.1052046  73.14 0.0007019168    1.624    0.384
        83 -11.0290     21.4320    110.0991   1.0115587156e+02   5.0896081451e+01    0.6059667    0.3531257  84.95  0.002964931    1.729    0.422
        84 -10.0481    201.3882    249.5202   7.2873716679e+01   1.9664293332e+00    0.2127638    0.1355204  10.38 0.0007069658    1.156    0.135
        85 -10.5532    115.9504    248.3837   8.8820388941e+01   1.2066223848e+01    0.2457279    0.1951655  39.93  0.001511411    1.261    0.207
        86  -9.8169      5.7668    110.1889   1.0701155651e+02   5.1818289435e+01    0.3947285     0.222295  38.23  0.002058807    1.690    0.408
        87  -9.7075     13.6832    113.1659   1.0429275447e+02   5.0632951562e+01    0.2326677    0.2174748 -74.40 0.0006278349    1.106    0.096
        88 -10.5000      5.4748    116.4956   1.0744708550e+02   5.0259793064e+01    0.4536158    0.2949167 -18.23  0.001198715    1.919    0.479
        89 -10.0218     10.2625    115.1747   1.0566805688e+02   5.0330377921e+01    0.6061308    0.2228846  63.15  0.002373653    2.895    0.655
        90  -9.9458    221.3665    119.4035   4.7289021966e+01   1.5137546243e+01    0.2962728    0.2090214  30.67 0.0006968616    1.447    0.309
        91 -10.4993     45.2125    119.5045   9.3452758895e+01   4.6360285815e+01    0.3446244    0.2449696  35.36 0.0009830934    1.335    0.251
        92  -9.1551     94.0621    119.0933   7.6630539299e+01   3.9515228225e+01    0.2349344     0.197739  -3.40 0.0008758526    1.379    0.275
        93  -8.8033    104.1797    115.1514   7.2595052702e+01   3.8602694282e+01    0.2213269    0.1994028   8.41 0.0003623868    1.168    0.144
        94  -8.6725     83.8145    115.1087   7.9155122329e+01   4.2177616345e+01    0.2439759    0.2024451  13.03 0.0004055574    1.317    0.241
        95  -9.3983     46.5377    114.0137   9.2207432438e+01   4.7603453691e+01    0.2524621    0.1999409  -5.10 0.0005767639    1.499    0.333
        96  -9.1947     33.7749    114.3821   9.6982670997e+01   4.8798033443e+01    0.2178743    0.1790304  67.99 0.0006284598    1.175    0.149
        97  -9.4994     31.4940    111.4995   9.7501069133e+01   4.9736886562e+01    0.2891751    0.2219079  35.84  0.001596628    1.271    0.213
        98  -8.2924     61.6581    113.3270   8.6560862343e+01   4.5923982920e+01    0.1581725    0.1030671  60.77 0.0007051235    1.738    0.425
        99  -8.1486     56.3223    112.6850   8.8395414596e+01   4.6779723470e+01    0.1539846    0.1018951  60.28 0.0007041221    1.660    0.398
       100  -9.1721     53.4732    112.5204   8.9416903887e+01   4.7174712149e+01    0.1397125    0.1369622  63.78 8.044892e-05    1.039    0.038
       101 -10.8918     31.8731    106.4671   9.6754551879e+01   5.0993554200e+01    0.4842454    0.3651233  -4.00  0.001778108    1.562    0.360
       102  -8.9510     36.7355    110.3064   9.5371244435e+01   4.9561726636e+01    0.2169632    0.1526777  46.69 0.0002520601    1.377    0.274
       103  -9.8333     37.2285    106.7682   9.4712116374e+01   5.0421451508e+01    0.3091037    0.1774672 -57.00 0.0007427857    1.708    0.415
       104  -9.2203     91.8083    106.7569   7.4637343836e+01   4.2784305921e+01    0.3034964    0.1972329 -40.81  0.001006849    1.700    0.412
       105  -8.5772    141.5218    103.4806   5.9225388226e+01   3.3497942419e+01    0.1500995    0.1435898  26.93 0.0001469144    1.028    0.027
       106  -9.2389    100.6320     98.3770   6.9653174536e+01   4.3063206049e+01    0.4075512     0.305831 -63.10 0.0009769544    1.525    0.344
       107  -9.3419    100.7608    103.0182   7.0790763765e+01   4.1987918291e+01    0.3607707    0.2632429  11.60  0.001614646    1.736    0.424
       108  -9.5965    105.7289    100.0005   6.8437031531e+01   4.1696200171e+01    0.3091208    0.2120168  24.08  0.000534001    1.658    0.397
       109 -10.5625     70.7958    102.0318   8.0995311233e+01   4.7424330852e+01    0.3641103    0.2707765 -55.90 0.0008302759    1.370    0.270
       110  -9.7731     44.6075     99.8076   9.0739446944e+01   5.1449275205e+01    0.3862489    0.1958853  23.40 0.0007643746    2.024    0.506
       111  -9.2171    135.1449    109.1627   6.2308629398e+01   3.3733819510e+01    0.2015655    0.1828961  76.94 0.0004673924    1.298    0.230
       112 -10.9416     50.7298    100.4311   8.8402159950e+01   5.0582157850e+01    0.5126175    0.3381836 -53.09  0.002478867    1.521    0.342
       113  -7.9450      1.2996    102.3462   1.0828001112e+02   5.3988236643e+01    0.1346415    0.0836674 -50.40 0.0007036878    1.681    0.405
       114  -9.8555     56.8760    101.0543   8.6101138256e+01   4.9649567081e+01    0.2874653    0.2313166 -33.75  0.001093101    1.384    0.277
       115  -8.8194     36.7864    100.0333   9.3932760412e+01   5.2199633548e+01    0.2406657    0.1338228 -45.13  0.001070014    1.947    0.486
       116  -8.9679     23.0616    100.0634   9.9499888365e+01   5.3354140073e+01    0.2190833    0.1398246  56.56 0.0004003779    1.588    0.370
       117 -11.6113    117.6638     98.0136   6.4271751364e+01   3.9686554628e+01    0.2867976    0.2596413  29.26 0.0003189848    1.072    0.067
       118  -8.7626     16.4984     98.9071   1.0203893661e+02   5.4095148328e+01     0.203103    0.1218254 -77.20  0.001015709    1.545    0.353
       119  -9.3298      4.8886     98.0022   1.0663744337e+02   5.4937740049e+01    0.5950769    0.1535841  16.75  0.002155738    3.767    0.735
       120 -10.4542      2.6067     92.5808   1.0723141854e+02   5.6410447752e+01     0.553029    0.2303827  55.40   0.00128175    2.434    0.589
       121  -9.8640      2.7242     85.5708   1.0673814712e+02   5.8195722447e+01    0.3639745    0.2053489 -74.49  0.001684054    1.575    0.365
       122  -9.6698      3.7318     79.0555   1.0581902566e+02   5.9830338375e+01    0.4704627    0.1640222 -56.97  0.001476193    2.522    0.604
       123 -10.3595    124.4186     96.5476   6.1932074095e+01   3.8556687896e+01    0.4926072    0.3045926  58.78   0.00198553    1.961    0.490
       124  -8.4012    154.3309     96.3300   5.4274274042e+01   3.2038783704e+01    0.1566955    0.1147602  10.78 0.0005276076    1.717    0.418
       125  -9.9371    140.9344     95.9196   5.7368380178e+01   3.5074168349e+01    0.2787509    0.2389221 -52.12  0.001430695    1.276    0.216
       126  -9.4132     85.3254     95.2181   7.4079279234e+01   4.6661937108e+01    0.3994009      0.26893 -87.93  0.001115348    2.309    0.567
       127  -8.8664     80.6249     95.2166   7.5781785306e+01   4.7487409465e+01     0.347253    0.1991419  42.71 0.0009118002    1.699    0.411
       128 -11.1297     31.7374     92.6477   9.4938207538e+01   5.4579182136e+01    0.4276397    0.3881722 -39.72  0.001031247    1.155    0.135
       129  -9.4773     19.5304     81.5168   9.8790439019e+01   5.8408493150e+01    0.4141123    0.1973541  43.71  0.001641189    2.171    0.539
       130 -10.2144     23.3535     92.9446   9.8549318396e+01   5.5175903776e+01     0.534097    0.2510129  88.34   0.00219102    2.405    0.584
       131 -10.9445     26.7854     86.7472   9.6227873970e+01   5.6526389482e+01    0.6840698    0.4090375 -33.65   0.00321422    1.931    0.482
       132  -9.8497     13.2042     94.7786   1.0301051496e+02   5.5352003805e+01    0.3691842    0.2524043 -84.26  0.001359929    1.358    0.264
       133  -9.5852     18.2175     90.8911   1.0050519636e+02   5.6058487216e+01    0.2412069    0.1875703   8.02 0.0004121618    1.417    0.295
       134 -10.2869     47.4088     92.2596   8.8236244566e+01   5.3071581315e+01    0.3679175     0.282412  83.82  0.001353309    1.432    0.302
       135  -9.8177    134.0009     92.0786   5.8091923188e+01   3.7352292167e+01    0.4819957    0.2632413  27.83  0.001621593    2.575    0.612
       136  -9.4916     59.1476     92.2885   8.3398714322e+01   5.1561112616e+01    0.2634517    0.1983878 -60.88 0.0001889877    1.328    0.247
       137  -8.2284     62.3111     91.6536   8.1979126802e+01   5.1272513213e+01    0.2224409    0.1393062  46.20 0.0005698889    1.636    0.389
       138  -9.3031    108.7460     90.8168   6.5009214785e+01   4.3095562026e+01    0.6076368    0.3144738  23.04  0.001903114    3.478    0.712
       139  -8.6136    104.2404     90.4133   6.6332732815e+01   4.4117239981e+01    0.2019276    0.1434361  50.81 0.0001873253    1.434    0.303
       140  -8.8164     71.8900     91.6506   7.8195367904e+01   4.9808710243e+01    0.2207674    0.1890681  39.51  0.001142648    1.139    0.122
       141  -9.4158     44.5743     88.2022   8.8658012678e+01   5.4441140070e+01    0.2602969     0.179324 -37.88 0.0008429071    1.594    0.373
       142  -9.5360     39.7468     88.7627   9.0853628814e+01   5.4819694766e+01     0.421299    0.1722743 -58.05   0.00166825    2.224    0.550
       143  -9.3078    116.5503     89.6531   6.2292666862e+01   4.1682022431e+01    0.2557176    0.1951388  34.22 0.0008259704    1.307    0.235
       144 -10.3968     86.2184     89.4176   7.2243179802e+01   4.7865975952e+01    0.5406357    0.3757608 -28.45  0.001956635    1.782    0.439
       145  -9.0587     87.0173     83.9158   7.0427513081e+01   4.8995997301e+01    0.2093505    0.2028594  44.83 0.0005218685    1.025    0.024
       146 -10.0844     97.6295     88.8197   6.8075963830e+01   4.5810022092e+01    0.3363456    0.2443975  47.86 0.0009610284    1.366    0.268
       147 -10.2028     65.3667     86.1798   7.9440697646e+01   5.2180833625e+01    0.4401683    0.3834901   0.18  0.002319062    1.263    0.208
       148  -9.4255     15.0733     86.8640   1.0143694661e+02   5.7291857988e+01    0.4180761    0.1557006 -48.20  0.001641563    2.712    0.631
       149  -9.2678    117.4488     83.4327   6.0213456270e+01   4.2771313010e+01    0.2845728    0.2445342  84.73 0.0007431891    1.402    0.287
       150 -11.3892    123.9225     85.4154   5.8929435186e+01   4.0923587989e+01    0.8427456    0.3637535  46.86 0.0005942895    2.240    0.554
       151  -9.6917    120.5757     83.4789   5.9312755853e+01   4.2063652894e+01    0.2781326    0.2269891 -34.57 0.0005205549    1.282    0.220
       152  -9.0569     57.9737     87.1883   8.2737726317e+01   5.3009419360e+01    0.2189025    0.1840575  57.90  0.000328605    1.248    0.199
       153  -9.6175    150.1768     80.2125   5.0733510650e+01   3.5845473177e+01    0.3095809      0.26179  82.19 0.0009914307    1.410    0.291
       154 -10.8150    155.2227     85.0144   5.0975921163e+01   3.3838776047e+01    0.2759059    0.2606462  16.63 0.0002831184    1.044    0.042
       155 -10.9740    155.6485     79.2083   4.9229725832e+01   3.4738597515e+01    0.5250532     0.361075  27.65  0.001454765    1.732    0.423
       156  -9.6180    110.6816     85.3803   6.2843720973e+01   4.3848103483e+01    0.3024684    0.2551417  44.65  0.001075428    1.144    0.126
       157 -11.0483     79.8757     83.3914   7.2954821794e+01   5.0438477986e+01    0.6574708    0.3482394  27.72 0.0009469365    2.149    0.535
       158 -10.9633     73.1817     80.3796   7.4740794703e+01   5.2328427145e+01    0.7519474    0.3885993 -34.55  0.001899688    2.653    0.623
       159  -9.8387    143.0438     83.9771   5.3500437384e+01   3.6830846578e+01    0.2999325      0.20942 -38.62  0.001389463    1.461    0.316
       160 -10.8786     38.9966     81.5727   8.9835565083e+01   5.6755159532e+01    0.3195951    0.3005196 -45.94 0.0005737866    1.065    0.061
       161  -8.1868    218.3824     83.5023   3.9576246255e+01   2.0489646053e+01    0.1297032    0.1118705 -21.93 -0.0002105639    1.031    0.030
       162  -9.3027     92.3249     79.9137   6.7335803735e+01   4.8870375050e+01    0.3442779    0.2712723   5.03  0.001299787    1.574    0.365
       163  -9.2125     60.0462     82.6475   8.0778219140e+01   5.3852490924e+01    0.2894378    0.2457099  47.72  0.001522919    1.196    0.164
       164 -10.3234     45.4020     69.2997   8.4051810895e+01   5.9163075765e+01    0.5958134    0.2831054  37.57  0.000757624    2.096    0.523
       165 -10.5153     47.5570     63.9944   8.1561682172e+01   6.0212108349e+01    0.7717102    0.3816519  59.12  0.002589857    3.628    0.724
       166 -12.6594     53.1105     75.1734   8.1938271904e+01   5.6694677663e+01    0.3541409    0.3209067 -29.59 0.0004587345    1.134    0.118
       167  -8.6853    106.3456     79.8180   6.2549552122e+01   4.5962650370e+01    0.2245326    0.1437345 -33.69 0.0007229665    1.762    0.433
       168 -11.5444    167.3119     77.4427   4.6326222325e+01   3.2313927290e+01    0.5197394    0.3532917  -1.47  0.002292818    2.033    0.508
       169 -10.4047    165.4704     71.4549   4.4974923077e+01   3.3698171597e+01    0.3687143    0.2190404 -48.96 0.0008762201    1.863    0.463
       170 -11.1362     53.4429     70.5608   8.0561911052e+01   5.7796069306e+01     0.582804    0.4337792 -58.09  0.001343852    1.329    0.248
       171  -9.0241    177.2850     78.3484   4.4701494191e+01   2.9888410158e+01    0.1471391    0.1095019  11.02 0.0002478058    1.653    0.395
       172  -8.7813    111.3568     77.6789   6.0305626065e+01   4.5308232221e+01    0.2519934     0.193071  60.42 0.0006439787    1.427    0.299
       173  -9.2185    109.3414     73.8396   5.9721838390e+01   4.6546115373e+01    0.3797563    0.2800651 -82.99  0.001615016    2.023    0.506
       174  -8.9927     12.8986     77.8839   1.0143913625e+02   5.9737372172e+01    0.2007296    0.1550722 -52.53 0.0002996341    1.248    0.199
       175  -9.2165    144.9361     76.1803   5.0751867742e+01   3.7788882786e+01    0.3527075    0.2075528 -22.75  0.001412745    2.123    0.529
       176 -10.4319    134.0737     76.2088   5.3425950149e+01   4.0357593781e+01    0.3902336    0.2371103  65.31  0.001121187    2.092    0.522
       177  -9.7953     74.9037     66.0910   6.9688398748e+01   5.5365900786e+01    0.3367995    0.2180205  33.00 0.0008443359    1.559    0.359
       178  -9.8829     77.2399     61.8933   6.7294347162e+01   5.5865452998e+01    0.4603215    0.3698533   4.33  0.001932539    1.473    0.321
       179  -9.6729     94.3565     71.7208   6.4049623289e+01   5.0255426275e+01    0.4307002    0.3871784 -83.16  0.001079013    1.276    0.216
       180 -10.7235     88.3953     74.2670   6.7027897891e+01   5.0919598556e+01    0.6006259    0.4127887 -28.12 0.0008902953    1.770    0.435
       181 -11.0456     87.5102     67.8747   6.5285693131e+01   5.2509010374e+01     0.716248    0.3755706  37.33  0.001041819    1.921    0.480
       182  -9.6529     83.5265     65.4241   6.5986462825e+01   5.3850824247e+01    0.2614515    0.2373202 -37.28 5.332808e-05    1.128    0.114
       183  -9.7589     82.3103     62.3043   6.5387301500e+01   5.4775292924e+01    0.3343824    0.2502462 -16.62  0.001003315    1.678    0.404
       184 -10.0278     64.0026     74.7915   7.6999189839e+01   5.5187402465e+01    0.4002267    0.2644698  58.84  0.001753312    1.882    0.469
       185 -10.3343     29.0622     74.8376   9.3230297436e+01   5.9433641008e+01    0.3318282    0.2491761 -45.67 0.0008993745    1.314    0.239
       186  -8.6778     21.5354     76.5353   9.7147253926e+01   5.9569235758e+01    0.1809714    0.1228792  32.99 0.0009345656    1.515    0.340
       187  -9.5989     18.8338     72.9946   9.7936263088e+01   6.0665869527e+01    0.3437539    0.2769775 -69.67  0.001762645    1.146    0.128
       188  -9.6562    174.5363     75.4410   4.4400966740e+01   3.0963124541e+01    0.2257455     0.213439 -22.22 0.0004845665    1.030    0.029
       189 -10.2029    177.1401     71.9151   4.2953590604e+01   3.0901982347e+01    0.2455676    0.2118143  74.79 0.0002996599    1.284    0.221
       190 -10.0750    173.5054     68.9752   4.2769837000e+01   3.2189616396e+01    0.2687134    0.2363318  72.23 0.0003941223    1.221    0.181
       191  -8.7354    141.5020     75.4768   5.1355406487e+01   3.8729660052e+01     0.151522    0.1476351  35.93  1.40265e-05    1.007    0.007
       192  -9.6700    100.0128     75.7182   6.3367578876e+01   4.8197687608e+01     0.328712     0.217368 -44.01  0.000972593    1.566    0.361
       193  -8.1742     37.6399     75.7307   8.9282198791e+01   5.8399843328e+01    0.1473614    0.1021452 -27.92 0.0005092655    1.646    0.392
       194  -8.5549    151.6014     73.1827   4.8342082344e+01   3.6717635575e+01    0.2123216    0.1445669 -19.76 0.0009398715    1.712    0.416
       195 -10.1635    117.4631     70.0323   5.6021299057e+01   4.5440674908e+01    0.6463165    0.4466912  14.13  0.001960276    2.098    0.523
       196  -8.9190    136.5179     72.0522   5.1521679887e+01   4.0533902100e+01    0.2249378     0.152758 -35.39 0.0004742528    1.517    0.341
       197  -8.6716    185.6550     70.9776   4.1254188762e+01   2.9098317180e+01    0.2461433   0.08162737 -48.12 0.0007050092    4.417    0.774
       198 -10.4571    157.1938     69.0764   4.5924945989e+01   3.6054069772e+01    0.4573994    0.2352657 -33.11  0.001863413    1.961    0.490
       199  -9.4309    145.8461     69.9403   4.8643953463e+01   3.8653519435e+01    0.3056304    0.2250333 -45.87  0.001451655    1.417    0.294
       200 -10.4965    140.6762     68.6126   4.9432760256e+01   4.0136604654e+01    0.3903737    0.2907839 -35.83  0.001363909    1.370    0.270
       201  -9.4184    143.3221     65.6340   4.7875575148e+01   3.9999833574e+01    0.3139113    0.1910859 -58.63 0.0008273499    2.198    0.545
       202 -10.1847     30.1204     68.9075   9.1561680136e+01   6.0872154565e+01    0.5236479    0.3585929  89.24  0.002603633    1.635    0.388
       203 -11.2026     25.0009     67.7435   9.3949133368e+01   6.1593859866e+01    0.4248216    0.3383307 -46.11 0.0004526434    1.213    0.175
       204 -10.4720     22.8451     63.7816   9.4329678370e+01   6.2774064404e+01     0.367451    0.2454123 -31.90 0.0009766623    1.585    0.369
       205 -10.1127    218.7795     69.8685   3.6241924377e+01   2.2175782966e+01    0.1997041    0.1892322 -36.22 0.0002950939    1.080    0.074
       206  -9.1972    102.1951     69.9420   6.0765987429e+01   4.8940223678e+01    0.2932797    0.2206282 -20.06  0.001271938    1.612    0.380
       207 -10.6531     15.2913     64.9011   9.8529491812e+01   6.2968025484e+01    0.7774726    0.3708041 -18.79  0.003251793    2.654    0.623
       208 -10.4301     36.0252     53.2136   8.4546851485e+01   6.4251755110e+01    0.6246386    0.4677728 -36.44  0.002941976    1.329    0.247
       209 -11.5934      8.2774     51.8473   1.0045169266e+02   6.6639907922e+01    0.8070871    0.6334354  19.70   0.00332297    1.391    0.281
       210 -11.5461      2.4082     66.1549   1.0538133543e+02   6.3181482821e+01    0.3821291    0.2654186 -73.20    0.0011912    1.273    0.214
       211 -11.2683      5.1562     60.7930   1.0339651585e+02   6.4470008510e+01    0.5930808    0.3574038  25.13  0.002143012    1.786    0.440
       212 -10.6237     19.7649     55.5223   9.4402675154e+01   6.5099053427e+01    0.3885558    0.2796315  71.00  0.000250049    1.599    0.375
       213 -11.4750     24.8282     55.1117   9.1410411103e+01   6.4833032041e+01    0.4822111    0.3081517 -70.71  0.001286906    1.521    0.343
       214  -9.5450     28.4257     52.1994   8.8614135398e+01   6.5259356941e+01    0.1938644    0.1847243  17.41 0.0006020315    1.105    0.095
       215  -9.1755     36.6946     67.5680   8.7940375689e+01   6.0585125485e+01     0.272284    0.1943212  57.46 0.0007982089    1.603    0.376
       216  -9.1348    215.0737     66.0053   3.5754363247e+01   2.3417920019e+01     0.187998     0.169444 -25.52 0.0002847833    1.024    0.023
       217  -9.4007    136.4987     56.4545   4.6460551131e+01   4.3226120431e+01    0.3063413    0.2247603 -15.45 0.0008882673    1.615    0.381
       218  -9.7474    142.4225     58.8175   4.5885824185e+01   4.1352680790e+01    0.3315576    0.1981296  43.08   0.00140411    1.731    0.422
       219  -9.1149    139.2585     59.4425   4.6812512972e+01   4.2041393283e+01    0.2570602    0.1945151  61.39 0.0002417958    1.333    0.250
       220 -11.2617    134.0202     64.0091   4.9570576927e+01   4.2564552136e+01    0.6572697    0.4706827 -45.76  0.002048617    1.466    0.318
       221 -10.3796    127.7487     57.7555   4.9055331110e+01   4.5199606744e+01    0.6783826    0.3281691  66.05  0.002301085    2.821    0.645
       222 -10.1213     97.7270     64.1694   6.0325331151e+01   5.1117413300e+01    0.2627253    0.2496822  32.15 0.0002439048    1.019    0.019
       223  -9.0196    147.5458     63.9821   4.6407608420e+01   3.9236094209e+01    0.2241269    0.1492188 -32.54 0.0005852387    1.537    0.349
       224  -9.8442     65.2523     62.1780   7.2577615614e+01   5.7982056580e+01    0.5159236    0.2655316  27.32  0.002013529    2.197    0.545
       225  -9.3873     71.2826     60.4661   6.9321143068e+01   5.7306107313e+01    0.3220197    0.2525782  46.67  0.001012922    1.302    0.232
       226  -8.3248    228.7319     62.3187   3.3261494588e+01   2.1139343121e+01    0.1274925   0.08384787 -50.51 0.0002045708    1.558    0.358
       227 -10.2845    167.1115     61.5287   4.1754002374e+01   3.4831116894e+01    0.4007286    0.2541482 -58.12  0.001761396    1.939    0.484
       228 -10.3506    161.4969     60.7835   4.2570557450e+01   3.6310368622e+01    0.4153946    0.2628126  50.88 0.0006873183    1.565    0.361
       229 -10.6131    155.4256     60.5776   4.3690781195e+01   3.7835619158e+01    0.4848113    0.3047834  60.01  0.002130886    1.609    0.379
       230 -10.1671    102.2649     60.2460   5.7402896606e+01   5.0881287014e+01    0.4885371    0.3549463 -33.45  0.002259541    1.468    0.319
       231 -10.0730     53.8286     60.7723   7.7500463787e+01   6.0127226734e+01    0.3912533    0.2815129 -86.68  0.001029147    1.887    0.470
       232 -12.0099     56.3658     56.7756   7.4948860032e+01   6.0690520208e+01    0.4505775    0.3354147  58.02 0.0002544317    1.614    0.381
       233 -10.6686     51.6687     82.4296   8.4343915961e+01   5.5057960015e+01    0.4196778    0.3108948 -58.95  0.000783978    1.323    0.244
       234  -9.3008    193.9337     59.8960   3.6984177706e+01   2.8772303956e+01      0.21343    0.1857977 -48.48 0.0007165042    1.127    0.113
       235  -8.7029    176.1424     61.0910   4.0056366861e+01   3.2729950319e+01     0.204562    0.1581215 -50.39   0.00105291    1.333    0.250
       236  -8.8297     94.6985     59.0389   5.9563456406e+01   5.2831734553e+01    0.2136791    0.2038016 -17.17 0.0005680975    1.079    0.073
       237  -8.6364    190.0212     56.7939   3.6694217304e+01   3.0078546101e+01    0.1838862     0.178285  75.14 0.0003468687    1.078    0.072
       238 -10.9448    225.8365     55.4111   3.1916795444e+01   2.2531807571e+01    0.2276422    0.2012026 -39.01 0.0002732517    1.035    0.034
       239 -10.8514    160.6143     54.5419   4.0815927458e+01   3.7461769798e+01    0.4814917    0.2615119  64.77  0.001702025    1.952    0.488
       240  -9.4594     92.5284     54.5132   5.8662459062e+01   5.4218744979e+01    0.3338404    0.2354117  39.05  0.001063366    1.395    0.283
       241  -9.6202     95.4988     52.5017   5.6838370679e+01   5.3938483048e+01    0.4640465    0.3319626  72.25    0.0020223    1.856    0.461
       242  -8.8470     57.0406    249.0137   1.0087121933e+02   1.8480935067e+01    0.1272225   0.08800375  37.46            0    1.014    0.014
       243 -11.0802     79.8402     43.9913   5.9341245287e+01   5.9064528645e+01    0.8236201    0.5965802   5.42  0.003683713    1.865    0.464
       244 -11.2057     75.4779     35.3559   5.7361338105e+01   6.1634118012e+01     0.590115    0.5187587   7.84  0.001003167    1.181    0.153
       245  -9.9762     80.8775     32.5106   5.3822385498e+01   6.0939160256e+01    0.5739137    0.3805549 -67.54  0.002346704    2.458    0.593
       246 -11.2916     69.6933     49.9896   6.6155882712e+01   5.9900955288e+01    0.7121415    0.6044546 -64.14  0.003691214    1.348    0.258
       247 -12.8326     61.6025     44.3726   6.7715050984e+01   6.2595576148e+01    0.5104009    0.3517693  38.80 0.0004125735    1.431    0.301
       248  -9.3298     46.1855     42.3573   7.5075947085e+01   6.5540154654e+01    0.3088539    0.1976601 -27.32  0.001407836    1.829    0.453
       249 -10.2496     43.7902     53.9031   8.0480701547e+01   6.3162155231e+01    0.5226499    0.3311749 -87.19  0.002208875    2.407    0.584
       250  -9.9347     46.7507     47.0465   7.6529032027e+01   6.4385683067e+01    0.3916563    0.2614297   3.22 0.0009574309    1.886    0.470
       251  -8.4784    212.0104     54.0071   3.3104818330e+01   2.5556915806e+01    0.1512785     0.146545 -68.58  0.000667226    1.095    0.087
       252 -10.2555    145.7884     52.1851   4.2970040428e+01   4.1550643042e+01    0.3624637    0.2244307 -45.43  0.001285034    1.690    0.408
       253  -9.9504    142.1238     48.8344   4.2617317256e+01   4.2997917317e+01    0.3314668    0.2728151 -67.11  0.000668306    1.351    0.260
       254  -9.1321    106.0221     53.9582   5.3889140596e+01   5.1199021973e+01    0.2464319    0.1889559  10.28 0.0007102394    1.658    0.397
       255 -10.3922    193.1772     52.3084   3.5018233830e+01   2.9941969557e+01    0.3109559    0.2728961  -9.23  0.001029341    1.205    0.170
       256 -10.8002    182.2049     51.7230   3.6403503423e+01   3.2586296671e+01    0.5045856    0.3178832  73.59 0.0002384723    1.792    0.442
       257  -9.6138     61.3449     52.1756   7.0889388132e+01   6.0931832811e+01    0.2585375    0.2262115  33.14 0.0005107198    1.132    0.117
       258  -9.7407    122.7990     51.2968   4.8064576670e+01   4.7537505796e+01      0.32258    0.2200201 -22.98    0.0014265    1.682    0.406
       259  -9.5518    175.4981     49.2249   3.6686245121e+01   3.4537349602e+01    0.4249479    0.2408503  -7.15  0.001517977    2.660    0.624
       260 -10.8016    136.4799     49.4295   4.4060501817e+01   4.4355192674e+01    0.3755811    0.2791715  68.23  0.001783349    1.395    0.283
       261  -9.0896    228.1235     49.3452   3.0218269063e+01   2.2778169400e+01    0.2330377    0.1288062 -40.67 0.0006515043    1.574    0.365
       262  -8.5948    161.2882     50.3268   3.9376761100e+01   3.7903185777e+01    0.1486902    0.1123129  22.56 0.0002241674    1.612    0.380
       263 -10.6038    114.7589     45.6498   4.8142696248e+01   5.0507214201e+01     0.913161    0.2367642  52.59  0.002633259    3.474    0.712
       264 -10.6471    128.0509     48.2049   4.5612888064e+01   4.6709234950e+01    0.4075308     0.344594 -42.65 0.0004317373    1.227    0.185
       265  -9.5425    125.4840     44.5116   4.4895494853e+01   4.7952666820e+01    0.4134588     0.231905  45.20   0.00137621    1.786    0.440
       266 -10.0859     86.5236     49.0736   5.8781351636e+01   5.6620650117e+01    0.5729918    0.2991596  41.76  0.002201973    1.874    0.466
       267  -9.0785     56.7524     50.0638   7.2367989555e+01   6.2173437536e+01    0.2130765    0.1951933  78.49   0.00057937    1.274    0.215
       268 -10.5003    153.9042     47.6951   3.9883219300e+01   4.0148114702e+01    0.3529408    0.3438078  22.44 0.0009543956    1.071    0.066
       269  -9.4003     32.1889     47.4939   8.5061594898e+01   6.6057596384e+01    0.2167295    0.2111701 -54.46  0.001316071    1.074    0.069
       270  -8.7885     21.8323     45.6208   9.0876680331e+01   6.7440305213e+01    0.5310048    0.3135008  48.86  0.002061634    2.025    0.506
       271  -9.8521     17.1437     46.5003   9.4030666450e+01   6.7543717139e+01    0.3457595    0.2318873 -85.82  0.001421198    1.615    0.381
       272 -10.7696     13.7310     38.5691   9.4397736248e+01   6.9714037395e+01    0.7382392    0.4859126 -80.61  0.003895052    1.585    0.369
       273  -9.3892      7.8709     40.1510   9.8706366294e+01   6.9597025989e+01    0.2508951    0.2131799 -73.48  0.001224232    1.125    0.111
       274 -10.7969      6.9162     35.8632   9.8514614438e+01   7.0695135213e+01    0.4415364    0.2831428 -12.48  0.001584823    1.638    0.390
       275  -9.6787      4.5553     32.0670   9.9441961808e+01   7.1707383317e+01    0.3578702    0.2132695 -57.97   0.00106976    1.420    0.296
       276 -11.0724      9.6779     31.6106   9.5560905073e+01   7.1622957174e+01    0.2837298    0.2281185  17.20 0.0001876922    1.345    0.256
       277  -9.7236    243.5976     45.6498   2.7939470622e+01   2.0193000917e+01    0.3758024    0.1940667  36.89  0.001823066    2.893    0.654
       278  -8.6458    235.1645     47.2043   2.9040323861e+01   2.1630694678e+01    0.1666113    0.1218405 -52.27 0.0004557693    1.320    0.243
       279  -9.3927    165.3346     46.0516   3.7344008070e+01   3.7482646730e+01    0.4937874    0.1874184  42.49  0.001594684    3.508    0.715
       280  -9.5385    145.8166     46.0548   4.0908853955e+01   4.2460935392e+01       0.2624    0.2373576 -39.55 0.0004539583    1.126    0.112
       281 -10.5304    143.7218     41.1781   3.9655008095e+01   4.3704740077e+01    0.3590922    0.2557406  70.53 0.0006584645    1.435    0.303
       282  -8.9367     38.3861     46.9309   8.1228382205e+01   6.5504697053e+01    0.2334621    0.1905019  40.54 0.0007633738    1.312    0.238
       283  -9.2143      3.5209     46.0812   1.0249696532e+02   6.8254336447e+01    0.3055106    0.1436811 -42.70 0.0004329579    1.956    0.489
       284  -9.2096    184.9783     44.0308   3.3795867368e+01   3.2922012686e+01    0.2086225    0.2031977  23.98 0.0006930949    1.103    0.094
       285 -10.9031    108.0492     41.9618   4.8627044302e+01   5.2804394446e+01    0.5727508    0.4707243  14.89  0.001946147    1.397    0.284
       286  -9.5759    102.8032     38.8555   4.8947760385e+01   5.4625300398e+01    0.5878778    0.2401925 -43.03  0.001912055    2.654    0.623
       287  -8.8692    200.7398     43.2289   3.1592313013e+01   2.9344092217e+01    0.2259486    0.1559947  32.36  0.001142359    1.807    0.447
       288  -9.4149    203.8928     39.5419   3.0245670702e+01   2.9066253060e+01    0.2484736    0.1804861 -31.51 0.0004325312    1.272    0.214
       289  -8.1385     99.7105     43.6858   5.1921298984e+01   5.4565050807e+01    0.1550674    0.1185762  16.21 0.0003349498    1.589    0.371
       290  -9.9015     91.0317     41.5325   5.4005710285e+01   5.7009540421e+01    0.4459575    0.3188936  66.32  0.001069111    1.647    0.393
       291  -8.7901     87.0846     43.1710   5.6149753543e+01   5.7619677173e+01    0.2142913    0.1870471  42.68 0.0004373415    1.096    0.088
       292  -9.5633     94.3811     30.3878   4.7960885190e+01   5.8069113307e+01    0.3924588    0.2437954 -57.85  0.001612643    2.209    0.547
       293  -9.2355     93.7722     37.9703   5.1520875993e+01   5.6982157041e+01    0.2969929    0.2078679 -18.01 0.0005798356    1.715    0.417
       294 -10.6901     97.4904     35.0101   4.8997033190e+01   5.6567855477e+01    0.3466689    0.2538493  48.37 0.0003596073    1.285    0.222
       295  -9.9703     27.9172     42.7623   8.6228353797e+01   6.7626717148e+01     0.220065    0.1850669 -61.25 0.0002529952    1.166    0.142
       296  -8.7724     71.7700     42.2052   6.2028441704e+01   6.1100208632e+01    0.2096241    0.1716085  -0.20 0.0006097857    1.386    0.278
       297  -9.0877     35.0375     41.7085   8.1434981956e+01   6.7135793580e+01    0.2416949     0.145104 -21.34  0.001064787    2.082    0.520
       298  -8.4085      2.2603     42.4061   1.0277961265e+02   6.9208093758e+01    0.1617969    0.1158279  26.75 0.0005467372    1.560    0.359
       299 -10.6336    228.3350     39.5017   2.7820264796e+01   2.3836073193e+01    0.3441029    0.2477458 -11.09  0.001251507    1.517    0.341
       300  -8.9929    222.8785     40.6763   2.8608269012e+01   2.4826418105e+01    0.1687886    0.1532389 -58.10 0.0006112479    1.088    0.081
       301  -8.7034    165.4690     40.3089   3.5520047962e+01   3.8213406130e+01    0.2598999    0.1460483 -20.76 0.0009920283    1.997    0.499
       302 -10.1585     56.8448     35.8681   6.6465384602e+01   6.5223943822e+01    0.8268802    0.4899885 -73.65  0.002747861    4.165    0.760
       303 -10.4242     60.9745     34.4208   6.3665749378e+01   6.4758089331e+01    0.4230097    0.2418221 -42.33 0.0003586469    1.777    0.437
       304 -10.3493     53.1832     38.1865   6.9457911525e+01   6.5369695800e+01    0.4612884    0.3260621 -14.72  0.001381116    1.745    0.427
       305 -10.5131     50.5048     35.5668   6.9787816706e+01   6.6366206512e+01    0.5882977     0.473756  40.19  0.002002452    1.284    0.221
       306  -8.7469    213.8510     39.8753   2.9287130120e+01   2.6829609380e+01    0.1778953     0.131215 -51.09            0    1.280    0.219
       307  -9.5337    158.5969     39.1944   3.6277114516e+01   4.0115137089e+01    0.3096176    0.2219423  89.51  0.001480061    1.586    0.369
       308  -9.6939    127.6670     40.0637   4.2714905464e+01   4.8064422982e+01    0.5127221    0.2226591  66.37  0.001760804    2.656    0.623
       309  -9.0705    120.9970     38.9948   4.3925371522e+01   4.9962934569e+01    0.2853458    0.1969452 -85.73 0.0007801344    1.991    0.498
       310  -9.4119    237.8345     37.0821   2.6439364162e+01   2.2208058305e+01    0.3974332    0.2520343 -36.31  0.002372083    1.306    0.234
       311  -9.0679    242.1813     34.7739   2.5565015570e+01   2.1611046115e+01    0.1763556    0.1366675  13.36 0.0006410989    1.640    0.390
       312  -8.6300     40.2071     39.4816   7.7455160269e+01   6.7017448428e+01    0.1826519    0.1364146  22.70 0.0004054144    1.353    0.261
       313  -9.4366     25.4752     37.9715   8.6287443683e+01   6.9005242553e+01    0.4264297    0.1623397 -38.31  0.001563724    2.959    0.662
       314  -8.3622    148.7890     38.4048   3.7731874806e+01   4.2764626667e+01    0.2058632    0.1318253  53.44 0.0009322598    1.512    0.339
       315  -9.1090    118.9756     31.5597   4.1491005598e+01   5.1576440771e+01    0.3203538    0.2222978  19.69  0.001410703    1.868    0.465
       316 -10.3603    114.1231     35.4677   4.4303849499e+01   5.2278510675e+01    0.5917378    0.4941596  82.31  0.002986656    1.308    0.235
       317 -12.2291    107.9912     29.1345   4.3317126567e+01   5.4797814946e+01    0.5318835    0.4131874  28.97   0.00246829    1.405    0.288
       318  -9.4074    138.3161     36.6103   3.9122588562e+01   4.5760205214e+01    0.4356291    0.2225527  50.80  0.001768002    1.883    0.469
       319  -9.4390     86.2052     36.7148   5.3688081052e+01   5.8984943573e+01    0.2994506    0.2177704 -24.31 0.0008431205    1.524    0.344
       320  -9.3627     87.3325     33.3043   5.1734654040e+01   5.9304768755e+01    0.3060554    0.2349736  40.04  0.001508668    1.252    0.202
       321  -8.8939    192.9842    248.0142   7.4143509961e+01   3.0583081321e+00    0.1352395   0.09083919  16.12  0.001011162    1.006    0.006
       322  -9.7215    130.3123     34.4662   4.0013674808e+01   4.8172606660e+01    0.5622566    0.2757061 -46.62  0.002161902    2.279    0.561
       323  -9.9935    133.6181     29.8200   3.7569413882e+01   4.7917361036e+01    0.6527651     0.313727 -14.17  0.002301991    3.013    0.668
       324  -9.3125    162.9941    246.5194   7.9425371888e+01   6.7053712618e+00    0.1562481   0.07376826  14.24 -0.0001078502    2.357    0.576
       325  -8.5798    201.2344     35.5488   2.9458984993e+01   3.0129546580e+01    0.1741952    0.1206069  55.16 0.0004253203    1.546    0.353
       326  -9.1847     19.0283     34.3334   8.9553598898e+01   7.0405709180e+01    0.2774846    0.1705941 -41.65 0.0008310229    1.499    0.333
       327 -10.8147     18.3242     27.9209   8.7964064377e+01   7.1981816225e+01      0.40042    0.3360314 -74.77 0.0008567882    1.296    0.228
       328  -9.6137    226.9732     33.2294   2.6414831080e+01   2.4790134061e+01    0.1985627     0.172556 -88.09 0.0007468647    1.235    0.190
       329  -8.5717    223.0360     34.0000   2.6942062160e+01   2.5524544676e+01    0.2204681    0.1694395  85.63 0.0009473191    1.423    0.297
       330  -9.3094    145.7073     34.2196   3.6848125586e+01   4.4130642031e+01    0.3739036    0.1806219  54.06  0.001346791    1.951    0.488
       331 -10.8436    153.0447     32.0089   3.4807681536e+01   4.2482550049e+01    0.3066473    0.2497821  86.61   0.00160013    1.253    0.202
       332  -9.4423    159.0139     32.5200   3.4019529076e+01   4.0860233334e+01      0.30478    0.2097123  75.44  0.001202053    1.480    0.324
       333  -9.7120    177.9309     37.4473   3.2816178132e+01   3.5454741907e+01    0.3370011    0.2320964  69.71  0.000937768    1.473    0.321
       334 -10.3409    247.9346     30.2662   2.4125623716e+01   2.0983102629e+01     0.321373    0.1414654 -29.51  0.001674716    1.834    0.455
       335 -10.3110    233.7068     30.8287   2.5294158383e+01   2.3676138898e+01    0.3106594    0.2186417  48.43 0.0008507274    1.706    0.414
       336  -8.6470    190.0531     32.5518   2.9867566121e+01   3.3088256451e+01    0.1950318    0.1319133  74.04  0.001004097    1.528    0.346
       337 -11.1903    145.3607     29.1626   3.5125462113e+01   4.4868242099e+01    0.6959489    0.3041553  49.74 0.0008594811    2.277    0.561
       338  -9.4495     24.4948     31.4586   8.4707319840e+01   7.0634677204e+01    0.2325682    0.2170334  -2.33  0.001054139    1.090    0.083
       339 -10.0901    178.8162     29.4434   3.0295305807e+01   3.6185114108e+01    0.4005705    0.3382799  34.59  0.002063044    1.345    0.257
       340  -9.8872    125.4555     30.5696   3.9587536484e+01   4.9995513833e+01    0.2861138    0.2449784  26.55 0.0005907957    1.271    0.213
       341  -9.5385    161.4305     27.0469   3.1855169115e+01   4.0889465531e+01    0.3893634    0.2459469 -59.24  0.001796039    1.736    0.424
       342 -10.3683     26.2856     22.8796   7.9873165391e+01   7.2404665825e+01    0.2482849    0.2114628   7.74 0.0001722371    1.156    0.135
       343 -10.3181     32.7978     27.5225   7.7251016971e+01   7.0636108697e+01    0.5017633     0.347667 -84.77  0.002266337    2.286    0.563
       344 -10.4671     37.2282     26.3207   7.3666968139e+01   7.0320297299e+01    0.3077566    0.2448841  -8.72 0.0004099425    1.286    0.222
       345  -9.4832    211.8993     27.0710   2.6166229119e+01   2.8659611218e+01    0.2888119    0.1741937 -17.01  0.001485153    1.784    0.439
       346  -9.2493    188.6102     28.2161   2.8787529369e+01   3.3924301432e+01    0.3564308    0.1799018  78.23  0.001564054    2.186    0.543
       347  -9.0228      1.4646    244.0457   1.1180440944e+02   2.4216915631e+01    0.1312315   0.08437636  74.74 0.0004480754    1.539    0.350
       348 -10.4262     42.6455     15.5739   6.4260860368e+01   7.1623083220e+01    0.3631796    0.2188302  34.97 0.0008333675    1.614    0.380
       349  -9.7250     35.4817     18.3908   7.0799319266e+01   7.2199400518e+01     0.245183    0.2112362  -8.98 -0.0001082643    1.082    0.076
       350  -9.1188     38.4311     16.5004   6.7651865578e+01   7.2130473279e+01    0.2581756    0.2145099   2.95 0.0005408155    1.163    0.140
       351 -10.3297     48.2740     26.7703   6.6899305800e+01   6.8540420714e+01     0.408467    0.2821765  47.21  0.002033366    1.607    0.378
       352  -9.8832    244.9097    242.2341   6.4877487174e+01  -1.9222602813e+00     0.160566     0.101111   7.75 0.0007899257    1.032    0.031
       353  -8.7675    100.9549     25.8969   4.3882968569e+01   5.7076950101e+01     0.231745    0.1890096  32.47 0.0006508412    1.259    0.206
       354  -9.4122    145.9797    242.3250   8.2228451378e+01   9.2689266121e+00     0.169129    0.1092436  26.15 0.0006466986    1.106    0.095
       355 -10.4312      2.4058     24.7889   9.9565229646e+01   7.3535383543e+01    0.3440169    0.1849962 -62.47  0.001090339    1.562    0.360
       356 -10.0447    172.7742     23.2126   2.9127281901e+01   3.8402929539e+01    0.4294335    0.2954774  26.58 0.0007898879    1.878    0.467
       357 -11.2068     21.3933    119.1649   1.0196761828e+02   4.8603554502e+01    0.6009167    0.3356504  46.44  0.002991844    1.678    0.404
       358  -8.6837    206.6467    240.2781   7.0786138987e+01   2.3225886257e+00   0.09567194   0.06991576  32.65 0.0007009822    1.649    0.394
       359  -9.0546    124.1558     23.5205   3.7070176570e+01   5.1257377516e+01    0.3632309    0.2023663  83.60 0.0009235773    2.324    0.570
       360  -8.4014    189.6410    240.3229   7.3769009725e+01   4.2683193909e+00    0.1004103   0.07344769  39.02 0.0007043924    1.773    0.436
       361  -8.7263    109.4759     23.4718   4.0470321053e+01   5.5185517890e+01    0.2314353    0.2149944  77.49  0.000147039    1.085    0.078
       362  -8.9605    221.3307    237.3216   6.7929367903e+01   9.9250805737e-01    0.1114765   0.05913538   5.87 0.0005582887    1.696    0.410
       363  -9.4076    222.0027    233.7957   6.7334975457e+01   1.2674926307e+00    0.1584073    0.1504384 -33.80 0.0007159795    2.277    0.561
       364  -8.7120    168.3064    237.6474   7.7368936753e+01   7.1274793540e+00    0.1030921   0.07644547  42.99 0.0004776967    1.712    0.416
       365 -10.1566    188.1622    235.1792   7.3371186537e+01   5.0171328788e+00     0.174565    0.1137582  11.20 0.0006682053    1.206    0.170
       366 -10.1140    153.6766     22.9154   3.1598377833e+01   4.3401130596e+01    0.2966318    0.2451552  72.00 0.0003863311    1.156    0.135
       367  -8.6300    229.1136    233.6384   6.6158649871e+01   5.0699186986e-01    0.1537586   0.06898553  20.52 0.0009354532    1.799    0.444
       368  -8.7833    230.6620     22.6855   2.3577998695e+01   2.5117859077e+01    0.1172703   0.09004302  27.05 0.0007047274    1.697    0.411
       369 -10.0770    219.8491     20.8665   2.3928797004e+01   2.7564241987e+01    0.3043082    0.2322614  73.49  0.001282892    1.406    0.289
       370  -9.9816    217.0283     17.5139   2.3295253885e+01   2.8506185467e+01    0.3041318    0.2383213  12.26  0.001184873    1.626    0.385
       371  -9.0148     32.0545    232.2947   1.0531259970e+02   2.3589172307e+01    0.1557672     0.105998  39.83 0.0004413585    1.063    0.059
       372  -8.8157    178.0045    231.2265   7.4728052225e+01   6.7111353279e+00    0.1593716    0.0710569  29.99 0.0008872582    1.694    0.410
       373  -9.9125    187.9276    230.5788   7.2806164314e+01   5.5719486588e+00    0.3219613   0.08376011  32.36  0.001406098    2.977    0.664
       374  -9.2309    188.3755     21.4974   2.6873319612e+01   3.4707545233e+01    0.2341574      0.20748 -22.65 0.0006986191    1.187    0.157
       375  -8.4959     17.9342     22.0581   8.6077214764e+01   7.3369818723e+01    0.1496966    0.1335303 -29.42            0    1.016    0.016
       376  -8.7042    163.3106    226.6762   7.6958193479e+01   9.1250983874e+00    0.1074564   0.07945764  43.74 0.0004858318    1.654    0.395
       377  -8.8319    223.9859    225.0150   6.5769927193e+01   1.9319793609e+00    0.1664256    0.1122476   9.43 0.0005649943    1.030    0.029
       378  -8.7178    132.1482    225.1728   8.3115629729e+01   1.3350530835e+01    0.1542826    0.1163128  39.69 0.0004086046    1.291    0.225
       379  -8.2869    125.4892    225.5070   8.4560259853e+01   1.4158026203e+01    0.1215476   0.09073325  28.13 9.257961e-05    1.018    0.018
       380  -9.4632     89.3987    220.7333   9.1981530605e+01   1.9435211314e+01    0.2233123     0.174859  17.40 0.0008895668    1.260    0.207
       381  -8.5738    207.2188    226.5877   6.8823290449e+01   3.7059519257e+00    0.1543159     0.077868  21.12 0.0005644921    1.575    0.365
       382  -8.4497    117.9991    212.0065   8.4667013651e+01   1.7231960431e+01    0.1561106    0.1128133  29.53 0.0004197473    1.073    0.068
       383  -9.0999    199.8056     19.3264   2.5173407428e+01   3.2210589860e+01    0.2714131    0.1771781 -12.98  0.001412852    1.740    0.425
       384  -9.6041     78.2038     19.4903   4.8405278605e+01   6.3641877254e+01    0.4229794    0.2317108  63.23 0.0009603064    2.114    0.527
       385  -8.9571    242.8164    210.2903   6.0577756461e+01   1.3023004489e+00    0.1666391    0.1186557 -18.05 0.0008473396    1.403    0.287
       386  -8.5079    230.6500    209.7088   6.2405576659e+01   2.7560716183e+00    0.1156098   0.06348478   6.47 0.0007028157    1.670    0.401
       387  -8.4159    221.3341    198.7224   6.2210696156e+01   5.0951438925e+00   0.09632229   0.08366022  26.66 0.0002726461    1.607    0.378
       388  -8.6346     96.0136    195.7283   8.7931244971e+01   2.2990269902e+01    0.1817563    0.1393518  34.15 0.0003688525    1.053    0.050
       389  -9.1930      7.2613    194.8777   1.0967326354e+02   3.2530449015e+01    0.2774905    0.1446809  41.22  0.001685235    1.436    0.304
       390  -9.3868    248.3972    191.5966   5.6760859714e+01   2.5757120860e+00    0.1887803   0.08096341 -40.05 0.0009477401    3.417    0.707
       391  -9.4069    225.4050     16.3582   2.2411944174e+01   2.6826702076e+01     0.246302    0.1728509 -10.85 0.0007719032    1.611    0.379
       392 -10.2352    230.9872     15.5328   2.1843806300e+01   2.5747666418e+01    0.4160155    0.2076082  89.77  0.001584376    2.328    0.571
       393  -8.7705     92.0000     15.9754   4.1848890522e+01   6.0710807378e+01    0.3342915    0.1739753 -35.21 0.0009595893    2.015    0.504
       394 -10.1185      6.6090    175.4453   1.0932151255e+02   3.6548389644e+01    0.2753035    0.1347404  47.58 0.0009643888    1.599    0.375
       395  -9.5513     18.2187    174.2982   1.0624961430e+02   3.5923220401e+01    0.2158039    0.1410971   9.98  0.001252222    1.768    0.434
       396  -9.9661     11.7359    166.5968   1.0767652829e+02   3.8089354622e+01    0.2076755    0.1328994 -72.03 0.0007824485    1.663    0.399
       397  -9.5829      7.0665    166.4727   1.0893363974e+02   3.8445913199e+01    0.1761582    0.1047508  26.19 0.0007504504    1.563    0.360
       398  -8.6544    195.1850     15.2128   2.4441174195e+01   3.3710596673e+01     0.179831    0.1316844 -56.63 0.0003580959    1.272    0.214
       399  -8.8017     15.3247    165.3142   1.0664537599e+02   3.8105636332e+01    0.1153365   0.08938447 -38.49 0.0003785044    1.664    0.399
       400 -12.6655     38.1611    159.6232   9.9842342709e+01   3.7413341496e+01     1.519684     0.280447  43.92  0.005006998    3.895    0.743
       401  -8.0965     28.2963    164.3257   1.0298652191e+02   3.7265567369e+01    0.1185856   0.09274418 -37.90 0.0003299734    1.627    0.385
       402  -9.7610     24.5723    163.1217   1.0396396306e+02   3.7855272441e+01    0.2129497    0.1703075  16.57  0.000507722    1.353    0.261
       403 -10.4779     20.5055    159.0985   1.0489798272e+02   3.9094746371e+01      0.32255    0.1159738 -81.19  0.001381726    2.801    0.643
       404 -10.8618     29.5978    153.7547   1.0192391282e+02   3.9556878917e+01    0.3410736    0.2035103 -79.79  0.001638034    1.697    0.411
       405 -10.0626      9.7610    157.3722   1.0787533545e+02   4.0281322761e+01    0.2414249    0.1685391  47.62  0.001492866    1.207    0.171
       406 -10.3127      2.2900    156.9371   1.0996020732e+02   4.0865097333e+01    0.3482628    0.2306706 -50.92  0.001971936    1.845    0.458
       407  -9.9329      2.3296    153.3138   1.0984705233e+02   4.1677925522e+01    0.2990007    0.1829066   3.07  0.001675621    1.999    0.500
       408  -9.7167    248.9753    153.9883   5.0108582966e+01   6.6291381621e+00     0.182614    0.1353252  -4.95 0.0007586629    1.043    0.042
       409  -9.6662     18.6757    147.2972   1.0479265675e+02   4.1958069870e+01    0.2254462   0.08413462  53.16 0.0003520187    2.431    0.589
       410 -10.5093     22.3525    148.7988   1.0376919035e+02   4.1320511099e+01    0.4362226    0.2373907 -21.52  0.001944106    2.961    0.662
       411 -10.2081     10.8322    147.1404   1.0714524292e+02   4.2553945886e+01     0.303093     0.211183 -31.66  0.001410042    1.865    0.464
       412  -9.3011     12.7393    142.7378   1.0636252727e+02   4.3457540720e+01    0.2317461    0.1833792 -33.46  0.001416878    1.562    0.360
       413 -10.8317     11.1424    151.8320   1.0725589624e+02   4.1447765254e+01    0.2954739    0.2501932 -35.96  0.001930853    1.465    0.318
       414 -10.4248     14.5262    150.4940   1.0620137178e+02   4.1518760942e+01    0.2506666    0.1438722  25.20 0.0009488391    1.657    0.396
       415  -8.7386     54.0020    150.5307   9.4286806575e+01   3.7830654717e+01    0.1977289    0.1241717  27.48 0.0003752703    1.496    0.331
       416  -8.9957     62.6989    147.3687   9.1262147476e+01   3.7524504470e+01    0.2929642    0.1696462  86.11   0.00113804    2.238    0.553
       417  -8.3089     55.4676    145.5584   9.3276313416e+01   3.8826845718e+01    0.1364227    0.1231251  48.40 0.0001682789    1.014    0.014
       418  -9.9615      4.8464    144.2575   1.0882266495e+02   4.3605713344e+01    0.3505606    0.2260838 -17.53  0.001163855    2.083    0.520
       419  -9.9079    240.3479    143.0316   4.9275470849e+01   9.1236605092e+00    0.2928788    0.1549987 -45.36  0.001471666    2.732    0.634
       420  -8.9769     29.1457    143.8889   1.0134558367e+02   4.1915093516e+01    0.1645197    0.1482123 -51.47 0.0004084854    1.273    0.214
       421  -9.4345      1.7887    139.6112   1.0959014764e+02   4.4868255874e+01    0.2560171     0.140106  78.18   0.00119715    1.658    0.397
       422  -8.0846    121.7075    139.7104   7.2739523081e+01   3.0106049559e+01    0.1430909     0.110332  -0.54 0.0002076792    1.547    0.354
       423 -10.3497     40.9924    137.7714   9.7026383825e+01   4.2276959218e+01    0.3641409    0.1644633  40.08  0.001615281    1.937    0.484
       424  -9.0267    235.9818    136.6968   4.8670967032e+01   1.0547532509e+01    0.1646042    0.1353954   7.61 0.0003970244    1.114    0.103
       425  -8.3633     83.0178    135.9750   8.3301386728e+01   3.7378309871e+01    0.1730199    0.1563846  40.00 0.0003356044    1.016    0.016
       426  -8.5596     62.6859    133.7109   8.9439851671e+01   4.0770965106e+01    0.2638097    0.1807898  52.94 0.0001684145    1.438    0.305
       427  -9.9598     58.2335    135.7378   9.1172219474e+01   4.0841516040e+01    0.2513672    0.2288046 -22.84 0.0002814533    1.264    0.209
       428  -9.4666     59.9922    131.5240   9.0014945767e+01   4.1644634265e+01     0.308618    0.2253779 -23.00   0.00127593    1.774    0.436
       429  -8.3131     76.2843    134.3413   8.5148485257e+01   3.8758045049e+01    0.1433108    0.1095234 -24.68 0.0007015732    1.636    0.389
       430  -8.7568     47.2904    134.3307   9.4586845993e+01   4.2453508702e+01    0.1365245    0.1016053 -35.23 0.0003787439    1.625    0.385
       431  -9.1826     12.1700    127.6971   1.0574915585e+02   4.7114239242e+01    0.3475877    0.1538108 -56.29  0.001570774    2.375    0.579
       432 -11.0434      7.5165    133.3276   1.0755788777e+02   4.6033186478e+01    0.5799235    0.2819322   7.29  0.002752415    2.446    0.591
       433  -9.9933     42.2164    130.9921   9.5897931268e+01   4.3811093743e+01    0.3861762    0.2169222 -86.65  0.001789006    1.943    0.485
       434  -8.8306     86.8248    129.8514   8.1036721543e+01   3.8213050174e+01    0.2047428    0.1639518  62.46  0.000494027    1.343    0.255
       435  -9.5777     17.9656    128.4413   1.0385294993e+02   4.6543589491e+01    0.3523962    0.1560794 -56.85  0.001575378    2.338    0.572
       436  -9.8478     34.2407    127.2399   9.8212022101e+01   4.5518382838e+01    0.2990253    0.2001382  82.84  0.001291157    1.522    0.343
       437  -9.2289     50.7759    126.4662   9.2429233327e+01   4.3999386373e+01    0.2270027    0.1882464 -79.57 0.0003084889    1.222    0.182
       438  -9.1087    241.5180    124.0403   4.5332692872e+01   1.1265410417e+01    0.1883408   0.09992106 -28.72  0.001035776    1.605    0.377
       439 -10.0985     39.1453    123.7619   9.6133172347e+01   4.5918224164e+01    0.3555221    0.2218506  12.43  0.001721447    1.820    0.451
       440  -8.9046    249.0000    133.9740   4.6293775737e+01   8.9535909619e+00    0.1885022   0.05544211 -30.29 0.0004158417    2.882    0.653
       441  -9.7592      8.2819    122.0220   1.0675450415e+02   4.8741730166e+01    0.2420353    0.2002783 -34.08   0.00081504    1.415    0.293
       442  -8.9498      2.5329    122.5599   1.0873576803e+02   4.8915001834e+01    0.1251478     0.109827  70.92 7.899751e-05    1.008    0.008
       443 -10.0420     62.4430    120.3757   8.7478662065e+01   4.4065878423e+01    0.3424083    0.2272782  -3.76  0.001454978    2.130    0.531
       444  -9.6991     29.7803    120.6249   9.9108401476e+01   4.7570052218e+01    0.3267009    0.1837499  45.07  0.001452949    1.669    0.401
       445  -9.7986     28.3850    117.1774   9.9265154553e+01   4.8557903717e+01    0.2880608    0.1942378  74.17 0.0009074321    1.490    0.329
