#   1 NUMBER                 Running object number                                     
#   2 MAG_AUTO               Kron-like elliptical aperture magnitude                    [mag]
#   3 X_IMAGE                Object position along x                                    [pixel]
#   4 Y_IMAGE                Object position along y                                    [pixel]
#   5 X_WORLD                Barycenter position along world x axis                     [deg]
#   6 Y_WORLD                Barycenter position along world y axis                     [deg]
#   7 A_WORLD                Profile RMS along major axis (world units)                 [deg]
#   8 B_WORLD                Profile RMS along minor axis (world units)                 [deg]
#   9 THETA_WORLD            Position angle (CCW/world-x)                               [deg]
#  10 FWHM_WORLD             FWHM assuming a gaussian core                              [deg]
#  11 ELONGATION             A_IMAGE/B_IMAGE                                           
#  12 ELLIPTICITY            1 - B_IMAGE/A_IMAGE                                       
         1 -14.2708    167.6455     54.0674   6.7571622567e+01   3.6275288298e+01     2.092973     1.359934  14.18  0.005996973    2.257    0.557
         2 -14.1157    181.8693     38.7145   6.0064633801e+01   3.4809975707e+01     1.072345    0.8810365 -32.19  0.002999325    1.231    0.188
         3 -13.5504    186.5077     32.3349   5.7320009624e+01   3.4427834350e+01    0.6365621    0.5845167 -16.39  0.001334053    1.147    0.128
         4 -13.0476    198.3111     23.2125   5.2841709277e+01   3.2433061349e+01    0.5273601     0.450175 -12.50  0.001735442    1.291    0.225
         5 -14.6450    203.1187      7.2371   4.7593684151e+01   3.2922341833e+01     1.179356      1.06835  35.06  0.004318179    1.227    0.185
         6 -12.3508     58.7725      3.4501   7.6999298067e+01   6.6778713480e+01    0.5355382    0.2272887  30.06  0.002406504    2.738    0.635
         7 -13.2027    189.9702     14.0964   5.1209606964e+01   3.5657112382e+01    0.5530624    0.4729042  37.96  0.001794596    1.246    0.197
         8 -11.7877    193.3305    195.3362   9.6911385038e+01   5.6313841570e+00    0.8747253    0.4859143 -65.81   0.00295099    5.671    0.824
         9 -13.5997    247.7986    245.4655   9.5680131947e+01  -9.3616876132e+00    0.7704709    0.5173138 -12.89  0.005552257    1.581    0.368
        10 -12.6313    152.6190    198.3784   1.0513777840e+02   1.2621936098e+01    0.4581088    0.2628232 -53.81   0.00222816    2.059    0.514
        11 -11.2166    204.5560    176.3332   9.1323368496e+01   6.3846013220e+00    0.3920274     0.292854 -47.83  0.001401133    1.615    0.381
        12 -10.5622    161.4070    200.2345   1.0373828348e+02   1.0730826854e+01    0.2024602    0.1603339  61.85 0.0005705482    1.284    0.221
        13 -10.7059    164.1033    170.3315   9.8119939000e+01   1.5367474787e+01    0.2322476    0.1986108 -62.65 0.0004233453    1.323    0.244
        14 -10.0810    185.1233    169.8635   9.3803542840e+01   1.1266952080e+01    0.2055068    0.1908249  74.15 0.0008542871    1.234    0.189
        15 -10.5594    159.5097    196.4968   1.0351879392e+02   1.1689457643e+01    0.2065339    0.1631133 -66.37 0.0005487811    1.539    0.350
        16 -10.3564    192.4574    164.8359   9.1364030720e+01   1.0636575773e+01    0.2395225    0.2155129  71.81 0.0006745597    1.312    0.238
        17 -10.9339      6.4919    161.4673   1.3014017247e+02   4.0086005784e+01    0.1667197    0.1393834  84.71  0.001342098    1.221    0.181
        18  -9.7128    124.4772    161.5498   1.0494361021e+02   2.4626990618e+01    0.1393223    0.1233197  71.94 0.0004164884    1.052    0.049
        19 -11.5056     82.1811    194.8934   1.1836381010e+02   2.4788988413e+01    0.3518516    0.2616695  50.25  0.001744012    1.267    0.211
        20 -19.0102     31.4284    100.6849   1.1772821989e+02   5.1234278018e+01     14.65172    0.8629883 -65.94   0.02708648   13.379    0.925
        21 -11.1788    188.8477    154.6933   8.9979164921e+01   1.3117368372e+01    0.4857115    0.2859254  48.67  0.002222371    1.639    0.390
        22 -12.6183    133.7200    145.5704   9.9895752721e+01   2.6193549454e+01     1.288064     0.433443 -57.64  0.003838504    4.310    0.768
        23 -10.6168    124.0345    151.9621   1.0332406409e+02   2.6692166787e+01    0.2230468     0.191341  75.93 0.0006979055    1.149    0.130
        24 -10.6317    174.4674    148.9543   9.1692435373e+01   1.7180746888e+01    0.2796506    0.2396469  63.66 0.0006595894    1.247    0.198
        25 -10.0452    161.1972    148.7955   9.4470718057e+01   1.9996332876e+01    0.2467958    0.1623778 -89.93 0.0009537291    2.845    0.648
        26 -11.5770    144.0767    146.4637   9.7741194150e+01   2.3963255583e+01    0.5578879    0.2602808 -63.34  0.001834293    3.692    0.729
        27 -10.5363    119.1071    148.8453   1.0386757798e+02   2.8251298847e+01    0.2599662    0.1846817 -50.92 0.0008859501    1.453    0.312
        28 -12.6732    110.4964    138.4857   1.0392019789e+02   3.2030518730e+01    0.6386158    0.4527251 -22.19  0.002950684    2.282    0.562
        29 -11.4297     93.8150    141.2096   1.0841274838e+02   3.4236724646e+01    0.3760577    0.1689002 -56.82  0.001621166    2.111    0.526
        30 -12.7220     99.6831    137.6746   1.0636560398e+02   3.4064616631e+01    0.3203043    0.2676776  41.36 0.0005590047    1.295    0.228
        31 -10.8881    141.5798    138.7348   9.6688299234e+01   2.6053076282e+01    0.2715811     0.141266 -44.08 0.0007276261    2.010    0.503
        32 -11.9794    105.8915    130.8246   1.0352739528e+02   3.4527523077e+01    0.4408624    0.3137013 -70.72  0.001173684    1.469    0.319
        33 -11.3717    105.0318    124.8967   1.0252478653e+02   3.5996035872e+01    0.2573268    0.2358191   6.28 0.0005545079    1.346    0.257
        34 -11.3505    135.6051    128.0397   9.5729046956e+01   2.9508170852e+01    0.5894797    0.1417633 -49.31  0.001623496    4.352    0.770
        35 -12.3167    140.9142    189.2682   1.0603758749e+02   1.6311897870e+01    0.3762839    0.2183176 -41.31  0.001869841    2.170    0.539
        36 -11.3624    116.7191    129.1470   1.0052253880e+02   3.2948011462e+01    0.3173915    0.2509243 -32.47 0.0009055643    1.507    0.337
        37 -10.6867    160.6503    127.7974   8.9910389380e+01   2.4249084436e+01    0.3478055    0.2631421 -70.40  0.001597549    1.656    0.396
        38 -10.6480    120.9540    123.4961   9.8250291171e+01   3.3383713107e+01    0.2530954    0.2053803  -6.29  0.001120456    1.706    0.414
        39 -10.0230    135.0000    119.9383   9.3996744912e+01   3.1351912344e+01    0.2480516    0.0842032 -46.61  0.000800373    2.928    0.658
        40  -9.5778    153.3256    119.6863   8.9615063681e+01   2.7493331382e+01     0.155422    0.1212426 -88.09 0.0007042283    1.665    0.399
        41 -10.5427    111.5828    118.4689   9.9468343219e+01   3.6249740669e+01    0.2410263    0.2325672 -75.98 0.0001934113    1.040    0.038
        42 -11.0198    168.2100    113.1585   8.4626668858e+01   2.5441085175e+01    0.3558039    0.2904802 -80.34 0.0008517699    1.526    0.345
        43 -10.8662    134.6118    106.1223   9.0659335241e+01   3.4360006991e+01    0.4601143     0.140603 -47.80  0.001389652    3.341    0.701
        44 -11.4810    119.1005    110.3921   9.5649622508e+01   3.6601931932e+01    0.5454751     0.257644  57.51  0.001931081    2.927    0.658
        45 -10.6891    205.4404    110.0978   7.6235168019e+01   1.7289877267e+01    0.3373592     0.224307  43.85 0.0009473711    1.517    0.341
        46  -9.9708     77.0925    104.5207   1.0557012047e+02   4.5077423997e+01    0.1864389    0.1367899  38.56 0.0005147916    1.525    0.344
        47 -10.7921     64.3655     98.6357   1.0791226933e+02   4.8151169825e+01    0.2993896    0.2337385  82.30  0.001070745    1.464    0.317
        48 -12.8944    170.3535     69.9053   7.1969285410e+01   3.2977736860e+01    0.7456481    0.4693132 -81.88  0.001195774    2.938    0.660
        49 -11.4978    157.6581    234.1004   1.0914096552e+02   6.2566791462e+00    0.2794214    0.1708238  30.01   0.00161453    1.808    0.447
        50 -17.5284     55.1101    237.9290   1.2675163120e+02   2.0690159042e+01     8.024022     6.238042  87.10   0.06589055    1.272    0.214
        51 -12.6832    149.1697    186.9985   1.0403479145e+02   1.5217464070e+01    0.3982951    0.3024844  68.19   0.00143645    1.416    0.294
        52 -10.4132     77.3978     74.7421   9.8031726632e+01   5.1618825965e+01    0.4501645    0.2004308  49.98   0.00176607    3.069    0.674
        53 -10.5958     13.5728     59.8795   1.1577175081e+02   6.1531579316e+01    0.1705037     0.164442  88.80 0.0004051047    1.294    0.227
        54  99.0000     11.6947    206.1991   1.3186525458e+02   3.0959218929e+01    0.3477286    0.1650473  42.67   0.00232956    1.986    0.497
        55 -11.4333    154.7002    186.9996   1.0293450400e+02   1.4195200293e+01    0.3118118    0.2262968  88.19  0.001133733    1.918    0.478
        56 -11.2758    167.6963    232.4620   1.0718518414e+02   4.8237496100e+00    0.2684479    0.1694145  41.65 0.0006646543    1.258    0.205
