#   1 NUMBER                 Running object number                                     
#   2 MAG_AUTO               Kron-like elliptical aperture magnitude                    [mag]
#   3 X_IMAGE                Object position along x                                    [pixel]
#   4 Y_IMAGE                Object position along y                                    [pixel]
#   5 X_WORLD                Barycenter position along world x axis                     [deg]
#   6 Y_WORLD                Barycenter position along world y axis                     [deg]
#   7 A_WORLD                Profile RMS along major axis (world units)                 [deg]
#   8 B_WORLD                Profile RMS along minor axis (world units)                 [deg]
#   9 THETA_WORLD            Position angle (CCW/world-x)                               [deg]
#  10 FWHM_WORLD             FWHM assuming a gaussian core                              [deg]
#  11 ELONGATION             A_IMAGE/B_IMAGE                                           
#  12 ELLIPTICITY            1 - B_IMAGE/A_IMAGE                                       
         1 -15.2123    160.2481     81.0245   2.2602563206e+01   3.3212872202e+01     2.178547     1.539591 -10.81  0.005865258    2.277    0.561
         2 -13.6428    157.2862     43.3475   1.3406668257e+01   3.9672409379e+01    0.8570448    0.5958588  29.76  0.004370262    2.077    0.519
         3 -14.6837    100.9234     49.7503   2.7497945903e+01   5.1787119582e+01     1.445742    0.9113801  34.80  0.006215783    1.619    0.382
         4 -13.4420    135.7136     51.4069   1.9602346986e+01   4.3649479928e+01     1.260702    0.5152594 -35.50  0.005104437    2.695    0.629
         5 -14.3618     60.5763     58.0728   4.3800714404e+01   5.8224918644e+01     2.959867      1.77966  -2.76   0.01299527    2.475    0.596
         6 -13.3026    140.4736     21.1910   1.0224748959e+01   4.6223190963e+01     0.719278    0.3220088  65.55  0.001124893    1.875    0.467
         7 -15.0570    166.9211     29.1723   8.3862359759e+00   3.9180949999e+01     1.026329    0.8060231  74.86   0.00394151    1.092    0.085
         8 -14.2461    112.0114     39.8728   2.1434994604e+01   5.0670192826e+01     1.209936    0.7000766  11.35  0.003229807    3.541    0.718
         9 -14.8824    124.6614     35.8153   1.7346969172e+01   4.8274739572e+01     1.528713    0.5788774  46.94  0.004738019    2.527    0.604
        10 -14.9290      6.4879     71.3875   7.1080767958e+01   6.1654068621e+01     1.038608    0.7099609 -44.92   0.00528633    1.193    0.162
        11 -13.1781    229.3848      2.3930   3.5682333194e+02   2.8704264775e+01    0.8423695    0.2043011  74.24  0.003673286    3.544    0.718
        12 -15.5417    217.9080     17.2600   3.9818034877e-01   2.9376212593e+01     1.799908    0.9165395 -41.48   0.01048796    1.909    0.476
        13 -15.2098    189.9532     24.0858   4.4190453700e+00   3.4551048788e+01     1.487575    0.8624569 -63.83  0.008280089    1.683    0.406
        14 -13.0825      7.7594      2.5755   4.6115154392e+01   7.3285040754e+01    0.5241685    0.3815814  20.39  0.003901918    1.324    0.245
        15 -15.9941     11.6664     22.6057   5.3044144932e+01   7.0206239803e+01     1.833569     0.982964 -19.70  0.009901934    1.803    0.445
        16 -13.9095    188.1020     11.7592   1.9318137517e+00   3.6307822889e+01    0.6098702    0.4703255 -56.45  0.003480704    1.289    0.224
        17 -14.1575     41.4058      5.2258   3.0445341024e+01   6.8432042385e+01    0.8806428    0.5056237  10.99  0.004666794    1.919    0.479
        18 -13.7443    242.2221     34.1601   1.5709176820e+00   2.2551052936e+01    0.7469816    0.5084714 -88.69  0.003326378    1.287    0.223
        19 -13.5048     58.1502     26.7290   3.3053383235e+01   6.3266171036e+01     1.014844    0.3101697  41.29  0.003569497    2.808    0.644
        20 -15.3790    147.7905     29.6709   1.1348608592e+01   4.3585032577e+01     2.850762    0.8237954  68.08  0.009612736    3.649    0.726
        21 -15.4440     99.6114     11.8044   1.5109149195e+01   5.6460466517e+01     1.497411     0.767024  53.98  0.003241516    1.540    0.351
        22 -11.8710     71.0920     16.2632   2.4370389394e+01   6.2017549438e+01    0.3432366    0.2104216  -9.58   0.00185725    1.982    0.496
        23 -11.9098     74.7807     10.0987   2.0838404605e+01   6.1864254992e+01    0.3580085    0.2436811 -27.52  0.002212747    1.737    0.424
        24 -12.2880     60.3026     15.3692   2.7622062887e+01   6.4155388226e+01    0.4900597    0.2464691  31.13  0.002309817    1.921    0.479
        25 -11.9481     46.7124     12.9279   3.1739092325e+01   6.6785956925e+01    0.3043819    0.1891792  43.68  0.001499546    1.480    0.324
        26 -12.6473     85.6267     13.9829   1.9288465831e+01   5.9279025059e+01    0.3924219    0.3531155  -2.37  0.001908004    1.268    0.211
        27 -12.7545    152.7906      8.4931   5.0978498246e+00   4.4604802731e+01    0.3360731    0.2315865  53.04  0.001599403    1.455    0.313
        28 -14.3597     26.6862     12.7771   4.0729532033e+01   6.9808156213e+01    0.7835445    0.4758926  -2.41  0.004746452    1.672    0.402
        29 -11.0185    176.9000      4.3537   1.4048180489e+00   3.9521487718e+01    0.1691982    0.1248359  80.93 0.0004988125    1.092    0.084
        30 -11.1639     67.7556      2.6480   1.9949608513e+01   6.3887116293e+01    0.2742243    0.1481307  32.07  0.001526984    1.747    0.427
        31 -12.0586     80.5329      1.7784   1.6079796295e+01   6.1367325582e+01    0.6323159   0.05539194  54.67  0.002019126    4.506    0.778
        32 -12.3477    120.2314      3.0205   8.3216462942e+00   5.2556597519e+01    0.5494431      0.24244  84.53  0.002209886    3.292    0.696
        33 -11.3976     61.2166      1.4634   2.1484495536e+01   6.5245377286e+01    0.3283678   0.09479779  53.94  0.001383375    2.823    0.646
        34 -13.8497     30.1620    169.0689   7.8992837141e+01   3.5953241113e+01     1.010372    0.5629339 -35.87  0.004093854    2.363    0.577
        35 -12.1439    109.4822    249.0490   6.8905441703e+01   6.3060399443e+00    0.4030795    0.3012488  44.69  0.002313759    1.196    0.164
        36 -12.4644    109.2675    243.1464   6.8207018889e+01   7.5194792808e+00    0.4994572    0.2931435  37.37  0.002180016    1.469    0.319
        37 -12.6424     51.5604    248.6173   8.1741054288e+01   1.4481075067e+01    0.4843805    0.3954033  50.11  0.003126882    1.078    0.072
        38 -12.9218     57.2186    246.6763   8.0343169645e+01   1.4165059089e+01    0.5955178    0.2675401  32.18  0.002775887    2.077    0.519
        39 -12.0783     41.1866    250.1474   8.4072716296e+01   1.5442474257e+01    0.3294923     0.199136  75.77  0.001838722    1.651    0.394
        40 -13.6352     28.0940    246.5688   8.6547339483e+01   1.7723174687e+01    0.5664129    0.5101628  44.83  0.003990716    1.261    0.207
        41 -12.1563      2.8469    249.6190   9.1771978259e+01   1.9741173786e+01    0.3655363    0.2159096  45.80  0.001823804    1.423    0.297
        42 -14.1135      9.3519    245.5578   9.0288087208e+01   1.9938832277e+01    0.9599182    0.4331037  53.19  0.003678393    1.810    0.447
        43 -12.4199     48.5700    181.3860   7.5418810168e+01   3.0713874283e+01    0.5723494    0.3012777 -50.32  0.002505902    1.977    0.494
        44 -13.5055    197.2934    179.3473   3.7364913664e+01   6.0909066583e+00    0.7359273    0.4708553 -73.15  0.002840973    3.348    0.701
        45 -13.8581     84.9688    179.9069   6.5104768553e+01   2.5960768667e+01    0.9502291    0.4482941  49.94  0.003520848    2.390    0.582
        46 -12.1298    131.0967    173.1636   5.1379541165e+01   1.9565749569e+01    0.3556933    0.2348222 -57.29  0.001551913    1.616    0.381
        47 -13.2277    124.9850    167.9758   5.1934650710e+01   2.1956011067e+01    0.8829827    0.2972107 -52.59  0.002760008    3.034    0.670
        48 -12.3071     89.6446    170.0769   6.2088322359e+01   2.7709662784e+01    0.3120629    0.2348073  24.23  0.001328788    1.433    0.302
        49 -11.0376    101.9851    160.7649   5.6802595357e+01   2.7961083645e+01     0.215444    0.1304705  35.23 0.0008876761    1.652    0.395
        50 -11.3487      2.0882    159.2220   8.5770184866e+01   4.0856223505e+01    0.2866526    0.1836739 -68.22  0.001368209    1.319    0.242
        51 -11.9097     27.7573    158.8620   7.8419559031e+01   3.8822832388e+01    0.2701051    0.1514388  54.42  0.001049233    2.000    0.500
        52 -12.6056     77.3255    156.9035   6.3266589616e+01   3.3070883667e+01    0.5514755    0.4869213  15.73  0.001849339    1.228    0.186
        53 -13.7277     74.0075    153.4897   6.3629905098e+01   3.4464630264e+01    0.7655458    0.6405632  19.90  0.002504344    1.294    0.227
        54 -11.0907    155.5038    157.4927   4.2003818799e+01   1.8479393850e+01    0.1521556    0.1503195 -40.78 0.0008104227    1.032    0.031
        55 -12.7768    111.7791    155.6546   5.2985892379e+01   2.7452196175e+01    0.5894847    0.3923845  76.71  0.002257255    2.403    0.584
        56 -12.8847    208.4528    153.9584   3.0070992401e+01   9.1333869475e+00    0.6494412    0.4672033  38.83  0.003433615    1.538    0.350
        57 -12.7996    122.5084    153.8653   4.9641817346e+01   2.5847546492e+01    0.7248847    0.3508238 -46.62  0.002693413    2.075    0.518
        58 -12.2494     85.6674    152.7968   5.9979824355e+01   3.2791459499e+01    0.6161832    0.3303195 -41.09  0.002383831    2.100    0.524
        59 -11.8514     55.5188    155.8712   6.9673148413e+01   3.6455453992e+01    0.3605581    0.2414105 -11.34  0.001578072    2.141    0.533
        60 -12.4148      7.4892    148.6957   8.3161321195e+01   4.3127415887e+01    0.5425246    0.3797047  83.66  0.003028848    1.419    0.295
        61 -11.8858     13.6459    152.2880   8.1758449323e+01   4.1752555384e+01    0.2470606    0.1749407  60.84 0.0005871322    1.508    0.337
        62 -10.8961     12.6654    148.6743   8.1627911866e+01   4.2749099293e+01    0.2177424    0.1661479 -56.99 0.0009416041    1.201    0.167
        63 -12.0185    103.6068    149.5399   5.4016444508e+01   3.0485998880e+01    0.4460142    0.3114449 -27.38   0.00165147    1.785    0.440
        64 -12.5056     62.6627    145.9827   6.5733729834e+01   3.8066582359e+01    0.3135498    0.2361004  63.85  0.001511031    1.535    0.348
        65 -10.4272     38.2160    145.6215   7.3372315742e+01   4.1183250423e+01    0.1828362    0.1366959   1.86 0.0004349391    1.622    0.383
        66 -12.0036     42.8696    138.8524   7.0779347230e+01   4.2419106448e+01     0.293302    0.2094425  -0.83  0.001437397    1.734    0.423
        67 -12.7716    246.5484    133.0045   1.9732995369e+01   6.5113789988e+00    0.4731557    0.3177762 -51.04  0.002748789    1.311    0.237
        68 -14.6708    230.2075    127.6901   2.1067978385e+01   1.0194519943e+01     1.234646     1.020576 -68.14  0.007496321    1.270    0.213
        69 -12.3839     43.8512    132.9057   6.9409376677e+01   4.3834690046e+01     0.234289    0.1854416 -38.11 0.0007459692    1.267    0.211
        70 -10.4311     10.8117    133.8789   8.0366254796e+01   4.6634196661e+01    0.1695662    0.1419704  70.30  0.000387094    1.287    0.223
        71 -12.7241    136.9708    131.8015   4.0756674668e+01   2.8121206111e+01    0.7888618    0.3451793  43.08  0.002804362    2.288    0.563
        72 -14.8814    104.5567    121.4082   4.7235792075e+01   3.7156040556e+01     1.995376     1.252812  35.23  0.008525728    1.623    0.384
        73 -15.2011    105.7667    105.4716   4.2754266402e+01   4.0535663341e+01     1.661286     1.329235  55.03  0.008138213    1.333    0.250
        74 -12.5110     78.8367    110.8137   5.2729921048e+01   4.4349448113e+01    0.4155049    0.3608953  78.13  0.001816287    1.402    0.287
        75 -13.2461     84.9794    115.0202   5.1758790529e+01   4.2300881832e+01     1.024391    0.5430918  20.67  0.003488753    2.655    0.623
        76 -12.6067     88.3540    109.4799   4.9249379978e+01   4.2989122525e+01    0.6071954     0.390634 -65.08  0.002409009    1.965    0.491
        77 -11.3837    186.0334    116.0141   2.6043719414e+01   2.0960682948e+01     0.231275    0.1736594 -81.47 0.0005612088    1.646    0.392
        78 -12.8399     32.5216    111.8686   6.9353558032e+01   5.0313761225e+01    0.5954043    0.3444961 -53.29  0.002889966    1.509    0.337
        79 -12.0408     42.7110     90.1813   6.0572515112e+01   5.4310588608e+01    0.3993243    0.2403382 -52.84 0.0008235733    1.572    0.364
        80 -14.2859     18.2360    110.8227   7.4339069847e+01   5.1819296305e+01     1.062402    0.6804725 -46.63  0.003626758    1.370    0.270
        81 -13.0033     21.5085     86.0133   6.8076140333e+01   5.7380994912e+01    0.7417359    0.5021614   7.96   0.00364999    1.563    0.360
        82 -12.4296     36.8430     92.8122   6.3532642281e+01   5.4380262167e+01    0.5094867    0.3077482  11.97  0.001706357    1.840    0.457
        83 -14.0367     10.7715    103.0111   7.5711294350e+01   5.4232350142e+01      0.71771    0.6537851  23.35  0.004153758    1.270    0.212
        84 -14.4515     23.5790     95.2885   6.9306861503e+01   5.5089558433e+01     1.486908    0.6254596  16.27  0.006299403    2.694    0.629
        85 -12.5574     29.8262     89.7497   6.5580138794e+01   5.5792288043e+01    0.4753189    0.3197084 -78.87   0.00233537    2.007    0.502
        86 -13.6732      2.2906     96.9098   7.7857481215e+01   5.6172968267e+01    0.8552682    0.3496767 -67.64   0.00351904    2.134    0.531
        87 -13.0362    121.4491    111.7658   3.9907316297e+01   3.5897187233e+01    0.4137068    0.2985412  56.19  0.001241917    1.490    0.329
        88 -12.0858    177.2117    110.3204   2.6428376005e+01   2.3958156554e+01     0.387582    0.3096107 -28.44  0.001977698    1.416    0.294
        89 -12.0000     63.0258    110.7074   5.8136798844e+01   4.6867280385e+01    0.9892035       0.3673 -60.95  0.003224222    3.268    0.694
        90 -12.4603     62.0334     98.6053   5.5454169031e+01   4.9834955959e+01    0.5354863    0.4269444  81.30  0.002121682    1.775    0.437
        91 -11.4587     45.9349    110.1582   6.4121166621e+01   4.9269745806e+01     0.322437    0.1866643 -49.81  0.001426032    1.565    0.361
        92 -10.9348     43.1255    106.8614   6.4414571383e+01   5.0393601761e+01    0.2058331    0.1789674 -48.84 0.0005381496    1.076    0.070
        93 -11.3905     47.4072    132.5688   6.8166392313e+01   4.3503889576e+01    0.4342863     0.198154 -68.17  0.001664732    2.340    0.573
        94 -12.8037    136.0137    102.8085   3.3725599144e+01   3.4621761929e+01    0.6979133    0.3544559  47.23  0.002018655    1.931    0.482
        95 -13.7623    120.3133    102.2334   3.7700783517e+01   3.8186058586e+01    0.7068666    0.3923855  42.81  0.002901195    1.770    0.435
        96 -12.2666     48.9243     93.0152   5.8894006657e+01   5.2909098804e+01    0.5451249    0.5248175  82.77  0.002103846    1.250    0.200
        97 -11.3398     48.7535    101.0014   6.0959943886e+01   5.1100837199e+01    0.4713294    0.3267454  62.59  0.002083722    2.104    0.525
        98 -12.1920     52.2632     97.9032   5.8880165219e+01   5.1364388534e+01    0.4796125    0.2859834 -12.93  0.001578294    2.382    0.580
        99 -13.2034    249.3048     97.4688   1.2606820090e+01   1.2023747432e+01     0.774972    0.1923944 -43.85  0.002918045    3.193    0.687
       100 -10.4531     75.4323    100.5448   5.1214698406e+01   4.7281176872e+01    0.1465991    0.1400227 -11.89 0.0001757068    1.016    0.016
       101 -12.4883    163.6497     97.6472   2.6099896399e+01   2.9407185216e+01    0.3670978    0.2957998  62.39 0.0005804954    1.240    0.194
       102 -12.9132     28.5635    121.9683   7.2641404640e+01   4.8190622297e+01    0.4883009    0.3253697 -46.15  0.002533829    1.374    0.272
       103 -13.2472    137.3379     95.1436   3.1370351838e+01   3.5859874722e+01    0.5458238    0.4384575  79.80  0.001483885    1.446    0.309
       104 -11.9764    129.3311     96.0791   3.3632618131e+01   3.7470645379e+01    0.3102247    0.2245249  56.62  0.001369331    1.411    0.291
       105 -11.0373     58.8922    125.1568   6.2831971324e+01   4.3909141694e+01    0.2050229     0.162407 -34.51 0.0004059325    1.279    0.218
       106 -12.4511    180.9087    120.1526   2.7984273190e+01   2.1226076311e+01    0.2865403    0.2252735  45.82   0.00119028    1.347    0.258
       107 -14.0152    188.6030     82.6642   1.7902018608e+01   2.6505565955e+01     1.479791    0.9098917  82.07   0.00674237    2.073    0.518
       108 -14.8992    198.6633     69.9747   1.3492919960e+01   2.6373465859e+01     2.929426     1.033078  61.43   0.01151426    2.857    0.650
       109 -14.6936    213.2998     78.5284   1.3334736210e+01   2.1918173255e+01     2.528635    0.9897364  72.51  0.008540035    4.407    0.773
       110 -12.7772    214.4513     71.4614   1.1695500422e+01   2.2799679536e+01      0.52154    0.3378486  89.49  0.001861029    1.703    0.413
       111 -11.5780    209.4934    249.5141   4.7513496910e+01  -8.1351097271e+00     0.124983   0.09869529  -0.13 0.0003535842    1.007    0.007
       112 -14.5273    169.3800     76.9110   1.9832014913e+01   3.1811447872e+01    0.9204944    0.7453181  17.77  0.003599772    1.753    0.430
       113 -10.5268     78.5633     87.0309   4.6347558105e+01   4.9662941532e+01    0.2100641    0.1416802 -46.43 0.0004415699    1.517    0.341
       114 -12.7771    132.4706     85.6849   3.0000793492e+01   3.8772052203e+01    0.2774889    0.2437181  62.86  0.001030806    1.120    0.107
       115 -12.2957      4.2931    119.4509   8.0567582656e+01   5.0649189417e+01    0.4905208    0.2512844   6.13  0.002375557    2.403    0.584
       116 -13.6908    238.1657     80.0805   1.0571453276e+01   1.6794837407e+01     0.655589    0.3915665  88.82  0.003457953    2.092    0.522
       117 -11.3241     98.0509     83.7208   3.8977020394e+01   4.6615972061e+01    0.2152065    0.1892846  38.65 0.0007259274    1.090    0.083
       118 -14.5868    170.1363    242.2937   5.4431029753e+01  -1.5533967653e+00      1.14449    0.7706226  16.18  0.006232294    1.426    0.299
       119 -14.7097     95.0006    235.2323   7.0514028975e+01   1.1319499475e+01      1.36094    0.8541689  73.70  0.006330821    2.179    0.541
       120 -14.7510    119.6855     54.2503   2.4038559837e+01   4.6953642457e+01     1.009598    0.6625382  45.55  0.002042959    1.417    0.294
       121 -12.6663     25.2304    217.1190   8.4987337221e+01   2.4595574812e+01    0.7358521    0.3286289  51.23  0.003453316    2.054    0.513
       122 -14.2568     26.3094    226.5595   8.5483900577e+01   2.2307264294e+01     1.353667    0.4088325 -57.65  0.005299213    3.467    0.712
       123 -14.0977     20.8205    224.3738   8.6535417530e+01   2.3391637896e+01    0.7143887    0.5631441  68.87  0.003567396    1.057    0.054
       124 -13.2594    237.5351    230.0900   3.9045817503e+01  -8.6076288321e+00    0.3401476    0.3120882  57.60  0.002336827    1.874    0.466
       125 -13.8734     74.7848     73.5842   4.3603602925e+01   5.3001730357e+01     1.601084    0.7371497  22.53  0.005263833    3.727    0.732
       126 -13.8029     87.4179     65.1349   3.6603502583e+01   5.2160412786e+01    0.8765096     0.574147  -8.51  0.002898353    2.194    0.544
       127 -12.6509     27.8887    235.4824   8.5806020054e+01   2.0138757629e+01    0.6020803    0.3289675 -49.25  0.003036712    2.438    0.590
       128 -13.0605    148.4222    239.6648   5.8796389433e+01   2.1950574284e+00    0.5386572    0.3341186  65.77  0.002225859    3.180    0.686
       129 -13.2180     55.5409     80.9921   5.3031438587e+01   5.4617808852e+01    0.5375819    0.3883423 -25.01   0.00162466    1.402    0.287
       130 -13.8506     61.1277     75.9489   4.9375383305e+01   5.4811459848e+01    0.7360142    0.4847257 -32.20  0.001736438    1.537    0.349
       131 -12.1934    113.9759     79.9427   3.3199058664e+01   4.3970142874e+01    0.4446168    0.3908828 -62.69  0.001413436    1.273    0.214
       132 -13.0846    135.1063     79.0891   2.7540755056e+01   3.9370385299e+01    0.8512384    0.4003475  53.27  0.003386381    2.040    0.510
       133 -11.5638     42.6058     79.7715   5.7822179473e+01   5.6588997036e+01    0.3266686    0.2334653 -55.38  0.001152859    1.477    0.323
       134 -11.3579     41.5336     75.9408   5.7173798513e+01   5.7520930480e+01    0.2839638    0.1938493 -43.90 0.0007923673    1.367    0.269
       135 -13.9136     57.5897    201.7832   7.5576109437e+01   2.4428541248e+01     2.096368     0.632967 -68.32  0.006978489    3.478    0.712
       136 -14.1643      5.5166     63.2195   6.9545844800e+01   6.3418176293e+01    0.6759225    0.5592043 -10.62  0.004013536    1.164    0.141
       137 -11.4324     27.6107     76.3047   6.3121184490e+01   5.8956629876e+01    0.2536025    0.2123421  67.34  0.001145039    1.705    0.413
       138 -12.4803    241.9972     71.1179   8.4320432180e+00   1.7457901494e+01    0.4325375    0.2366578 -70.95  0.002234897    2.075    0.518
       139 -13.3801    133.7985     65.9331   2.4153551725e+01   4.1900367263e+01    0.8756027     0.675411  22.96  0.003702608    1.636    0.389
       140 -12.3439    100.6252     64.0433   3.2175721074e+01   4.9636675930e+01    0.4474028    0.3328868  -6.55  0.002242017    1.702    0.412
       141 -13.0466     78.9248     60.0737   3.7772503723e+01   5.4658814479e+01    0.6386213    0.4915305 -42.48   0.00351685    1.439    0.305
       142 -11.9721     84.1184     52.4861   3.3475518500e+01   5.4871015187e+01    0.6846941    0.3380462 -18.38  0.002451547    3.759    0.734
       143 -14.3952    177.9775     56.4957   1.3413087429e+01   3.3039083115e+01     0.933788    0.5742658 -54.62  0.003112377    1.636    0.389
       144 -12.4003     36.5095     54.1476   5.2524661440e+01   6.2349990585e+01    0.3000087    0.1851864 -18.98 0.0009522612    1.702    0.412
       145 -11.6754     34.5510     60.5047   5.5486715325e+01   6.1408872748e+01    0.3929078    0.1669175 -39.50  0.001753654    2.216    0.549
       146 -11.9888     38.9893     59.9032   5.3341627501e+01   6.0991675628e+01    0.3552634    0.2362268  61.74  0.001599065    3.172    0.685
       147 -12.1126     24.6116     59.5377   5.9672141720e+01   6.2649536425e+01    0.3777796    0.2264528 -36.07  0.001556701    1.472    0.321
       148 -13.1591    248.2999     52.0139   4.2798107719e+00   1.9051548606e+01    0.6251612    0.3280504 -42.75  0.003618283    1.711    0.415
       149 -11.4045     17.5051     54.9321   6.1588215444e+01   6.4183299231e+01    0.2769675    0.1850833 -54.27  0.001626194    1.579    0.367
       150 -11.9830    230.9877     54.7928   6.4432944949e+00   2.1945582201e+01    0.3619822    0.2001524  71.61  0.002023542    1.821    0.451
       151 -10.5541     23.5554     49.9489   5.7103964154e+01   6.4546599091e+01    0.1730223    0.1086074 -42.68 0.0004419575    1.479    0.324
       152 -11.8935    201.8479     46.8274   8.0101911729e+00   2.9077285978e+01    0.1858792    0.1668161  84.33 0.0008492456    1.184    0.155
       153 -11.9233     38.4786     46.4914   4.8957080948e+01   6.3427209937e+01    0.2222198    0.1813487  -4.89 -8.089327e-06    1.033    0.032
       154 -14.1655     66.8094    222.9336   7.5750967612e+01   1.8133501212e+01    0.9035536    0.7623461  46.64   0.00533312    1.092    0.085
       155 -14.0376     64.5157    214.2646   7.5315622724e+01   2.0476802745e+01    0.5779282    0.3735097  43.64  0.002678102    1.417    0.294
       156 -14.9426    212.7589     40.9009   5.5567338709e+00   2.7547683758e+01     2.033376    0.5763664  72.14  0.007269859    4.165    0.760
       157 -13.7329     95.5392    218.3431   6.8163926829e+01   1.4979338850e+01    0.7018248    0.3029855  33.25  0.002795391    2.166    0.538
       158 -10.4743      5.4939    219.4991   8.9554498504e+01   2.6015533016e+01    0.1241304   0.09935094  75.23 -8.863209e-05    1.002    0.002
       159 -12.4128     85.6099    215.6169   7.0252447948e+01   1.7124090734e+01    0.2901083    0.2378396  60.15  0.001447006    1.185    0.156
       160 -11.8791    181.5044    215.5009   4.7488067224e+01   1.6357659331e+00    0.1391121    0.1226179  -0.21 4.162297e-05    1.004    0.004
       161 -12.6553    144.8826    232.0617   5.8428973362e+01   4.2136053662e+00    0.3620317    0.2123279 -53.84  0.001729717    1.963    0.491
       162 -12.1869     40.2971     40.1824   4.5796659298e+01   6.4200474130e+01    0.5161365     0.229293  32.34  0.002477009    2.087    0.521
       163 -12.9416     32.9152     40.1639   4.9173697316e+01   6.5169365742e+01    0.3298781     0.247354   6.41 0.0006928646    1.151    0.131
       164 -12.8406     76.0146     36.9319   3.0633935732e+01   5.8674210131e+01    0.4499834    0.2813744  37.66  0.001053176    1.404    0.288
       165 -11.9254     71.1291     36.3465   3.2073418240e+01   5.9685353614e+01    0.3304425     0.238356  57.95  0.001356959    1.659    0.397
       166 -11.3393    136.5164    210.9913   5.6978353223e+01   9.9445440874e+00    0.2167668    0.1456113 -51.89  0.001033085    1.593    0.372
       167 -12.6370     46.1995     33.2362   4.0498547167e+01   6.4371996785e+01    0.5050512    0.3620174 -12.87  0.003082569    1.367    0.269
       168 -12.3304     42.5581     29.1698   4.0434865459e+01   6.5481905323e+01    0.2551124    0.1914701  10.79 0.0004802895    1.137    0.121
       169 -12.5148     46.4009    208.6847   7.9167631285e+01   2.4170053445e+01    0.5229186    0.2384909  84.00  0.001885353    3.371    0.703
       170 -11.8472     80.6086    208.5647   7.0563388406e+01   1.9538383583e+01    0.3252219     0.217547  63.26  0.001548507    1.643    0.392
       171 -11.1902     98.2710     26.9787   2.0593481848e+01   5.5253796847e+01    0.2987054    0.1543497  51.60 0.0009729704    1.602    0.376
       172 -12.2134     30.7522     25.2113   4.4232615231e+01   6.7673417963e+01    0.3554781    0.1990345  21.72  0.001539933    1.622    0.383
       173 -11.9956     35.6421     23.5608   4.1212779318e+01   6.7231739307e+01    0.3047808    0.2118375 -11.28  0.001509784    1.361    0.265
       174 -12.7323     59.2098    212.8068   7.6457588157e+01   2.1539805561e+01    0.3024107     0.255162 -36.74 0.0008676264    1.458    0.314
       175 -12.6448    104.5590     36.7646   2.2271376049e+01   5.2727674293e+01    0.9117883      0.12886 -32.27  0.002305634    7.846    0.873
       176 -13.4790     16.3867    197.1194   8.5432068453e+01   3.0263977035e+01    0.8342688    0.2462542 -57.13  0.003172006    3.217    0.689
       177 -11.0590    151.6929    206.0148   5.2500687686e+01   8.4378417271e+00    0.3036401    0.1806198   8.27   0.00117002    2.628    0.619
       178 -13.5806     39.7724    195.9091   7.9472955913e+01   2.8095179354e+01    0.8189977      0.48236  75.34  0.003840888    1.890    0.471
       179 -11.9518     36.4837     34.3031   4.5245599008e+01   6.5613291069e+01    0.5559309    0.2182754  18.84  0.001861688    4.754    0.790
       180 -11.3994    212.9731    199.9908   3.8239504126e+01  -3.1118611083e-01    0.2245311    0.1489294 -10.58  0.001145246    1.719    0.418
       181 -13.3358    164.2429    194.1932   4.7406842139e+01   8.7764229699e+00    0.6750048    0.3893122 -62.29  0.002719281    2.481    0.597
       182 -13.8735     22.3100    180.9630   8.2444489632e+01   3.3700723062e+01    0.9191898    0.4921615 -49.60  0.003808851    2.003    0.501
       183 -12.4116     48.5498     19.9316   3.4022902699e+01   6.5706376382e+01    0.7042803    0.1783436  43.94   0.00267598    3.458    0.711
       184 -15.1419      8.4948    183.1906   8.6213818267e+01   3.4389359883e+01     1.211961     1.093814 -75.93  0.008003255    1.139    0.122
       185 -15.2193     15.6162    174.9615   8.3618506232e+01   3.5831001105e+01     2.115526    0.8938993  50.34  0.009051368    2.508    0.601
       186 -11.6871    179.3282    195.3304   4.4250905181e+01   5.9444744884e+00    0.1512398    0.1065725  -8.35 0.0006807218    1.712    0.416
       187 -13.2985      6.3661     42.9341   6.3358676851e+01   6.7282036291e+01    0.8661172    0.3782099  18.82  0.004528056    2.248    0.555
       188 -12.1088    201.0210    191.3089   3.8945261592e+01   3.1512700131e+00     0.323898    0.2562144  -4.75  0.001402216    1.293    0.227
       189 -13.2123     21.7028    166.3621   8.1051990594e+01   3.7467103304e+01     0.543249    0.3474274  -7.77  0.002162548    2.259    0.557
