#   1 NUMBER                 Running object number                                     
#   2 MAG_AUTO               Kron-like elliptical aperture magnitude                    [mag]
#   3 X_IMAGE                Object position along x                                    [pixel]
#   4 Y_IMAGE                Object position along y                                    [pixel]
#   5 X_WORLD                Barycenter position along world x axis                     [deg]
#   6 Y_WORLD                Barycenter position along world y axis                     [deg]
#   7 A_WORLD                Profile RMS along major axis (world units)                 [deg]
#   8 B_WORLD                Profile RMS along minor axis (world units)                 [deg]
#   9 THETA_WORLD            Position angle (CCW/world-x)                               [deg]
#  10 FWHM_WORLD             FWHM assuming a gaussian core                              [deg]
#  11 ELONGATION             A_IMAGE/B_IMAGE                                           
#  12 ELLIPTICITY            1 - B_IMAGE/A_IMAGE                                       
         1 -12.3201    144.6585     31.1880   3.0790095853e+01   4.4612870156e+01    0.4535593    0.3009188 -44.54 0.0005964285    1.481    0.325
         2 -11.8753      2.8045     20.8905   9.0726963134e+01   7.5320456992e+01    0.3927034    0.3087351  89.41  0.001647327    1.466    0.318
         3 -12.3678    125.3999     17.0249   2.8832994119e+01   5.1374011270e+01    0.3141121    0.2602358 -88.85 0.0003187244    1.168    0.144
         4 -11.0791      5.3907      7.5390   8.2605106370e+01   7.8168228661e+01    0.6423903    0.3015522  32.00  0.003106557    2.271    0.560
         5 -11.6040     14.1511     15.5349   7.8036000727e+01   7.5748254861e+01    0.6312273    0.2375901 -60.25  0.001665554    2.720    0.632
         6 -11.3389    207.9406     12.7230   1.8544173833e+01   3.1405701920e+01    0.2935365    0.1709185 -39.29 0.0004212724    1.436    0.304
         7 -10.5837    203.3421     11.9652   1.8660879770e+01   3.2486811123e+01    0.2028593     0.194521  37.00 0.0008066411    1.304    0.233
         8 -11.7302     34.7983     12.3107   5.9161137910e+01   7.3629850371e+01    0.3364775    0.2842418  26.13 0.0009591551    1.117    0.105
         9 -11.5246     30.1166      7.6751   5.9420711434e+01   7.5198285302e+01    0.7519818    0.2864748  44.92  0.002974227    2.841    0.648
        10 -10.8109    185.0056     12.2679   2.0114666115e+01   3.6651469568e+01    0.1847172     0.157096 -72.56 0.0004820406    1.060    0.056
        11 -10.8134    165.0983     11.0395   2.1534099439e+01   4.1631148532e+01    0.4132442    0.1489235 -44.64  0.001638947    2.502    0.600
        12 -12.3028    125.9592     10.7667   2.6285184907e+01   5.1883006638e+01     0.302617    0.2552564 -60.40  0.000346407    1.182    0.154
        13 -11.9568     42.8174      9.3052   5.1868882667e+01   7.2654740283e+01    0.4177895    0.2206678  51.72 0.0001432174    2.003    0.501
        14 -11.7726     55.5328      9.5905   4.5203586696e+01   6.9965933062e+01     0.360735    0.3062263  24.85  0.002076344    1.133    0.117
        15 -10.2860     50.5364     10.5083   4.8304716208e+01   7.0913787678e+01    0.2361784    0.2016661  42.58  0.000586728    1.114    0.103
        16 -10.0211    148.5041     10.0344   2.2978774939e+01   4.5981477627e+01    0.2011562     0.136002 -25.73 0.0004191803    1.562    0.360
        17 -10.1568     22.6738      9.4432   6.6751940891e+01   7.5997845349e+01    0.2761827    0.2030617   4.83  0.001557402    1.395    0.283
        18 -12.1259    194.2011      4.7952   1.7385033404e+01   3.5227674743e+01    0.3114749    0.2510812  59.59 0.0003297552    1.422    0.297
        19 -13.0036     20.2176      2.2757   6.3783595772e+01   7.7628276126e+01    0.2985215    0.2337017   3.96 0.0007472448    1.220    0.180
        20  -9.1259    101.4768      7.4028   2.9259809798e+01   5.8776227528e+01    0.1432774    0.1284563  76.03 6.034411e-05    1.038    0.036
        21  -9.8079     88.7039      6.5671   3.1788726333e+01   6.2227771758e+01    0.2254684    0.1714058   2.28 0.0006187935    1.545    0.353
        22 -10.6279    247.1726      5.9644   1.4874272592e+01   2.4222946499e+01    0.1709958     0.130419 -59.03 0.0003336158    1.125    0.111
        23 -11.1553    151.6299      5.9211   2.1237050597e+01   4.5558153931e+01    0.2516936    0.1989614  88.58 0.0003687379    1.160    0.138
        24 -11.1056    148.4911      2.4906   2.0394235074e+01   4.6681485020e+01    0.2727901    0.2450921 -30.75    0.0011091    1.212    0.175
        25  -9.8011    111.3529      5.9770   2.6720504790e+01   5.6269217001e+01    0.1895012     0.180173 -44.44 0.0008479733    1.135    0.119
        26  -9.9538     16.2380      7.9717   7.1672225984e+01   7.7082757265e+01     0.246608    0.1754317 -21.11 0.0003714768    1.387    0.279
        27 -10.2406    228.4033      4.1796   1.5324245246e+01   2.7966175777e+01    0.1672166   0.08065924 -40.02 0.0001354778    1.587    0.370
        28 -10.8163    173.9715      3.8227   1.8554934584e+01   4.0110915882e+01    0.2106943    0.1467275 -62.89 0.0004821848    1.300    0.231
        29 -10.0158    104.6684      4.2253   2.7155121024e+01   5.8224791977e+01    0.2284369    0.1705206  82.34 0.0003597624    1.284    0.221
        30 -11.0843     46.6831      3.7563   4.5744591960e+01   7.2648435831e+01    0.5192397    0.2090596  46.46  0.001521958    2.233    0.552
        31  -9.9988     13.5524      3.4718   7.1299021022e+01   7.8254406139e+01    0.2073835    0.1838244  18.02 0.0006578497    1.183    0.155
        32 -10.6746     10.3024      1.4197   7.3337942934e+01   7.8995152428e+01     0.264908    0.1349242  28.30 0.0009989073    1.926    0.481
        33 -10.7416    161.7272      2.4034   1.9126982776e+01   4.3287350808e+01      0.24032    0.2153085  19.71  0.001466285    1.372    0.271
        34 -10.1375    138.0023      2.4212   2.1498874226e+01   4.9445690387e+01    0.2005835    0.1830338 -46.51 0.0003245295    1.143    0.125
        35  -9.7360     63.1804      3.0789   3.7735326843e+01   6.8997332443e+01    0.2261705    0.1685096  31.75 0.0006297404    1.336    0.251
        36 -10.0952     37.2270      3.2409   5.1033630129e+01   7.4625388374e+01    0.3162564     0.177627  57.06  0.001450094    2.214    0.548
        37 -10.0099     97.2268     10.5039   3.1665392218e+01   5.9585395860e+01    0.2769479    0.1686226 -45.24 0.0008377907    1.789    0.441
        38 -10.5814     29.8888      1.3461   5.4785000623e+01   7.6246624710e+01    0.2239311    0.1153878  44.08 0.0006468177    1.894    0.472
        39  -9.4415    229.4843    165.5253   5.0204983532e+01   7.8101045256e+00    0.1179859   0.09112407  -6.82 6.934334e-05    1.020    0.020
        40 -10.3474    110.0034    250.5565   8.5281321461e+01   1.1227649048e+01    0.1744029   0.08406051  28.74 0.0004144424    1.520    0.342
        41 -10.9537     29.0338    250.1645   1.0211955081e+02   1.9749530873e+01    0.2780902    0.1127815  29.58  0.001590717    1.778    0.438
        42 -11.9631      3.1115    233.0645   1.0706732444e+02   2.4878042379e+01    0.3265772     0.279806  17.28  0.002007272    1.393    0.282
        43 -12.5914     10.5252    243.7703   1.0574252839e+02   2.2419047131e+01    0.5363788    0.2537995 -69.22  0.003287197    2.665    0.625
        44 -11.6138      1.9307    248.6335   1.0757352691e+02   2.2289644184e+01    0.3018424    0.1814905 -85.71  0.002170013    1.934    0.483
        45 -12.8944      5.0831    242.0496   1.0682383479e+02   2.3152490231e+01    0.4742765    0.3787693  65.10  0.003828566    1.248    0.199
        46  -9.8785     29.0095    138.9994   9.5886241528e+01   4.3158433887e+01     0.198254    0.1793771  67.77 0.0003772904    1.016    0.016
        47  -9.4429    235.6953    138.3413   4.4182217502e+01   1.0473551779e+01    0.1105055   0.08605997 -48.72 0.0007040768    1.681    0.405
        48  -8.9739     44.2836    136.7276   9.0503574710e+01   4.2197477018e+01    0.1445177   0.09556159  57.26 0.0002098362    1.501    0.334
        49  -9.0461     25.3467    136.2623   9.6878492138e+01   4.4176949137e+01    0.1327392    0.1003625 -32.12 0.0006975444    1.604    0.377
        50 -10.0237     96.0289    133.9277   7.3273392698e+01   3.5529139493e+01    0.2229936    0.2166338  44.32 0.0006366981    1.032    0.031
        51 -10.0369     11.1120    128.1349   1.0117064409e+02   4.7334077942e+01    0.2040147    0.1765253 -54.33  0.001232209    1.260    0.206
        52  -9.7414     65.0368    125.2676   8.1706385664e+01   4.2499870775e+01    0.2019821    0.1790962  41.43 0.0002228966    1.077    0.072
        53  -9.7174    208.5092    123.4986   4.5223906567e+01   1.6798857308e+01    0.1284037    0.1114409 -17.30 9.405698e-05    1.020    0.019
        54 -10.6067     25.2804    123.3056   9.5701888478e+01   4.7522778993e+01    0.2337735    0.1245779  57.17  0.001038125    1.907    0.476
        55 -11.6990     10.7234    120.7587   1.0081492760e+02   4.9260488581e+01    0.4398203    0.3087214  -0.67  0.001054589    1.682    0.405
        56 -10.8422     69.7621    115.9988   7.8337367221e+01   4.4149944929e+01      0.40919    0.2961387  27.46  0.001234411    1.400    0.286
        57  -9.1848     28.7347    115.7087   9.3587388414e+01   4.9214340952e+01    0.1370372    0.1007383 -42.41            0    1.503    0.335
        58 -10.6041     40.3041    113.5800   8.8860342009e+01   4.8631838943e+01    0.3066713    0.1779898 -61.40  0.001397399    1.665    0.400
        59 -11.3175     23.3989    113.2301   9.5365496306e+01   5.0323131128e+01    0.2407422    0.2263373  67.44 0.0002490785    1.032    0.031
        60 -11.3302      2.6500    111.8431   1.0326362883e+02   5.2028308804e+01    0.2378276    0.2117623  86.40 0.0002853481    1.027    0.026
        61 -10.3133     56.3934    110.7960   8.2240353929e+01   4.7403501996e+01    0.2046031     0.132378 -54.00 0.0004099662    1.556    0.357
        62  -8.9183     28.6853    119.6144   9.4053439756e+01   4.8191840056e+01     0.151558   0.09554149 -41.32 0.0007017723    1.826    0.452
        63 -11.4814     13.5085    107.9678   9.8739941219e+01   5.2431796720e+01    0.3274413    0.1787083 -56.15  0.001196463    1.798    0.444
        64 -11.3433     13.2695    104.0021   9.8474175686e+01   5.3495380136e+01    0.4206659     0.189255  39.31  0.001790754    2.127    0.530
        65 -10.2754     26.9671    107.4763   9.3282630454e+01   5.1548183713e+01     0.314591    0.1571603  76.11  0.001246377    2.444    0.591
        66 -10.1109     97.0216    106.5262   6.6928318973e+01   4.1769220205e+01    0.2239849    0.2007604 -53.05 -4.048091e-06    1.150    0.131
        67  -9.4458     20.4888    106.6022   9.5797569711e+01   5.2305391090e+01     0.135512    0.1277773  78.26 0.0002168136    1.022    0.022
        68  -9.1938     40.2529    104.3622   8.7445769841e+01   5.1070619346e+01    0.1502429    0.1017228 -41.86 0.0004010263    1.619    0.382
        69 -10.4430      5.9871    103.7329   1.0142257389e+02   5.3982440430e+01    0.1812652    0.1679837  53.43 0.0004012802    1.095    0.087
        70 -10.4122    109.0122    102.9795   6.2284216306e+01   4.0214730613e+01    0.2282673    0.2219748  10.35 0.0003211421    1.048    0.046
        71  -9.4781      1.4065    102.8200   1.0321772312e+02   5.4439300898e+01    0.1871451     0.109669 -69.87 0.0004698773    1.561    0.359
        72 -10.9385    247.5551    101.7005   3.5312129340e+01   1.3405284153e+01     0.228513   0.09683987 -27.61 0.0009820015    2.042    0.510
        73 -11.8057     18.1898     96.4440   9.5599954451e+01   5.5175071719e+01    0.6321362    0.3837519  60.47  0.002240749    1.733    0.423
        74 -11.2279     20.9683     92.4434   9.3870430183e+01   5.6038369090e+01    0.3250863    0.2029854 -65.00 0.0002975548    1.481    0.325
        75  -9.8248    217.9234     98.6525   3.8362645121e+01   1.8735776035e+01    0.1637957    0.1556198 -11.33 0.0004749615    1.118    0.106
        76 -10.3736     11.7624     97.4541   9.8479620195e+01   5.5323494196e+01    0.2137186    0.1774699 -84.09  0.000480078    1.112    0.100
        77 -10.1159     10.5060     93.9450   9.8679564410e+01   5.6327456294e+01    0.2709124    0.1538601 -79.94 0.0007787821    1.628    0.386
        78 -10.0978      8.0980     90.3230   9.9395785991e+01   5.7417730656e+01    0.2552893    0.1803283 -78.95 0.0009402222    1.295    0.228
        79 -10.5135     56.0899     96.9250   7.9569804171e+01   5.1038463109e+01    0.2610776    0.2085224 -58.49 0.0003067327    1.242    0.195
        80 -11.5898     57.7390     91.6183   7.7692431364e+01   5.2167269321e+01    0.3309232    0.2804137 -34.44  0.000679848    1.269    0.212
        81 -10.7738     43.9536     93.9222   8.4013786726e+01   5.3401867382e+01    0.3734313    0.1790165 -37.74  0.001365478    2.734    0.634
        82  -9.7642     30.2236     93.6397   8.9940415234e+01   5.4938300402e+01    0.3337922    0.1624034  84.71  0.001064263    2.771    0.639
        83 -11.6707    125.3039     92.9545   5.4907439577e+01   3.8900642821e+01      0.26245    0.2244737  46.08  0.000242475    1.152    0.132
        84 -10.6961    105.9971     91.8201   6.0172081056e+01   4.3310341515e+01    0.2899856    0.2477824 -79.07 0.0003294319    1.352    0.260
        85 -10.3418     66.7494     91.6334   7.4038617917e+01   5.0774793630e+01    0.2544232    0.2033268 -58.07 0.0002676872    1.258    0.205
        86 -12.0975    159.6152     89.3315   4.5828091131e+01   3.1951596643e+01    0.3486236    0.2750883  26.24 0.0001348033    1.444    0.308
        87  -9.2232    132.4490     90.4785   5.2342531562e+01   3.7811683727e+01    0.1509625    0.1466461 -87.03 6.217692e-05    1.068    0.064
        88  -9.9551     92.4148     93.2908   6.5003103662e+01   4.5745976999e+01    0.3584045     0.227589  71.72  0.001334771    2.570    0.611
        89 -13.5525     65.5515     81.7718   7.1913101317e+01   5.3422213437e+01    0.5170162    0.4288799  65.77 0.0006818977    1.339    0.253
        90  -9.4978     73.1910     82.8196   6.9111981516e+01   5.1847613654e+01     0.337411    0.2011233 -48.09  0.001285592    1.697    0.411
        91  -9.7672     95.9469     87.2978   6.2113298145e+01   4.6409138570e+01    0.2108218    0.1932653  47.28 0.0003806399    1.068    0.064
        92  -9.3747     92.0141     86.9860   6.3359409504e+01   4.7279212442e+01    0.1822104    0.1752751  44.98            0    1.017    0.016
        93  -9.2432     31.1683     87.1793   8.8418950217e+01   5.6565321332e+01    0.1820031    0.1533224  62.49 0.0002799844    1.224    0.183
        94 -10.4107     17.5039     84.7482   9.4408918300e+01   5.8337720526e+01    0.2305818     0.205335 -45.71 0.0002495693    1.136    0.120
        95  -9.2066    144.2660     84.6875   4.7849937119e+01   3.6238589826e+01     0.147527    0.1163949 -71.55 0.0002315626    1.543    0.352
        96 -10.5893      7.3724     83.6811   9.9069466613e+01   5.9213515297e+01    0.2636772    0.2192897 -55.63 0.0008225826    1.162    0.140
        97 -10.2460     11.2126     80.7808   9.6902460690e+01   5.9782196458e+01    0.2264239    0.1775155 -37.92  0.001084337    1.320    0.242
        98  -9.0072     27.6950     82.2503   8.9160893154e+01   5.8194456267e+01    0.1412033    0.1005653  55.28            0    1.504    0.335
        99  -9.7722    124.9377     81.2443   5.1597055678e+01   4.1331661895e+01    0.2067435    0.2002185  11.03 0.0002750826    1.073    0.068
       100  -9.7585    250.4404     80.5191   3.0606687497e+01   1.5557894791e+01    0.1174207   0.09279883 -30.87 0.0001519471    1.011    0.011
       101  -9.2097    142.4660     91.6254   5.0216244414e+01   3.5351372689e+01    0.1468992    0.1419537  34.95 6.668713e-05    1.035    0.034
       102 -10.2859     47.9177     78.8956   7.8882405923e+01   5.6804432676e+01    0.2555266    0.2060598 -43.44 0.0003716493    1.255    0.203
       103 -10.1364     51.9302     75.4767   7.6131632028e+01   5.7111879742e+01    0.3251669    0.2864904  29.03  0.001066813    1.147    0.128
       104 -10.4805     18.1327     76.4529   9.2865742181e+01   6.0494502696e+01    0.3207238    0.1961333 -58.75   0.00156851    1.494    0.330
       105 -10.2765    176.9715     76.5224   3.9144913353e+01   3.0219825900e+01    0.2874688     0.212078  66.59  0.001345006    1.504    0.335
       106  -9.9896     42.8024     76.8154   8.0762446049e+01   5.7999580117e+01    0.1964412    0.1644502  61.52 0.0002487208    1.289    0.224
       107  -9.9566     23.1621     76.9545   9.0425843260e+01   5.9982005660e+01    0.2429127    0.1429451  66.16    0.0010679    2.051    0.512
       108 -10.7114     11.8008     76.8795   9.6112216129e+01   6.0782100692e+01    0.2060089    0.1712384 -49.88  0.000517708    1.168    0.144
       109  -9.8808     86.2372     78.5800   6.2882742603e+01   5.0358930816e+01    0.2893448    0.1463461  44.32 0.0007835372    1.943    0.485
       110 -11.0645      4.8958     75.0458   9.9366853423e+01   6.1605552338e+01     0.327641    0.2401492 -21.45   0.00163369    1.491    0.329
       111  -9.8434     34.9484     73.5735   8.3822738446e+01   5.9752032655e+01    0.3433386    0.2443864 -60.04  0.001723461    1.333    0.250
       112 -10.1568     71.9752     73.3535   6.6753171896e+01   5.4320173655e+01    0.2074107    0.1853379  35.01 0.0004698919    1.109    0.099
       113  -9.6455    148.0212     72.0104   4.3318964094e+01   3.7615754771e+01    0.1740434    0.1695485 -54.12            0    1.013    0.012
       114  -9.5113    105.6586     71.9266   5.4189758359e+01   4.7616027488e+01    0.2068285     0.196998 -69.17  0.000521102    1.086    0.079
       115 -10.2129     46.0708     69.3740   7.7217570458e+01   5.9464772200e+01    0.2586931    0.2407596 -11.90 0.0009617733    1.108    0.097
       116 -11.6372    118.0606     71.2375   5.0331752193e+01   4.4880854233e+01    0.3379855    0.2392818  32.53 0.0009855115    1.618    0.382
       117 -11.5128     10.1577     70.2694   9.6050681519e+01   6.2614290742e+01    0.3910877     0.239077 -17.57   0.00129713    1.866    0.464
       118 -13.3762     80.9232     67.0511   6.1107782987e+01   5.4015119560e+01    0.4479512    0.3834774  -3.92 0.0006890818    1.363    0.266
       119  -8.9118     39.3082     70.3090   8.0833009641e+01   6.0093800031e+01      0.15137    0.1054604 -30.25 0.0007022289    1.616    0.381
       120 -12.3803      5.2322     65.2836   9.8034317363e+01   6.4151054560e+01    0.7325911    0.2668911 -69.22  0.002320186    2.296    0.565
       121 -13.7642     20.6138     58.6336   8.8090027161e+01   6.4956497722e+01    0.6692915    0.3307618 -47.02  0.001084573    1.907    0.476
       122 -11.6005     11.8072     59.7372   9.3452693773e+01   6.5272106056e+01    0.3051343     0.239048  26.71 0.0002923291    1.362    0.266
       123  -9.9742     63.5132     66.0395   6.7995527354e+01   5.7555067601e+01    0.4044513    0.2556008   8.72  0.001576676    2.477    0.596
       124  -9.7663     68.4737     64.4892   6.5298308323e+01   5.7018202210e+01    0.8915115    0.2347746  48.49  0.002064195    6.032    0.834
       125 -10.4642    171.0199     63.0046   3.6397253165e+01   3.3639965861e+01    0.2046812    0.1997875 -30.09 0.0003505508    1.067    0.063
       126  -9.9002    128.4629     63.1931   4.4987189745e+01   4.3867782543e+01    0.2159611    0.1501267 -36.97 0.0005006642    1.466    0.318
       127  -9.5854    119.9322     62.4797   4.6916586964e+01   4.6074153199e+01    0.2101642    0.1481611  52.75 7.978384e-05    1.384    0.277
       128  -9.1478     34.6522     62.7364   8.1243161526e+01   6.2558134570e+01    0.1474485    0.1039818 -24.59 0.0006979011    1.609    0.378
       129  -9.5384    154.1473     61.0604   3.8787413533e+01   3.7947331602e+01    0.2224631    0.1666124 -73.96 0.0008892007    1.571    0.364
       130  -9.7879     98.7266     61.0026   5.2632211285e+01   5.1393504274e+01    0.2163966    0.1930544 -45.61 0.0004259326    1.153    0.133
       131 -12.8458     57.9299     58.7987   6.8079836672e+01   6.0201469664e+01    0.3304875     0.314534  35.79 0.0005064772    1.055    0.052
       132  -9.7179     38.4449     59.5125   7.8264299873e+01   6.2912783083e+01    0.2941854    0.1409801  26.73  0.001018999    2.130    0.531
       133 -10.8157     73.4584     57.6086   6.0707490425e+01   5.7578670665e+01    0.4095346     0.227645  55.71 0.0009761494    2.196    0.545
       134 -10.0872    229.1454     56.5194   2.7408868352e+01   2.2197091777e+01    0.1838423    0.1407852 -35.01 0.0007022667    1.101    0.091
       135  -9.2723    130.7101     57.3056   4.2489382638e+01   4.4326476564e+01    0.1529723     0.115707 -71.94 0.0002695856    1.573    0.364
       136 -11.4284    211.8379     67.4321   3.1850730096e+01   2.4170701069e+01    0.2263134    0.1877758 -34.27 0.0003150084    1.065    0.061
       137 -10.0005    225.1978     55.6376   2.7586558236e+01   2.3055831166e+01      0.22727    0.1437215 -19.61 0.0003375334    1.654    0.395
       138 -12.6914     86.1392     54.0059   5.4364827405e+01   5.5630523039e+01    0.4190148    0.3047513  39.92 0.0004174964    1.367    0.269
       139 -10.7299     80.8405     51.9209   5.5541094880e+01   5.7211040167e+01    0.4679204    0.2857373  68.60   0.00108728    2.534    0.605
       140 -12.7119    114.8687     53.3817   4.5075332026e+01   4.8931885844e+01    0.3243317    0.2978826  60.95  0.000393518    1.055    0.052
       141 -10.7025     16.6349     50.8157   8.8651503485e+01   6.7243876866e+01    0.6040941    0.3011751  83.67  0.002314951    3.073    0.675
       142 -12.3745     66.6250     52.2697   6.1603952511e+01   6.0069247956e+01    0.6779268    0.3152658  47.44  0.002457572    2.249    0.555
       143 -10.1005    148.8449     52.1000   3.6988747548e+01   4.0632798932e+01    0.2189436    0.1880195 -67.09 0.0003654973    1.184    0.155
       144 -10.4200    137.3317     50.7672   3.8827464443e+01   4.3724335207e+01    0.5166233    0.2573622  34.26  0.001748057    3.264    0.694
       145 -10.0099    100.4799     44.5526   4.5816239611e+01   5.4001531825e+01     0.256685    0.2287536 -20.26 0.0005815789    1.219    0.180
       146 -12.3811    106.2855     50.3762   4.6361616200e+01   5.1570921002e+01    0.2942061    0.2863419 -38.29  0.000273749    1.069    0.065
       147 -10.6141    103.8268     44.2804   4.4713477784e+01   5.3221788749e+01     0.516525    0.3047874 -47.38   0.00175735    1.831    0.454
       148 -10.0684     37.9434     52.0657   7.6160832414e+01   6.4790226415e+01    0.2396249    0.1603814 -26.99  0.000946767    1.718    0.418
       149  -9.1737     97.6577     50.8440   4.9180003592e+01   5.3573029019e+01    0.2086701    0.1376774 -50.05 0.0003736989    1.645    0.392
       150  -9.2463    119.3393     49.2851   4.2425625934e+01   4.8507397659e+01    0.1553546    0.1157461  28.05 0.0003939148    1.633    0.388
       151 -10.1506     54.6292     48.6277   6.5870651862e+01   6.3058988065e+01    0.3387052    0.2262533 -70.06  0.000827536    2.048    0.512
       152  -9.9259    154.9599     47.0201   3.4284789933e+01   3.9855690060e+01    0.2165618    0.2036614 -73.25 0.0005030308    1.012    0.012
       153 -10.1118     74.8100     47.2846   5.6059945956e+01   5.9428227053e+01    0.2200778    0.2000197  67.79    0.0005621    1.189    0.159
       154  -9.7768      8.6489     47.6904   9.3084900590e+01   6.8522650271e+01    0.1487397    0.0836944 -38.45 0.0003003721    1.717    0.418
       155 -10.1911     79.1021     45.6037   5.3633716304e+01   5.8822967025e+01    0.2323709     0.207923 -56.75  0.000379758    1.205    0.170
       156 -10.4121     67.1735     45.1197   5.8422684016e+01   6.1443758584e+01    0.2591088    0.2244293  14.26 0.0008292354    1.227    0.185
       157 -11.2595     25.9757     44.6746   8.0928867407e+01   6.7952355021e+01     0.619646    0.3355646  22.36  0.002853546    1.893    0.472
       158  -9.5628     18.2730     45.0079   8.6067585347e+01   6.8568994268e+01    0.1924698    0.1658649 -49.11  0.000555552    1.067    0.063
       159  -9.6109     16.0000     43.0036   8.7028547383e+01   6.9236715343e+01    0.2123545    0.1536615  61.49 0.0004469114    1.685    0.407
       160 -13.0039    141.6326     40.7748   3.4594244349e+01   4.4110546983e+01    0.3046109    0.2784909  76.02 0.0005443559    1.057    0.054
       161 -10.2635     37.7128     41.8901   7.2549769765e+01   6.7198798192e+01    0.4157783    0.2445526  35.73  0.001941916    1.711    0.415
       162  -9.1401    214.6619     41.2856   2.5147886231e+01   2.6878696589e+01    0.1328126   0.08123439 -58.60 0.0005662682    1.632    0.387
       163 -11.1284    184.0494     40.3575   2.8133998216e+01   3.3715861449e+01    0.3651273    0.2578935 -85.91  0.001449888    1.539    0.350
       164 -10.4235    116.7704     41.1371   4.0025114569e+01   5.0457385997e+01    0.2779427    0.2034664  53.84  0.001338476    1.310    0.237
       165 -12.5269    121.4290     37.4648   3.7530625898e+01   4.9805570274e+01    0.3757224    0.3319618 -32.85 0.0005444991    1.191    0.160
       166 -11.2045      4.6035     39.9894   9.4242865211e+01   7.0637738257e+01    0.3176159    0.1155711 -72.89  0.001276381    2.509    0.601
       167  -9.5955     51.8520     38.8505   6.3157259021e+01   6.5630330736e+01    0.1948566    0.1679632  59.19 0.0005303271    1.333    0.250
       168  -9.4238     43.5332     39.5187   6.8099526543e+01   6.6872446597e+01    0.1403095     0.135119  -4.74 5.619214e-05    1.034    0.033
       169 -10.1745    170.7529     40.3064   2.9820005456e+01   3.6882083662e+01    0.2249763    0.1731795 -37.46            0    1.241    0.194
       170  -9.3500     77.3223     37.3154   5.0700701629e+01   6.0742887521e+01    0.1532377    0.1151043  15.31 0.0003133751    1.661    0.398
       171  -9.1773     21.3130     37.6571   8.1672782474e+01   7.0085842281e+01    0.1373068     0.102624  62.53 0.0007046819    1.705    0.413
       172 -11.1272    177.4001     35.9085   2.7669551743e+01   3.5837180777e+01    0.2220202    0.1964526 -82.17 0.0003513281    1.094    0.086
       173  -9.7011    132.5024     35.7444   3.4565584957e+01   4.7170190586e+01    0.2120749     0.144273  -5.04  0.000524557    2.019    0.505
       174 -12.4457     19.1604    248.0347   1.0407890201e+02   2.0973895438e+01    0.5284818    0.2031963  25.61  0.002855049    2.074    0.518
       175 -10.2398     93.0436     39.2687   4.5961842132e+01   5.6709129062e+01    0.2180916     0.191954  52.76 0.0004705192    1.083    0.077
       176 -11.9617     45.2746     32.6702   6.3938026614e+01   6.8030507103e+01    0.2980045    0.2590431 -43.11 0.0002780545    1.177    0.150
       177  -9.7724     49.8523     32.2877   6.1144045908e+01   6.7310417377e+01     0.270309    0.1743351 -32.28  0.001272122    1.675    0.403
       178 -10.9262     28.1780     33.3063   7.5190510093e+01   7.0361637245e+01     0.239819    0.1861962 -33.87 0.0005184879    1.238    0.192
       179  -9.6013    127.7918     32.9444   3.4473224473e+01   4.8781679386e+01    0.2020103    0.1902564 -83.19  0.001037071    1.030    0.029
       180 -10.7046    110.2339     40.6732   4.1509154172e+01   5.2197524998e+01    0.3244043    0.2376766 -82.49 0.0009425754    1.720    0.419
       181  -9.5045     55.4974     32.6147   5.8288023168e+01   6.6196665964e+01    0.1430432      0.13243  21.74 9.444065e-05    1.029    0.028
       182  -9.1751     89.3287     31.3089   4.3661369559e+01   5.8896063919e+01    0.1548781    0.1116704  25.75 0.0007039924    1.661    0.398
       183 -10.4534     71.0523     30.6542   5.0082593626e+01   6.3304630169e+01    0.3767275    0.2291873 -62.34 0.0009543012    2.621    0.618
       184 -10.6228     67.2706     27.2441   4.9976441110e+01   6.4715139243e+01    0.3712213    0.2695227  16.62 0.0008338771    1.691    0.409
       185  -9.7066     71.2826     26.3024   4.7807089635e+01   6.3967689063e+01    0.2237385     0.178366 -17.53 0.0002270239    1.383    0.277
       186  -9.8957     24.0480     31.3243   7.7288811337e+01   7.1277758268e+01     0.189187     0.171446  14.33 0.0007595838    1.122    0.109
       187 -12.6116     11.0323     29.8619   8.6673294360e+01   7.2757235178e+01    0.3150753      0.24121  25.83 0.0008289379    1.391    0.281
       188 -11.1786    135.7119     29.0841   3.1564696031e+01   4.7211409934e+01    0.2492274    0.2122964  77.59  0.000292679    1.118    0.105
       189  -9.6853    132.1921     26.3803   3.1200743847e+01   4.8475159498e+01    0.2483373    0.1613835 -61.27 0.0004976008    1.706    0.414
       190  -9.8441    227.2667     28.8140   2.1117710922e+01   2.5734050904e+01    0.2702476   0.06802417 -33.64  0.001098264    2.780    0.640
       191 -11.4162    221.0539     26.4437   2.1007064129e+01   2.7233548658e+01    0.2517955    0.1626083 -38.42 0.0002401803    1.283    0.221
       192 -11.8428     90.9920     26.6283   4.0983916571e+01   5.9180371139e+01    0.3113417    0.2607665 -44.83 0.0002896184    1.273    0.214
       193 -10.8606     81.3944     38.0894   4.9493752063e+01   5.9675838394e+01    0.4230521    0.2667201 -27.20  0.001009163    1.835    0.455
       194  -9.6444     80.7892     26.7587   4.4416328021e+01   6.1668532296e+01    0.1965816    0.1706581 -73.80 0.0005284541    1.339    0.253
       195 -10.7949     51.2317     24.7838   5.6482108377e+01   6.8463535285e+01    0.4239055    0.2382028 -42.23  0.001932162    1.843    0.457
       196 -10.6140    102.5285     22.8782   3.6068026717e+01   5.6736796812e+01     0.334246    0.2800061  42.83 0.0009200384    1.201    0.167
       197  -9.6606     45.3169     25.9507   6.0480486917e+01   6.9341705536e+01    0.1913246    0.1730767 -23.80 0.0004106822    1.095    0.087
       198  -9.4084     18.5821     26.0125   7.9187990413e+01   7.3033104685e+01    0.1954034    0.1233485 -58.01  0.001001546    1.540    0.351
       199  -9.8919    186.5694     25.2676   2.3627369699e+01   3.4913881238e+01    0.1702772    0.1261099 -16.70 0.0005607359    1.522    0.343
       200 -10.5782    119.4828     24.8519   3.3043440154e+01   5.2025127756e+01    0.2418536    0.1908993  67.59  0.000276578    1.189    0.159
       201  -9.6240    230.1926    247.2218   6.2853863144e+01  -1.5457134112e+00    0.1238036   0.09172698   9.88 0.0004906444    1.287    0.223
       202 -10.0394    128.3123     23.2890   3.0736584931e+01   4.9877360609e+01    0.2592383    0.2034237  36.07 0.0009667481    1.441    0.306
       203 -11.0596    124.4954     20.5947   3.0390349747e+01   5.1209735213e+01    0.2563744    0.2431434  59.69 6.088414e-05    1.085    0.078
       204  -9.3551    224.3161    247.3142   6.3790088247e+01  -9.8497689457e-01    0.1061193   0.05668295   1.79 0.0003365356    1.645    0.392
       205 -10.1204     85.1297     23.1114   4.1158541586e+01   6.1141188568e+01    0.2552307    0.2068379 -44.47  0.001333954    1.330    0.248
       206 -10.2570     33.5857     24.2524   6.7106549773e+01   7.1578159772e+01    0.2892044    0.1619863  40.36  0.001118622    1.854    0.461
       207  -9.4483     31.3832     20.8207   6.6801117998e+01   7.2586043787e+01     0.193376    0.1166739 -36.76 0.0005498077    1.667    0.400
       208  -9.2474     20.2723     16.7367   7.3265337364e+01   7.4859214822e+01    0.1665448    0.1033178  23.75 0.0002101391    1.598    0.374
       209  -9.9788    131.4984    247.0638   8.0574120856e+01   9.2368450854e+00    0.1360255    0.1122437 -37.73  0.001021681    1.557    0.358
       210 -11.9973     18.3136     20.4898   7.6872113243e+01   7.4276904288e+01     0.452586    0.2802114  28.60 0.0002704786    1.633    0.388
       211  -9.8911    115.9856    246.6804   8.3691508864e+01   1.1099102355e+01    0.1619411    0.1163782  25.53 0.0005680351    1.035    0.033
       212 -10.8027    238.2975     19.7536   1.8330694318e+01   2.4543045220e+01    0.2034062    0.1485775  66.60  0.001366262    1.623    0.384
       213  -9.4107    114.0000     19.9924   3.2195455696e+01   5.4072240346e+01    0.2297048   0.08427691 -26.33 0.0007997419    2.924    0.658
       214  -9.5995     70.7837     18.9113   4.4111369234e+01   6.5200115385e+01    0.1829001    0.1183823 -28.09 0.0008601737    1.663    0.399
       215  -9.6182     62.3424     19.6618   4.8084974424e+01   6.7012033904e+01    0.2337144    0.1339647 -40.23  0.001054539    1.860    0.462
       216 -10.2119     60.6171     15.8004   4.6646873963e+01   6.7970531975e+01      0.25195    0.2043856 -70.34 0.0002501973    1.637    0.389
       217 -10.5573     43.5034     19.0320   5.7662480758e+01   7.0930666258e+01    0.2078132    0.1798222  28.01 0.0003995117    1.094    0.086
       218 -10.5820    139.9635     17.9642   2.6876704351e+01   4.7403911700e+01    0.2073465    0.1898719  78.39            0    1.054    0.051
       219  -9.6092    134.8128     18.1934   2.7735763977e+01   4.8740347617e+01    0.1937634    0.1568512  50.62 0.0003388714    1.280    0.219
       220  -9.2567     49.9879     17.9928   5.3280320222e+01   6.9872330837e+01    0.1624395    0.1498941  -7.80            0    1.076    0.071
       221  -9.5709    229.6927     17.3015   1.8279882940e+01   2.6449155570e+01    0.1268148   0.06837945 -54.14 0.0002012217    1.599    0.375
       222 -10.5535    215.1868     15.9396   1.8865610898e+01   2.9538117499e+01    0.1990503    0.1300207 -52.23 0.0004101273    1.292    0.226
       223 -10.3107    171.0940     16.1522   2.2510582622e+01   3.9620466254e+01    0.1888587    0.1761295  56.07 0.0003347452    1.214    0.176
       224 -10.3162    159.9067     15.9862   2.3647574405e+01   4.2441990398e+01    0.2036942    0.1885221 -78.38 0.0004061377    1.044    0.042
       225  -9.4958    170.5103    246.5174   7.2959288603e+01   4.8064010966e+00    0.1131516   0.07934729  13.02 0.0008094972    1.065    0.061
       226 -10.1377     52.6867    244.2767   9.6895775845e+01   1.8460586712e+01    0.1874439    0.1276417  31.66 0.0006769829    1.135    0.119
       227 -10.3196    235.4925     14.5004   1.7310384789e+01   2.5598527724e+01    0.1168663   0.09369684 -47.88 -6.285578e-05    1.026    0.025
       228  -9.8039    147.4612    243.5142   7.7011258030e+01   7.8484510953e+00    0.1154112   0.08453093  18.69 0.0001805447    1.019    0.019
       229  -9.5802     39.6175    243.2970   9.9633851857e+01   1.9910731137e+01    0.1259569   0.05426697  47.38 0.0007019958    1.766    0.434
       230  -9.0070    194.5030    242.5520   6.8134962184e+01   2.6063673640e+00    0.1092443    0.0769058  11.06   0.00080835    1.010    0.009
       231  -9.9932    188.6528    248.3103   6.9897337957e+01   2.5906620981e+00   0.09701221   0.07229888  35.76  0.000704522    1.709    0.415
       232  -9.4204     60.5059    240.5458   9.4997070031e+01   1.8278753701e+01    0.1175156   0.08573881  37.82 5.290161e-07    1.020    0.020
       233  -9.4927     59.0303    235.9972   9.5037548177e+01   1.9205788178e+01    0.1384007    0.1051179  38.44 0.0003477792    1.017    0.016
       234 -10.3914     20.9875    237.0000   1.0336720959e+02   2.2703425151e+01    0.1842461   0.04948419  25.09 0.0008035713    2.950    0.661
       235  -9.5803     10.4935    161.4977   1.0315418841e+02   3.9146771624e+01    0.1272214    0.1096327  59.33 0.0008105314    1.025    0.024
       236 -10.1650     32.3422    233.1636   1.0076688561e+02   2.2357070982e+01    0.1792493    0.1262387  27.53 0.0004040588    1.251    0.201
       237 -10.1158    246.0805    230.3082   5.8105774841e+01  -1.4196685338e+00    0.1737067    0.1037608  16.09 0.0006467756    1.319    0.242
       238  -9.3621    242.6873    230.3044   5.8610991169e+01  -1.0902418124e+00    0.1260956   0.08644918  21.84 0.0003331527    1.453    0.312
       239  -9.7064    209.7075    229.6880   6.3777737821e+01   2.3977607122e+00    0.1106205   0.06387848   0.69 0.0002777253    1.590    0.371
       240 -10.0129     56.6029    227.8844   9.5066693134e+01   2.0885682843e+01     0.232809    0.1078201  89.13  0.001138993    3.127    0.680
       241 -10.1580    140.1777    227.9252   7.6647229950e+01   1.0918306990e+01    0.1866159    0.1399427  38.80  0.001245626    1.358    0.264
       242 -11.5814      2.6718    220.0320   1.0691333857e+02   2.7301048515e+01    0.5047253    0.1209278  65.33  0.002080086    3.834    0.739
       243  -8.9300    152.3061    227.6220   7.4133534112e+01   9.4459578395e+00    0.1102138   0.08367271  49.74 0.0007027282    1.778    0.438
       244  -9.8047    223.2917    226.3610   6.1062540845e+01   1.2977673319e+00    0.1120182   0.06178758  -1.91 0.0007028381    1.698    0.411
       245 -10.7081      7.9967    221.1308   1.0575444090e+02   2.6677885469e+01    0.2594939    0.1044341  76.60  0.001141934    2.518    0.603
       246 -10.8396      1.4520    226.3879   1.0730021044e+02   2.6213004249e+01    0.2860057    0.1146774 -82.05 0.0009528953    2.739    0.635
       247 -10.8242      4.2787    153.4738   1.0465923899e+02   4.1483236997e+01    0.3129341    0.1589278  66.18 0.0008867518    1.782    0.439
       248 -10.0080     85.8525    215.0763   8.7273720531e+01   1.9867578129e+01     0.178305    0.1363945  43.23 0.0003426943    1.151    0.131
       249  -9.2459    205.5229    211.4363   6.1826350058e+01   5.0314376879e+00    0.1155008   0.08413079   4.94 4.773297e-05    1.044    0.042
       250 -11.3268      3.7780    210.4418   1.0646052513e+02   2.9061216179e+01    0.3403611     0.111244  72.44  0.001558302    3.014    0.668
       251  -9.7086    230.2963    209.6422   5.7454896586e+01   2.3862512785e+00   0.08974687   0.08186631 -11.95  0.000685144    1.701    0.412
       252  -9.8006     20.2557    209.2654   1.0256248724e+02   2.7951897354e+01    0.1714038    0.1008628  50.89  0.001034262    1.349    0.259
       253 -10.1115     39.1772    207.1693   9.7897739711e+01   2.6609781709e+01     0.170929    0.1493811  37.82 0.0004946601    1.128    0.114
       254 -10.6902      4.5103    201.4913   1.0607680510e+02   3.0795055009e+01     0.118618   0.09164277  50.12 0.0008105413    1.003    0.003
       255  -9.8806     18.4467    194.2800   1.0240660920e+02   3.1176779868e+01    0.2038187    0.1095663 -77.18 0.0008069277    1.986    0.496
       256  -8.8723    208.5452    191.5052   5.8139790043e+01   7.1861054536e+00    0.1183422   0.09107883   0.95 0.0002442187    1.010    0.010
       257  -9.5855     22.0370    180.0000   1.0080540740e+02   3.3970946423e+01    0.2064341   0.06430407  22.29  0.000805614    2.965    0.663
