#   1 NUMBER                 Running object number                                     
#   2 MAG_AUTO               Kron-like elliptical aperture magnitude                    [mag]
#   3 X_IMAGE                Object position along x                                    [pixel]
#   4 Y_IMAGE                Object position along y                                    [pixel]
#   5 X_WORLD                Barycenter position along world x axis                     [deg]
#   6 Y_WORLD                Barycenter position along world y axis                     [deg]
#   7 A_WORLD                Profile RMS along major axis (world units)                 [deg]
#   8 B_WORLD                Profile RMS along minor axis (world units)                 [deg]
#   9 THETA_WORLD            Position angle (CCW/world-x)                               [deg]
#  10 FWHM_WORLD             FWHM assuming a gaussian core                              [deg]
#  11 ELONGATION             A_IMAGE/B_IMAGE                                           
#  12 ELLIPTICITY            1 - B_IMAGE/A_IMAGE                                       
         1 -14.4040    196.6642     36.6504   4.9987269593e+01   3.1356270210e+01     1.759438     1.404575   2.46  0.005653244    1.604    0.377
         2 -14.6778    207.4335     24.9539   4.5414425796e+01   3.0113254315e+01     1.864947     1.346468  16.67  0.003111069    2.007    0.502
         3 -10.3715    155.1942     10.8085   4.8212148028e+01   4.5010290515e+01    0.2845268    0.1962947 -79.38  0.001244249    1.689    0.408
         4 -10.7612     62.5149      8.0423   6.9810983375e+01   6.5979751443e+01    0.1935536    0.1518384  27.79  0.001238036    1.175    0.149
         5 -12.3615    230.9798      2.4040   3.7531341914e+01   2.6941181221e+01    0.7447468    0.2883942  73.67  0.003099924    2.396    0.583
         6 -11.8790     58.9282      2.3580   6.8276081038e+01   6.7210742525e+01    0.4598596    0.1660757  42.77  0.002097013    2.503    0.600
         7 -11.0735     28.5184      1.9986   8.1471103261e+01   7.1677709107e+01    0.1984512    0.1521375  34.32  0.001133233    1.653    0.395
         8  -9.1247    107.7250    203.3669   1.0876997714e+02   1.8208262386e+01    0.1357512   0.09088955  74.24 0.0004736938    1.673    0.402
         9 -11.0689    139.5149    248.0131   1.0807433116e+02   5.2549076619e+00    0.4351262    0.2102362 -61.44  0.002232646    2.945    0.660
        10 -12.9307     73.3596    174.5432   1.1253072093e+02   2.9627558244e+01    0.9019276    0.4732816 -35.31  0.003255393    4.470    0.776
        11 -14.2231     46.7923    220.1886   1.2258430918e+02   2.3487856443e+01     1.031682    0.7518664  86.49  0.001341776    1.177    0.150
        12 -16.2246     51.5900    200.6425   1.2006124299e+02   2.6828903272e+01     4.171618     3.364088 -80.98    0.0224358    1.222    0.182
        13 -17.6183      5.7987    240.3923   1.3071306670e+02   2.4196846937e+01     10.63732     1.340677 -77.41   0.02769102    6.471    0.845
        14 -13.8278     20.1251    192.6869   1.2566567439e+02   3.1985176982e+01    0.7838305    0.4871689  57.02 0.0005719021    1.386    0.278
        15  -9.8884     81.9883    195.0273   1.1317187646e+02   2.3906207305e+01    0.1992354    0.1691517  73.46 0.0006309627    1.017    0.017
        16  -9.2947     96.0121    188.9766   1.0936222851e+02   2.3053428159e+01    0.2062494    0.1404048  71.28 0.0004130048    1.532    0.347
        17 -10.4450    149.6919    187.3160   9.7327803958e+01   1.4026044553e+01    0.2305373    0.1915613  71.20 0.0008054542    1.339    0.253
        18  -9.5458     99.0012    186.3754   1.0834166589e+02   2.3132595249e+01    0.2464013    0.1713662 -87.19 0.0006316135    1.577    0.366
        19 -16.5236     62.5074    247.7831   1.2180919751e+02   1.6472221516e+01     7.891425     2.607333  31.44   0.01975469    6.270    0.841
        20 -10.1290     99.4560    180.6532   1.0741630676e+02   2.4296004931e+01    0.2312515    0.2212962  56.43 0.0006129784    1.173    0.147
        21 -11.2134    209.1347    198.3598   8.7253214018e+01   1.1420013318e+00    0.2348199    0.1927684 -38.94 0.0008072773    1.399    0.285
        22 -12.9580     53.3857    110.0398   1.0750974675e+02   4.7536827584e+01     1.757699    0.4196771 -64.52  0.005018166    4.663    0.786
        23 -13.8072     72.1450    158.0025   1.1052717217e+02   3.3605244474e+01    0.5881066     0.558063 -57.96  0.002118072    1.238    0.192
        24 -14.8358     68.5740    144.3178   1.0932475374e+02   3.7343024776e+01     5.005799     2.225115  61.00   0.01014504    3.546    0.718
        25  -9.3298    217.5450    174.5143   8.1011275031e+01   3.3929203028e+00    0.1376778    0.1233181   4.72 7.470529e-05    1.019    0.019
        26  -9.6653     97.9764    200.3199   1.1042838373e+02   2.0377787607e+01    0.3220637    0.2288085   8.41 0.0006632396    2.608    0.617
        27  -9.8375    162.0308    166.8222   9.0783758017e+01   1.5680338233e+01    0.2196627    0.1939813  72.97 0.0005093123    1.269    0.212
        28 -10.1786     52.5099    164.9172   1.1616247983e+02   3.4567344934e+01    0.3566478    0.1559079 -49.89  0.001542126    2.748    0.636
        29 -10.8190     33.0074    165.2364   1.2068866767e+02   3.6681992231e+01    0.3625748    0.1525838 -82.35   0.00165456    2.319    0.569
        30  -9.8057     37.1824    161.8245   1.1938370746e+02   3.7023403701e+01    0.2610812    0.1802814  13.31  0.001473906    2.239    0.553
        31  -9.0609    192.3302    164.6988   8.3905353445e+01   9.9718449016e+00    0.1399608    0.1174633  85.73 0.0002684285    1.648    0.393
        32  -9.2714    170.7577    161.6239   8.7802805508e+01   1.4942941194e+01    0.2111935    0.1345306  53.06 0.0005232167    1.669    0.401
        33  -9.0903    156.0781    159.1525   9.0542962820e+01   1.8444398277e+01    0.1982811    0.1739502  80.45 0.0003518715    1.292    0.226
        34 -12.3543     90.3986    155.5626   1.0562293884e+02   3.1437072837e+01    0.6063311    0.4492927 -28.41  0.001773022    1.933    0.483
        35 -11.4375    133.6355    144.0242   9.2615651252e+01   2.6262946982e+01     1.097949    0.2966484 -54.17   0.00285615    4.795    0.791
        36 -10.6755    174.3013    148.6722   8.4215841032e+01   1.6776653594e+01    0.3619331     0.283391 -71.88  0.001628408    1.659    0.397
        37 -10.7811     41.5303    147.4131   1.1667532807e+02   3.9912577275e+01    0.2655224    0.1819022  67.28 0.0008897582    1.453    0.312
        38 -10.6070    144.0864    145.6657   9.0447530421e+01   2.3772544395e+01    0.3503175    0.2430691 -79.92  0.001469916    2.111    0.526
        39 -10.8047     46.9285    172.6460   1.1831344749e+02   3.3470905213e+01    0.4340967    0.2448007 -75.75  0.001809627    1.572    0.364
        40 -11.1761    103.8421    140.2767   9.9369828226e+01   3.2770245207e+01    0.5607885    0.3698577 -24.78  0.002338204    2.438    0.590
        41 -12.5105     91.2370    140.5340   1.0272085177e+02   3.4848532255e+01    0.2862283    0.2522919 -53.13 0.0004788132    1.163    0.140
        42  -9.6199     79.0870    139.3299   1.0571246351e+02   3.7033213716e+01    0.1905933    0.1663394  61.37 0.0003447563    1.159    0.137
        43 -10.5848     45.7692    136.2348   1.1408242598e+02   4.2106493920e+01    0.4128686    0.1424756 -61.52  0.001703977    2.357    0.576
        44  -9.6060     38.8337    137.8904   1.1613389530e+02   4.2453212646e+01    0.1849877    0.1485369 -62.60 0.0002783423    1.193    0.162
        45 -12.9421     43.2088    127.4331   1.1347033799e+02   4.4494515729e+01     0.792181    0.4306867  62.48  0.003723302    2.293    0.564
        46 -10.3775    112.4380    130.5895   9.5056008506e+01   3.3473236613e+01    0.2968651    0.2580597 -10.13 0.0006457653    1.418    0.295
        47 -10.5753    105.9846    130.7460   9.6806022152e+01   3.4629253613e+01     0.334568     0.287027 -69.77  0.001224698    1.146    0.127
        48 -11.5848    135.9415    128.6864   8.8551439991e+01   2.9219873701e+01    0.6140462    0.2475962 -48.65  0.001949537    2.485    0.598
        49 -10.0594    160.1378    127.4404   8.2404011297e+01   2.4238383095e+01    0.3275721    0.2063616 -59.29  0.001326011    1.942    0.485
        50 -11.2126     99.4084    127.0536   9.7777083185e+01   3.6673337816e+01    0.3728244    0.2826224   2.60  0.001315576    1.942    0.485
        51 -11.5227    119.3971    123.8042   9.1649088955e+01   3.3702286319e+01    0.5527766    0.3816709 -14.29  0.002240832    2.358    0.576
        52 -11.0365     24.9192    120.8788   1.1759348508e+02   4.7801469209e+01    0.2651109    0.1534383  48.52  0.001455165    1.927    0.481
        53  -9.9891    108.5277    119.4490   9.3540339916e+01   3.6806807596e+01    0.2364135    0.2301717  58.35 0.0006202117    1.067    0.063
        54 -12.5417     42.9553    113.9044   1.1134285758e+02   4.7768338375e+01    0.5020136    0.3071482  58.24  0.002494223    1.968    0.492
        55 -11.3899     41.8172    108.8107   1.1078291358e+02   4.9104144075e+01    0.3033509    0.2032537 -69.94  0.001155112    1.305    0.234
        56 -10.0094    167.6737    112.3711   7.6833428105e+01   2.5641159642e+01    0.3413375    0.2562184 -76.68  0.001217175    1.803    0.445
        57 -10.6009    134.5502    104.7357   8.2773808611e+01   3.4806762286e+01    0.5787266    0.1514898 -44.73   0.00158789    3.748    0.733
        58 -11.8653     46.2108    109.9334   1.0965900180e+02   4.8372998965e+01    0.3558313    0.3079115  34.99  0.001405817    1.349    0.259
        59 -12.0053    118.2485    108.5690   8.8146364740e+01   3.7406625346e+01    0.7188122    0.5401638 -50.10  0.003434675    1.294    0.227
        60 -10.2179    205.4710    110.1515   6.8502875318e+01   1.7254031429e+01    0.3121983    0.2191159  41.29 0.0009250744    1.514    0.340
        61 -12.8874     83.6936    162.7236   1.0841961808e+02   3.0815646110e+01     1.041964    0.4341644  55.96 0.0004544292    3.050    0.672
        62 -10.9746     35.4201    101.0905   1.1134884965e+02   5.1563878352e+01    0.2401709    0.1851381  75.80   0.00079033    1.472    0.321
        63  -9.7858    241.6760    101.6764   6.0346258231e+01   1.0715719929e+01    0.1430827    0.1083269   6.86 0.0002973412    1.684    0.406
        64 -10.9340     19.5756    110.9225   1.1773727761e+02   5.0579740073e+01    0.2116154    0.1893871  88.71 0.0006742653    1.162    0.140
        65 -11.1371     52.6347     91.1096   1.0369429197e+02   5.2097228555e+01    0.4714667      0.25447 -44.84  0.001963568    1.712    0.416
        66  -9.1906     58.3212     96.6231   1.0311719235e+02   5.0121854045e+01    0.2137922     0.165021 -85.79 0.0007431922    1.494    0.331
        67 -10.3911     54.8518     94.6060   1.0377641241e+02   5.1019743825e+01    0.2680971      0.22948  43.57 0.0008376806    1.337    0.252
        68  -9.6476     36.3247     96.3041   1.1015328267e+02   5.2605766544e+01    0.1337003   0.08491018 -39.05 0.0002567382    1.641    0.391
        69 -11.3186     42.1385     91.1709   1.0719299069e+02   5.3234668963e+01    0.3614933    0.2713291 -42.25  0.001193805    1.265    0.209
        70 -15.4396      9.4451    206.5308   1.2850913594e+02   3.0191629089e+01    0.7663031    0.6559749  11.71  0.005074866    1.971    0.493
        71  -9.9951    157.4540     80.9345   7.0302326889e+01   3.4283888614e+01    0.2378743    0.1534613 -37.17 0.0004591248    1.541    0.351
        72  -9.4187    184.4893     77.1070   6.3558392155e+01   2.8249429403e+01    0.2305125    0.1504718 -35.11  0.000502038    1.511    0.338
        73  -9.9094     60.4950     68.0394   9.4752693284e+01   5.6251395330e+01     0.236026    0.1895114  54.28  0.001151368    1.595    0.373
        74 -13.8164    187.2703     43.9926   5.3476704907e+01   3.2761897791e+01     1.246124    0.8806193  32.55  0.001102307    1.748    0.428
        75 -10.9767    171.9375    240.1807   1.0108434744e+02   1.2215410775e+00    0.4077073      0.26125 -75.10  0.001972541    3.454    0.711
        76 -10.2736    197.6591    223.0851   9.3707942111e+01  -5.6030802003e-01    0.2037576    0.1511395  40.83 0.0004682879    1.250    0.200
        77 -11.1713    150.7797     54.2108   6.3419572526e+01   4.0587836435e+01    0.4328682    0.3044682 -80.49 0.0005843325    2.010    0.503
        78 -11.2516    152.1644     47.5299   6.0935703058e+01   4.1266656397e+01    0.3697491    0.2897159 -67.13 0.0008665492    1.504    0.335
        79 -10.0473     32.2737     36.5573   9.5419284014e+01   6.5789249469e+01    0.2047632    0.1128444  30.84  0.001127673    2.073    0.518
        80 -10.8827     26.5371     35.2976   9.7539140939e+01   6.6568668137e+01     0.246045    0.1520664  33.86  0.001204715    1.992    0.498
        81  -8.6399    115.4983     31.4458   6.3684175071e+01   5.2433348770e+01     0.141234    0.1310104  26.60 0.0001239989    1.017    0.017
        82  -9.7941    189.6828     14.9889   4.4776713873e+01   3.5734163493e+01     0.190336     0.174641 -54.42 0.0006046027    1.116    0.104
        83  -9.2790    111.6911    217.9082   1.0980006032e+02   1.4768615992e+01    0.1688402    0.1428603  65.55 0.0003867851    1.060    0.057
        84  -9.6395    130.6356    213.0354   1.0534213298e+02   1.2552406090e+01    0.1687124     0.154405  86.01 0.0004397376    1.166    0.142
        85  -9.9049    113.8544    199.8165   1.0699581279e+02   1.7909983765e+01    0.1882559    0.1401145  67.53 0.0005487087    1.334    0.250
        86 -12.3434    193.2388    195.0381   8.9713568615e+01   4.5180839513e+00     1.344992    0.7132106 -60.07  0.004967972    4.028    0.752
