#   1 NUMBER                 Running object number                                     
#   2 MAG_AUTO               Kron-like elliptical aperture magnitude                    [mag]
#   3 X_IMAGE                Object position along x                                    [pixel]
#   4 Y_IMAGE                Object position along y                                    [pixel]
#   5 X_WORLD                Barycenter position along world x axis                     [deg]
#   6 Y_WORLD                Barycenter position along world y axis                     [deg]
#   7 A_WORLD                Profile RMS along major axis (world units)                 [deg]
#   8 B_WORLD                Profile RMS along minor axis (world units)                 [deg]
#   9 THETA_WORLD            Position angle (CCW/world-x)                               [deg]
#  10 FWHM_WORLD             FWHM assuming a gaussian core                              [deg]
#  11 ELONGATION             A_IMAGE/B_IMAGE                                           
#  12 ELLIPTICITY            1 - B_IMAGE/A_IMAGE                                       
         1 -14.5793    180.5678     84.7236   7.1887723085e+01   2.8236352387e+01     2.132572     1.326086 -42.85  0.009634533    1.656    0.396
         2 -13.9506    213.0968     62.3601   6.0239454529e+01   2.3978918159e+01     4.111126     1.569759 -49.56   0.01295547    3.993    0.750
         3 -15.4923    163.0150     58.1019   6.7184375106e+01   3.6641965203e+01     22.19965     11.80028 -75.09  0.007212813    8.280    0.879
         4 -14.5670    242.2168     70.1240   5.8572333528e+01   1.6741213774e+01     3.132017     1.445517 -28.10  0.008846382    1.814    0.449
         5 -13.9523    229.2004     54.5211   5.6028795105e+01   2.1347266050e+01     2.387068     1.286736  64.87  0.007169673    2.150    0.535
         6 -12.1336    248.9386      3.5714   4.0854051364e+01   2.2269414294e+01    0.7572678    0.5383891  78.37   0.00457145    1.577    0.366
         7 -12.9489    232.8408      9.5496   4.3438334009e+01   2.5278695364e+01     1.560019    0.6444166 -15.05  0.006439195    2.512    0.602
         8 -15.4242    240.1091     27.0940   4.7571370008e+01   2.1971569528e+01     4.679081     3.276206  54.33   0.02194931    1.610    0.379
         9 -12.1801    133.7817     18.2320   5.8181690220e+01   4.9702567546e+01    0.5350633    0.4517138  77.71  0.002781679    1.277    0.217
        10 -11.1341    134.1957     12.4361   5.5674268693e+01   5.0238558086e+01    0.3861825    0.2370126 -32.59  0.001173822    1.598    0.374
        11  -9.2904    159.5840     14.1666   5.2289066975e+01   4.3273851186e+01    0.3155108    0.1671654 -23.89 0.0008840412    1.825    0.452
        12  -9.3050    204.8122     11.0686   4.6110616262e+01   3.1807006257e+01    0.3120824    0.1765316 -13.25  0.001289576    1.831    0.454
        13  -9.8380    214.2717     10.1243   4.5014546975e+01   2.9576346364e+01    0.3536485    0.1740549 -45.33  0.001261531    1.904    0.475
        14 -10.5026    189.0280      6.1298   4.6032295192e+01   3.6262436839e+01    0.3211802    0.2354381 -34.20 0.0007193164    1.283    0.221
        15  -9.7499    208.9988      3.1048   4.3371923646e+01   3.1488067292e+01    0.2137899    0.1780327 -29.06 0.0004155477    1.121    0.108
        16  -8.7524    217.8510      4.6268   4.3148892744e+01   2.9210108366e+01    0.2255821    0.1696047  -9.43 0.0006951645    1.371    0.271
        17 -10.0568    138.5087      1.9943   5.0572166043e+01   5.0092009720e+01    0.2414132    0.1893228  41.49 0.0004193632    1.261    0.207
        18 -10.3245    135.3243      2.3347   5.1202939852e+01   5.0916687343e+01    0.2693629    0.2405913  49.96  0.001092233    1.085    0.078
        19 -10.1962      3.5952      2.6024   1.0630268020e+02   7.6673837203e+01    0.2767221    0.1473742   0.11  0.001496516    2.333    0.571
        20 -10.2513     66.4930    143.5267   1.1272385757e+02   3.7821685580e+01    0.3790081    0.2519049 -86.47  0.001579153    1.561    0.360
        21  -9.5894    239.0967    249.8633   9.3690661192e+01  -2.1205777891e+00    0.1412381    0.0991187  22.91 0.0004455346    1.196    0.164
        22 -10.3926    178.3732    141.4440   8.6243024807e+01   1.9497939709e+01    0.2386317    0.2274875  20.43 0.0005479725    1.140    0.123
        23 -10.9477    189.2565    139.0707   8.3635223059e+01   1.7824568047e+01     0.428943    0.1801737  39.62  0.001792254    2.295    0.564
        24  -9.4589    161.9979    129.0000   8.6915508057e+01   2.4709620220e+01    0.2370877   0.07669679  44.97 0.0008080992    2.982    0.665
        25 -11.5805    213.7537    120.9053   7.5192302428e+01   1.5800872335e+01    0.4133739    0.2236081  25.80  0.001446846    2.221    0.550
        26  -9.2008    163.6759    122.3053   8.5034776972e+01   2.5544020127e+01     0.137136    0.1155424 -88.57 0.0002706198    1.643    0.391
        27 -10.3609    184.9945    119.7254   8.0099868551e+01   2.1662709168e+01    0.2051632    0.1828421  26.97  0.001075492    1.088    0.081
        28  -9.7550    132.0617    235.1585   1.0927145660e+02   1.3047423019e+01     0.151946    0.1273605  37.60 0.0002925599    1.123    0.110
        29 -10.2743    158.3424    114.5584   8.4345574006e+01   2.8003944819e+01    0.3095759    0.2455599 -67.42  0.001203176    1.664    0.399
        30  -9.9893    168.0166    113.6943   8.2061379095e+01   2.6150514616e+01     0.258418    0.2058938 -60.64  0.001107204    1.591    0.371
        31 -11.5546    206.0120    109.9671   7.3912037557e+01   1.8880159186e+01    0.3151079     0.281083 -54.83  0.001827341    1.411    0.291
        32 -10.1556    134.7649    109.2668   8.8517078329e+01   3.3831252771e+01    0.4360902    0.1199216 -46.43  0.001304254    3.789    0.736
        33  -8.2085    242.2867    207.6735   8.7195368246e+01   1.0816900296e+00   0.08893923    0.0808595  10.91 0.0003351189    1.609    0.378
        34 -11.2092    217.4071    100.4944   6.9697895899e+01   1.7902769080e+01    0.2849204    0.2651526  11.78  0.000177972    1.119    0.106
        35  -8.9401    161.1063    105.9210   8.1584691286e+01   2.8969508744e+01    0.2040688    0.1948169 -65.38            0    1.191    0.160
        36  -9.1306    123.7721    103.0265   8.9731256392e+01   3.7295762719e+01    0.1978224    0.1203663 -46.09 0.0006315175    1.640    0.390
        37 -12.3181    199.3917     99.4298   7.2422387823e+01   2.1805551629e+01    0.4752557    0.4426636 -34.09  0.001604619    1.173    0.148
        38  -9.5583    148.7951    100.5599   8.2942188843e+01   3.2585034947e+01    0.2824712    0.2290889   5.03 0.0007351972    1.420    0.296
        39  -9.4726    134.7850     96.7862   8.5292237815e+01   3.6294936771e+01    0.2006481    0.1784291 -82.19 0.0005582776    1.314    0.239
        40 -11.0008    159.4638     94.0927   7.8798402644e+01   3.1432405214e+01    0.4465661    0.3052005  22.80  0.001998193    1.794    0.443
        41 -12.9331      6.1916    186.1813   1.2980011010e+02   3.5245082943e+01    0.7332336     0.503703  77.60  0.004240035    1.180    0.152
        42 -10.6072    167.7146     90.0617   7.5929021763e+01   3.0283285597e+01    0.2934743    0.2464553 -38.92 0.0004144999    1.196    0.164
        43  -9.8214    142.4809     90.3455   8.1630819407e+01   3.5882357588e+01     0.294397    0.2626873 -76.39 0.0006930077    1.311    0.237
        44 -11.6242    219.7246     89.9273   6.6672834273e+01   1.8864760089e+01    0.4111504     0.207488  42.36  0.001828387    2.092    0.522
        45 -11.0563    157.4415     84.5886   7.6550844756e+01   3.3570750475e+01    0.3597339    0.2913449 -32.30 0.0008750848    1.202    0.168
        46  -8.7062     48.8185     85.8200   1.0870843934e+02   5.3426821467e+01    0.1831976    0.1440489  87.26 0.0004374118    1.305    0.234
        47 -10.3972    164.3570     85.8688   7.5441314457e+01   3.1763613882e+01     0.245858    0.2160877  67.85 0.0007569243    1.299    0.230
        48  -8.4046    105.0071     84.9209   9.0050833457e+01   4.4818215112e+01    0.1736915    0.1658866 -48.64 0.0003170956    1.012    0.012
        49 -11.4125    192.6119     74.1094   6.6713842712e+01   2.7080413033e+01    0.4136637     0.378666 -14.26 0.0009630819    1.011    0.011
        50 -10.8701    198.0025     71.2720   6.5014983438e+01   2.6239955522e+01    0.3933698    0.2788479  33.17  0.000955663    1.529    0.346
        51  -8.5850      8.6069     78.2520   1.2219139160e+02   5.8745249099e+01    0.1692617   0.09298902 -67.96 0.0003635994    1.462    0.316
        52  -9.2742    240.1631    189.8724   8.4610658084e+01   3.1002971449e+00    0.1606912    0.1365521  10.78 0.0009284797    1.305    0.233
        53 -10.8780    119.5961     63.2065   7.9029947168e+01   4.6183863694e+01    0.3130256    0.2791483  -6.39 0.0004127875    1.179    0.152
        54  -9.6960    228.5885    184.7158   8.5546531229e+01   5.3108372127e+00    0.2433134    0.1214389  44.13  0.001326585    2.101    0.524
        55 -12.2434    135.4569     58.1083   7.3176115544e+01   4.3410893806e+01    0.5230241    0.3503769  44.78  0.002355236    1.530    0.346
        56  -9.6247    229.1486    179.8624   8.4607350019e+01   5.7610510321e+00    0.1641084    0.1364525  11.50 0.0002830471    1.162    0.139
        57  -9.0171    109.2859     51.0220   7.7541566542e+01   5.0781891300e+01     0.214296    0.1864963 -37.22 0.0003618516    1.108    0.098
        58 -11.3676    206.4049     44.5526   5.6007330618e+01   2.7789444698e+01    0.5858032    0.2849071 -45.77  0.001902127    2.149    0.535
        59 -10.6891    121.8939     43.6906   7.1245293311e+01   4.9123232259e+01    0.3332483    0.2077192 -39.86 0.0002945368    1.573    0.364
        60 -10.3438    223.6909    173.4268   8.4338017637e+01   7.3252709465e+00    0.2048768     0.177623  22.80 0.0005399981    1.274    0.215
        61 -10.2386    164.2862     40.4959   6.1014202488e+01   3.8880446571e+01    0.3380676     0.224228 -43.16 0.0008704946    1.522    0.343
        62  -9.4644    162.5444     32.9669   5.8672092927e+01   4.0323399906e+01    0.2305259    0.1435253 -26.67  0.000489452    1.545    0.353
        63  -8.0888    186.6761     26.2914   5.2865344315e+01   3.4842555062e+01    0.1530018    0.1039761 -57.31 0.0003903825    1.613    0.380
        64 -10.0095    177.8872     24.2343   5.3330454817e+01   3.7348383616e+01    0.3684126    0.3200661 -42.23  0.001375864    1.126    0.112
        65 -10.2897     69.5060    145.0093   1.1214632863e+02   3.7112708068e+01    0.3454594    0.2527602  70.98  0.001715596    1.347    0.258
        66  -8.1396    150.0185    174.2337   9.8061898571e+01   1.9231052044e+01    0.1582404   0.09305754  38.55            0    1.481    0.325
        67 -10.2702    197.3914    172.0673   8.8604930370e+01   1.1704894309e+01    0.2185171     0.185727  19.64 0.0003393782    1.080    0.074
        68  -8.7065     83.4900    173.4548   1.1228163438e+02   2.9459774632e+01    0.1202904    0.1045245  55.76 0.0001564161    1.034    0.033
        69 -12.8184     39.4573    166.4440   1.2160827542e+02   3.6077226355e+01    0.8307056    0.6497271 -19.95    0.0025445    2.040    0.510
        70 -11.8064     50.9414    159.1198   1.1830410513e+02   3.6356332707e+01    0.6378087    0.4362555  89.09  0.002132212    1.387    0.279
        71 -10.7349    233.0508    160.0052   8.0305506542e+01   7.4159401006e+00    0.2283577    0.1581777  -3.65 0.0009037589    1.289    0.224
        72 -11.5472    233.5753    155.9159   7.9424385077e+01   7.8101903781e+00    0.6005831    0.1822667  48.95  0.002239406    4.186    0.761
        73  -8.2533     83.0227    158.0377   1.1051453300e+02   3.2566077404e+01    0.1432862     0.126821  63.93 0.0009316493    1.006    0.006
        74  -9.1880    217.1958    155.1263   8.1944619158e+01   1.0607732905e+01    0.1884669    0.1436707   8.96 0.0003953023    1.147    0.128
        75  -9.2029    222.6174    145.1807   7.9026138112e+01   1.0950794216e+01    0.1713246    0.1079328 -14.93 0.0003547625    1.536    0.349
