#   1 NUMBER                 Running object number                                     
#   2 MAG_AUTO               Kron-like elliptical aperture magnitude                    [mag]
#   3 X_IMAGE                Object position along x                                    [pixel]
#   4 Y_IMAGE                Object position along y                                    [pixel]
#   5 X_WORLD                Barycenter position along world x axis                     [deg]
#   6 Y_WORLD                Barycenter position along world y axis                     [deg]
#   7 A_WORLD                Profile RMS along major axis (world units)                 [deg]
#   8 B_WORLD                Profile RMS along minor axis (world units)                 [deg]
#   9 THETA_WORLD            Position angle (CCW/world-x)                               [deg]
#  10 FWHM_WORLD             FWHM assuming a gaussian core                              [deg]
#  11 ELONGATION             A_IMAGE/B_IMAGE                                           
#  12 ELLIPTICITY            1 - B_IMAGE/A_IMAGE                                       
         1 -14.0246     55.8910     64.7364   5.4750075959e+01   5.8096272382e+01      1.67511     1.003034 -20.43  0.007863539    2.113    0.527
         2 -15.1420      6.4867     68.7011   7.6158337631e+01   6.2158303480e+01     1.335506    0.7077389 -62.20  0.005186277    1.631    0.387
         3 -13.9758     41.7272      4.5796   3.6660585180e+01   6.9187375711e+01    0.7221079    0.4730082   9.77  0.003452426    1.446    0.308
         4 -13.1434      7.7541      2.5637   5.2952465184e+01   7.3646997466e+01    0.5119529    0.3007099  31.30   0.00343554    1.870    0.465
         5 -15.9965     11.4999     23.1051   6.0044756198e+01   7.0357596476e+01     1.859734    0.9489334 -25.94   0.01008392    1.828    0.453
         6 -14.3245     26.8424     12.1093   4.7220355816e+01   7.0362726032e+01    0.7947734    0.4752043  -3.72  0.004681083    1.749    0.428
         7 -13.7794    122.2237     36.8538   2.4403272932e+01   4.9658918262e+01    0.9684414    0.4784889  37.93  0.003429911    2.399    0.583
         8 -12.9924     43.3159     32.8734   4.8528924784e+01   6.5337901647e+01    0.8584452    0.5021647  29.24  0.004858686    1.629    0.386
         9 -14.0343    166.4794     29.3424   1.4001321181e+01   3.9938351481e+01    0.9430888    0.6328806  69.60  0.003729685    1.314    0.239
        10 -12.4919    140.1801     21.4534   1.5966512475e+01   4.7210892875e+01     1.046944    0.4326977  74.06  0.002423794    2.816    0.645
        11 -13.8425    148.2347     29.9125   1.7075574010e+01   4.4305971414e+01    0.9451163    0.5595153  66.18  0.003659801    1.504    0.335
        12 -13.3801    188.1754     24.3033   9.8437856337e+00   3.5327098659e+01     1.043523    0.4795659 -59.24  0.004581138    2.450    0.592
        13 -15.1113     98.1336     12.0123   2.1457246224e+01   5.7853974995e+01     1.519498    0.7421994  54.42  0.007267336    1.690    0.408
        14 -12.1133     60.0534     15.3387   3.4313362066e+01   6.5040263390e+01    0.4728838    0.2457275  29.76  0.002453654    1.908    0.476
        15 -13.0669    214.6737      9.9728   3.9339458295e+00   3.0877560748e+01    0.4473507    0.2949709 -69.85  0.001700039    1.290    0.225
        16 -11.9199     46.6243     12.8666   3.8488906268e+01   6.7527969473e+01    0.2699976    0.2518146  19.18  0.001345568    1.343    0.256
        17 -11.9148    123.1381     10.8521   1.5718689747e+01   5.2307314027e+01    0.2675814    0.2120169 -88.65 0.0009515539    1.357    0.263
        18 -11.6294     75.1134      9.7380   2.6847951927e+01   6.2831772835e+01    0.2234216    0.1712823   3.39 0.0009440295    1.351    0.260
        19 -11.5675    152.2961      8.7080   1.0372842487e+01   4.5581122591e+01    0.3189678    0.1764886  53.89  0.001658249    1.665    0.399
        20 -13.1063    187.4052     11.7310   6.9024920013e+00   3.6914255490e+01    0.5979195    0.3559836 -26.01   0.00322793    2.117    0.528
        21 -11.8284    119.6120      2.8573   1.3748721321e+01   5.3816402185e+01    0.5576471    0.2447313  84.32  0.002047597    3.821    0.738
        22 -11.7174     81.3105      1.3266   2.1606297366e+01   6.2327992667e+01    0.6705079          nan  52.62  0.001874346    5.925    0.831
        23 -11.1713     67.6819      2.7156   2.6169436393e+01   6.4897583122e+01    0.2676656    0.1524546  28.30   0.00150569    1.704    0.413
        24 -10.6263    232.9571      1.5011   8.4345393988e-01   2.7861913175e+01     0.173742   0.09494761  81.66  0.001027265    1.573    0.364
        25 -11.1552     61.2957      1.4537   2.7700099892e+01   6.6192993356e+01      0.31781   0.09855868  52.18  0.001374688    2.797    0.643
        26 -15.5525     10.4011    175.5084   8.9391169623e+01   3.6789261456e+01     1.814737     1.165029  87.42   0.01063773    1.329    0.248
        27 -13.3301     99.2971    239.0866   7.5580667362e+01   1.1115273000e+01    0.9534723    0.4180689  42.80   0.00439332    1.890    0.471
        28 -11.8963     60.1778    245.2486   8.4327005645e+01   1.5525656542e+01    0.3399445    0.2385145 -79.46  0.002125254    1.454    0.312
        29 -12.3544      2.9070    249.5665   9.5439070655e+01   2.1371342907e+01    0.4097596    0.2227312  60.80  0.002378198    1.369    0.270
        30 -13.7278      9.7825    245.7609   9.4032109705e+01   2.1415910068e+01     0.842846    0.3680789  57.42     0.003582    1.775    0.437
        31 -13.8655     39.9907    195.8094   8.4223540538e+01   2.8935718072e+01     0.847499    0.4442658  59.53   0.00414337    1.866    0.464
        32 -11.0734    249.5145    199.0194   3.8610367479e+01  -5.7899244051e+00    0.1903832    0.1063556 -36.92  0.000862135    1.601    0.375
        33 -11.4955    200.7581    191.4170   4.6109555671e+01   3.1503763711e+00    0.2659262    0.2476677  28.77  0.001165051    1.128    0.114
        34 -11.5502    206.3546    190.5687   4.4842524597e+01   2.3414163788e+00    0.2678179    0.1656825 -37.44  0.001066118    1.572    0.364
        35 -11.3542    155.4940    184.4976   5.4505921610e+01   1.2836718428e+01    0.1468221    0.1411158  36.01 2.820628e-05    1.005    0.005
        36 -11.8176     48.6491    181.5278   8.0589576368e+01   3.1313911429e+01    0.3979904    0.2036507 -53.33  0.001825668    2.067    0.516
        37 -11.7439    199.0069    181.6466   4.4564320702e+01   5.2844914384e+00    0.2491166    0.2060303 -70.98  0.001331965    1.594    0.373
        38 -11.2473    122.2456    181.2445   6.1860713445e+01   1.9823029813e+01    0.4266518    0.2494814  82.14  0.001404057    3.654    0.726
        39 -12.3165    124.1755    166.6424   5.8644136907e+01   2.2885187023e+01     0.667376    0.4294505 -70.81  0.002819031    1.924    0.480
        40 -11.3337    177.8044    167.5856   4.6139160319e+01   1.2079465264e+01    0.2154281    0.1388624  52.87 0.0009575735    1.717    0.418
        41 -10.8562    193.3066    164.6626   4.2273368672e+01   9.6492985390e+00    0.1441536    0.1165225 -82.94 0.0007041456    1.676    0.403
        42 -12.1964     25.1669    159.2784   8.4098029301e+01   3.9378809258e+01    0.4086063    0.2441109  10.72  0.002026378    2.418    0.587
        43 -12.0095     77.3019    156.8887   6.9401371135e+01   3.3479878866e+01     0.460142    0.3507057  27.55  0.001384039    1.476    0.322
        44 -13.1758     73.5013    153.3617   6.9858619972e+01   3.4944966963e+01    0.7830152    0.5070356  36.69  0.002797861    1.593    0.372
        45 -12.2918    189.1741    155.9708   4.1282022626e+01   1.2207341422e+01    0.2701835    0.2211145  43.99  0.001405035    1.259    0.205
        46 -12.8484      7.8886    149.9968   8.7726317356e+01   4.3125278844e+01    0.6335411    0.3751674  82.98  0.003433832    1.626    0.385
        47 -11.1520     12.6590    148.6826   8.6306849316e+01   4.3075602700e+01    0.2137216    0.1767524 -32.85  0.001319212    1.483    0.326
        48 -11.8697    111.0607    155.5832   5.9880779776e+01   2.8023074165e+01    0.5634975    0.3578832  87.92  0.002131282    2.549    0.608
        49 -11.2208    103.5631    149.5931   6.0708710144e+01   3.0873512596e+01    0.3245938    0.2557507 -29.08  0.001184433    1.544    0.352
        50 -11.6014    246.4942    148.5010   2.9405768085e+01   2.9799648150e+00    0.1318633    0.1134038 -37.08 -7.690317e-05    1.023    0.022
        51 -11.9152     59.7042    148.0365   7.2904522045e+01   3.8249263183e+01    0.2350585     0.211877  10.12  0.001156016    1.322    0.243
        52 -10.7139     38.2401    145.6016   7.8740466116e+01   4.1453914285e+01    0.1685468     0.134573   6.48 0.0006120018    1.600    0.375
        53 -11.7538    148.3759    140.9986   4.7101488822e+01   2.3939831182e+01    0.3704894    0.1490401 -47.55  0.001258686    2.487    0.598
        54 -12.4848     40.7799    137.5101   7.6786452180e+01   4.3204234782e+01    0.3553835    0.2209121  78.67  0.001668536    1.969    0.492
        55 -11.9179     45.3120    132.7464   7.4637982534e+01   4.3886913881e+01    0.4199882    0.2780845  40.45   0.00216244    1.610    0.379
        56 -14.5416    106.0635    104.2426   4.9341870762e+01   4.1171623111e+01     1.230531     1.216973  79.38  0.005946947    1.017    0.017
        57 -13.3066     28.9800    121.9611   7.7970791905e+01   4.8247079911e+01    0.7845923     0.282833 -56.69  0.003265058    2.238    0.553
        58 -12.2024    180.9897    121.0712   3.5069256363e+01   2.1072985174e+01    0.3174874    0.2296141  42.22  0.001380457    1.480    0.324
        59 -13.4141      5.4001    116.8951   8.4710223800e+01   5.1279302740e+01      1.34144    0.4120579 -57.55  0.005761761    2.402    0.584
        60 -12.0881     42.6991     90.6170   6.7019721967e+01   5.4300891712e+01    0.4157606    0.2869855 -75.22  0.002149619    1.740    0.425
        61 -12.3771     49.4239     98.8681   6.6541506773e+01   5.1625473899e+01    0.7805594    0.4753415  15.21  0.003733558    2.009    0.502
        62 -11.9281     48.9142     93.5013   6.5447436296e+01   5.2921469082e+01    0.3750991    0.2995104  80.44  0.002051933    1.630    0.387
        63 -12.3400     36.7815     92.9050   6.9730748682e+01   5.4413940406e+01    0.4345645    0.2927807   4.36  0.001536793    1.784    0.440
        64 -12.8634     20.8847     86.1015   7.4185853507e+01   5.7390020976e+01    0.6504672    0.3762609   1.78  0.003375848    2.152    0.535
        65 -14.6169     24.6711     93.6836   7.4340835910e+01   5.5360543632e+01     1.642435    0.9147558   2.70  0.008042498    2.365    0.577
        66 -14.2150     18.3357    111.7956   7.9803172032e+01   5.1606379953e+01    0.7111983    0.5383695  -9.92   0.00312374    1.595    0.373
        67 -12.0667     78.5133    110.4988   5.9484328092e+01   4.4750053162e+01    0.3765882    0.2997272  86.35  0.001523716    1.561    0.359
        68 -11.4591    121.6704    111.9832   4.6936519393e+01   3.6224008059e+01    0.3021775    0.2301223  54.22 0.0007330542    1.350    0.259
        69 -11.5384     62.3879    110.4695   6.4760486587e+01   4.7197558874e+01    0.4440361    0.2442541  57.33  0.001772566    2.655    0.623
        70 -14.1449     13.8948    103.7005   7.9994923496e+01   5.3850704407e+01    0.9916702    0.4507761  27.58  0.004276898    2.450    0.592
        71 -12.7578     84.3512    115.0120   5.8720046129e+01   4.2708408000e+01    0.9822772    0.5495966  28.90  0.004076013    2.059    0.514
        72 -12.2315    136.7766    103.2614   4.0646623606e+01   3.4806146857e+01    0.5775663    0.2771468  53.93  0.002023494    2.230    0.551
        73 -13.8598    104.6919    122.2855   5.4328128969e+01   3.7287000419e+01     1.256232     0.960474  54.54  0.006006071    1.379    0.275
        74 -10.8460     64.5135    101.5311   6.1931549663e+01   4.9002189154e+01    0.2067724    0.1625209 -22.22 0.0005116682    1.414    0.293
        75 -11.9147     61.5446     97.5721   6.1971815532e+01   5.0337241363e+01    0.4433247    0.3278456 -82.63  0.001730475    1.775    0.436
        76 -11.6052    163.8819     97.9798   3.2918798889e+01   2.9609573811e+01    0.2534158    0.2189014  57.98 0.0003838122    1.148    0.129
        77 -12.5929    137.0203     94.8561   3.8309852137e+01   3.6484598783e+01     0.497305    0.3561654  65.33  0.001914142    1.553    0.356
        78 -13.1572    111.9846    116.4899   5.0799232247e+01   3.7205147151e+01    0.5862673    0.3729826  41.61  0.002294175    1.584    0.369
        79 -13.3720      2.2340     96.8952   8.2953289692e+01   5.6146563366e+01    0.8310837    0.3130916 -72.54  0.003445508    2.371    0.578
        80 -13.0247    188.3612     84.1949   2.4665302792e+01   2.6417821305e+01    0.5655702    0.2720375  47.21  0.001902444    2.309    0.567
        81 -13.2401    164.1192     71.4926   2.5844670614e+01   3.4400685330e+01    0.7674641    0.5679147  53.11  0.003858028    1.332    0.249
        82 -13.9622    169.2063     76.9710   2.6323951004e+01   3.2232896935e+01     1.288205    0.5068781  51.70  0.003809525    2.476    0.596
        83 -11.8052    158.4471     83.5053   3.0248656839e+01   3.3644290196e+01    0.3601121    0.2766436  63.56 0.0008825996    1.287    0.223
        84 -12.6801    161.0513     80.2137   2.8815218918e+01   3.3618419402e+01    0.4731033    0.3582367  30.45  0.001419144    1.666    0.400
        85 -12.6512     28.7468    245.8960   9.0522843971e+01   1.9313243206e+01    0.4537142    0.2660494  74.79  0.002652698    1.462    0.316
        86 -13.0651     65.9211     49.2969   4.5646789406e+01   5.9332641293e+01     0.601979    0.5657072 -31.50  0.003880394    1.212    0.175
        87 -13.2663     91.9149     57.6255   3.9629402926e+01   5.3201636936e+01    0.5191131     0.470467 -14.62  0.002001793    1.115    0.103
        88 -13.7040     74.1031     73.7728   5.0865919563e+01   5.3514228252e+01     1.412703    0.7181265  16.63  0.004714108    3.990    0.749
        89 -12.9738     87.4293     65.2389   4.3604779578e+01   5.2746915346e+01    0.4817044    0.3833278   6.91  0.001015305    1.402    0.287
        90 -12.7855     54.8042     81.2365   6.0087506617e+01   5.4882921677e+01    0.6017963    0.3705549 -37.82  0.002717753    1.583    0.368
        91 -13.8069     61.2073     75.6206   5.6088997696e+01   5.5164494775e+01    0.7105265       0.4848 -32.63  0.001710439    1.466    0.318
        92 -12.5861    216.0830     80.7070   1.9462838657e+01   2.0724985081e+01    0.3759148    0.2516181 -66.96  0.001604659    1.562    0.360
        93 -11.9118    114.0785     79.6670   4.0039253696e+01   4.4612411954e+01    0.4276865    0.3286816 -42.11  0.002141377    1.337    0.252
        94 -12.4537    135.5463     79.2954   3.4293422821e+01   3.9841367636e+01    0.7049608    0.3391637  55.18   0.00247635    2.094    0.522
        95 -11.3916     41.6169     75.7526   6.3618378197e+01   5.7679061509e+01     0.309145    0.1812406 -54.42 0.0007233737    1.606    0.378
        96 -13.4797    171.3976    242.2605   6.0814587979e+01  -9.4169279999e-01    0.5568561    0.4020627  29.76  0.003295767    1.196    0.164
        97 -11.5425     27.4364     76.0083   6.9313039772e+01   5.9062118694e+01    0.2924349    0.2143313  85.90  0.001492319    1.991    0.498
        98 -12.8281    199.1096     69.8911   1.9425500378e+01   2.6332584501e+01    0.6159745    0.4075935  42.73  0.002371786    1.905    0.475
        99 -12.3360     38.9214     67.9150   6.2486721718e+01   5.9607867960e+01    0.5421892    0.2432264  32.21  0.002522251    2.338    0.572
       100 -12.3127    134.5815     66.3807   3.0737463595e+01   4.2353966515e+01    0.5652886    0.3277467  45.79   0.00191187    1.697    0.411
       101 -11.6165    158.6725     63.7577   2.4790777382e+01   3.7000819062e+01    0.3661611    0.1964284 -58.08  0.001461957    2.354    0.575
       102 -11.1853     99.7205     64.9843   3.9654461094e+01   5.0355300270e+01    0.2801186    0.2221304 -82.70  0.001402091    1.780    0.438
       103 -12.9360     78.7429     58.8945   4.4406102060e+01   5.5485124031e+01    0.7317737    0.5898916 -46.22  0.004139692    1.355    0.262
       104 -13.2628    177.9151     57.8321   1.9747492318e+01   3.3259768617e+01    0.6556816    0.5184816 -67.00  0.002117518    1.247    0.198
       105 -12.2364     35.3094     57.9300   6.0981649861e+01   6.1981285265e+01     0.895233    0.1745053 -44.84  0.002928791    4.252    0.765
       106 -11.7561     38.8133     59.9788   6.0140332837e+01   6.1196355395e+01    0.2849096    0.2369706  68.56  0.001593804    1.805    0.446
       107 -11.7436     24.7293     59.2298   6.5941384048e+01   6.2773601681e+01     0.369653    0.2019437 -45.04  0.002017188    1.546    0.353
       108 -14.3292    119.7449     54.7981   3.0798221641e+01   4.7679446326e+01     0.984613    0.5568312  49.32  0.001917787    1.635    0.388
       109 -11.3672     17.6155     55.3258   6.7960010923e+01   6.4139661434e+01    0.2880993    0.1799095 -56.15  0.001695419    1.520    0.342
       110 -13.3606    103.3421     50.5495   3.3806247056e+01   5.1971725928e+01    0.7737203    0.4626862 -48.91  0.001697902    1.998    0.499
       111 -13.1386     97.9642     49.8248   3.5118833196e+01   5.3221118688e+01    0.6728985    0.3527818 -39.87  0.002361059    2.036    0.509
       112 -11.9093    136.1249     50.0126   2.5449419810e+01   4.4567140783e+01    0.4073109    0.3231417  33.56   0.00155522    1.398    0.285
       113 -10.5251     23.5331     49.9518   6.3658765286e+01   6.4670188768e+01    0.1721944    0.1034917 -46.97 0.0004172369    1.469    0.319
       114 -11.6791    151.7954     46.6460   2.1279009385e+01   4.1263698244e+01    0.3912521    0.1889749  60.78 0.0009012126    1.892    0.471
       115 -12.2893    158.7903     43.0798   1.9003525865e+01   4.0051168663e+01    0.5746784    0.3656017  50.05  0.002853276    1.569    0.363
       116 -10.8773     38.6130     46.2100   5.5636824170e+01   6.3759809639e+01    0.1753466    0.1006291 -34.88 0.0008941013    1.611    0.379
       117 -12.1961     50.8452    248.7395   8.6458784093e+01   1.6054000628e+01    0.3893048     0.326562 -71.88  0.002712237    1.412    0.292
       118 -13.4086      5.8495     42.9178   6.9826886818e+01   6.7340137068e+01    0.7938812    0.3795179  16.63  0.004464874    2.217    0.549
       119 -12.0473    147.3201    239.0000   6.5331164146e+01   3.4691547999e+00    0.1782213    0.1688029  38.47 0.0008152098    1.109    0.098
       120 -12.6783     23.4336    216.4231   8.9617103644e+01   2.6102520421e+01    0.7519019    0.3903016  50.18  0.004174861    1.647    0.393
       121 -13.5394     26.1442    226.4600   8.9762434232e+01   2.3627884286e+01     0.737219    0.3765788 -55.46  0.003862988    2.437    0.590
       122 -12.4097    212.5358     43.1141   1.1398434348e+01   2.7259703692e+01    0.4483318    0.2437721  60.68  0.001843272    1.833    0.454
       123 -13.0302    219.5768     41.4558   1.0246894814e+01   2.5911987965e+01    0.5672355    0.3517648  86.00  0.001747768    1.573    0.364
       124 -11.5979    134.6283     39.5175   2.2548495947e+01   4.6384138413e+01    0.4163321    0.2434569  66.73  0.001473135    1.681    0.405
       125 -12.0150    109.8609     41.9459   2.9113419964e+01   5.1798766849e+01    0.4398429    0.1799261  53.86   0.00103018    2.232    0.552
       126 -13.7582     20.7898    223.9754   9.0676196573e+01   2.4745978539e+01    0.5886905     0.544224  48.59  0.002927679    1.381    0.276
       127 -12.7655    113.8043     37.8475   2.6729419552e+01   5.1464594690e+01    0.3441543    0.3193689  26.85  0.001146507    1.100    0.091
       128 -12.5889    131.3434     33.5086   2.1356275987e+01   4.7934238920e+01    0.4393917    0.3813516  32.49  0.001476511    1.243    0.196
       129 -13.2513     65.7976    223.2421   8.1117829305e+01   1.9355883915e+01     1.107092    0.6623346  54.89  0.005915947    1.474    0.321
       130 -12.1274     40.2842     40.2554   5.2727895744e+01   6.4566588785e+01    0.4730214    0.2591635  31.80  0.002563444    1.815    0.449
       131 -12.6184     33.0933     40.1750   5.5925301697e+01   6.5441411901e+01    0.3203924    0.2334907  -4.83 0.0006340255    1.289    0.224
       132 -12.4950     76.0699     37.0542   3.7456434660e+01   5.9426245866e+01    0.4174989    0.2522792  35.01   0.00133385    1.559    0.359
       133 -11.6508     70.8524     36.2706   3.8973921888e+01   6.0488034596e+01    0.2782627    0.2251724  61.51  0.001110823    1.613    0.380
       134 -12.3733    242.0894     36.1142   6.9320764330e+00   2.1821698026e+01    0.4390611    0.2330752  76.84  0.001874119    1.845    0.458
       135 -11.2096    104.5821     36.7468   2.8716661657e+01   5.3665315796e+01    0.2392733    0.1347765 -26.53  0.001132594    2.033    0.508
       136 -12.9012     59.6513    212.6553   8.1402256148e+01   2.2546189255e+01     0.522595    0.3453727 -40.22  0.001687594    2.240    0.554
       137 -11.1043    249.1948    225.6084   4.3366515082e+01  -9.6608447808e+00    0.1680031    0.0965343  20.26 0.0009587814    1.748    0.428
       138 -13.6562     64.4134    214.0822   8.0476468405e+01   2.1573186042e+01    0.5568812    0.3555863  59.60   0.00298635    1.433    0.302
       139 -12.9026    142.7625     29.8868   1.8037474373e+01   4.5633911577e+01    0.5564907    0.3796698  84.47  0.002418465    1.575    0.365
       140 -10.8437      5.6798    219.1670   9.3399361254e+01   2.7312811568e+01    0.1914109    0.1137565  78.25 0.0008828058    1.363    0.266
       141 -11.7217    216.6528     28.4659   7.7190254720e+00   2.8262508570e+01     0.211926    0.1114864 -37.13  0.001087113    1.939    0.484
       142 -12.4129    120.0869     26.4018   2.1446292811e+01   5.1422317501e+01    0.5553021    0.3289136  49.22  0.002832029    1.499    0.333
       143 -13.4020     57.5270     26.7825   4.0143300216e+01   6.4070126215e+01    0.9566334    0.3082926  40.26   0.00328416    2.861    0.650
       144 -12.2250     30.5533     25.4658   5.1332306368e+01   6.8069895882e+01     0.351003    0.2122814   8.51   0.00170107    1.717    0.417
       145 -12.6747     35.3104     23.3817   4.8198559900e+01   6.7785061593e+01    0.2727327    0.1943294  -0.94 0.0007256995    1.278    0.218
       146 -13.7460     92.5518    230.0668   7.5997736990e+01   1.3980487947e+01    0.6775472    0.5723661  54.19   0.00419066    1.029    0.029
       147 -11.1380    223.9433     21.0305   5.4585558976e+00   2.7571144996e+01    0.1790256    0.1432802  47.83      0.00101    1.733    0.423
       148 -11.3147     51.2074     20.4212   3.9964280688e+01   6.5904389148e+01     0.278125    0.1430829  45.74  0.001454087    2.027    0.507
       149 -12.0556     46.2129     20.3233   4.2003406200e+01   6.6682652585e+01    0.3519712    0.1928499  19.16  0.001367255    2.033    0.508
       150 -11.5442     71.0445     16.5347   3.0975327543e+01   6.2920998847e+01      0.21996    0.1787678 -14.82 0.0006062158    1.293    0.227
       151 -11.7339    248.7026    216.0905   4.1801928722e+01  -8.2379381308e+00    0.1970036    0.1601503  28.86  0.001337194    1.373    0.272
       152 -11.5731    156.2145    214.4949   5.9657879894e+01   6.5639695981e+00    0.2513952    0.2059408 -46.69  0.001415085    1.336    0.252
       153 -12.6017      4.6389    212.0555   9.3200045953e+01   2.8950524979e+01    0.5039842    0.2110509 -72.88   0.00263203    2.068    0.517
       154 -12.6639     72.3211    207.3356   7.7905964598e+01   2.1983139477e+01    0.4764834    0.2833701 -79.32  0.002337348    1.784    0.439
       155 -13.5142     15.2623    199.0031   9.0104986282e+01   3.0855874978e+01     1.088042    0.3006541 -56.38  0.004085332    4.049    0.753
       156 -12.2190     57.4353    203.3131   8.0922691092e+01   2.4983984047e+01    0.5735872     0.269152 -87.78  0.002325943    2.743    0.635
       157 -12.9718    205.0160     39.8895   1.1540231168e+01   2.9414551222e+01     1.084764    0.4425104  88.05  0.003395962    4.778    0.791
       158 -11.2971    185.4947    203.5045   5.1475820961e+01   3.5612111447e+00    0.1375323    0.1266315  12.44 -6.005703e-05    1.013    0.013
       159 -13.6284     29.9414    169.1672   8.3939848378e+01   3.6471949277e+01    0.8635662    0.5529118 -35.62   0.00364747    2.188    0.543
       160 -13.1615     22.0928    166.0616   8.5625589539e+01   3.8008131818e+01    0.4059895    0.3118531  27.79  0.001580872    1.540    0.351
       161 -13.5408     22.1431    180.8058   8.7035938353e+01   3.4439315988e+01    0.7476478    0.3923355 -68.36  0.003659915    1.669    0.401
       162 -15.3118      7.9148    183.4366   9.0597737144e+01   3.5136452306e+01     1.442209     1.070504 -61.00  0.008917955    1.429    0.300
