#   1 NUMBER                 Running object number                                     
#   2 MAG_AUTO               Kron-like elliptical aperture magnitude                    [mag]
#   3 X_IMAGE                Object position along x                                    [pixel]
#   4 Y_IMAGE                Object position along y                                    [pixel]
#   5 X_WORLD                Barycenter position along world x axis                     [deg]
#   6 Y_WORLD                Barycenter position along world y axis                     [deg]
#   7 A_WORLD                Profile RMS along major axis (world units)                 [deg]
#   8 B_WORLD                Profile RMS along minor axis (world units)                 [deg]
#   9 THETA_WORLD            Position angle (CCW/world-x)                               [deg]
#  10 FWHM_WORLD             FWHM assuming a gaussian core                              [deg]
#  11 ELONGATION             A_IMAGE/B_IMAGE                                           
#  12 ELLIPTICITY            1 - B_IMAGE/A_IMAGE                                       
         1 -15.3006    195.7676     90.8277   5.8858227233e+01   2.3471162792e+01     2.697576     1.508741 -32.17   0.01139257    1.803    0.446
         2 -15.5063    223.1003     77.7449   5.1087622519e+01   1.9459417210e+01     2.712889     1.996191  10.91    0.0133072    1.994    0.498
         3 -14.9354    210.0058      6.8373   3.5405439441e+01   3.1764302036e+01     1.705513      1.40309 -15.07  0.007877418    1.537    0.349
         4 -15.4690    190.4059      5.7650   3.7028323801e+01   3.6483232949e+01     2.101963     1.885527 -17.26  0.009506066    1.345    0.256
         5 -13.3313    240.1778      4.1065   3.2411223909e+01   2.5369291975e+01     1.110265    0.4378443  72.39  0.005472425    2.363    0.577
         6 -12.2540    220.3551    229.9949   8.4370769511e+01  -5.2417338417e+00     0.391019    0.1994396  26.63  0.002032887    1.778    0.438
         7 -12.7955    119.2415    241.7527   1.0615105152e+02   8.5498085020e+00    0.4854789    0.2677686 -56.83  0.001371742    2.152    0.535
         8 -14.9520    138.8174    245.9094   1.0275046890e+02   4.8698633761e+00     1.342374     1.012388  66.75  0.008263689    1.626    0.385
         9 -13.7247    124.4977    247.5988   1.0579275776e+02   6.7639911455e+00    0.8004846    0.5985066 -31.82  0.004983622    1.804    0.446
        10 -14.7474    114.0620    228.4935   1.0560422925e+02   1.1725964615e+01     2.398656    0.8581074  46.06  0.009922171    2.519    0.603
        11 -10.9081     60.3407    191.6920   1.1297600045e+02   2.7063850528e+01    0.4626353    0.2338181 -52.85  0.001743935    2.158    0.537
        12 -11.9197     93.0216    185.5022   1.0450332586e+02   2.3886556311e+01    0.2812216    0.1209911  40.96  0.001158918    2.168    0.539
        13 -12.2090     99.3456    180.9437   1.0228124795e+02   2.3930550856e+01    0.2643202    0.2082898  28.42 0.0007838139    1.367    0.268
        14 -10.0562     64.8461    203.5896   1.1326373317e+02   2.3860701635e+01    0.1635276    0.1145816  43.40 0.0003580973    1.344    0.256
        15 -13.1353     96.1691    136.3112   9.4949794769e+01   3.5041364951e+01    0.4591871    0.3435965 -40.22  0.001129546    1.378    0.274
        16 -12.7641    105.9003    130.7321   9.0963513257e+01   3.4688980057e+01    0.4170921    0.3461717 -62.37  0.001278597    1.233    0.189
        17 -12.3220    107.6208    203.7845   1.0373368741e+02   1.7622111664e+01    0.3011115    0.2086606 -61.00   0.00119592    1.549    0.354
        18 -11.3443    102.9161    123.8402   9.0211047002e+01   3.6867268131e+01    0.2413066    0.2047521 -15.66  0.001075709    1.325    0.245
        19 -12.5684     90.5798    123.5024   9.3752543471e+01   3.9072926142e+01    0.3508023    0.2751839 -17.51  0.001714495    1.534    0.348
        20 -12.0416    122.1091    198.2677   9.9616875450e+01   1.6409900179e+01    0.4322031    0.2713721 -79.25  0.001765757    2.386    0.581
        21 -10.7160     66.1432    206.9807   1.1333885068e+02   2.2962646612e+01    0.2087301     0.155111  78.44 0.0002679202    1.270    0.212
        22 -10.5896     52.4208    248.7670   1.1966109870e+02   1.6433742544e+01    0.2564784   0.08629821 -63.93  0.001261363    3.095    0.677
        23 -15.9669      4.2099    151.4925   1.2224684948e+02   4.1931931481e+01     4.400824    0.5971989 -75.41   0.01234714    6.079    0.836
        24 -17.6662     32.9582    234.6853   1.2226501749e+02   2.1298200692e+01     8.901866     2.990702 -61.15   0.04325335    3.184    0.686
        25 -10.9563     89.2697    211.2865   1.0879091357e+02   1.8851236597e+01    0.2582673    0.1890829  87.50  0.001096652    1.473    0.321
        26 -12.5567    174.2924     56.1296   5.3208671081e+01   3.4341472098e+01    0.3732319    0.3380408  -7.91  0.001107893    1.222    0.182
        27 -11.8649    110.7084    203.3391   1.0297276898e+02   1.7223017471e+01    0.3220586     0.207568  71.21  0.001223586    2.047    0.511
        28 -13.6935    187.0271     43.7903   4.7627960554e+01   3.2956514493e+01    0.9842429    0.6264316  36.20  0.004573709    1.981    0.495
        29 -12.0060    194.5549     37.1928   4.4770920899e+01   3.1986845026e+01    0.3861708    0.2986951   1.48  0.001320151    1.733    0.423
        30 -11.6387     43.9555     40.9489   8.6178553202e+01   6.3655977111e+01    0.3643061    0.2602563  18.33  0.002167102    1.400    0.286
        31  -9.1309     71.4359    241.0213   1.1550327089e+02   1.5465636117e+01     0.139545    0.1081188 -72.75 0.0004986047    1.410    0.291
        32 -18.9914     17.2025     97.1388   1.1193354623e+02   5.4006808059e+01     16.33513       1.5654 -67.46    0.0346658    9.399    0.894
        33 -14.2194    102.5064    207.5644   1.0539873553e+02   1.7635430372e+01     0.608052    0.4930561  72.25  0.003591966    1.256    0.204
