#   1 NUMBER                 Running object number                                     
#   2 MAG_AUTO               Kron-like elliptical aperture magnitude                    [mag]
#   3 X_IMAGE                Object position along x                                    [pixel]
#   4 Y_IMAGE                Object position along y                                    [pixel]
#   5 X_WORLD                Barycenter position along world x axis                     [deg]
#   6 Y_WORLD                Barycenter position along world y axis                     [deg]
#   7 A_WORLD                Profile RMS along major axis (world units)                 [deg]
#   8 B_WORLD                Profile RMS along minor axis (world units)                 [deg]
#   9 THETA_WORLD            Position angle (CCW/world-x)                               [deg]
#  10 FWHM_WORLD             FWHM assuming a gaussian core                              [deg]
#  11 ELONGATION             A_IMAGE/B_IMAGE                                           
#  12 ELLIPTICITY            1 - B_IMAGE/A_IMAGE                                       
         1 -14.4440     68.3915    144.9100   9.0162537633e+01   3.7086083318e+01     4.684944     2.401809  82.78  0.002696589    4.112    0.757
         2 -13.7785    231.7305     28.2618   2.4203646640e+01   2.4019366905e+01    0.9395639    0.9005172  48.33  0.002659552    1.311    0.237
         3 -13.9767    214.1634     42.4680   2.9451505793e+01   2.6211070500e+01     1.790484     1.479104  -1.81  0.006856487    1.594    0.373
         4 -11.1500    250.2867      6.9284   1.8144490913e+01   2.2495679299e+01     0.537613    0.1497779 -30.89  0.002165975    3.458    0.711
         5 -10.4263      1.8531      2.9687   7.9260293085e+01   7.4463097840e+01     0.218233    0.1102225 -44.34  0.001328075    1.678    0.404
         6 -10.9220    138.3877    215.1121   8.3795020554e+01   1.0410566606e+01    0.2415516    0.1774797 -76.37  0.001296105    1.888    0.470
         7 -10.6312    139.5695    249.8993   8.8185922387e+01   4.3237951302e+00    0.2687747    0.1260049  47.50  0.001337358    1.969    0.492
         8 -11.5019    128.7979    247.7889   9.0070780010e+01   6.2815630723e+00    0.3068199    0.2183443  78.31  0.001812055    1.975    0.494
         9 -10.9146    119.7944    245.7763   9.1635639174e+01   7.9608310644e+00    0.3245464     0.103348 -50.68  0.001368587    3.836    0.739
        10 -16.6548     32.7591    184.3111   1.0411878848e+02   3.1963986906e+01      11.7904     4.922404  66.99   0.05005202    2.887    0.654
        11 -11.0972    192.8696    194.9468   6.8768502518e+01   4.6255647781e+00    0.9026712    0.4781896 -62.49  0.002607227    6.775    0.852
        12  -9.0112    157.8994    193.0845   7.5920160870e+01   1.1167124116e+01     0.198935    0.1823091  64.81  0.000474101    1.267    0.211
        13 -15.2359      8.1892    210.1288   1.1102896330e+02   2.8804109838e+01     2.194597    0.9019541 -74.53   0.01134445    2.159    0.537
        14  -9.6375     99.3602    181.0877   8.7726911824e+01   2.3855585420e+01    0.2218897    0.1879245  30.09  0.000463289    1.237    0.191
        15 -12.9942    238.2540    171.8648   5.5574629426e+01   6.7303423528e-01     1.013549    0.7144755   9.37  0.005606336    1.458    0.314
        16  -8.6134    180.3080    175.6483   6.7687641126e+01   1.0333063840e+01    0.1390705    0.1176852  85.47 0.0007043327    1.714    0.417
        17 -12.1000     56.4377    172.3758   9.7228506257e+01   3.2023045596e+01    0.4072488    0.2985114 -29.74   0.00112417    1.939    0.484
        18 -12.0893     62.0361    167.3606   9.5182093233e+01   3.2497617150e+01     0.348166    0.2917432 -40.23 0.0008952899    1.428    0.300
        19 -10.7539    112.0500    173.0263   8.3269244689e+01   2.3550457615e+01    0.3724109    0.1977322  45.54  0.001596679    1.808    0.447
        20 -13.6125     59.3444    153.8027   9.4039708836e+01   3.6101536502e+01    0.7195087    0.4607628 -69.94  0.002683375    1.472    0.321
        21 -12.1245     94.9709    241.5806   9.6157831557e+01   1.2313123504e+01    0.5647553    0.2977795 -76.37  0.002515808    2.551    0.608
        22 -12.6563     80.2263    152.6387   8.8151466158e+01   3.3503961986e+01     0.898474    0.5510516 -39.24  0.001417475    2.001    0.500
        23 -10.2213    110.7731    167.9223   8.2705290084e+01   2.4927439988e+01    0.2947349    0.2351612 -82.15 0.0004965236    1.423    0.297
        24  -9.4496    192.2594    167.7603   6.3535947407e+01   9.5335185556e+00    0.2450715    0.1766563 -37.46 0.0008904205    1.400    0.286
        25 -10.2668    133.8993    145.9335   7.2406373709e+01   2.5617576156e+01    0.9643916    0.2099252 -54.14  0.001824722    8.924    0.888
        26  -9.4601    174.3337    149.3753   6.3437823127e+01   1.6613913522e+01    0.2696532    0.1971519  51.46 0.0008539202    1.473    0.321
        27 -13.0976     15.9308    249.0306   1.1146111783e+02   2.0638332312e+01    0.2548286     0.167575  73.30  0.001171677    1.184    0.156
        28  -8.5336    120.5369    142.5382   7.5177465892e+01   2.9005111159e+01    0.1549333    0.1446828  73.24 0.0005956932    1.120    0.107
        29 -10.8833     96.8972    138.7002   8.0899127833e+01   3.4212898207e+01    0.6100817    0.4001075 -16.03  0.002422674    2.574    0.611
        30 -12.4543     83.3959    137.9841   8.4627373202e+01   3.6592088205e+01    0.3027949    0.2721228 -58.88 0.0004803407    1.083    0.077
        31  -8.8461    117.4102    138.1529   7.5067010680e+01   3.0623329311e+01    0.2193466    0.1473446 -65.50 0.0009409434    1.748    0.428
        32 -10.9467    106.7005    130.4509   7.6340839777e+01   3.4448674860e+01    0.4503772    0.3570602   1.70  0.001396753    1.604    0.377
        33 -15.9693      7.9716    244.5463   1.1262967573e+02   2.2224856596e+01     2.735073     1.206845  23.66   0.01417938    3.594    0.722
        34 -11.7911    242.5707    126.0660   4.5155937406e+01   7.2412033098e+00    0.3471466    0.2417533   3.13  0.001752347    1.867    0.464
        35  -8.9746    224.1382    206.8925   6.4860750298e+01  -2.3580560883e+00    0.1715266      0.12462   0.98  0.001017217    1.254    0.203
        36  -9.9648    123.9831    202.7831   8.5172278944e+01   1.5180317187e+01    0.2454612    0.1922364 -57.50 0.0006050498    1.432    0.302
        37  -9.7385    105.3925    118.5676   7.3946420225e+01   3.7502037873e+01    0.2364895     0.230526 -22.09 0.0002698154    1.032    0.031
        38  -9.2979    115.0569    124.1314   7.2500852127e+01   3.4349971892e+01    0.2554817    0.1819613   7.08  0.001066545    2.008    0.502
        39 -10.6413    231.1927    114.0793   4.4260397867e+01   1.1393582389e+01     0.296348    0.2614153 -14.77 0.0008266132    1.122    0.109
        40 -10.2575    205.3053    110.5968   4.7866309636e+01   1.7407357081e+01    0.3429789    0.2551125  30.00  0.001072748    1.533    0.348
        41 -11.1470    244.7095    107.0197   4.0608811710e+01   9.9027933505e+00    0.2030812    0.1624787 -34.60 0.0009441023    1.095    0.087
        42 -10.2922     69.3065    105.4900   8.2134485892e+01   4.6630383466e+01    0.3698528    0.2829843 -89.99  0.001253985    1.651    0.394
        43  -9.0082    134.4045    106.1860   6.2553893831e+01   3.4354198081e+01    0.2306522    0.1488019 -54.69 0.0009508038    1.735    0.424
        44 -10.6537    241.0136    102.4859   4.0122408554e+01   1.1343632579e+01    0.1915718    0.1360994  52.59  0.001029686    1.585    0.369
        45  -9.4602     63.8004    101.0511   8.2950338813e+01   4.8462133546e+01    0.2286312    0.2039492  22.44 0.0004075724    1.207    0.172
        46 -10.9452     53.1835     91.1499   8.4318181281e+01   5.2172647568e+01      0.41086    0.1890043 -58.98  0.001414256    2.036    0.509
        47 -11.5405    245.1174     91.9160   3.7164832303e+01   1.2201085191e+01    0.3094429    0.2210822 -89.64  0.001621128    1.908    0.476
        48 -10.1020     44.0073     90.0383   8.7388397782e+01   5.3475258163e+01    0.2043351    0.1839429 -54.50 0.0004336555    1.053    0.050
        49 -10.6608    249.5778     86.6991   3.5416073766e+01   1.2125759437e+01     0.265035    0.1186133 -31.56  0.001144988    2.134    0.531
        50  -9.7543    234.2026     86.4099   3.7398701863e+01   1.5278672641e+01    0.1749097    0.1327158  77.90 0.0004146881    1.562    0.360
        51  -9.8580    162.6704     84.9634   4.9670919013e+01   3.2024311238e+01    0.2178381    0.2013594 -34.31 0.0004838103    1.090    0.083
        52 -11.3250     56.4283     76.0830   7.9163907314e+01   5.5215313209e+01    0.8309396    0.3997327  54.29  0.002799413    4.356    0.770
        53  -9.1504    184.4737     77.4609   4.3153195250e+01   2.8056442676e+01    0.1467953    0.1456628 -70.69 0.0002182391    1.026    0.025
        54  -9.1931     42.3978     67.1686   8.2166923430e+01   5.8848321407e+01     0.199731    0.1834156  83.92  0.000344527    1.396    0.283
        55  -9.4014     39.4491     65.5089   8.2907242532e+01   5.9521903113e+01    0.2219124    0.1703108  71.02 0.0009406079    1.983    0.496
        56  -9.5147     86.9519    205.8143   9.3985222120e+01   2.0392533001e+01    0.2113174     0.176962 -88.20 0.0003972467    1.214    0.176
        57 -12.5531    222.8873     35.6843   2.6814661705e+01   2.5081377323e+01     0.488037    0.4013928  49.91  0.001100301    1.423    0.297
        58 -13.6480    205.4305     48.5446   3.2098810061e+01   2.7447056592e+01     1.416608    0.9330067  36.09  0.002953117    2.015    0.504
        59 -13.5586     25.9412    196.9815   1.0661781988e+02   2.9868545249e+01    0.5999377    0.4802776  51.81  0.001622069    1.210    0.173
        60  -9.9822     29.0049     53.0024   8.3731066702e+01   6.3184271558e+01    0.1854832    0.1604326 -30.46 0.0003933395    1.066    0.061
        61 -11.3519     11.1445     52.4279   9.1698141959e+01   6.4619534817e+01    0.2743479    0.2081251  31.68  0.001781814    1.640    0.390
        62  -9.7418    187.7848     31.5746   2.9995195791e+01   3.3990513187e+01    0.1954866     0.125895  82.85 0.0006936428    1.605    0.377
        63 -12.2679     72.6384    158.3631   9.1125657275e+01   3.3220756516e+01    0.5508299    0.3881876 -47.39 0.0009259845    1.534    0.348
        64 -10.0607    197.9453     24.1955   2.6754312135e+01   3.2374765020e+01    0.2384269    0.2018317 -18.48 0.0009856927    1.409    0.290
        65  -9.7147      2.3357     23.3199   8.7446351177e+01   7.0915450464e+01    0.1267772   0.06182524 -31.38 0.0007049614    1.704    0.413
        66  -9.1442    189.5728     15.2981   2.5388856966e+01   3.5417176938e+01    0.1637721    0.1327628 -10.23  0.000939419    1.551    0.355
        67  -9.3686    169.0735    236.1631   8.0466950400e+01   1.8947064122e+00    0.1813581    0.1447522  17.59 0.0003648923    1.141    0.123
