#   1 NUMBER                 Running object number                                     
#   2 MAG_AUTO               Kron-like elliptical aperture magnitude                    [mag]
#   3 X_IMAGE                Object position along x                                    [pixel]
#   4 Y_IMAGE                Object position along y                                    [pixel]
#   5 X_WORLD                Barycenter position along world x axis                     [deg]
#   6 Y_WORLD                Barycenter position along world y axis                     [deg]
#   7 A_WORLD                Profile RMS along major axis (world units)                 [deg]
#   8 B_WORLD                Profile RMS along minor axis (world units)                 [deg]
#   9 THETA_WORLD            Position angle (CCW/world-x)                               [deg]
#  10 FWHM_WORLD             FWHM assuming a gaussian core                              [deg]
#  11 ELONGATION             A_IMAGE/B_IMAGE                                           
#  12 ELLIPTICITY            1 - B_IMAGE/A_IMAGE                                       
         1 -11.4939     80.2529     23.4430   9.1239813244e+01   6.1390609190e+01    0.6211575    0.2879408  34.03 0.0009300996    2.373    0.579
         2  -9.2353     27.3202     22.7502   1.1287486733e+02   6.9218764042e+01     0.583227    0.2228009 -30.36   0.00248828    3.088    0.676
         3  -8.7717     46.1003     20.8207   1.0326106683e+02   6.7325900054e+01    0.3543295    0.1561825 -41.87  0.001496465    2.198    0.545
         4  -9.4806     63.8836     14.5773   9.2985558689e+01   6.5479466269e+01    0.5466164    0.2850606  10.24  0.002261476    3.182    0.686
         5  -9.0279    125.2112     10.4120   7.3833020295e+01   5.2972470890e+01    0.2862308    0.2076492  28.01 0.0009384239    1.430    0.301
         6  -9.5181    128.1599     16.0669   7.5380618151e+01   5.1684546039e+01    0.4963661    0.3188378  10.25  0.001253296    1.958    0.489
         7  -9.3781    133.8693     13.6074   7.3328110100e+01   5.0523875844e+01    0.2560211    0.2236181  35.30 0.0002551278    1.118    0.106
         8  -8.0318    136.7614     10.3642   7.1604038743e+01   5.0117313424e+01    0.2037515    0.1612096  61.33  0.001128857    1.145    0.127
         9  -8.5112    103.9795     16.0182   8.0971305465e+01   5.7373026454e+01     0.397754    0.1804996   8.47  0.001047001    6.743    0.852
        10  -9.2181     96.4070     13.5032   8.1922605674e+01   5.9306530002e+01    0.4239472    0.2120722   3.30  0.001624346    3.288    0.696
        11  -9.3850     79.3354     12.9756   8.6794614665e+01   6.2861517527e+01    0.4016258    0.2234158  49.64  0.001415441    1.757    0.431
        12  -9.0031     74.4841     13.5145   8.8662723295e+01   6.3721090545e+01    0.3473418    0.2256675   7.47  0.001242521    1.678    0.404
        13  -9.2256    108.0831     10.6616   7.7709507724e+01   5.7002240185e+01     0.390976    0.1871691  72.37  0.001534394    2.939    0.660
        14  -9.3521     31.5946     10.9316   1.0525491218e+02   7.0611669326e+01    0.2967577    0.2005309  -6.24 0.0004148537    1.389    0.280
        15  -8.7854     32.2904      6.1068   1.0241530293e+02   7.1204683384e+01    0.2010281    0.1539068   4.67 0.0004710772    1.146    0.127
        16  -8.8991    234.7002      7.7514   5.9026845592e+01   2.5540752313e+01    0.2940029    0.2125169 -25.22  0.001058792    1.568    0.362
        17  -8.8602    156.1186      7.7185   6.7519790917e+01   4.5423185619e+01    0.3293948    0.1839153 -21.00  0.001083941    2.011    0.503
        18  -9.3570    118.8824      6.8872   7.3759624441e+01   5.4828961738e+01    0.2996314    0.2393139  63.72 0.0003775696    1.205    0.170
        19  -9.6651     46.5719      6.4970   9.5956567343e+01   6.9229657989e+01    0.2855198     0.188039  24.69  0.001060296    1.428    0.300
        20  -8.8430     41.0695      5.9119   9.8114214632e+01   7.0087646320e+01    0.3253162    0.1976623   1.39  0.001268805    1.778    0.438
        21 -10.0484      7.9303      5.4400   1.1528142588e+02   7.3722597179e+01    0.4511287    0.2075779   2.88  0.002349298    2.950    0.661
        22  -8.4403     76.2746      3.9372   8.3475366857e+01   6.4412088760e+01    0.2139048    0.1545131 -25.32 0.0004502531    1.437    0.304
        23  -8.3782    111.3591      4.7302   7.4502335808e+01   5.6798040084e+01    0.2467677    0.1694789   9.84 0.0007042824    1.604    0.376
        24  -8.6732    110.6813      1.6688   7.3388321467e+01   5.7216806570e+01    0.2793021    0.1941723  48.79 0.0009942577    1.249    0.199
        25  -8.1423     91.2634      5.0050   7.9557626428e+01   6.1259453213e+01    0.1811478    0.1544843  23.77 0.0005065232    1.030    0.029
        26  -7.4052     84.2572      3.6857   8.0923868209e+01   6.2843797616e+01    0.1923327    0.1002157  -3.91 0.0008858756    2.312    0.568
        27  -8.6896     55.8230      3.3799   9.0459957404e+01   6.8148957816e+01    0.2777384    0.1582461  39.97 0.0007096765    1.659    0.397
        28  -8.2615    143.1575      2.3317   6.7659190167e+01   4.9220675578e+01     0.202984    0.1755965  23.16 0.0002615593    1.244    0.196
        29  -9.0974     70.4272      9.0897   8.7939398516e+01   6.4977325038e+01    0.3645922    0.1567525  44.59  0.001717884    2.144    0.534
        30  -8.5380    100.9503      6.3602   7.7631226831e+01   5.9024938374e+01    0.2712344    0.1879672  22.57  0.001221804    1.451    0.311
        31  -7.2777    206.5065      2.5108   6.0115065020e+01   3.2944367939e+01    0.1334894    0.1169258 -88.31 0.0008102027    1.042    0.040
        32  -9.8572    129.9693      6.9153   7.1581673607e+01   5.2129135559e+01    0.4047312    0.3173006  55.12  0.001326845    1.133    0.117
        33  -8.0314    105.6492      1.6156   7.4479995626e+01   5.8382096085e+01    0.2107373    0.1263014  33.41 0.0005770663    1.622    0.383
        34  -7.4913      2.9948      1.1862   1.1611685384e+02   7.4744184036e+01    0.1250791   0.07394026  14.29 0.0005085027    1.782    0.439
        35 -10.2058     13.6328     94.0031   1.3742199027e+02   5.5542381717e+01    0.3944044    0.2839484  29.74  0.001977842    1.703    0.413
        36 -10.0804    198.0023    249.3421   1.1778115253e+02  -3.2452958062e+00    0.3909989     0.155307  35.00  0.001925351    2.116    0.527
        37  -8.2993     53.9819    250.6577   1.4334282380e+02   1.8113893185e+01    0.1514567   0.07698921  46.67            0    1.536    0.349
        38  -8.3436     43.6547     91.9870   1.2726533422e+02   5.3453355308e+01    0.2096452    0.1807715 -21.40  0.001315786    1.331    0.249
        39  -8.1946     96.2848     90.3721   1.0995377082e+02   4.6228685184e+01    0.3453535    0.2417202  -3.37  0.001483569    2.275    0.560
        40  -8.0015    109.9188     90.9625   1.0609910508e+02   4.3478669119e+01    0.3315656    0.1624025  27.43  0.001048089    3.640    0.725
        41 -10.4228     37.2680     81.2670   1.2708752316e+02   5.6539048439e+01     0.633216    0.3415106 -19.58  0.002772419    3.105    0.678
        42  -7.6766    126.9906     83.4819   9.9141353532e+01   4.1403125124e+01    0.2206234    0.1313005  26.05 0.0008092873    2.511    0.602
        43  -9.8106      7.4947     77.9729   1.3688758451e+02   5.9525103450e+01    0.4987742    0.1979772 -37.07  0.002201557    2.913    0.657
        44  -8.7095     88.2580     78.7802   1.0906985346e+02   5.0169486912e+01    0.3762044    0.2458741  17.82  0.001488951    2.128    0.530
        45  -7.5524    184.1356     77.8572   8.4459834409e+01   2.8519497999e+01    0.2083952    0.1834452  19.10 0.0004879503    1.301    0.232
        46  -9.0595     48.6820     77.2818   1.2208764855e+02   5.6230686541e+01    0.3239555     0.217803 -15.40   0.00168357    1.969    0.492
        47  -9.8985     23.9781     73.5142   1.3012315791e+02   5.9421449218e+01    0.5361317    0.1483356 -50.33  0.002205702    2.714    0.632
        48  -9.7189     28.9924     68.7719   1.2716473683e+02   6.0055420128e+01    0.4169405    0.1615187 -37.20  0.001715525    3.061    0.673
        49  -8.1033     23.4873     69.4689   1.2940092847e+02   6.0348129422e+01    0.2128766    0.1458205 -54.26 7.325711e-05    1.165    0.142
        50  -8.2803     74.9022     74.2460   1.1209153024e+02   5.3347926425e+01    0.2374837    0.1900931 -32.72 0.0003461081    1.213    0.176
        51  -7.5920    129.0680     69.4627   9.4186230200e+01   4.3639358193e+01     0.233501    0.1230711  31.10 0.0008078952    2.766    0.638
        52  -8.3516    105.0995     68.2762   1.0050449719e+02   4.9101460186e+01     0.335968    0.2290761  -9.84   0.00145372    2.086    0.521
        53  -8.8893     84.0535     63.8269   1.0567500974e+02   5.3962113792e+01    0.3340835    0.2511615  -0.90  0.001118084    1.635    0.388
        54  -8.7530     16.2173     64.4371   1.3102717834e+02   6.1960733833e+01    0.2900901    0.1218875 -44.43  0.001413063    2.041    0.510
        55  -7.6881    122.4893     61.2613   9.3201838485e+01   4.6635840892e+01     0.373355    0.2167277  19.58  0.001296681    3.159    0.683
        56  -9.5171     63.1504     61.2114   1.1213384923e+02   5.7798078282e+01    0.6375846    0.3092543  20.43  0.002506887    3.254    0.693
        57  -9.1530     25.8660     61.1128   1.2644850993e+02   6.1961528633e+01    0.3467704    0.1888617 -37.05  0.001377532    1.763    0.433
        58  -9.5986     36.8778     59.4005   1.2161917842e+02   6.1332039373e+01    0.4063315    0.1840816 -30.83  0.001716082    2.915    0.657
        59  -8.6241     95.8526     60.0010   1.0052861230e+02   5.2513846887e+01    0.3454885    0.2123583  -0.92  0.001286148    3.102    0.678
        60  -8.0763    111.2257     58.4219   9.5347574206e+01   4.9641452488e+01    0.3986625    0.2191169  20.57  0.001322489    3.594    0.722
        61  -8.0238     49.2143     58.4334   1.1649314161e+02   6.0184302515e+01     0.167327    0.1203509  43.33 0.0009475899    1.691    0.409
        62  -9.1182    244.5261     56.7542   6.9822387444e+01   1.7096032985e+01    0.2373395    0.1868739  69.99  0.001017626    1.345    0.257
        63 -10.0595     74.9912     50.1746   1.0398199962e+02   5.8091727296e+01    0.4280832     0.312582 -18.73 0.0003290525    1.431    0.301
        64  -8.5280    248.5130     51.9385   6.8226282457e+01   1.6871854590e+01    0.1975437    0.1733734  84.93 0.0005792918    1.179    0.152
        65  -8.2924    118.2529     51.0599   9.0783320476e+01   4.9338555970e+01    0.2429761    0.2044964  46.01 0.0004800172    1.170    0.145
        66  -9.0866     45.3274     48.9865   1.1491879731e+02   6.2523642227e+01    0.3926768    0.2215355 -27.18  0.001536945    1.972    0.493
        67  -7.5582    107.3317     48.2968   9.2830799816e+01   5.2208874458e+01    0.1490985    0.1084698  15.19 0.0007028466    1.641    0.391
        68  -8.8669      2.0193     44.2636   1.3210405400e+02   6.6989036002e+01    0.2763601    0.2374929 -83.08  0.002084685    1.376    0.273
        69  -9.3109     13.5192     45.5293   1.2737942079e+02   6.6086932796e+01    0.5436819    0.2102942 -37.62  0.002623657    2.434    0.589
        70  -8.6708     10.5810     47.2478   1.2913110296e+02   6.5922228340e+01    0.2941821    0.1767913 -58.80 0.0007811554    1.347    0.258
        71  -8.5428      7.0589     48.0000   1.3084670088e+02   6.5970359388e+01    0.2137462    0.1538738  21.90 0.0008603824    1.715    0.417
        72  -9.4418     58.1172     41.1607   1.0688870232e+02   6.2319248067e+01     0.502123     0.271511 -14.30  0.001639738    3.144    0.682
        73  -8.2325    113.8209     41.7884   8.8585655827e+01   5.1800812048e+01    0.2534448    0.1459515  18.29 0.0009489524    2.836    0.647
        74  -7.7181    124.0000     39.9395   8.5256154963e+01   4.9717098927e+01    0.2340246    0.1665263  18.67 0.0005323743    1.686    0.407
        75  -8.5548     92.4142     37.5777   9.3219036645e+01   5.7002353106e+01     0.360867    0.2268815 -43.04  0.001163491    1.716    0.417
        76  -9.5354     37.0361     36.5735   1.1394686586e+02   6.5791474271e+01    0.4542038    0.2562751 -13.69  0.002256871    2.367    0.577
        77  -9.4991     68.3104     37.3646   1.0144487342e+02   6.1412495903e+01     0.421673    0.2571617  13.19  0.001999425    2.196    0.545
        78  -7.9830    105.8176     36.8190   8.8904586926e+01   5.4312600446e+01    0.3193972    0.1432949  34.28  0.001161169    2.878    0.653
        79 -10.7688     83.5549     40.1529   9.7143774517e+01   5.8304951031e+01    0.5771365    0.3719317  13.59  0.002730237    2.016    0.504
        80  -8.5711     18.9841     36.0000   1.2195369610e+02   6.7569334161e+01    0.1680181    0.1280781 -33.26 0.0004816712    1.076    0.071
        81  -9.3303     22.9680     35.5133   1.1993415137e+02   6.7340486243e+01    0.2707055    0.2322893   1.51 0.0009200897    1.268    0.212
        82  -8.6864     21.8745     32.1766   1.1924735345e+02   6.8053133939e+01    0.2136555    0.1352602 -37.59 0.0006559399    1.265    0.209
        83  -9.0144     56.1508     35.3487   1.0535257445e+02   6.3605402629e+01    0.2601361    0.1885137 -10.88 0.0009943884    1.399    0.285
        84  -9.5540      6.8159     33.9341   1.2702961214e+02   6.8782074456e+01    0.3407432    0.2208743 -32.03  0.001531333    1.340    0.254
        85  -9.2242      1.8478     28.9012   1.2788076831e+02   7.0012884667e+01    0.4534301    0.1238157 -58.67  0.002060739    2.770    0.639
        86  -9.1932     61.3240     27.6815   1.0002616932e+02   6.4065154141e+01    0.4413443    0.2287085 -13.26  0.001666122    3.090    0.676
        87  -7.2879    144.2638     27.9737   7.6459788685e+01   4.6305980761e+01    0.1715827    0.1264812 -27.39 0.0003426918    1.439    0.305
        88  -9.0795     42.0947     27.5041   1.0802384925e+02   6.6784133568e+01    0.2956592    0.1969314 -36.67  0.001111468    1.311    0.237
        89  -9.3611    224.7555    248.1907   1.1300675669e+02  -7.1624277662e+00    0.2084615    0.1576371  24.30  0.001497238    1.025    0.025
        90  -9.5771     68.4995     25.9682   9.6521184800e+01   6.3149848811e+01    0.3881438    0.2480518  38.95  0.002131766    1.572    0.364
        91  -8.5859    153.0152    250.0000   1.2587163306e+02   3.7861338159e+00     0.203835    0.0533518  41.68 -0.005334738    2.945    0.660
        92  -7.2835    118.2804     24.6864   8.0893183922e+01   5.3093290425e+01    0.1348466    0.1081055 -64.15 0.0004052787    1.570    0.363
        93  -7.3896    103.0045     25.0000   8.4960870663e+01   5.6532046102e+01    0.2286666   0.07443973  54.73 0.0008057641    2.966    0.663
        94  -8.1164    144.9202     23.3151   7.4707566188e+01   4.6689723693e+01    0.1994456    0.1682262  59.56 0.0003611791    1.098    0.089
        95  -8.4228     63.9104     22.8040   9.6834457402e+01   6.4369677288e+01    0.2261053    0.1719678 -23.36  0.001374557    1.206    0.171
        96  -7.7845     78.7001    248.6769   1.3899183792e+02   1.5204861674e+01   0.09273621   0.08726586  26.97 0.0003994773    1.629    0.386
        97  -8.3662    140.3967     20.0908   7.4427201297e+01   4.8201593905e+01    0.2351062    0.1721432  51.00 0.0003230348    1.256    0.204
        98  -8.0824      9.4078     19.8724   1.2080419985e+02   7.1215345879e+01    0.2668589     0.145709  14.79  0.001016645    2.055    0.513
        99  -7.8260      5.4825     18.5570   1.2237968506e+02   7.1703059595e+01     0.162776   0.07508148 -43.99 0.0004810473    1.595    0.373
       100  -7.5566    163.5477    250.5032   1.2404336478e+02   2.0399830768e+00    0.1192963       0.0919  44.16 8.771376e-05    1.064    0.060
       101  -7.3905    121.5473    240.4403   1.3051578305e+02   1.0234382144e+01    0.1216753   0.09367063  53.49 0.0001259912    1.021    0.021
       102  -7.6638     46.6316    235.8280   1.4364354683e+02   2.1600128081e+01    0.1448175   0.08276877  84.85 0.0003536525    1.578    0.366
       103  -8.8151    187.9969    233.9980   1.1737534664e+02   3.3614115887e-01    0.1896839    0.1577041  37.24 0.0007135098    1.091    0.084
       104  -8.4920     31.9730    229.3618   1.4578633706e+02   2.4488414732e+01    0.1741403    0.1266658 -88.97 0.0003289489    1.272    0.214
       105  -7.1761    142.6590    212.2949   1.2290697140e+02   1.1489051533e+01    0.1339587    0.0912112  65.53 0.0003137507    1.658    0.397
       106  -7.9091    129.0506     22.4741   7.7597794748e+01   5.0762301787e+01    0.2169491    0.1299782  58.35 0.0005490325    1.545    0.353
       107  -7.9219     12.3174    207.6586   1.4804637194e+02   3.0672533660e+01    0.1200121   0.05640651  66.79 0.0006874824    1.712    0.416
       108 -10.1036    176.7196    202.0579   1.1449717044e+02   7.1193611027e+00    0.2298545    0.2066536  40.26 0.0003193655    1.062    0.058
       109  -7.4370    177.5171    187.4289   1.1177154398e+02   9.4587083311e+00    0.1387474    0.1233953  35.18 8.097338e-05    1.011    0.010
       110  -7.6236    121.6573     14.6854   7.6228477906e+01   5.3408100935e+01    0.1503647   0.09281486  32.72  0.000704764    1.708    0.415
       111  -7.6823    122.7104    147.2242   1.1628239817e+02   2.8333256267e+01    0.1836543    0.1715303   0.94 0.0003870091    1.283    0.221
       112  -9.2599     67.2607    144.6860   1.2992286039e+02   3.8146305464e+01    0.4646347    0.2779669  66.22  0.002235079    1.908    0.476
       113  -8.4079    187.9850    138.7872   9.9518960778e+01   1.6259842757e+01    0.2352563    0.2119326 -34.51 0.0003616254    1.120    0.107
       114  -9.6005    233.8004    131.1530   8.9189811126e+01   7.7851653241e+00    0.2825854    0.2292794  34.89 0.0004291698    1.280    0.219
       115  -7.2901    143.6934    126.6321   1.0655674195e+02   2.8562340511e+01    0.1585025    0.1247724  -4.34 0.0007035728    1.753    0.429
       116  -8.2999     12.5200    121.0084   1.4128264064e+02   4.9418702937e+01    0.1800693   0.06246742 -54.66 0.0008095013    2.556    0.609
       117  -7.5642     99.1839    119.5873   1.1650979165e+02   3.9061021687e+01    0.2034255    0.1439223  26.89 0.0009483355    1.731    0.422
       118  -7.7134    120.1775    118.6109   1.1057932720e+02   3.5287312530e+01    0.2176851    0.1447084  32.22 0.0009456944    1.750    0.428
       119  -8.5161    250.6359    112.7657   8.2309004050e+01   7.3044808796e+00    0.2000643    0.1125888 -41.60 0.0004477671    1.645    0.392
       120  -7.3236    184.7632    112.0000   9.3618075076e+01   2.2112915866e+01     0.273075    0.1694144 -87.87 0.0008781536    3.560    0.719
       121  -7.7568     29.0060    112.5051   1.3552339580e+02   5.0076555534e+01    0.1667581     0.126019  29.23  0.001036836    1.601    0.376
       122  -8.4446     23.2959    111.8591   1.3709769114e+02   5.0711164009e+01    0.2181575    0.1371853 -33.80 0.0008834259    2.048    0.512
       123  -7.2399    142.6456    111.6806   1.0305909082e+02   3.2004849181e+01    0.1612836    0.1260701   6.23 0.0007046493    1.751    0.429
       124  -8.8551      1.9159    109.9812   1.4299250469e+02   5.2627649250e+01    0.3511522   0.08773997 -52.99   0.00143988    3.414    0.707
       125  -7.7644    133.5132    106.5288   1.0400026973e+02   3.5137662634e+01    0.2882625    0.1459145 -33.77  0.001024119    2.456    0.593
       126  -7.6935    108.8475    106.7584   1.1070170017e+02   4.0206546177e+01    0.2516231    0.1689102  -7.85 0.0009487955    2.829    0.647
       127  -7.9255     76.2900    107.3003   1.2033515857e+02   4.5706570341e+01    0.1384268    0.1058031 -29.75 0.0002517192    1.562    0.360
       128  -9.2570     14.1924    105.7230   1.3892829279e+02   5.2818559139e+01    0.2989148    0.1397057 -39.29  0.001448389    2.674    0.626
       129  -8.3645    248.3244    104.3078   8.0683445810e+01   9.0964690626e+00     0.138665    0.1054788   9.15  0.000239379    1.649    0.394
       130  -7.5062     93.7059    103.6160   1.1425554460e+02   4.3719849396e+01    0.1525257    0.1120582 -23.67 0.0007017032    1.762    0.432
       131  -7.0813    140.5006     99.4962   1.0030276140e+02   3.5058175610e+01     0.154802    0.1530122 -77.41 -0.0002241636    1.002    0.002
