#   1 NUMBER                 Running object number                                     
#   2 MAG_AUTO               Kron-like elliptical aperture magnitude                    [mag]
#   3 X_IMAGE                Object position along x                                    [pixel]
#   4 Y_IMAGE                Object position along y                                    [pixel]
#   5 X_WORLD                Barycenter position along world x axis                     [deg]
#   6 Y_WORLD                Barycenter position along world y axis                     [deg]
#   7 A_WORLD                Profile RMS along major axis (world units)                 [deg]
#   8 B_WORLD                Profile RMS along minor axis (world units)                 [deg]
#   9 THETA_WORLD            Position angle (CCW/world-x)                               [deg]
#  10 FWHM_WORLD             FWHM assuming a gaussian core                              [deg]
#  11 ELONGATION             A_IMAGE/B_IMAGE                                           
#  12 ELLIPTICITY            1 - B_IMAGE/A_IMAGE                                       
         1 -14.8336    166.3147     39.4598   7.7345218849e+01   3.8788718726e+01     1.355709     1.077654  -0.27  0.004140797    1.482    0.325
         2 -14.5383    182.0912      7.0273   6.5041287987e+01   3.8424057549e+01     1.349035    0.8429729  62.01  0.005874219    1.458    0.314
         3 -11.3305    125.0517    247.4906   1.3140685683e+02   8.9182656064e+00    0.2013513    0.1339221 -59.48  0.001318221    1.865    0.464
         4 -19.8278     69.2228    167.9753   1.3321069957e+02   3.2280913139e+01     17.76759     6.440586 -67.38   0.07276965    2.746    0.636
         5 -13.2575    175.1059    193.3453   1.1434707552e+02   9.1831862180e+00    0.5115559    0.3396079 -51.45  0.002016287    1.791    0.442
         6 -12.9637    180.1018    192.7130   1.1325003946e+02   8.3641451569e+00    0.3950429    0.3144434 -64.58  0.001573686    1.656    0.396
         7 -13.5094    176.0166    187.2284   1.1307718135e+02   1.0052272660e+01     0.634851      0.42474 -69.60  0.002958062    2.457    0.593
         8 -11.3070    154.5963    196.2756   1.1895380845e+02   1.2441004943e+01    0.3134242    0.2256512 -76.69  0.001635924    1.953    0.488
         9 -11.8887    169.9645    195.2473   1.1569658151e+02   9.8099592831e+00    0.2154044    0.2009178 -40.29  0.000754791    1.208    0.172
        10  -9.5996     24.1085    230.4194   1.4747967385e+02   2.5162955302e+01    0.2830775    0.1183255  59.52   0.00170701    1.871    0.465
        11 -10.4735    114.0000    250.0972   1.3360929957e+02   1.0183850159e+01    0.1345649   0.06446756 -60.25 0.0005185801    2.570    0.611
        12 -10.9694     40.4844    194.6382   1.4210914865e+02   3.0194455463e+01    0.2991792    0.1794704  34.48 0.0009513014    1.909    0.476
        13 -11.2982    219.4005    224.8900   1.1144735677e+02  -3.0872899354e+00    0.2894093    0.1413237 -45.48  0.001436154    2.912    0.657
        14 -13.4334    167.5356    189.3377   1.1515877558e+02   1.1278562557e+01    0.5201582    0.4121705  40.58  0.002206022    1.134    0.119
        15 -12.9093    121.8958    223.0683   1.2921116283e+02   1.3347903336e+01    0.4596685    0.2873972  25.93  0.002430383    2.150    0.535
        16 -13.1501    210.2060    187.6101   1.0655135962e+02   3.6299002312e+00    0.6843775    0.3540952 -58.40   0.00230204    5.150    0.806
        17 -12.4311    205.4899    179.5130   1.0587483019e+02   5.7602268850e+00    0.3042395    0.2630631 -61.15  0.001772317    1.523    0.343
        18 -12.4070    209.4996    176.2716   1.0448103581e+02   5.5197098307e+00    0.5881998    0.3145598 -25.37  0.001980637    2.216    0.549
        19 -10.0588     32.4031    188.4412   1.4319532508e+02   3.2351441232e+01    0.1457182    0.1357608 -16.78 0.0005080333    1.702    0.412
        20 -10.7611    110.2130    222.8963   1.3141045110e+02   1.5219967426e+01    0.1675965    0.1341558  67.06 0.0003665789    1.120    0.107
        21 -12.7574     28.3655    183.9287   1.4363897991e+02   3.3707841569e+01    0.2530651    0.1974882  50.48 0.0009659656    1.337    0.252
        22  99.0000     13.3211    244.2465   1.4987380967e+02   2.3879771313e+01    0.2276277   0.08811709 -68.48    0.0013973    2.658    0.624
        23 -11.9519    195.6952    174.3269   1.0673184190e+02   8.4766469235e+00    0.3586636    0.2746471  88.00 0.0007404152    2.176    0.541
        24 -13.2183    195.7705    170.5478   1.0596034787e+02   9.0986141570e+00    0.7178041    0.4566758 -52.26    0.0029338    1.964    0.491
        25 -10.8372      7.8992    175.7488   1.4712671971e+02   3.7335256783e+01    0.1458389    0.1051256  67.69 0.0003415818    1.179    0.152
        26 -13.6343    138.1746    171.1317   1.1810718557e+02   2.0243337176e+01     0.736619    0.5853161  78.74   0.00388467    1.447    0.309
        27 -12.6473    177.6331    171.3345   1.0974573786e+02   1.2534640642e+01    0.5555096    0.2948831 -58.84   0.00216618    2.959    0.662
        28 -12.9991    143.8049    168.3096   1.1635059125e+02   1.9739094674e+01    0.6585919    0.4006534 -85.45  0.002388882    3.550    0.718
        29 -12.0969    125.7611    171.9527   1.2100097901e+02   2.2368022253e+01    0.3226196    0.2833017  70.65  0.001160891    1.101    0.092
        30 -11.2853    202.9105    172.1354   1.0490008975e+02   7.4446431845e+00    0.2012958    0.1925195  73.43 0.0007518931    1.279    0.218
        31 -11.2336     34.7673    168.3073   1.4092959995e+02   3.6364538970e+01    0.2259984    0.1672543  65.56  0.001024613    1.211    0.174
        32  99.0000     15.5632    219.6432   1.4832854536e+02   2.7994664405e+01     0.306329    0.1262215 -66.96  0.001810557    2.407    0.585
        33 -10.4674     14.4703    216.0586   1.4832328804e+02   2.8767056899e+01    0.1247173    0.1069106 -75.12  0.001016166    1.516    0.340
        34 -11.0219    200.8716    164.7588   1.0378194605e+02   9.0733416438e+00    0.2565907    0.1854137 -65.60  0.001165901    2.103    0.524
        35 -10.1601     20.4936    217.6696   1.4737988660e+02   2.7862634818e+01    0.1250043   0.08258597 -71.25 0.0008919926    1.588    0.370
        36 -12.1855    116.0848    211.8962   1.2895124339e+02   1.6253226527e+01    0.2750589    0.1865176  73.28 0.0009868521    1.645    0.392
        37 -10.6650    222.8857    162.7296   9.9245187814e+01   5.1155405938e+00    0.2529007    0.1728839 -56.69  0.001217436    2.130    0.530
        38 -11.9231    129.9322    160.8252   1.1805979345e+02   2.3912692474e+01    0.2727171    0.2352716 -30.66  0.000732008    1.363    0.266
        39 -12.6068    163.2228    155.3266   1.0952381813e+02   1.8446966733e+01    0.3927716    0.3214942 -61.84  0.001431191    1.380    0.275
        40 -10.5750     16.3686    156.3497   1.4386718106e+02   4.0741632008e+01    0.1657873    0.1427938   9.41 0.0008506202    1.715    0.417
        41 -13.9290    143.4282    143.0110   1.1133388531e+02   2.5010074779e+01    0.8940286    0.5111226 -62.28  0.003594117    2.277    0.561
        42 -14.2611    135.4294    128.0147   1.0985263704e+02   2.9842544146e+01     3.043637    0.4053025 -48.11  0.006023393    8.146    0.877
        43 -11.3387    174.3705    148.5948   1.0568617691e+02   1.7427650617e+01    0.3492538    0.2589681 -75.25  0.001394794    1.938    0.484
        44 -11.6009    110.5173    212.0318   1.3006430200e+02   1.7119401050e+01    0.2704657    0.1818945  77.52  0.001527853    1.689    0.408
        45 -11.5454    108.5849    207.7893   1.2992138746e+02   1.8212217832e+01    0.2549032    0.2374392 -71.46  0.001081848    1.253    0.202
        46 -12.7650      9.7058    138.9986   1.4382726528e+02   4.5110543186e+01    0.2391343    0.1895222  79.18 0.0008535957    1.139    0.122
        47 -14.3319    133.5600    145.2734   1.1412908501e+02   2.6512824902e+01     1.430055     0.466981 -55.87  0.004209904    4.109    0.757
        48 -12.3307      4.4660    112.2469   1.4239751166e+02   5.1457868801e+01    0.3795011    0.2538727 -24.03  0.002395608    2.108    0.526
        49 -13.3509      3.1757    127.6905   1.4434209883e+02   4.8090874609e+01    0.6502221    0.2347743 -80.57  0.003069832    2.371    0.578
        50 -12.9486      4.2420    120.0696   1.4330972731e+02   4.9720253752e+01    0.3926156    0.3056359  59.23  0.002812505    1.385    0.278
        51 -12.2929    160.4051    127.8120   1.0394716366e+02   2.4539739709e+01    0.4381084    0.3306246 -53.74  0.002095386    1.407    0.289
        52 -13.0739    128.4725    143.3452   1.1493579473e+02   2.7924212731e+01    0.5299338    0.2800249  53.41  0.001838636    2.055    0.513
        53 -11.4852    133.5996    249.8240   1.3015466036e+02   7.2621200254e+00    0.1650028    0.1249188 -56.01 0.0008469343    1.677    0.404
        54  -9.8599    118.1508    207.5607   1.2798178395e+02   1.6710799894e+01    0.3730672    0.1966395  76.30  0.001400958    3.973    0.748
        55 -10.8090    167.6559    112.6510   9.8534897908e+01   2.5927835725e+01    0.3166087    0.2273224 -80.07  0.001325306    2.077    0.519
        56 -12.0918    163.5316    203.4458   1.1833064713e+02   9.5945690820e+00    0.2458468    0.2201401  41.62 0.0006244797    1.032    0.031
        57 -10.8778    205.4294    110.1733   9.0298393772e+01   1.7644422813e+01    0.3292626    0.2129209  42.05  0.001071735    1.622    0.383
        58 -11.4963     13.7397    109.9583   1.3956029299e+02   5.1350691173e+01    0.1729344    0.1512947 -42.32 0.0003988555    1.335    0.251
        59 -13.1453    161.4335    198.1163   1.1787991331e+02   1.0878355234e+01    0.4358447    0.3139668 -69.33  0.002100673    1.895    0.472
        60 -11.6794    169.0105    202.6882   1.1713111840e+02   8.7373764230e+00    0.2158263    0.1816572  83.90 0.0006953775    1.531    0.347
        61 -10.6188    157.0577    202.2151   1.1941567428e+02   1.0962047492e+01    0.2591258    0.1655284  57.46   0.00133121    1.686    0.407
        62 -10.3496    135.1652    235.1783   1.2819508597e+02   9.2383936326e+00    0.1456317    0.1194342  82.71 0.0006587895    1.385    0.278
        63 -11.9201     42.7415     91.5214   1.2767286197e+02   5.3040744251e+01    0.3771756     0.239822  14.57  0.001251805    2.098    0.523
        64 -10.4597     98.7743     80.8140   1.0720874421e+02   4.7261725915e+01    0.2092335    0.1940603 -10.86 0.0006453538    1.102    0.093
        65 -14.4345    154.4985     54.7872   8.4538133380e+01   3.9568422446e+01     1.154668     1.073419  68.90 0.0009772956    1.093    0.085
        66 -10.3079    150.6150    248.7171   1.2703380261e+02   4.7779061743e+00    0.1586333    0.1137127 -46.66 0.0007230492    1.797    0.444
        67 -12.8250    170.4261     31.8934   7.4259303138e+01   3.8707973286e+01    0.3972082    0.3548236  -5.28 0.0008943948    1.235    0.190
        68 -10.7724     13.5081     59.9557   1.3084973955e+02   6.2427077743e+01      0.17783    0.1593583  60.68 0.0004355155    1.432    0.302
        69 -11.0021    138.5608     31.5975   8.0062412129e+01   4.6821764176e+01    0.3740177    0.2322669  79.54  0.001610205    2.141    0.533
        70 -11.8556    171.3061    177.4376   1.1222090813e+02   1.2674262717e+01    0.4218482    0.2606452 -75.66  0.001567157    3.678    0.728
