#   1 NUMBER                 Running object number                                     
#   2 MAG_AUTO               Kron-like elliptical aperture magnitude                    [mag]
#   3 X_IMAGE                Object position along x                                    [pixel]
#   4 Y_IMAGE                Object position along y                                    [pixel]
#   5 X_WORLD                Barycenter position along world x axis                     [deg]
#   6 Y_WORLD                Barycenter position along world y axis                     [deg]
#   7 A_WORLD                Profile RMS along major axis (world units)                 [deg]
#   8 B_WORLD                Profile RMS along minor axis (world units)                 [deg]
#   9 THETA_WORLD            Position angle (CCW/world-x)                               [deg]
#  10 FWHM_WORLD             FWHM assuming a gaussian core                              [deg]
#  11 ELONGATION             A_IMAGE/B_IMAGE                                           
#  12 ELLIPTICITY            1 - B_IMAGE/A_IMAGE                                       
         1 -11.7978     62.6167     38.1636   6.3612111005e+01   6.1329223482e+01    0.4976282    0.3693453  24.69  0.001548638    1.196    0.164
         2 -11.8841     35.3746     19.2732   6.7199981541e+01   6.8231856390e+01     1.205761    0.5277213  24.56   0.00493372    2.476    0.596
         3 -11.9553     27.7572     18.4519   7.0587314985e+01   6.9389226548e+01    0.7228631    0.4135262  -4.84  0.003943571    1.956    0.489
         4 -11.9139     35.1578     27.0092   7.0768761738e+01   6.7223701819e+01    0.6855588    0.3507556  20.88   0.00126639    1.984    0.496
         5 -11.2975     10.2546     15.2160   7.8762339622e+01   7.1852404744e+01    0.4247753    0.2318291  14.20 0.0005409466    1.644    0.392
         6 -12.5181     16.2042     13.3551   7.4408831622e+01   7.1479605445e+01     0.342662    0.2086971   5.70  0.002120189    1.474    0.322
         7 -12.0624     24.1309     12.0258   6.9402319491e+01   7.0685356341e+01    0.3101434    0.2468985  -6.95  0.000303802    1.169    0.145
         8 -12.1156    238.5870     21.2134   2.7340959316e+01   2.5870269184e+01    0.6670382    0.3282611 -60.81  0.003985408    1.718    0.418
         9 -11.5734    236.8024     16.8223   2.6666902681e+01   2.6701669157e+01    0.5180455    0.2521924 -78.46  0.002938021    2.030    0.507
        10 -10.0382     73.2035     25.3890   5.4780125519e+01   6.1002807022e+01    0.2104099    0.1993595  24.12  0.000641765    1.191    0.160
        11 -10.3759     99.5116      5.8060   4.0398955988e+01   5.7366027015e+01    0.4669159    0.3044981 -53.49  0.001687393    2.031    0.508
        12 -11.4836    100.1553     16.2576   4.3911478442e+01   5.6319996965e+01    0.4739602     0.287513  43.50  0.001258128    1.471    0.320
        13 -10.9910     93.2564     10.3404   4.3404029419e+01   5.8353372157e+01    0.5914541    0.3020253  66.36  0.001850622    1.944    0.486
        14 -11.9631     89.7670      3.2235   4.1605840936e+01   5.9678943166e+01     0.432732    0.2792697  57.96  0.001349514    1.273    0.214
        15 -10.4717    222.4848     19.5233   2.8222043558e+01   2.9128382324e+01    0.5187496    0.1280797 -33.41   0.00202683    4.424    0.774
        16 -12.1654    111.9227     19.0060   4.2281772993e+01   5.3443629012e+01    0.4718105    0.3469837  16.13  0.002766016    1.663    0.399
        17 -11.0241     55.8753     18.0409   5.7853557260e+01   6.5062271965e+01    0.5018119    0.2420797  26.61  0.001736942    2.315    0.568
        18 -10.9681     58.9944     12.5147   5.4281926436e+01   6.5076059896e+01    0.4834651    0.1993535  40.76  0.002270713    2.015    0.504
        19  -9.4861    150.6176     12.8109   3.4013343624e+01   4.5226761563e+01    0.2313124    0.1599019 -48.44 0.0008180452    1.538    0.350
        20 -10.6392    153.3063      3.2178   3.1174871228e+01   4.5481707791e+01    0.3664355    0.2690556  44.41  0.001713573    1.562    0.360
        21 -10.3576    156.5292     10.0090   3.2532287173e+01   4.4152415260e+01    0.2391866    0.2344122  78.70 0.0008882335    1.240    0.193
        22  -9.9975    153.4744      9.5227   3.2783103811e+01   4.4886284751e+01    0.2165405    0.1840697 -70.29 0.0005305394    1.175    0.149
        23 -11.0073    155.4716     14.9333   3.3934899526e+01   4.3921495222e+01    0.3282345    0.2781374  42.52  0.001857231    1.382    0.277
        24 -10.8410    193.4894     16.7778   3.0157056787e+01   3.5353250651e+01    0.2096238    0.1726512 -80.90 0.0002398383    1.029    0.028
        25  -9.6801    176.3193     12.1330   3.0820262773e+01   3.9542473296e+01    0.3884202    0.2020895 -78.55 0.0003476573    2.135    0.532
        26 -12.5380    187.0972     13.6342   3.0078449819e+01   3.7049065792e+01    0.3673522    0.2711827 -49.35  0.000372038    1.344    0.256
        27 -12.1639    121.7394     11.2356   3.7943069745e+01   5.1946091888e+01    0.5908751    0.3530008  56.42 0.0009178551    1.396    0.284
        28 -12.0692    128.0196      4.8647   3.4996823573e+01   5.1060389966e+01     0.402042    0.2963195 -78.47  0.002238375    1.460    0.315
        29 -10.1017    136.2862      1.7983   3.2928509368e+01   4.9435207218e+01    0.5036713    0.1775799  58.58  0.002345291    2.220    0.549
        30 -10.1582    247.2175     12.9881   2.5310825415e+01   2.5230135695e+01    0.1829123    0.1411315 -65.55 0.0003342924    1.113    0.101
        31  -9.4849    144.6538     13.1765   3.4926008901e+01   4.6549021852e+01    0.2481815    0.1831919  14.50 0.0009340591    1.925    0.481
        32  -9.2923    142.0259     10.3216   3.4510178254e+01   4.7410289343e+01    0.2161479     0.147929  72.42 0.0008531781    1.237    0.192
        33 -10.0377     75.5051     12.3634   4.8853344509e+01   6.1892190329e+01    0.2727194    0.2038471 -43.12   0.00168515    1.739    0.425
        34 -12.3346     46.0758      9.0833   5.7676865892e+01   6.7705107107e+01    0.2844712     0.210673  11.05 0.0004048368    1.200    0.166
        35 -11.2283    209.7904      8.6989   2.7080352110e+01   3.2823653732e+01    0.4477718    0.3120849  43.43  0.002270567    2.176    0.541
        36 -11.5941    216.7663      6.3141   2.6098973044e+01   3.1676086414e+01    0.3629388    0.2457775 -26.15  0.001663747    1.995    0.499
        37 -11.7356    182.3060     12.5850   3.0313463673e+01   3.8190855534e+01    0.3016352     0.265893  31.76  0.001257955    1.573    0.364
        38 -10.2227     35.0693      9.2574   6.2586321933e+01   6.9459117119e+01    0.2557031    0.1963603  13.82   0.00176827    1.017    0.017
        39 -11.0530      2.8829      3.6797   7.7644889758e+01   7.4143353627e+01    0.2997462    0.2637391  31.40  0.002273153    1.866    0.464
        40  -9.9229      9.4778      1.4733   7.2305474093e+01   7.3737680074e+01    0.2545604    0.1387868  31.67  0.001252284    1.762    0.433
        41 -10.8635      8.0959      8.9338   7.7031901720e+01   7.2938636376e+01    0.2077633    0.1443394  -2.51 0.0003500607    1.100    0.091
        42 -11.6983     10.5131      5.1927   7.3649231685e+01   7.3169393865e+01    0.8474186    0.2568077  26.53  0.003762371    3.202    0.688
        43 -11.0548    168.2438      5.5397   3.0105074275e+01   4.1949402550e+01    0.3735312    0.3131184 -26.50  0.001948083    1.505    0.336
        44  -8.8082    137.6200      7.7782   3.4423534511e+01   4.8637018076e+01    0.1571828    0.1040305 -46.73  0.000691279    1.672    0.402
        45  -9.7998     77.9526      7.0437   4.6032429071e+01   6.1859251976e+01    0.2732239    0.2125369   3.87  0.001792557    1.403    0.287
        46  -9.1079    178.8801      6.8253   2.9338976901e+01   3.9499384651e+01    0.1578015    0.1110649 -74.23 0.0002425499    1.271    0.213
        47 -10.8568    106.2252      3.5172   3.8277358094e+01   5.6062916329e+01     0.541074    0.3076306 -83.29  0.002585884    2.711    0.631
        48  -9.0773     71.1965      6.6465   4.7794319966e+01   6.3262218306e+01     0.180273   0.08693681  46.91 0.0004265367    1.637    0.389
        49 -10.0829    203.3895      3.4877   2.6522162946e+01   3.4647706410e+01    0.3137728    0.1918333  44.64  0.001838463    2.480    0.597
        50  -9.4511     40.8418      5.1506   5.7987651879e+01   6.8966069636e+01    0.1597778    0.1352939  25.88 0.0002947705    1.208    0.172
        51 -10.6401    193.2948      2.3823   2.7086833371e+01   3.6844018976e+01    0.4592417    0.2049352  63.06  0.002302069    2.071    0.517
        52 -10.4389     32.6996      2.7245   6.0428613664e+01   7.0498736073e+01    0.3354577    0.1133644  38.13  0.001584818    2.437    0.590
        53 -10.3518    244.3947      1.7592   2.3544077421e+01   2.6936581274e+01    0.3824673    0.1296828  82.46  0.001975359    2.893    0.654
        54  -9.5940    120.0188      2.2219   3.5451443851e+01   5.3076119568e+01    0.1729981    0.1330598  66.56 0.0004384597    1.066    0.062
        55  -9.4392    238.9150      7.8511   2.4921704424e+01   2.7293042157e+01    0.1465194    0.1212324 -77.46 0.0003740795    1.202    0.168
        56  -8.5671     64.3540      1.2960   4.7597817251e+01   6.5045887139e+01    0.1296943   0.06961621  33.10 0.0007033607    1.691    0.409
        57  -9.8088     36.4502    145.0739   1.0226936963e+02   4.1127957731e+01    0.4526145    0.1319238 -67.23   0.00146089    3.166    0.684
        58  -9.0946     84.0122    249.9808   1.0294511944e+02   9.6519684161e+00    0.1529776    0.1416446  59.72 0.0009994664    1.087    0.080
        59  -8.8280     15.0000    250.0070   1.1762565541e+02   1.7674082232e+01    0.1793678   0.05986448 -77.36 0.0007980081    2.912    0.657
        60 -10.4633      2.9894    143.1953   1.1241690594e+02   4.4276051740e+01    0.3215533     0.236843  61.27  0.001757363    1.474    0.322
        61  -9.8080     44.2318    141.6080   9.9220198014e+01   4.1229760751e+01    0.3393393    0.2243913  21.97   0.00118492    1.672    0.402
        62 -10.5334     21.1013    141.7144   1.0664675860e+02   4.3395711641e+01     0.363354    0.1846624  40.40  0.001019047    2.168    0.539
        63 -11.0496     28.5904    138.4190   1.0378077207e+02   4.3626573741e+01    0.5044581    0.2886988 -64.25  0.000953662    1.514    0.340
        64  -9.2583     46.9877    136.2819   9.7392236447e+01   4.2326825810e+01    0.1964457    0.1834863 -44.77 0.0004002841    1.045    0.043
        65 -10.0583     10.2040    129.0219   1.0846291086e+02   4.7484245549e+01    0.4122405    0.2997414   4.87   0.00158701    1.627    0.385
        66  -9.5037     13.1379    134.8457   1.0827412755e+02   4.5782796053e+01     0.271937    0.1641603 -62.68 0.0007036121    1.376    0.273
        67 -10.8000     15.9557    130.4096   1.0675416351e+02   4.6734741415e+01    0.7268668    0.2002582 -69.28  0.002481169    3.100    0.677
        68  -9.1331     33.9542    133.0000   1.0115936643e+02   4.4553026398e+01    0.2082399    0.0828658  21.66            0    2.807    0.644
        69 -10.4417     25.5077    131.9356   1.0380749434e+02   4.5592367068e+01    0.4083397    0.1878249 -31.12  0.001565932    2.856    0.650
        70  -9.0440      1.5011    130.9800   1.1152828005e+02   4.7496976533e+01    0.2062552   0.06546091 -52.47 0.0005769887    2.495    0.599
        71  -8.5675     21.6447    130.2991   1.0484697993e+02   4.6334472680e+01    0.1411851   0.09906825  63.00   0.00070363    1.701    0.412
        72 -10.8535     48.9880    126.7415   9.4920074115e+01   4.4587702708e+01    0.4732222    0.2739713  43.02 0.0001889186    1.957    0.489
        73 -10.3591     53.2859    124.7018   9.3028525549e+01   4.4597449871e+01    0.4434817    0.2467939 -34.97   0.00153784    2.005    0.501
        74 -10.5374     23.7151    125.3012   1.0336936562e+02   4.7464691817e+01     0.434399    0.2302458 -83.54  0.001830765    2.265    0.559
        75 -10.1671     29.9513    124.8514   1.0114515782e+02   4.7047311446e+01    0.4988175    0.2525902 -26.99  0.002009434    2.574    0.611
        76 -10.6253    229.9690    122.9850   4.8349589533e+01   1.2274090669e+01    0.5616928    0.2882483 -55.91  0.002550495    2.171    0.539
        77  -9.0958     93.8623    123.1100   7.9176305621e+01   3.8858732136e+01     0.207377    0.1758579 -17.85 -0.0006383859    1.255    0.203
        78 -10.4667     10.7286    122.8818   1.0744549636e+02   4.9027365006e+01    0.3500704    0.2559677 -74.48  0.001295715    1.243    0.196
        79 -10.4016      8.5026    118.8686   1.0763800809e+02   5.0188209755e+01    0.2607474    0.1898492 -63.29  0.001132173    1.146    0.128
        80 -10.9650      4.2139    116.0185   1.0872437049e+02   5.1153646381e+01    0.3952308    0.2376169  -1.06   0.00205197    1.997    0.499
        81  -9.3757     83.4221    119.2209   8.1573459823e+01   4.1601120225e+01    0.2795271    0.2131937  30.43 0.0006191032    1.351    0.260
        82 -10.3361     67.7508    117.5947   8.6457261880e+01   4.4452137874e+01    0.4595824    0.2138297  37.40  0.001757327    2.233    0.552
        83 -10.0791     29.9932    117.2904   9.9785511327e+01   4.8987414794e+01    0.3094879    0.2084038  78.89  0.001457881    2.002    0.500
        84  -8.8334     98.5283    117.4566   7.6302524399e+01   3.9378638019e+01     0.156335    0.1483096 -18.48 8.471985e-05    1.025    0.024
        85  -9.4982     45.8694    117.1345   9.4059511943e+01   4.7411946558e+01    0.2118544    0.1957403 -89.21 0.0005649771    1.214    0.176
        86  -8.6545     38.3147    115.2615   9.6394124535e+01   4.8703744489e+01    0.1457045    0.0982438 -30.23 0.0002874049    1.539    0.350
        87 -10.9121      1.3766    112.3275   1.0920602281e+02   5.2226965705e+01    0.4168732    0.1398077 -69.86  0.001381781    2.447    0.591
        88  -9.7951     84.1779    113.0130   7.9768361051e+01   4.2978843851e+01    0.2379804    0.2149114  26.22 0.0002624306    1.130    0.115
        89  -9.3796     62.3324    112.0429   8.7033172037e+01   4.6601648552e+01    0.2137579    0.1828687 -50.40 0.0005432141    1.118    0.106
        90 -11.0645     21.4328    110.7043   1.0169605238e+02   5.1371201456e+01     0.294108    0.2559446 -15.36  0.001761931    1.205    0.170
        91  -9.6776     35.0270    109.1168   9.6345589777e+01   5.0579684593e+01    0.3812773    0.1519797 -51.22  0.001524004    2.084    0.520
        92  -8.7855     77.8432    109.3655   8.0959315784e+01   4.4903313741e+01    0.1954255    0.1424931  16.62 0.0001267956    1.513    0.339
        93  -9.3071      6.8765    108.9915   1.0674507417e+02   5.2769703885e+01      0.22228    0.1784274   3.08  0.001337931    1.419    0.295
        94  -9.0483     72.6997    107.9885   8.2377388875e+01   4.6052305810e+01    0.2023444    0.1911218 -32.01 0.0005009327    1.038    0.036
        95 -10.0568     26.2706    107.7472   9.9343711760e+01   5.1720854893e+01     0.403958    0.2356398  73.02  0.001548052    2.954    0.661
        96 -10.8050     66.5311    105.6998   8.3966347914e+01   4.7537757873e+01    0.4076362    0.3229291 -21.54  0.002068015    1.300    0.231
        97  -9.2541    126.8660    106.0065   6.5056775051e+01   3.6338314943e+01    0.2252266    0.2018017 -76.96 0.0004675404    1.259    0.206
        98 -11.3373     80.6704    103.3131   7.8396806909e+01   4.5855810511e+01    0.3903812    0.3075072  14.95  0.001933782    1.351    0.260
        99 -10.1731     44.8411    109.0445   9.2684612888e+01   4.9559874241e+01    0.3424637    0.2750902  76.09  0.001160149    1.617    0.382
       100 -10.4397    107.1651    103.1553   6.9860988912e+01   4.0996270575e+01    0.3785954    0.2306108  33.65 0.0006266833    1.730    0.422
       101  -8.8552     57.2974    103.3676   8.6728246614e+01   4.9401699745e+01    0.1600724     0.102412 -27.43 9.389885e-05    1.728    0.421
       102  -8.6256     37.6953    103.7114   9.4178582889e+01   5.1649115161e+01    0.1478144   0.09552343 -30.58 0.0001944235    1.568    0.362
       103  -9.2938      9.0738    103.0135   1.0496238846e+02   5.4125333496e+01    0.2045497    0.1752673 -49.40 0.0007341842    1.036    0.035
       104 -10.9533     45.5161    101.4839   9.0684379092e+01   5.1333690765e+01    0.3588923    0.2389459 -51.40 0.0007206982    1.358    0.264
       105  -9.5067     53.0090    100.7744   8.7674978017e+01   5.0586575100e+01    0.2538806    0.2007008 -32.76  0.001336269    1.184    0.155
       106 -11.7095    101.6505     97.8788   7.0063016940e+01   4.3231121167e+01    0.2699689    0.2613733  27.83 0.0002218283    1.058    0.055
       107  -9.8002     96.7855     95.3658   7.0867636145e+01   4.4714923843e+01    0.2817239    0.2220063  42.86 0.0009840857    1.295    0.228
       108  -9.7525     68.3012     99.3162   8.1655504523e+01   4.8774166978e+01    0.2478472    0.2036475  -1.54 0.0006183541    1.268    0.211
       109  -9.4355     69.6747     96.3247   8.0344458979e+01   4.9248741079e+01    0.2617126    0.2046241 -58.48   0.00101383    1.395    0.283
       110 -10.7077     61.4311     97.4360   8.3663212105e+01   5.0228013996e+01    0.3647148    0.2839402  54.73  0.001109494    1.624    0.384
       111 -10.5070     27.8284     85.0689   9.3750623172e+01   5.7034817987e+01    0.4537354    0.2512986  34.88  0.001588814    2.062    0.515
       112  -9.7131     26.8186     96.8731   9.6895162104e+01   5.4342955751e+01    0.2449509    0.2018983 -58.25 0.0003904822    1.160    0.138
       113 -12.0282     30.0526     93.0240   9.4740874154e+01   5.4974031623e+01    0.2831599    0.2277021 -27.64 0.0003260993    1.143    0.125
       114 -12.0762     34.8127     89.8300   9.2051532451e+01   5.5263075819e+01    0.2959394     0.293396  64.91 0.0002647628    1.229    0.186
       115 -10.0216    116.8756     93.9490   6.4467730978e+01   4.0960643272e+01    0.2239098     0.222195 -73.66 0.0005325993    1.061    0.057
       116  -9.1597      5.3705     93.7479   1.0478509115e+02   5.6585488114e+01    0.2130705    0.1264109 -26.13 0.0005712904    1.696    0.411
       117  -8.8859      1.3794     94.5065   1.0648646875e+02   5.6602558864e+01    0.1318058    0.1034415 -53.37 8.599069e-05    1.032    0.031
       118  -8.6199     87.4409     93.5242   7.3374522980e+01   4.6859837813e+01     0.153175    0.1378872  -9.34 8.044807e-05    1.090    0.083
       119  -9.9578     15.9160     95.0209   1.0083700582e+02   5.5636957428e+01      0.21759    0.1966913  29.83 0.0007683106    1.310    0.236
       120 -10.4654    126.3764     91.4220   6.1179944050e+01   3.9440757827e+01    0.2960344    0.2678738  42.47 0.0004019343    1.096    0.087
       121  -8.9570    122.2954     94.3337   6.3084342581e+01   3.9735528129e+01    0.1539013    0.1198657  -0.81 0.0002198921    1.643    0.391
       122 -11.1445     97.3019     69.8665   6.2962222633e+01   4.9641673036e+01    0.4446359    0.3444113 -89.80   0.00158714    2.004    0.501
       123  -9.7189    100.8152     89.4061   6.7877388862e+01   4.5179114762e+01    0.2261041    0.1468748  40.35 0.0003279262    1.522    0.343
       124 -10.1965    102.7783     85.3922   6.6087442829e+01   4.5596634177e+01    0.3516916    0.2185995 -39.86 0.0008783452    1.633    0.388
       125 -10.7449    104.2144     79.7862   6.3964884005e+01   4.6395205781e+01    0.4219912    0.2521381 -37.96  0.001299824    1.726    0.421
       126 -11.2787    104.9444     74.5543   6.2141562258e+01   4.7220070904e+01    0.4902095    0.3533499 -40.95  0.002440436    1.437    0.304
       127 -10.7008    101.9908     69.0845   6.1296836787e+01   4.8815298235e+01    0.3308857    0.2997795  32.30            0    1.042    0.041
       128  -8.5683     63.6485     89.2970   8.0587566950e+01   5.1750570918e+01     0.141467    0.1158576  66.78  0.000703464    1.687    0.407
       129  -9.3420     56.0670     89.0048   8.3390150161e+01   5.2907055991e+01     0.219776    0.1793236  67.18  0.001129743    1.717    0.418
       130  -9.8002     12.1606     88.2084   1.0097985700e+02   5.7508824550e+01    0.3671866     0.192803  20.01  0.001284216    2.088    0.521
       131 -11.1318    119.9207     86.7256   6.1560441121e+01   4.1751330409e+01     0.595255    0.3316074  63.67  0.002222122    2.654    0.623
       132 -10.1489    124.4588     86.5026   6.0286746881e+01   4.0813670361e+01    0.2915841    0.2091944 -62.39  0.001193039    1.715    0.417
       133  -8.7746    111.0021     88.2168   6.4488016951e+01   4.3345628627e+01    0.2046228    0.1199836  43.96 0.0008693202    1.681    0.405
       134  -9.4782    139.0710     87.0153   5.6788203617e+01   3.7500545575e+01    0.2168126    0.2081149 -75.68            0    1.060    0.056
       135 -11.3725    131.1928     85.8884   5.8388876065e+01   3.9456206509e+01    0.2693495    0.2540753  29.10 0.0002946397    1.080    0.074
       136 -10.8030     86.6573     86.2197   7.1486479840e+01   4.8551035645e+01     0.373638    0.2848666  71.80  0.001740945    1.947    0.486
       137 -10.8896     83.4043     74.4278   6.8935827118e+01   5.1505040407e+01    0.3173942    0.3011992   0.27 0.0006365977    1.059    0.056
       138 -10.2639     77.2691     75.0304   7.1264434423e+01   5.2500971603e+01    0.4051752    0.2866348  30.56  0.001309222    1.381    0.276
       139 -10.3884     76.3981     82.8229   7.4004262021e+01   5.1084064673e+01    0.4662617    0.3031379 -39.66  0.002216131    1.511    0.338
       140  -9.7215     79.7984     81.3761   7.2361977264e+01   5.0786672796e+01    0.2663672    0.1950566 -12.78  0.000561518    1.572    0.364
       141 -10.4665     70.8887     82.2537   7.5821334702e+01   5.2129476260e+01    0.2578908    0.2232232 -28.11  0.001421364    1.100    0.091
       142  -9.6359     20.2536     83.0081   9.6445117053e+01   5.8146800001e+01    0.2164036    0.1842022   0.53  0.000734072    1.222    0.181
       143  -9.5969      1.8615     82.9639   1.0422059556e+02   5.9308033828e+01     0.185764    0.1536256 -49.66 0.0003796929    1.052    0.050
       144  -9.4541    143.9073     81.6189   5.4187798077e+01   3.7408927919e+01    0.2444117    0.2010696 -25.92 0.0007943094    1.345    0.257
       145 -10.1612    112.7721     82.1102   6.2183091017e+01   4.4163857802e+01    0.2490756    0.2102785  42.57 0.0005121887    1.155    0.134
       146 -10.2597     54.0257     81.1033   8.1920535130e+01   5.4925649445e+01    0.2673545    0.1940231 -28.05 0.0007348879    1.325    0.246
       147  -9.5470     46.0119     81.0304   8.5128030177e+01   5.5990951100e+01    0.3076727    0.2450208 -79.63  0.001619916    1.778    0.437
       148  -9.8349     91.9600     80.1502   6.7887880536e+01   4.8774025308e+01    0.2447704    0.2078431 -35.66 0.0005737667    1.187    0.158
       149  -9.2003    155.0048     79.4886   5.1234162929e+01   3.5287773601e+01    0.2119775    0.1388803  55.37 0.0003756777    1.515    0.340
       150 -10.2168    121.4484     78.5121   5.8755618544e+01   4.2965204114e+01    0.2443124    0.2349142   4.70 0.0002212515    1.060    0.057
       151  -9.6118     60.9941     76.0250   7.7637460640e+01   5.4983383081e+01    0.2033986    0.1839699  -3.84  0.001177762    1.033    0.032
       152 -11.1774     47.4999     73.6511   8.2328690325e+01   5.7377355544e+01       0.6083    0.4252595  55.06   0.00211472    2.153    0.536
       153  -8.7654     11.4677     75.4122   9.8465826735e+01   6.0495498186e+01    0.1308408    0.1058859 -35.85 0.0001150885    1.017    0.017
       154 -10.5056    140.4083     72.5198   5.2437915398e+01   3.9782972717e+01    0.3830884    0.2467088  36.06   0.00126824    1.807    0.447
       155 -11.5133    136.8855     69.5051   5.2370125936e+01   4.1086006884e+01    0.5401486    0.2788825 -36.63 0.0002727602    2.039    0.510
       156 -10.4142      4.7007     75.6286   1.0150332317e+02   6.0844220044e+01    0.4913996     0.258544 -46.46  0.002241998    1.491    0.329
       157  -9.9275     73.1202     76.9886   7.3376362483e+01   5.2833862385e+01    0.3202389    0.2348738 -40.72 0.0007451905    1.353    0.261
       158  -9.8552     56.7960     72.5913   7.8210316286e+01   5.6308399981e+01    0.2796252    0.1924371 -27.74 0.0005489884    1.433    0.302
       159  -9.1448     38.4421     72.5273   8.5820551295e+01   5.8719723514e+01    0.1926276      0.11157 -41.23 5.764007e-05    1.546    0.353
       160  -9.3717     32.9982     72.0093   8.8033163145e+01   5.9425196137e+01    0.1977231    0.1781509 -18.68 0.0004716908    1.099    0.090
       161 -10.7361     35.5326     68.0012   8.5723445503e+01   5.9991927299e+01    0.3970434    0.2765458 -55.82 0.0008839456    1.566    0.361
       162 -10.3022     33.6851     63.0299   8.4999878376e+01   6.1207335165e+01    0.3665557    0.2198188  17.30  0.001793618    1.679    0.404
       163  -9.9747    164.4267     70.5848   4.7075945792e+01   3.4656251570e+01    0.3565482    0.2262115  21.01  0.001425101    3.080    0.675
       164  -9.2766    129.0095     70.8411   5.4594063367e+01   4.2638849428e+01    0.2075827    0.1827778  21.69 0.0002996928    1.239    0.193
       165  -9.6327     64.3981     70.4404   7.4539025040e+01   5.5568862821e+01    0.2552096     0.242669   2.81 0.0008655161    1.139    0.122
       166 -10.8805     82.6788     63.8739   6.5723104421e+01   5.3578908263e+01    0.4366606    0.2813569 -12.59  0.000725129    2.068    0.516
       167 -10.7409     71.0525     64.6345   7.0099940030e+01   5.5554312971e+01    0.6052584    0.4465041   7.23  0.002724027    1.460    0.315
       168  -9.4115     67.1147     63.1414   7.1064896395e+01   5.6498806018e+01    0.2331612    0.1975796  39.23 0.0003582906    1.274    0.215
       169 -10.2590     74.9954     68.7725   7.0046219238e+01   5.4099807226e+01    0.2848042    0.2206244  33.76            0    1.249    0.200
       170 -10.0423     76.2879     65.6965   6.8559253770e+01   5.4435555326e+01    0.3200151    0.2489802 -63.81  0.001031024    1.798    0.444
       171 -10.5581     48.5793     66.8216   7.9721738447e+01   5.8620922517e+01    0.3452988    0.2435543  33.11  0.001460096    1.479    0.324
       172 -10.5277     43.2576     64.1048   8.1106613180e+01   5.9856280752e+01    0.6654447    0.3591168 -47.10  0.003216136    1.794    0.443
       173 -10.0248      9.8072     66.0899   9.6933546182e+01   6.2647766129e+01    0.2945196    0.2348095  81.89  0.001460549    1.855    0.461
       174 -11.7521    155.9125     66.0215   4.7460016331e+01   3.7314784828e+01    0.5051951    0.4121554  60.44   0.00186161    1.184    0.155
       175 -10.9063    147.0662     61.6717   4.7997518410e+01   4.0014161093e+01     0.240707    0.2093407 -69.41 0.0004020251    1.190    0.160
       176 -13.0864    150.7678     57.7323   4.6190960669e+01   3.9760381769e+01    0.3591878    0.3240027 -70.77 0.0005232182    1.110    0.099
       177 -10.6660    108.0495     62.9574   5.7608077304e+01   4.8573067015e+01    0.2465553    0.2191137  20.58  0.001393704    1.132    0.116
       178 -10.3959     59.4162     66.1302   7.5063325522e+01   5.7183744593e+01    0.4302956    0.2675161  22.11  0.002102713    1.651    0.394
       179  -9.1159    121.7522     66.0643   5.4956370814e+01   4.5059357240e+01    0.2298638    0.1665466   3.60  0.001072834    1.947    0.486
       180  -9.7872      2.1542     65.4209   1.0034662439e+02   6.3231103342e+01    0.2727236    0.1865216  56.32  0.001129415    2.272    0.560
       181  -9.8767    180.4906     65.5104   4.3088157985e+01   3.1872059859e+01    0.1344929    0.1223783 -78.16 -0.0001077143    1.011    0.011
       182  -9.6424     88.9735     61.2465   6.2756801910e+01   5.2810271686e+01    0.3237881    0.2282586 -60.49  0.001552269    2.021    0.505
       183 -10.9234     17.5357     70.7865   9.4597879774e+01   6.1088974202e+01    0.3244241    0.2193287 -21.63  0.001247808    1.374    0.272
       184  -8.8858    211.9570     63.9743   3.8381011502e+01   2.5438889669e+01    0.1497692    0.1281042 -72.18 0.0003266991    1.030    0.030
       185  -9.8365    194.9011     62.6836   4.0306360702e+01   2.9174979893e+01    0.3887955    0.2674511  -6.71  0.001834661    2.724    0.633
       186  -9.5000    118.8415     63.8864   5.5028274475e+01   4.6062200794e+01    0.1868635    0.1652496 -72.49  0.001033269    1.299    0.230
       187 -10.7589    102.8847     60.0764   5.8137182767e+01   5.0145434037e+01    0.5237713    0.3355133  16.30  0.002033694    2.250    0.555
       188 -10.5175     97.0527     58.5228   5.9334704116e+01   5.1619379005e+01    0.6050997     0.246695  42.98  0.001497911    2.318    0.569
       189  -9.8955     95.8449     55.1875   5.8579269339e+01   5.2398682873e+01    0.4606644     0.259902  30.33  0.001860337    2.053    0.513
       190  -9.1906     19.4543     64.2929   9.1936195151e+01   6.2321065832e+01    0.1670365    0.1201652 -63.74 0.0009398106    1.612    0.380
       191  -9.3224    172.0594     62.7342   4.3751690033e+01   3.4170296941e+01    0.2565603    0.1729207 -63.74  0.001096301    1.606    0.377
       192 -12.0194    111.0031     65.8167   5.7697306978e+01   4.7461546899e+01    0.2669193    0.2556284 -26.56 0.0003263717    1.095    0.087
       193 -10.0429    219.0765     59.3729   3.6571693810e+01   2.4687045232e+01     0.273758    0.1508396 -44.01 0.0005882478    1.601    0.375
       194  -9.8098    131.5240     60.7068   5.1023797724e+01   4.3715469918e+01    0.2990679     0.230827  85.89   0.00104944    1.555    0.357
       195  -8.7239     22.3962     60.8489   8.9540096076e+01   6.2777350664e+01    0.1790091   0.09630895 -39.69 0.0003689308    1.587    0.370
       196 -11.0116     60.7035     57.7113   7.1661742188e+01   5.8528816752e+01    0.4302417    0.3196874  20.49 0.0006183573    1.270    0.212
       197 -10.7636     17.5039     48.9077   8.8127934830e+01   6.5556701293e+01    0.5274884    0.2372386 -34.26 0.0009992383    2.014    0.504
       198  -9.4636      4.1971     59.6219   9.7931360323e+01   6.4357062864e+01    0.2484585    0.1366951  -3.97  0.001071086    1.878    0.468
       199  -9.1863      7.5276     57.4219   9.5712907118e+01   6.4615647990e+01    0.2131589    0.1372169 -12.14 3.459046e-05    1.469    0.319
       200 -10.3360     10.0399     55.0178   9.3786128305e+01   6.4939882396e+01    0.2472903    0.2184696 -71.62  0.001642758    1.501    0.334
       201 -11.4013     79.5594     55.1683   6.3795853535e+01   5.5642515936e+01    0.6221177    0.4105085  29.43  0.002099544    1.488    0.328
       202 -11.5386     83.8213     48.5833   6.0039763498e+01   5.5846019778e+01    0.6819283    0.5343163 -64.90  0.003651206    1.869    0.465
       203 -10.8809    161.3312     55.5722   4.3709833695e+01   3.7659644249e+01     0.424894      0.33887 -23.12  0.001438741    1.508    0.337
       204 -10.7976    200.6535     54.7337   3.7753607049e+01   2.9112459272e+01    0.3258234    0.2625055  35.55  0.001951007    1.734    0.423
       205 -10.2105    201.4154     50.1579   3.6644098562e+01   2.9590725480e+01    0.3202088    0.2365516 -50.91 0.0009516144    1.242    0.195
       206 -10.4145    185.0985     54.4296   3.9740133892e+01   3.2498406961e+01    0.4652469    0.1985494 -42.55  0.001454126    2.201    0.546
       207 -11.2232    246.0553     55.6881   3.3113230250e+01   2.0128286797e+01    0.2010891    0.1539324 -60.67 0.0002254462    1.018    0.018
       208  -8.8737    239.3698     56.1413   3.3821473754e+01   2.1275265937e+01    0.1723105   0.08507645 -49.85 0.0009367242    1.652    0.395
       209 -10.3416    176.6385     55.7614   4.1294525127e+01   3.4178040545e+01    0.2411643    0.1962486  56.08 0.0005511772    1.285    0.222
       210 -10.3405    174.2641     53.6644   4.1136016119e+01   3.5008447462e+01    0.2826104    0.2094789 -41.10 0.0002563564    1.378    0.274
       211 -10.2601     33.4878     45.0151   7.8868666796e+01   6.4601822816e+01    0.4414225    0.2292185 -31.20  0.002207957    1.866    0.464
       212 -10.9550     35.0168     51.3613   8.0463886010e+01   6.3289263831e+01     0.225803    0.1944351  -4.02 0.0002369786    1.089    0.082
       213 -10.2057     26.9771     56.2387   8.5916720533e+01   6.3257258056e+01    0.2167147    0.1605719  16.27 0.0009286415    1.334    0.251
       214 -11.5481     29.8865     52.6644   8.3334240605e+01   6.3634651691e+01    0.4346173    0.3486294 -48.07  0.001956879    1.405    0.288
       215  -8.6619    167.5119     61.5047   4.4196736815e+01   3.5379400365e+01    0.1343402    0.1262175  86.06 6.610526e-05    1.051    0.048
       216 -11.2189    128.0354     52.6880   4.9416043476e+01   4.5710144474e+01    0.4412393    0.3687284 -75.90  0.001356174    1.372    0.271
       217 -10.5008    117.9893     51.1558   5.1281547992e+01   4.8202129081e+01    0.3647351    0.1968546  49.58  0.000381307    1.688    0.408
       218 -11.0176    121.9486     48.6366   4.9558387155e+01   4.7667205732e+01    0.2961234    0.2612927 -72.38 0.0008983737    1.275    0.216
       219 -10.3490    146.9914     50.9620   4.5031157381e+01   4.1605158792e+01    0.5355232    0.2324377  58.75  0.002260648    2.132    0.531
       220 -10.1652     63.9042     49.7106   6.7519027451e+01   5.9351422010e+01    0.4141005    0.2706928 -55.15  0.001271393    2.258    0.557
       221 -10.7788      5.0614     49.8207   9.4771745439e+01   6.6303835888e+01    0.4378023    0.2430001 -25.14  0.002442195    1.594    0.373
       222 -11.0368    211.7549     49.5577   3.5325125237e+01   2.7533728049e+01    0.3128113    0.2192051 -89.63   0.00189484    1.386    0.278
       223 -10.6309     24.5838     49.8477   8.4923494684e+01   6.4716787349e+01    0.4481151    0.2204531 -17.26  0.001363344    2.587    0.613
       224  -9.0219    191.8102     50.2139   3.7851077650e+01   3.1628950554e+01    0.1644635    0.1504091  47.39  0.001060636    1.351    0.260
       225 -12.2754    137.7209     47.3610   4.5796102709e+01   4.4237452050e+01    0.3324842    0.2752609 -81.32 0.0007231113    1.312    0.238
       226 -10.9798    142.8274     42.2954   4.3366213338e+01   4.3732272480e+01    0.6622897    0.2249439  49.30   0.00204094    2.876    0.652
       227 -10.0384    104.4639     49.3180   5.4154215995e+01   5.1450091393e+01    0.5370974    0.2464452  55.42  0.002244418    2.165    0.538
       228  -8.7785     55.3566     49.7567   7.0938392451e+01   6.0745726053e+01    0.1763013    0.1136216 -26.51 0.0004717225    1.561    0.359
       229 -10.1495    246.2947     47.9808   3.1656709898e+01   2.1130849510e+01    0.2218898    0.1729374 -38.25  0.001545919    1.448    0.309
       230  -9.5199    233.0265     48.0831   3.2862505121e+01   2.3558330424e+01    0.1791879    0.1378928 -67.15 0.0003525025    1.047    0.045
       231 -10.2380    167.5508     44.5267   3.9855427360e+01   3.7773465589e+01    0.3918056    0.2636676 -56.92  0.001784152    1.516    0.340
       232 -12.3228    163.0694     42.4115   3.9994632107e+01   3.9068193004e+01    0.2707411    0.2347886 -66.64 0.0003476805    1.127    0.113
       233  -9.0175     98.4996     47.0722   5.5050839965e+01   5.3050992663e+01    0.1906575    0.1356159 -30.28  0.000522853    1.524    0.344
       234  -9.9413     38.4792     45.9385   7.6872784061e+01   6.3816687949e+01     0.395622    0.2037065 -27.10 0.0008909732    2.073    0.518
       235 -11.9388    140.2366     37.8323   4.2566394145e+01   4.4893641825e+01    0.2484597    0.2365054 -80.85 0.0002356045    1.096    0.087
       236  -8.0618     46.4224     46.5123   7.3513769302e+01   6.2632098137e+01    0.1317863    0.1101075  -1.97 0.0002684696    1.012    0.012
       237  -8.8702     67.3663     45.2509   6.4545035627e+01   5.9446552768e+01    0.1625392    0.1231523 -40.44 0.0002107636    1.502    0.334
       238  -9.4209    209.2477     43.1086   3.4228633854e+01   2.8910070669e+01     0.242884    0.1355377 -55.75  0.001325622    1.635    0.388
       239 -11.0051    108.6652     43.3092   5.1062244159e+01   5.1366127751e+01    0.3355858    0.2158833  54.41 0.0001757047    1.424    0.298
       240  -9.8292     86.5291     33.6879   5.3787118131e+01   5.7337929692e+01    0.3346649     0.173473  36.84  0.001021657    1.885    0.469
       241 -10.4547     77.5667     29.9451   5.5147660361e+01   5.9607632563e+01    0.3372768    0.1984819 -46.62   0.00142143    2.309    0.567
       242 -10.5020     83.9943     37.4705   5.5952940119e+01   5.7372734532e+01    0.6374686    0.3134046 -55.66  0.002131361    5.117    0.805
       243 -10.0882     81.8634     32.5239   5.4773791936e+01   5.8433163600e+01    0.3806103    0.2302003  15.64  0.001818937    2.191    0.543
       244 -10.4474     90.8606     43.8321   5.6151565986e+01   5.5108602860e+01    0.2393731    0.1794138  43.85 0.0002704033    1.204    0.169
       245 -10.5425     91.0962     40.1544   5.4776146348e+01   5.5560805140e+01     0.325763    0.2346607  33.17            0    1.310    0.236
       246 -10.6749     54.5669     36.7094   6.6218466633e+01   6.2904388514e+01    0.2335739    0.1946682  25.90   0.00028948    1.142    0.124
       247 -11.7779     56.7396     41.8161   6.7353646849e+01   6.1789837943e+01    0.2811981     0.222697  -3.82 0.0002268265    1.179    0.152
       248  -9.2890     68.3000    248.9516   1.0632395579e+02   1.1888606134e+01      0.16904    0.1539976  77.68 0.0004477341    1.121    0.108
       249  -9.7866    176.3764     40.2438   3.7529598170e+01   3.6344535529e+01    0.3602681    0.2244031  30.24  0.001326253    2.818    0.645
       250  -9.6338     97.9316     41.6973   5.3363638285e+01   5.3913416591e+01    0.2041663    0.1877991  -7.55 0.0005118698    1.156    0.135
       251  -9.4556     28.2178     41.2827   8.0019173194e+01   6.5862080850e+01     0.203847    0.1603258 -29.33 0.0006279296    1.203    0.169
       252  -9.0022    218.4351     41.5095   3.2952955982e+01   2.7259929321e+01    0.1219963    0.0963647 -69.27 9.894926e-05    1.035    0.034
       253  -9.8548    230.7761     39.5323   3.1406217021e+01   2.5108076526e+01    0.2226484    0.1409207 -57.90 0.0006352152    1.306    0.234
       254  -8.9416     76.2232     40.2257   5.9504720247e+01   5.8534614950e+01    0.1661761    0.1592757  79.52  0.001049217    1.358    0.263
       255 -10.0330    151.6736     46.7396   4.3017559031e+01   4.1107432655e+01     0.236126    0.1685483 -50.64  0.001285951    1.458    0.314
       256 -10.2331    127.7808     37.8906   4.4985539570e+01   4.7751507813e+01    0.3835486    0.2647171  75.45  0.002031717    1.544    0.352
       257  -9.5103     44.1032     39.1150   7.1666505910e+01   6.4160982132e+01    0.1898461     0.143966  -3.79 0.0002761477    1.189    0.159
       258 -10.0444    201.9011     37.1917   3.3745208262e+01   3.1196549978e+01    0.2122906      0.16071 -66.32 0.0005172502    1.152    0.132
       259  -9.4150    149.4632     38.0828   4.1025188877e+01   4.2735803108e+01    0.2580998    0.1674195  82.03 0.0009651232    1.659    0.397
       260  -9.0235    113.0128     38.3349   4.8368777868e+01   5.1044597135e+01    0.2739307    0.1312115  67.93  0.001091155    2.665    0.625
       261  -9.8205    115.0643     35.2909   4.6907371351e+01   5.0959133965e+01    0.3516341     0.178372 -32.60  0.001340647    2.177    0.541
       262  -9.5054      2.3898     38.1927   9.2531657044e+01   6.8694227889e+01    0.1986595    0.1377965  -2.58 0.0001996387    1.306    0.234
       263 -10.4867    193.8692     36.6352   3.4511556156e+01   3.2970157012e+01    0.3834499    0.1990046  78.87  0.001695592    1.973    0.493
       264 -10.6455     72.3873     36.7379   5.9495461962e+01   5.9743825275e+01    0.3868684    0.2621522   1.53  0.002048559    1.743    0.426
       265  -9.5858     75.2850     33.3266   5.7196251074e+01   5.9635438024e+01     0.208684    0.1825876  58.62 0.0004465347    1.354    0.262
       266  -7.9874     51.3095     29.2748   6.4505512156e+01   6.4472094455e+01    0.1840945     0.144342  -1.64  0.000744524    1.171    0.146
       267 -11.5443     40.1927     33.0517   7.0971487203e+01   6.5644057235e+01    0.3272198    0.2236403 -17.12 0.0002246266    1.396    0.284
       268 -10.9070     46.2509     28.4765   6.6321073181e+01   6.5388605865e+01    0.4199481    0.2421019  23.02  0.002246087    1.670    0.401
       269  -9.1589     32.9006     37.4737   7.6233234365e+01   6.5936162007e+01    0.1710903    0.1097825  23.11 -9.181642e-05    1.436    0.304
       270  -9.6935    241.4749     36.4865   2.9927437297e+01   2.3494224590e+01    0.1155377   0.08701077 -66.45 -4.749199e-05    1.018    0.018
       271  -9.3783    161.5044     35.4217   3.8419434183e+01   4.0302221959e+01    0.2843595     0.172463 -89.87  0.001416455    1.897    0.473
       272  -9.1391     27.8816     36.6724   7.8391271026e+01   6.6672705404e+01     0.236058    0.1023851  19.83  0.001064986    2.465    0.594
       273  -8.9867     12.5715     36.0149   8.6160174425e+01   6.8330229400e+01    0.1742908    0.1028077 -43.84 0.0005873403    1.555    0.357
       274 -11.1636    246.5850     32.5350   2.8810123816e+01   2.3058939783e+01    0.3601687    0.1892727 -55.14  0.001065045    1.509    0.337
       275 -10.3455    169.8594     33.6063   3.6777091780e+01   3.8628498874e+01    0.2381034    0.1942258 -40.44 0.0004838952    1.332    0.249
       276  -9.9677     97.0329     33.1393   5.0622710711e+01   5.5192836413e+01    0.1918772       0.1654  45.39 0.0002644284    1.035    0.034
       277  -8.6891     76.9750    246.9464   1.0420041675e+02   1.1194363920e+01    0.1498642    0.1349663  53.64   0.00043823    1.039    0.038
       278 -10.4240    106.2678    244.3200   9.7268995579e+01   7.7751055870e+00    0.3016988    0.2655054  81.82 0.0009650853    1.315    0.240
       279 -10.8125     30.6500     30.9734   7.4673389620e+01   6.7237338043e+01    0.3263499    0.3059815  81.01  0.001211691    1.888    0.470
       280  -9.4843    223.1595    245.1673   7.2543553913e+01  -7.9816407628e+00    0.1504402     0.131461  -0.07 0.0005904388    1.327    0.246
       281  -9.6301     30.0227    244.6620   1.1422678536e+02   1.7255361052e+01    0.1710843    0.1344454  49.87 0.0004796477    1.122    0.108
       282  -9.0838      4.2613    245.8152   1.1952628483e+02   1.9565303796e+01    0.2059305   0.07424733  31.33  0.001002644    2.540    0.606
       283 -10.3387    166.0840    243.3413   8.3749353685e+01  -4.6524743715e-01    0.2184498     0.190878 -38.45 0.0005788698    1.316    0.240
       284 -11.3186    236.2023     29.7402   2.9090616846e+01   2.5304453370e+01    0.4289211    0.2831581 -45.51  0.001938172    1.384    0.278
       285 -10.3613    244.3485     18.9219   2.6533774594e+01   2.5079089270e+01     0.275211    0.1661263 -76.18  0.001073976    1.403    0.287
       286 -10.3565    159.5845    242.6274   8.5048006018e+01   5.6251409087e-01    0.2748583    0.1236034 -46.19  0.001239094    2.352    0.575
       287  -8.9250     92.6963    242.9894   1.0020990407e+02   9.9205643705e+00    0.1737809    0.1614732  45.94 0.0004243184    1.048    0.046
       288  -9.9124    151.4176     31.2410   3.8842431634e+01   4.3106643635e+01    0.2108858    0.1416664 -75.23  0.001124701    1.693    0.409
       289 -11.3847    132.0132     29.5851   4.1664495427e+01   4.7760437970e+01    0.2977368    0.2536444 -17.90   0.00185255    1.394    0.283
       290  -9.1558     16.9179     32.4897   8.2440295066e+01   6.8532744205e+01    0.1708623    0.1044307  16.78 0.0006056833    1.515    0.340
       291 -10.5785     15.6081     28.3695   8.1483324901e+01   6.9331874690e+01    0.3801132    0.2378079  -1.59  0.002292099    1.461    0.315
       292  -8.5766     15.3184     24.3175   7.9931240388e+01   6.9996644533e+01    0.2139921   0.09802365 -37.93  0.001134722    1.977    0.494
       293  -8.4952    143.2663     31.3201   4.0184725382e+01   4.4972506470e+01     0.124395   0.09454296  34.28 0.0005150787    1.558    0.358
       294 -10.8545    124.1083     30.5576   4.3480166395e+01   4.9461827220e+01    0.2741871    0.2359116  71.62 0.0004087344    1.101    0.092
       295  -9.5232    120.1429     26.4051   4.2981755352e+01   5.0825421906e+01    0.3457009    0.1867921  62.86  0.001477839    1.657    0.396
       296 -10.4004     18.1716     42.3858   8.5525159111e+01   6.6702931982e+01    0.2474215    0.1915861  -8.65 0.0007285106    1.077    0.072
       297 -10.2033    215.8131     29.1146   3.0680170550e+01   2.9333168546e+01     0.223796     0.161429  87.45 0.0004896292    1.237    0.192
       298  -9.8008    109.6345     29.3014   4.6183553846e+01   5.2875041180e+01    0.2305213    0.1804004  61.16 0.0004776324    1.174    0.148
       299  -9.0403    106.6927     34.8868   4.8749025108e+01   5.2875703277e+01    0.1734393    0.1608389  31.21 0.0004694873    1.083    0.076
       300  -8.6578    229.6521     28.7154   2.9418639576e+01   2.6667637275e+01   0.09999293   0.08560926  51.58 0.0003924831    1.651    0.394
       301  -9.6181    179.5854     28.3736   3.4271864896e+01   3.7076324639e+01    0.2328925     0.131826  67.45 0.0005567897    1.595    0.373
       302  -9.6274    206.9034     25.8515   3.0826944287e+01   3.1530869771e+01    0.1997207    0.1512609 -37.46 0.0006658881    1.477    0.323
       303 -10.0006     81.5227     26.5038   5.2596747664e+01   5.9216432890e+01    0.2440987    0.2251896  67.31  0.001332207    1.296    0.228
       304 -10.0447    183.5998     25.1339   3.3051526435e+01   3.6565405135e+01    0.2182528    0.1565301 -75.49 0.0007281638    1.285    0.222
       305 -10.1530    179.4627     21.6790   3.2711133789e+01   3.7856368467e+01    0.3219307    0.2113269 -80.37  0.001891335    1.470    0.320
       306  -9.5441     41.8018    242.1258   1.1152838747e+02   1.6504869860e+01    0.1924731    0.1442067  61.27 0.0005780612    1.171    0.146
       307  -9.5082    142.7852     21.6156   3.7538022403e+01   4.6144146935e+01    0.2408187    0.1621682  76.18 0.0008177996    1.367    0.268
       308 -10.1919     98.9041     23.3343   4.6691011910e+01   5.5890411549e+01    0.3456119    0.2386575  46.99  0.001872514    1.240    0.193
       309  -9.8940    247.0000    241.0011   6.7587052988e+01  -9.9507111185e+00    0.1865619   0.05426353 -39.70 0.0007691514    2.978    0.664
       310 -10.0164     14.6305    238.1341   1.1701858288e+02   2.0218254836e+01    0.2028225     0.165437  33.69 0.0005172548    1.342    0.255
       311 -11.0332    119.4551    231.0249   9.2436892344e+01   8.6170437841e+00    0.2847257    0.2537297 -75.40 0.0004088487    1.319    0.242
       312 -10.1433    140.1604    227.5441   8.7079340776e+01   6.2609680964e+00    0.2911377    0.2164305  27.50   0.00121835    1.235    0.190
       313  -9.9820    225.0028     23.0317   2.8700881254e+01   2.8235890347e+01    0.3011319     0.151877  75.62 0.0009742442    1.872    0.466
       314 -10.0687     98.0539    225.2269   9.6738883292e+01   1.2978831777e+01    0.2272785    0.2020406 -59.65 0.0005464623    1.206    0.171
       315  -9.7702    212.2287     22.3347   2.9623588765e+01   3.0849482586e+01    0.1873056    0.1846435   8.65 0.0009477269    1.483    0.326
       316 -10.2547    164.2218     22.5374   3.4749887562e+01   4.1160736400e+01    0.3174137    0.1884886  59.43   0.00102191    1.548    0.354
       317  -9.8396     23.0139    225.4257   1.1438954902e+02   2.2211725236e+01     0.275994    0.1202576 -56.64  0.001282258    2.463    0.594
       318 -10.0119      7.3012     22.5209   8.3775516416e+01   7.1023686350e+01    0.2600155    0.1735157  -7.38  0.001180317    1.230    0.187
       319  -9.7149      1.4930     22.4932   8.7241323903e+01   7.1487259957e+01    0.2195106    0.1150653 -41.49 0.0007449475    1.634    0.388
       320  -9.2240      2.3220     19.3215   8.5410203889e+01   7.1933451730e+01     0.178784    0.1174293 -11.83 0.0006354472    1.215    0.177
       321  -9.3378    248.8566     22.4701   2.6858800675e+01   2.3859795208e+01    0.1500656   0.09149049  83.66   0.00101531    1.545    0.353
       322 -10.0483    158.6647     22.7942   3.5549801304e+01   4.2391411427e+01    0.2379062    0.1693204  58.01 0.0006118586    1.336    0.251
       323 -10.1790     65.9896     25.4311   5.7255304523e+01   6.2376053336e+01    0.2472747    0.1734516 -44.42   0.00093279    1.884    0.469
       324  -9.5071     63.1712     18.3906   5.5324793516e+01   6.3695422798e+01    0.3993456    0.1741288  57.29  0.001698464    2.925    0.658
       325  -8.9683    122.3027    225.6372   9.0979702499e+01   9.3285698256e+00    0.1415351    0.1061925  65.58 0.0007036717    1.729    0.422
       326 -11.1376     76.6939    219.2532   1.0117566874e+02   1.7315422114e+01    0.6995423    0.4804869   7.59  0.003427723    1.901    0.474
       327 -11.3984     73.2878    214.1755   1.0139643915e+02   1.8962515873e+01    0.8210178    0.4736713  28.40   0.00386295    1.741    0.426
       328 -10.4872    108.3348    220.4753   9.3586059142e+01   1.2531875639e+01    0.3613945    0.1983391  45.87  0.001607933    1.856    0.461
       329  -8.8226     28.4764    221.4150   1.1286094258e+02   2.2576194956e+01    0.1256021    0.1099643  72.13 0.0001462497    1.035    0.033
       330 -10.1025    118.6974    216.6429   9.0488172498e+01   1.1819954866e+01    0.3877407    0.2640896 -59.80  0.001916747    1.625    0.385
       331 -11.1358    150.6711     18.2377   3.5451496628e+01   4.4684586339e+01    0.3849929    0.2287353  73.68 0.0006010541    1.499    0.333
       332  -9.7159     12.0225    216.9753   1.1624791065e+02   2.5202004074e+01    0.1845883    0.1558482  82.35 0.0003342094    1.046    0.044
       333  -8.7100    129.5385     19.4983   3.9099947188e+01   4.9395772894e+01    0.1902896    0.1119454  75.97 0.0007872097    1.704    0.413
       334  -9.6132    118.2526     19.1785   4.1070462644e+01   5.1998631084e+01    0.2375005    0.1443486  53.04  0.001297159    1.407    0.289
       335  -8.9523     81.2286     19.6747   5.0061096593e+01   6.0014630529e+01    0.1088721   0.09642792 -64.63 0.0001426087    1.512    0.339
       336  -9.2479    226.5882     18.1895   2.7652751115e+01   2.8482084573e+01     0.136035    0.1025523 -34.04 0.0005944241    1.614    0.381
       337  -9.4520     88.4632     18.0044   4.7422476057e+01   5.8673739327e+01    0.1690844    0.1236813 -24.93 0.0005398187    1.562    0.360
       338  -8.9481     99.5307    215.5294   9.5042457860e+01   1.4949086891e+01    0.1412239    0.1321872  44.03 0.0001314002    1.029    0.028
       339  -9.7641     91.7832    214.3615   9.6807226390e+01   1.6346508963e+01    0.3980924    0.1628266  29.28  0.001518029    2.442    0.590
       340  -9.1852     23.7693    213.1353   1.1329302575e+02   2.4989079326e+01     0.166573    0.1467555 -49.37 0.0006054163    1.347    0.257
       341 -11.4300    148.9826    210.6834   8.2244760743e+01   8.3908601139e+00    0.2541274    0.2259463 -26.59 0.0004124715    1.108    0.097
       342  -9.8735    104.9241    210.2832   9.2927906212e+01   1.5352658359e+01    0.2505208    0.2029963 -45.61 0.0002693996    1.290    0.225
       343  -8.9983     38.3238    210.3232   1.0959161263e+02   2.4149124656e+01    0.1314604   0.09760611 -38.31 0.0007047404    1.683    0.406
       344  -8.9820     42.1671    208.1508   1.0844359479e+02   2.4249114405e+01     0.186066    0.1393696  67.57 0.0002744357    1.281    0.219
       345  -9.0713    141.8305    207.4969   8.3386586617e+01   1.0204112129e+01    0.2025309    0.1368787  30.23 0.0003823079    1.423    0.297
       346 -10.7855     90.1360    204.7774   9.5872593470e+01   1.8849686045e+01    0.5289588    0.3269077 -82.72  0.001854658    2.170    0.539
       347  -8.7398     85.3403     14.6541   4.6992223117e+01   5.9652828809e+01     0.120283    0.0955472 -78.78 0.0007047139    1.785    0.440
       348  -9.4009     74.1605    205.0566   1.0001897313e+02   2.1033846802e+01    0.2171288    0.1899798 -24.76  0.000863342    1.323    0.244
       349  -8.5659    162.2307     13.3531   3.2690669321e+01   4.2551394112e+01    0.1095992   0.08832086  37.21 0.0002272846    1.566    0.361
       350  -9.1678    133.0848     13.0093   3.6600144208e+01   4.9204520790e+01    0.2057201    0.1293647  37.18  0.001124068    1.858    0.462
       351 -11.1858     10.5744    202.6108   1.1558371890e+02   2.8724524023e+01    0.2173097    0.2031233  56.96   0.00104281    1.186    0.157
       352 -10.6476    167.1145    198.2313   7.5811524704e+01   8.1041726361e+00    0.2448546    0.2174118 -20.26 0.0002419733    1.048    0.046
       353  -8.6335     59.0819    196.9487   1.0289495155e+02   2.5009620666e+01    0.1625946    0.1510304  71.19 0.0003162154    1.021    0.021
       354  -9.1084    109.5164    193.5395   8.9074861742e+01   1.8594807187e+01    0.1477825    0.1431698   4.99 8.532729e-05    1.022    0.022
       355  -9.8802     62.9001    188.4112   1.0076755856e+02   2.6683690387e+01    0.2419495    0.1964187 -61.70 0.0003240452    1.200    0.167
       356  -8.7356     89.5071    188.4088   9.3547080324e+01   2.2961409308e+01    0.1449621    0.1429513  27.45  9.04013e-05    1.029    0.028
       357  -9.8129    109.4890    185.7412   8.7731029453e+01   2.0491612941e+01    0.2672803    0.2355791  15.97 0.0006707209    1.164    0.141
       358  -9.5459    113.4587    183.5169   8.6277214035e+01   2.0383300863e+01    0.2702898    0.1963161 -55.14 0.0006499391    1.393    0.282
       359  -9.5607      1.2601    184.3674   1.1650443196e+02   3.3927546855e+01    0.3466276   0.08978733 -74.70  0.001265585    3.135    0.681
       360  -8.5343    138.4918    178.5713   7.8849826237e+01   1.7282786350e+01    0.1525071    0.1440349  -7.09 4.636557e-05    1.018    0.018
       361  -9.1895     34.2780    177.7634   1.0725061174e+02   3.2742457372e+01    0.1865861    0.1480999 -47.44 0.0004689997    1.327    0.246
       362  -9.1373     24.9893    173.7949   1.0935963938e+02   3.4667348628e+01    0.1777359    0.1629982  79.66            0    1.072    0.067
       363  -9.4507    102.0774    173.0853   8.7446796766e+01   2.4849016886e+01    0.2233354    0.2196757   8.38 0.0003929849    1.021    0.020
       364 -10.9061     68.5436    171.4811   9.6694851767e+01   3.0318871314e+01    0.3688305    0.3045879   2.89 -0.000193176    1.410    0.291
       365  -8.8709     87.6894    171.2933   9.1168470990e+01   2.7591528951e+01    0.1547835    0.1165148  67.42 0.0002666397    1.589    0.371
       366  -8.7444     20.4694    170.4648   1.1025074284e+02   3.5931161837e+01     0.136335    0.1190454 -80.34  0.000146965    1.010    0.010
       367  -9.8785     36.6793    172.6277   1.0597388045e+02   3.3832950123e+01    0.2381965     0.191412 -62.96 0.0004011137    1.158    0.137
       368 -10.1828     10.2697    163.6159   1.1238396510e+02   3.8518803519e+01    0.2393744    0.2060181 -61.31 0.0004045975    1.136    0.119
       369  -9.7669     80.5075    152.1729   8.9729538889e+01   3.3659800438e+01    0.2490347    0.2116614  28.54 0.0002731936    1.225    0.183
       370 -10.2629    125.2530    147.4528   7.5741647094e+01   2.7123834181e+01    0.2751615     0.256636 -41.71 0.0002965822    1.045    0.043
       371 -10.8063     30.9260    147.1408   1.0431333012e+02   4.1114744330e+01    0.2370619    0.2186947 -86.92 0.0002534149    1.083    0.077
       372 -10.4583     11.6902    146.0678   1.1010519580e+02   4.2966384431e+01    0.3388368    0.1853179 -62.44  0.001663369    1.518    0.341
