#   1 NUMBER                 Running object number                                     
#   2 MAG_AUTO               Kron-like elliptical aperture magnitude                    [mag]
#   3 X_IMAGE                Object position along x                                    [pixel]
#   4 Y_IMAGE                Object position along y                                    [pixel]
#   5 X_WORLD                Barycenter position along world x axis                     [deg]
#   6 Y_WORLD                Barycenter position along world y axis                     [deg]
#   7 A_WORLD                Profile RMS along major axis (world units)                 [deg]
#   8 B_WORLD                Profile RMS along minor axis (world units)                 [deg]
#   9 THETA_WORLD            Position angle (CCW/world-x)                               [deg]
#  10 FWHM_WORLD             FWHM assuming a gaussian core                              [deg]
#  11 ELONGATION             A_IMAGE/B_IMAGE                                           
#  12 ELLIPTICITY            1 - B_IMAGE/A_IMAGE                                       
         1 -12.1525     70.9019     29.1271   2.9113419679e+02   7.0228574286e+00   0.02947257   0.01480689 -63.13  0.001849179    1.959    0.490
         2 -11.5319     33.8967     17.7859   2.9148937469e+02   7.3670029373e+00   0.01835682    0.0119032 -63.28  0.001136714    1.517    0.341
         3 -11.3771     34.0689     12.3493   2.9145498170e+02   7.4287678221e+00   0.01329059    0.0107277  69.51 0.0008214746    1.394    0.283
         4 -11.7123    101.7660     18.5741   2.9071871794e+02   6.9664898926e+00    0.0167994   0.01202662 -86.13  0.001516266    1.637    0.389
         5 -11.2004    137.7720     17.0332   2.9029853814e+02   6.7760199502e+00   0.02176578   0.01086763  45.14  0.001946669    2.163    0.538
         6 -11.8086     42.0636     14.0916   2.9137399347e+02   7.3626312892e+00   0.02361017    0.0114526 -64.39  0.002079307    2.066    0.516
         7 -11.3046     13.0076     13.9597   2.9170536491e+02   7.5313187379e+00   0.01234592  0.009067835 -56.26 0.0004118486    1.316    0.240
         8 -11.6832     78.0029     11.0553   2.9094520477e+02   7.1904879511e+00   0.01508466   0.01161046 -75.00 0.0005502413    1.364    0.267
         9 -11.4821     74.5686      9.2981   2.9097394540e+02   7.2305843618e+00   0.01905782  0.008336859 -68.58  0.001275669    2.549    0.608
        10 -10.6002    127.7738     11.8817   2.9038183375e+02   6.8933249960e+00  0.009751067  0.008483887 -32.22 0.0006567916    1.196    0.164
        11 -11.6472     17.0589      7.6829   2.9162162173e+02   7.5804779242e+00   0.01712755   0.01282267 -13.11  0.001285075    1.600    0.375
        12 -11.8266    176.3588      7.3309   2.8980040207e+02   6.6643362371e+00   0.01337582   0.01144887  -7.18 0.0004770301    1.284    0.221
        13 -11.3243    107.6807      7.4394   2.9058465485e+02   7.0607919490e+00   0.01162845   0.01145247 -11.47 0.0005131988    1.033    0.032
        14 -10.5540     90.8728      7.8696   2.9077916759e+02   7.1529477983e+00  0.009296413  0.007653093  58.89  0.001068384    1.311    0.237
        15 -10.5956     24.7745      6.8511   2.9152844261e+02   7.5457070430e+00   0.01459465  0.009776345 -71.97 0.0004621553    1.580    0.367
        16 -10.9812     21.4962      4.5113   2.9155197072e+02   7.5915654801e+00   0.01343393  0.009179539  13.67  0.001398803    1.650    0.394
        17  -9.8740     60.5396      6.5095   2.9111759129e+02   7.3436800692e+00   0.00649031  0.006331152  89.78 0.0008090104    1.036    0.035
        18 -10.9237     30.2286      3.6639   2.9144707346e+02   7.5511093061e+00   0.02173446  0.009480101 -71.43  0.001709466    2.804    0.643
        19 -11.1979    161.5142      4.8656   2.8995492326e+02   6.7788429623e+00   0.01588012   0.00994053  60.15  0.001525925    2.004    0.501
        20 -11.3226    217.8683      2.6723   2.8929951410e+02   6.4770587131e+00   0.01542218  0.009934524 -52.42  0.001540572    1.501    0.334
        21 -10.8625    134.7772      4.0148   2.9025486911e+02   6.9435440611e+00   0.01137724  0.009383817  27.05 0.0006341686    1.235    0.191
        22  -9.7935    119.0140      3.9889   2.9043463623e+02   7.0350626954e+00  0.007971653  0.007407902 -61.81 0.0004405736    1.055    0.052
        23 -10.7196     68.5276      4.4507   2.9101401878e+02   7.3213724354e+00  0.006681775  0.006109241 -32.27 8.301733e-05    1.119    0.106
        24  -9.5425      1.6839      4.6578   2.9177940754e+02   7.7037434551e+00  0.007057583  0.004795203 -30.60 0.0007048351    1.711    0.415
        25 -10.6922    179.9879      2.2387   2.8972855213e+02   6.7020038910e+00   0.01303633  0.007717099 -48.85  0.001287182    1.665    0.399
        26 -10.8659     91.3718      2.5313   2.9074157404e+02   7.2116590956e+00   0.01103867  0.009038541  28.72 0.0004105748    1.240    0.194
        27 -11.9046     49.1218     10.2400   2.9127034352e+02   7.3664315334e+00   0.02468529   0.01585394  71.24  0.002357031    2.119    0.528
        28 -11.0639     37.8180      2.4631   2.9135314271e+02   7.5212821281e+00   0.01309441   0.01089905  32.59  0.001112862    1.215    0.177
        29 -10.4634    191.4932      6.4479   2.8962260434e+02   6.5867039612e+00  0.006476406  0.006334987  79.86 9.743915e-05    1.036    0.035
        30 -10.5293    233.4758      2.5115   2.8912084112e+02   6.3881941682e+00  0.006496201  0.006339899 -52.53 8.366727e-05    1.010    0.010
        31 -10.2933    138.5029      1.4402   2.9019695285e+02   6.9516687272e+00  0.006456336  0.006343913 -46.28 4.983527e-05    1.012    0.012
        32 -10.6408     53.5707      1.5228   2.9116746478e+02   7.4413927325e+00   0.01400048  0.006440121  27.40 0.0008307481    2.203    0.546
        33 -11.6086    112.4991    214.0784   2.9176043187e+02   4.6449350991e+00    0.0144108  0.009851802 -78.72 0.0008684345    1.645    0.392
        34  -9.8310    206.0274    251.0000   2.9091573671e+02   3.6779649046e+00   0.01095577  0.003749406  26.98 0.0008080472    2.981    0.665
        35  -9.9487    182.4044    250.1860   2.9117942818e+02   3.8238764024e+00  0.009353601  0.007578417  60.24 0.0005275023    1.346    0.257
        36 -11.9730    197.1383    235.0642   2.9092207805e+02   3.9135155488e+00    0.0360996   0.01776826 -32.25 0.0001921799    3.000    0.667
        37 -10.9577    179.1463    248.7818   2.9120813316e+02   3.8589291090e+00   0.01096653   0.01009717 -57.97 0.0005490637    1.061    0.058
        38 -12.3610    180.9874    244.5159   2.9116186461e+02   3.8976026369e+00   0.02015551   0.01187374 -48.91 0.0005734822    1.671    0.402
        39 -12.2875    187.0009    238.3079   2.9105661181e+02   3.9346144507e+00   0.02086818   0.01587076   4.40  0.001454921    1.508    0.337
        40 -11.9972    190.9599    235.1527   2.9099284895e+02   3.9482039718e+00   0.01480293   0.01354732 -42.34 0.0008326693    1.091    0.084
        41 -11.0285    160.6623    249.4309   2.9142217717e+02   3.9581717600e+00    0.0153536   0.01217738 -50.39  0.001763356    1.235    0.190
        42 -11.9380    138.0250    248.6047   2.9167476668e+02   4.0983849221e+00   0.01532292   0.01087838 -65.16 0.0004291215    1.398    0.285
        43 -11.8365    136.6160    243.1824   2.9165863215e+02   4.1692156270e+00     0.015208   0.01118846 -54.75   0.00106285    1.315    0.240
        44 -11.9944    128.1601    243.1339   2.9175455500e+02   4.2185607021e+00   0.02800877   0.02006131 -45.76  0.001687471    1.400    0.286
        45 -12.6570    127.7658    249.8715   2.9179899636e+02   4.1429203073e+00   0.02057634   0.01470273  62.07  0.001844328    1.638    0.389
        46 -12.4261    120.4353    248.6371   2.9187508374e+02   4.1994727116e+00   0.02704326   0.01866592  12.68  0.001194895    1.644    0.392
        47 -12.4619    130.4869    236.5185   2.9168883687e+02   4.2816408930e+00   0.01675558   0.01518943 -48.83  0.001277532    1.086    0.079
        48 -11.6960    133.2819    234.7014   2.9164625117e+02   4.2865270066e+00   0.01129668  0.009554503  37.61 0.0003624794    1.198    0.165
        49 -13.0532     88.3848    215.8082   2.9204528028e+02   4.7639481512e+00   0.06905819    0.0311118  34.20  0.006108861    2.150    0.535
        50 -13.5939     97.1456    207.9427   2.9189885530e+02   4.8044384099e+00    0.0634151   0.03964218  38.36  0.006518542    1.606    0.377
        51 -12.6758     98.8948    197.3441   2.9181603607e+02   4.9169472809e+00   0.04385963   0.01818384  40.54  0.003656719    2.439    0.590
        52 -12.7362    106.2884    247.6433   2.9203017596e+02   4.2925296071e+00   0.02810103   0.02529038  32.01  0.001871869    1.128    0.114
        53 -13.0607     86.1946    225.5561   2.9212800990e+02   4.6638052905e+00   0.04678065   0.02025994 -42.12  0.003763075    2.683    0.627
        54 -12.6198     94.3661    225.6985   2.9203581256e+02   4.6150727718e+00   0.01900754   0.01637861 -60.03 0.0005637452    1.133    0.117
        55 -13.0619     94.6702    248.7209   2.9216878346e+02   4.3470179587e+00   0.03004213   0.02063915  10.34   0.00266433    1.689    0.408
        56 -12.8147     80.2863    207.5613   2.9208861284e+02   4.9060088352e+00   0.04002982   0.02978343 -15.47  0.004330431    1.614    0.380
        57 -13.4766     73.3932    205.1633   2.9215291210e+02   4.9734558802e+00    0.0597981   0.02926602  49.92  0.004720777    2.452    0.592
        58 -12.9716     89.4498    244.3059   2.9220204919e+02   4.4281612940e+00    0.0196908    0.0122518  31.77 0.0004276831    1.604    0.376
        59 -13.8941    114.0157    239.4432   2.9189362775e+02   4.3428207682e+00   0.03317524   0.02530947  13.73  0.001899318    1.428    0.300
        60 -12.2872    119.1445    233.7148   2.9180128584e+02   4.3794955437e+00   0.01579846    0.0122415  89.37 0.0007477363    1.469    0.319
        61 -14.2657     96.0982    238.0252   2.9208915972e+02   4.4625054280e+00   0.05868485    0.0353241  38.17  0.003498351    1.663    0.399
        62 -12.8934     82.6277    237.1895   2.9223755333e+02   4.5497775699e+00   0.03436747   0.01623158  37.26  0.003091302    2.081    0.519
        63 -13.1967     76.8727    217.2087   2.9218468811e+02   4.8140672134e+00   0.05290296   0.01486398  42.32  0.003531089    3.855    0.741
        64 -14.5102     74.8111    239.8130   2.9234208045e+02   4.5644415241e+00   0.02921049    0.0225186  47.21  0.003239597    1.351    0.260
        65 -13.4402     68.1273    234.8873   2.9238900983e+02   4.6599043911e+00   0.02119822   0.01713764 -70.52  0.001583168    1.250    0.200
        66 -15.0981     73.9313    227.3524   2.9227829415e+02   4.7136578421e+00    0.0385782   0.03104748 -64.40  0.002941313    1.224    0.183
        67 -10.0326     83.6758    250.7165   2.9230573358e+02   4.3872659631e+00  0.006754521  0.004914639 -26.15 0.0007001609    1.598    0.374
        68 -12.2719     52.4701    250.4538   2.9265939074e+02   4.5699080338e+00   0.01315876  0.007595122  39.58 0.0006823151    1.745    0.427
        69 -14.1550     32.4714    179.7240   2.9246844403e+02   5.5032600493e+00   0.07979575   0.03689289 -70.62  0.006657912    2.491    0.599
        70 -14.7341     23.7083    197.7739   2.9267525521e+02   5.3447894854e+00   0.07926938   0.05732508  61.27  0.007746107    1.598    0.374
        71 -14.4504     46.5445    199.3498   2.9242435064e+02   5.1952575647e+00   0.06773681   0.04400738 -11.05  0.004555082    2.111    0.526
        72 -13.3054     47.0939    229.7744   2.9259825867e+02   4.8400832248e+00   0.01475506   0.01366079  17.04 0.0008073804    1.113    0.102
        73 -15.2935     33.8805    225.3309   2.9272245881e+02   4.9674709416e+00   0.08922768   0.07084169  17.66   0.01026795    1.332    0.249
        74 -14.4423     33.8492    214.9146   2.9266117404e+02   5.0881740061e+00   0.06669751   0.03792131  29.35  0.006552288    1.763    0.433
        75 -13.7211     17.9587    209.3539   2.9280931576e+02   5.2438300601e+00   0.03820172   0.02338511  44.79  0.003842064    1.714    0.417
        76 -15.5910     10.5218    215.9068   2.9293281301e+02   5.2107147162e+00   0.06096796   0.05442573 -81.16  0.005234141    1.151    0.131
        77 -13.5516     43.3498    237.4661   2.9268640697e+02   4.7726208688e+00   0.05109113   0.02838284   9.56  0.004529113    2.414    0.586
        78 -15.4860     36.5374    248.6465   2.9283009013e+02   4.6824282701e+00   0.07458529    0.0486479  30.42  0.007839725    1.539    0.350
        79 -16.5710      5.7962    245.6187   2.9316221747e+02   4.8940350381e+00    0.1132532   0.05603773 -51.38   0.01041443    1.939    0.484
        80 -15.8195     17.3393    248.3816   2.9304710386e+02   4.7957931409e+00   0.05038132   0.04386339  -9.64   0.00586494    1.250    0.200
        81 -15.1907     24.8829    246.8512   2.9295217136e+02   4.7701716386e+00   0.06396262   0.02774646 -77.07  0.004553926    3.608    0.723
        82 -12.5101    158.3202    225.0074   2.9130380519e+02   4.2540731975e+00    0.0182264   0.01363661   2.57 0.0004178564    1.561    0.359
        83 -11.8420    163.1578    222.7601   2.9123541847e+02   4.2521125783e+00   0.02332644   0.01383978 -88.88  0.002079038    2.397    0.583
        84 -10.8247    162.4767    217.5479   2.9121219891e+02   4.3163094957e+00   0.01167001  0.008736609  34.34 0.0007950059    1.343    0.256
        85 -11.5487    102.5878    228.8167   2.9196069810e+02   4.5316164897e+00   0.01378351    0.0108596  37.35 0.0009478729    1.282    0.220
        86 -10.0244    211.7988    227.9790   2.9071329527e+02   3.9106316583e+00   0.01040073  0.007568561 -31.55 0.0004226503    1.536    0.349
        87 -11.3171    213.0031    224.0125   2.9067601498e+02   3.9495027735e+00   0.01043559  0.009109432 -60.64            0    1.120    0.107
        88 -10.9337    201.9130    226.2045   2.9081512482e+02   3.9883069012e+00   0.01713773  0.009154456 -45.10  0.001590964    1.936    0.483
        89 -12.5835    195.2530    216.8017   2.9083493856e+02   4.1354931415e+00   0.04707224   0.02418629  66.41  0.003474687    3.610    0.723
        90 -11.7215    192.3598    207.1314   2.9081032630e+02   4.2639966795e+00   0.03230638   0.01847096  -0.82  0.002748609    2.724    0.633
        91 -10.2737    188.4651    205.4357   2.9084453843e+02   4.3061191646e+00   0.01062151  0.006333499 -62.18 2.475347e-05    1.636    0.389
        92 -10.7055    171.1253    225.8179   2.9116294876e+02   4.1707308044e+00   0.01175522  0.008824403  74.29  0.000636994    1.586    0.369
        93 -10.5936    169.8755    221.6869   2.9115261887e+02   4.2257100694e+00   0.01100648    0.0082111 -52.23  0.000234479    1.304    0.233
        94 -10.0761     59.0521    224.9496   2.9243350665e+02   4.8271088172e+00  0.007461097  0.006793598 -64.09  0.000378452    1.079    0.073
        95 -11.7495     53.1297    222.0333   2.9248368898e+02   4.8949270013e+00   0.02714968   0.01175228 -54.02  0.002349778    2.153    0.536
        96 -11.2480    149.0572    223.5615   2.9140061234e+02   4.3242846932e+00   0.01152088    0.0100218 -51.54 0.0001759726    1.126    0.112
        97 -10.1518    250.1385    223.6357   2.9025180028e+02   3.7389813182e+00  0.009781525  0.006522011  27.02 0.0004669844    1.530    0.346
        98 -10.4040    250.3439    220.1372   2.9022864118e+02   3.7782056426e+00   0.01199496  0.007920959 -66.37 0.0003476643    1.524    0.344
        99  -9.8090    184.4584    222.5375   2.9099180306e+02   4.1316006228e+00  0.006598888  0.006217423 -36.86 6.647909e-05    1.068    0.064
       100 -10.3029    243.4747    220.9981   2.9031179935e+02   3.8080219286e+00  0.009406781  0.006387445 -64.12 -4.579074e-05    1.455    0.313
       101 -12.1993    139.7480    218.3588   2.9147565567e+02   4.4381938951e+00   0.02081611   0.01686426  66.74  0.001760414    1.374    0.272
       102 -11.0203    130.0194    211.5234   2.9154580122e+02   4.5733959689e+00   0.01662276   0.01196943 -73.12 0.0009819756    1.459    0.315
       103 -11.3196    129.8237    207.1591   2.9152211208e+02   4.6249974135e+00   0.01208326   0.01046665 -44.69 0.0009060751    1.150    0.131
       104 -12.4706    132.4658    217.1353   2.9155127569e+02   4.4943775895e+00   0.02554401   0.01453093  54.95 0.0008631258    2.169    0.539
       105 -12.2421    127.8174    217.6216   2.9160707435e+02   4.5155806023e+00   0.02558966   0.02074355  -7.50  0.001164802    1.402    0.287
       106  -9.9870    221.0111    219.9560   2.9056086014e+02   3.9500544040e+00    0.0078308  0.007643873  24.96 0.0005944992    1.045    0.043
       107  -9.9122    178.5820    224.2070   2.9106856082e+02   4.1462653269e+00  0.009218529  0.005753228 -50.28 0.0004829336    1.563    0.360
       108 -11.7044    206.3907    218.9333   2.9072097515e+02   4.0464466072e+00   0.01240366  0.009847838  38.42 0.0003089695    1.275    0.215
       109 -11.3517    229.2300    217.1431   2.9045071256e+02   3.9349992234e+00   0.01287872   0.01192638  38.88 0.0009957566    1.098    0.089
       110 -11.1050    231.0216    212.4136   2.9040220194e+02   3.9792752518e+00   0.02024095   0.01202899 -79.65   0.00189017    2.077    0.518
       111  -9.9601    188.2564    218.3277   2.9092358037e+02   4.1583082233e+00  0.006742945  0.004759445 -35.09 0.0006942727    1.556    0.357
       112 -11.1652    176.2605    216.8257   2.9105109480e+02   4.2450119052e+00   0.01689683   0.01201991 -25.13  0.001272807    1.669    0.401
       113  -9.6195     48.3145    217.2533   2.9251023331e+02   4.9779323452e+00  0.006519755  0.004931704 -23.23 0.0002089267    1.526    0.345
       114  -9.8727    167.0000    215.9453   2.9115121178e+02   4.3087037678e+00   0.01106254  0.003675288 -62.84 0.0008034871    2.950    0.661
       115 -10.6329    147.1810    211.1122   2.9134801789e+02   4.4790711524e+00   0.01158301  0.008233671 -50.65 0.0007116709    1.374    0.272
       116 -12.0730    217.4494    212.9802   2.9055983783e+02   4.0512693349e+00   0.01639713   0.01267392  48.40 0.0006934817    1.355    0.262
       117 -12.2376    211.8815    208.3878   2.9059580807e+02   4.1365527122e+00    0.0314146   0.01015971  28.17  0.002336975    3.061    0.673
       118 -11.1181    160.7639    212.7282   2.9120304656e+02   4.3819282590e+00   0.01261769  0.009765214  42.90 0.0007113665    1.322    0.244
       119 -10.6104    152.9516    212.5323   2.9129078213e+02   4.4293233302e+00   0.01056911    0.0085816 -75.87 -3.737105e-05    1.279    0.218
       120 -11.7824    237.9827    210.5851   2.9031221066e+02   3.9601085363e+00   0.01500978    0.0122453 -56.88  0.001748869    1.191    0.160
       121  -9.9007    173.0413    211.7564   2.9105758190e+02   4.3222207465e+00  0.008155385  0.008114826 -15.33 0.0002492685    1.022    0.022
       122  -9.8634    142.5591    210.5602   2.9139734358e+02   4.5121439902e+00  0.006604596  0.006157019  69.74 8.472941e-05    1.114    0.102
       123  -9.9821    176.9377    208.4478   2.9099358267e+02   4.3379484420e+00    0.0091612  0.006431128  28.22 0.0003251852    1.445    0.308
       124 -11.5211    112.2101    205.3402   2.9171185757e+02   4.7476686741e+00   0.01486953   0.01155738  71.80 0.0008766134    1.487    0.327
       125 -10.9293    117.4543    204.7923   2.9164888880e+02   4.7237511783e+00   0.01578106  0.009616832  38.04 0.0007664258    1.643    0.391
       126 -11.6718    115.1914    201.0102   2.9165220105e+02   4.7805494862e+00   0.01303185   0.01161923 -53.00 0.0002927236    1.097    0.088
       127 -10.0853     66.8184    207.0992   2.9223928698e+02   4.9889204453e+00  0.009720084  0.008417677  67.42 0.0004121828    1.242    0.195
       128 -11.4359    183.2033    204.5875   2.9089934764e+02   4.3463494452e+00   0.01439936  0.009918265 -66.12 0.0009307982    1.453    0.312
       129  -9.5688    136.2766    206.2986   2.9144354024e+02   4.5976974393e+00  0.006656449  0.004849291 -31.42 0.0002571479    1.535    0.349
       130 -11.1029    199.8204    204.9796   2.9071267477e+02   4.2457175257e+00   0.01068655  0.009490312  31.00 0.0003692035    1.144    0.126
       131 -10.8667    145.9188    202.9525   2.9131390127e+02   4.5807130917e+00   0.02022112  0.007713201 -54.10  0.001647835    2.407    0.585
       132 -11.0273    122.9275    204.1153   2.9158254968e+02   4.6999997243e+00    0.0146311  0.007756821  46.27  0.001139004    2.055    0.513
       133 -11.6286    121.5238    198.9630   2.9156793455e+02   4.7676883014e+00   0.01370521   0.01120082 -67.10 0.0004265121    1.217    0.179
       134 -11.1405     57.9543    202.6699   2.9231401981e+02   5.0911916191e+00   0.01431149  0.009464277 -64.65 0.0009063045    1.499    0.333
       135 -11.0054    235.6750    203.0384   2.9029350132e+02   4.0606564898e+00   0.01136467  0.009377033  14.94  0.000400475    1.286    0.222
       136 -10.3276    232.7029    200.7066   2.9031339447e+02   4.1048037185e+00   0.01109906  0.009387799  66.54 0.0003874979    1.287    0.223
       137 -11.3170    208.7864    202.8130   2.9059782331e+02   4.2188858118e+00  0.009023332  0.007578662  65.42 0.0005284896    1.297    0.229
       138 -12.9578    241.3631    200.1828   2.9021185492e+02   4.0607128103e+00   0.02002716   0.01584864  70.19 0.0005607976    1.440    0.306
       139 -11.5897    247.0282    200.0030   2.9014641234e+02   4.0299837899e+00   0.01234386  0.009378348  47.86 0.0004211481    1.379    0.275
       140 -10.3722    136.6051    201.8186   2.9141318624e+02   4.6476091938e+00  0.009486636  0.008482351  49.38 0.0005729961    1.151    0.131
       141 -10.8953    132.3679    199.3031   2.9144648099e+02   4.7011612610e+00   0.01945999   0.01113356 -86.44  0.001686449    2.507    0.601
       142 -10.5266    220.0463    201.0310   2.9045919440e+02   4.1743185828e+00   0.01081768  0.007618183  63.71 0.0007236908    1.697    0.411
       143 -10.9487    190.1461    186.6994   2.9071392978e+02   4.5129635980e+00   0.01271007  0.009360892  31.56  0.001403363    1.368    0.269
       144 -13.1414    188.3443    196.2938   2.9079152636e+02   4.4124883455e+00   0.02970271   0.01748651  35.69 0.0004692926    1.686    0.407
       145 -12.5610    188.4858    191.2729   2.9076003775e+02   4.4697056369e+00   0.01802303   0.01230487  45.44   0.00044033    1.530    0.346
       146 -11.9129    139.4872    197.5244   2.9135485963e+02   4.6806244474e+00   0.02331747   0.01489785  78.81  0.002007899    2.186    0.543
       147 -11.6765    139.8715    194.1661   2.9133052575e+02   4.7172389962e+00   0.01070966   0.01009633  27.75 0.0002741854    1.081    0.075
       148 -12.1599     74.9187    197.9214   2.9209258815e+02   5.0484469395e+00   0.06628365   0.02653378  54.72  0.004207742    4.644    0.785
       149 -13.1059     75.5738    183.1215   2.9199731634e+02   5.2158800059e+00   0.03698731   0.02380796 -74.66  0.001940014    1.710    0.415
       150 -12.3615     69.6852    175.7129   2.9202045718e+02   5.3355033215e+00   0.01780824   0.01181503  16.08 0.0003083356    1.679    0.404
       151 -12.7048     69.9215    190.6644   2.9210647961e+02   5.1611817701e+00   0.01499599   0.01368132 -28.81 0.0004342996    1.132    0.117
       152 -12.9508     67.3056    188.3736   2.9212269900e+02   5.2027480737e+00   0.02698584   0.01432708 -32.35  0.002063079    2.545    0.607
       153 -10.3871    179.2428    198.7417   2.9090963400e+02   4.4368239083e+00  0.008997779  0.007372895 -25.08 0.0005939688    1.337    0.252
       154 -10.0647    170.2174    196.6295   2.9099976500e+02   4.5134206455e+00   0.01040065  0.004414782 -52.78 0.0005660321    2.209    0.547
       155 -11.5421    249.7547    185.4335   2.9002862533e+02   4.1824880483e+00   0.02230071   0.01159382 -62.71  0.001472092    1.884    0.469
       156 -12.3415    250.4369    194.6192   2.9007560958e+02   4.0724319102e+00   0.01406366  0.009082302 -60.06 0.0004909508    1.497    0.332
       157 -12.7475    245.9554    190.9783   2.9010483877e+02   4.1404470229e+00   0.01785154   0.01407326  39.46 0.0006526965    1.286    0.222
       158 -11.8113    198.8320    194.8564   2.9066367349e+02   4.3684356024e+00   0.01063065  0.009931196 -75.06 0.0003198849    1.072    0.067
       159 -11.0202    107.0347    194.9401   2.9170905134e+02   4.8978094313e+00    0.0179397   0.01152396 -19.50   0.00170143    2.096    0.523
       160 -11.8630    149.1430    191.1919   2.9120729463e+02   4.6980757907e+00   0.01831256   0.01191722 -79.45 0.0004749229    1.786    0.440
       161 -11.7587    154.5451    192.3126   2.9115246334e+02   4.6539068979e+00   0.01774381   0.01232775   1.49 0.0006108927    1.776    0.437
       162 -11.9028    112.8888    193.8273   2.9163576854e+02   4.8769097084e+00   0.01964946   0.01524618  56.50  0.002209739    1.406    0.289
       163 -10.5321    117.2215    191.8011   2.9157438901e+02   4.8753438394e+00   0.01062799  0.007510005 -28.31 0.0004077785    1.647    0.393
       164 -10.8293    233.8976    193.9601   2.9025963648e+02   4.1758320317e+00    0.0101015  0.009627909 -76.45 0.0006842043    1.049    0.047
       165 -12.0770    210.3469    192.6277   2.9051944960e+02   4.3275625710e+00   0.01757107   0.01080189 -69.53  0.001747685    1.705    0.413
       166 -11.6542    163.4384    188.9484   2.9103122890e+02   4.6414065616e+00    0.0164128   0.01053188 -48.29 0.0009639279    1.541    0.351
       167 -10.1548     89.9575    193.9664   2.9189779474e+02   5.0075417730e+00  0.008826166  0.008335924 -84.32            0    1.074    0.069
       168 -11.2436     86.8612    191.6476   2.9191930714e+02   5.0522108924e+00   0.01204335   0.01101392 -57.56 0.0005001628    1.068    0.064
       169 -10.4074     76.4670    193.2752   2.9204738664e+02   5.0932760718e+00    0.0144634   0.00710315  41.59  0.001295947    2.088    0.521
       170 -11.3091    124.1595    191.3540   2.9149272009e+02   4.8404737619e+00   0.01461321   0.01144951 -66.39    0.0011791    1.269    0.212
       171 -11.3844    120.6754    188.6719   2.9151646260e+02   4.8916013442e+00    0.0266222   0.01183743 -81.58   0.00171566    4.503    0.778
       172 -13.5749     38.0159    162.1349   2.9230093265e+02   5.6748649489e+00   0.06749462   0.03413112 -80.11  0.002372873    2.845    0.648
       173 -11.3715    178.0010    188.6980   2.9086401111e+02   4.5601078160e+00   0.02144278   0.01238299 -86.63  0.001875894    2.467    0.595
       174 -11.1721    175.3669    184.5336   2.9086920623e+02   4.6234801358e+00    0.0160753   0.01150004 -56.68 0.0009340236    1.349    0.259
       175 -10.7865    141.8467    189.6037   2.9128091937e+02   4.7585878438e+00   0.01380465  0.007231847  41.67  0.001277108    1.956    0.489
       176 -12.3353    106.4326    187.4734   2.9167156871e+02   4.9876441845e+00   0.02074965   0.01321891  49.27 0.0007103156    1.713    0.416
       177 -11.1993    106.3102    183.7060   2.9165058649e+02   5.0319231626e+00   0.01228998   0.01194777   0.82 0.0006203228    1.055    0.052
       178 -13.0835    103.8162    179.0509   2.9165134495e+02   5.1001496878e+00   0.03415124   0.01995262 -59.30  0.001950966    1.642    0.391
       179 -11.4662     91.6472    188.1221   2.9184385522e+02   5.0654034962e+00   0.01116848   0.01032655  29.82 0.0003465339    1.101    0.092
       180 -11.1801     23.5724    185.1346   2.9260194985e+02   5.4918128360e+00   0.01310033   0.01160617 -24.92  0.001581799    1.191    0.160
       181 -11.2039      4.1590    160.2327   2.9267577947e+02   5.8914364692e+00   0.02133653   0.01074506 -56.55  0.001422237    1.869    0.465
       182 -12.2438      7.7075    166.1548   2.9267039803e+02   5.8025457534e+00   0.02598621   0.01260686 -53.51 0.0001617349    1.946    0.486
       183 -12.2815      4.9973    175.2892   2.9275541058e+02   5.7124235496e+00    0.0285087   0.01546444  53.89  0.001326606    2.293    0.564
       184 -13.1181     18.2465    178.7180   2.9262465542e+02   5.5966569086e+00   0.03845768   0.01740399 -68.55  0.002919247    2.422    0.587
       185 -12.0847     12.3738    180.2636   2.9270076532e+02   5.6125095008e+00    0.0190977   0.01651929 -70.90  0.001339176    1.159    0.137
       186 -13.0415      7.2589    186.5468   2.9279628267e+02   5.5691823134e+00    0.0183049   0.01351288  27.48 0.0007179701    1.379    0.275
       187 -10.9291    195.5007    188.0453   2.9066102614e+02   4.4664299907e+00   0.01033661  0.006330273 -61.70  0.001032135    1.589    0.371
       188 -11.7047    164.5158    192.4161   2.9103959208e+02   4.5950878957e+00   0.01995018   0.01305235  -0.78  0.001826265    2.014    0.503
       189 -10.7235     47.0776    186.3146   2.9234101684e+02   5.3430028149e+00   0.01637637  0.007981508  52.86  0.001190534    2.672    0.626
       190 -12.6492    124.6115    183.7726   2.9144252156e+02   4.9255395747e+00   0.03710062   0.01709591  47.08    0.0027841    2.483    0.597
       191 -12.6722    118.3700    178.1619   2.9148026704e+02   5.0264533313e+00   0.01655705   0.01399798 -27.77 0.0003779184    1.264    0.209
       192 -11.2940    114.0285    178.6368   2.9153254489e+02   5.0460171688e+00    0.0118152  0.009605526 -68.31  0.001364568    1.231    0.187
       193 -10.2833     61.2255    177.6223   2.9212820927e+02   5.3621337926e+00   0.01031703  0.008926958  86.95 0.0006497291    1.241    0.194
       194 -12.1658     60.2748    184.3677   2.9217906059e+02   5.2895733450e+00   0.02640823   0.01928531  10.94  0.002586946    1.541    0.351
       195 -10.6593     62.5704    180.5094   2.9213000930e+02   5.3209910869e+00   0.01150129  0.009558418  32.78 0.0005045828    1.217    0.179
       196 -10.8546    139.8506    184.2374   2.9127174296e+02   4.8321689958e+00   0.01463631  0.008985146  15.76 0.0007929315    1.869    0.465
       197 -10.7058    130.0138    182.7693   2.9137503352e+02   4.9059527508e+00    0.0135383  0.009227731  61.54  0.001301516    1.760    0.432
       198 -12.1724    230.6364    181.0729   2.9021993493e+02   4.3436079967e+00   0.02441037   0.01360859  67.98  0.001512639    2.886    0.654
       199 -11.3470    190.3773    180.7207   2.9067570832e+02   4.5807295760e+00   0.01561966   0.01078166 -83.44 0.0008557077    1.699    0.411
       200 -10.3593    148.9132    182.1169   2.9115594717e+02   4.8043327993e+00  0.009727623  0.008648035  66.85 0.0004730744    1.194    0.162
       201 -12.1551     92.5131    180.9746   2.9179155228e+02   5.1430856690e+00   0.01423667   0.01237587 -75.70 0.0005743268    1.173    0.147
       202 -11.2949     42.1028    179.4824   2.9235721711e+02   5.4506660776e+00   0.01762232   0.01164163 -46.66  0.001842667    1.514    0.339
       203 -12.1633    218.5977    179.5777   2.9034790507e+02   4.4305991441e+00   0.01734753   0.01173241  59.71  0.001771568    1.756    0.430
       204 -10.6917    212.0061    179.6901   2.9042353665e+02   4.4674642017e+00  0.009201528  0.008593109  27.58 0.0007857772    1.092    0.084
       205 -11.0161     48.5155    180.4285   2.9228972864e+02   5.4028267026e+00   0.01319495  0.008791915 -63.87 0.0005996705    1.479    0.324
       206 -11.4819     51.8401    178.1811   2.9223850402e+02   5.4096958033e+00   0.02272902   0.01293456  40.25   0.00184745    1.778    0.438
       207 -11.7646     55.7509    175.9890   2.9218092191e+02   5.4125460840e+00    0.0154123   0.01205008  35.89 0.0003500477    1.290    0.225
       208 -11.9218    136.4601    176.1272   2.9126212941e+02   4.9455315123e+00   0.01180845   0.01104491 -46.87 0.0002888038    1.056    0.053
       209 -10.0834    221.8429    176.3370   2.9029169612e+02   4.4492518334e+00  0.008786242  0.006198172  11.49 0.0009156693    1.613    0.380
       210 -11.0187    170.0133    176.5312   2.9088251380e+02   4.7469459861e+00  0.009931115  0.006413237  29.23  0.001018706    1.561    0.360
       211 -10.9937    129.4924    175.9615   2.9134050005e+02   4.9876871624e+00   0.01196795  0.008697014  48.57 0.0006825438    1.456    0.313
       212 -12.7121     87.7178    171.5581   2.9179027244e+02   5.2796484588e+00   0.02922148   0.01982174 -33.49  0.003030919    1.670    0.401
       213 -10.3205     85.6103    167.5867   2.9179070205e+02   5.3377325784e+00   0.01367457  0.006693367  24.78   0.00121397    2.146    0.534
       214 -11.0090     73.7249    168.3317   2.9193059523e+02   5.3976124288e+00  0.009475285  0.008504738  17.74  0.000268324    1.153    0.133
       215 -12.1634     77.2123    166.3712   2.9187920239e+02   5.4001947842e+00   0.01591445   0.01276278 -70.70 0.0001339252    1.263    0.208
       216 -10.2328     81.3033    166.6760   2.9183438196e+02   5.3730918680e+00   0.01131119  0.006029002  38.69 0.0002961348    1.875    0.467
       217 -10.8906    204.4243    174.7257   2.9048020322e+02   4.5687221760e+00   0.01289379  0.009021029  85.63 0.0007859094    1.785    0.440
       218 -12.5568    216.5182    194.1454   2.9045831188e+02   4.2743057407e+00   0.02872046   0.01202604 -45.41  0.002337744    2.541    0.606
       219 -11.5364     82.2496    189.0264   2.9195629193e+02   5.1091086594e+00   0.02210987  0.009980034 -46.41  0.000999796    2.281    0.562
       220 -10.7624    194.8538    173.3766   2.9058104702e+02   4.6397066857e+00   0.01409613   0.00880144 -55.23   0.00143843    1.534    0.348
       221 -11.8717    168.5117    172.4797   2.9087549188e+02   4.8024639771e+00   0.01922201   0.01136576 -32.14  0.001779397    2.104    0.525
       222 -11.6392    170.6092    168.5588   2.9082827656e+02   4.8356581695e+00   0.01389191   0.01151843  15.45 0.0009498876    1.276    0.216
       223 -12.0051    156.9177    172.8054   2.9100942063e+02   4.8657303140e+00   0.01891764   0.01304741  43.08  0.001947983    1.491    0.329
       224 -10.9338     76.7410    173.7775   2.9192855098e+02   5.3172409505e+00    0.0103325  0.008892296 -67.45 0.0002944949    1.153    0.133
       225 -14.1031     38.5309    206.6057   2.9255864186e+02   5.1573960686e+00   0.06708564   0.04020834  88.48  0.004762818    2.405    0.584
       226 -12.5539    243.1436    172.4715   2.9002649906e+02   4.3705188154e+00   0.01438435   0.01301662  32.06 0.0003607025    1.123    0.109
       227 -10.3933    219.4693    172.9322   2.9029840116e+02   4.5023383173e+00  0.009676291  0.006357648 -62.85 0.0004437201    1.493    0.330
       228 -11.5702     59.7208    171.2929   2.9210780508e+02   5.4440162338e+00   0.01415878   0.01018516  77.40 0.0001646331    1.716    0.417
       229 -12.6688     60.7493    167.4847   2.9207347898e+02   5.4821464561e+00   0.01274918   0.01230336 -16.93 0.0004385795    1.061    0.058
       230 -13.1771      1.6487    183.8372   2.9284420137e+02   5.6327415395e+00   0.03644474   0.01023563 -65.91  0.002084787    4.047    0.753
       231 -13.8704     60.6797    215.8439   2.9236103505e+02   4.9230891506e+00   0.08490483   0.04892184  80.93  0.006948286    2.833    0.647
       232 -10.7107    208.7292    170.8586   2.9040819831e+02   4.5884888036e+00   0.01117629  0.008982716  -0.75  0.001264612    1.409    0.290
       233 -11.3707    176.3254    170.3124   2.9077365015e+02   4.7823262194e+00   0.01636869  0.006874444 -48.64  0.001359133    2.356    0.576
       234 -10.8484     99.4696    170.9370   2.9165266511e+02   5.2190650975e+00   0.01611601   0.00883882  17.47  0.001476004    2.121    0.528
       235 -11.4760     49.6230    170.4646   2.9221800432e+02   5.5117236005e+00   0.01267638   0.01107173  29.40 0.0004426946    1.164    0.141
       236 -10.9345    217.1002    168.2624   2.9029751777e+02   4.5700143022e+00   0.01931571  0.008324909 -59.00  0.001657488    2.176    0.540
       237 -10.7847    123.2021    170.6073   2.9138031613e+02   5.0859232666e+00  0.009334625  0.006390611  10.04  0.000952972    1.703    0.413
       238 -10.5705     66.0047    169.2842   2.9202425053e+02   5.4310657753e+00   0.01282857  0.008979822 -54.84  0.001382352    1.378    0.274
       239 -11.0122     19.3194    169.8485   2.9255986640e+02   5.6931106449e+00   0.01134987   0.01001143  13.38  0.001366417    1.188    0.158
       240 -10.1282    109.0067    169.4468   2.9153513998e+02   5.1812789307e+00  0.009717483  0.006474583  26.18 0.0004526706    1.537    0.350
       241 -10.0124     13.0526    168.9742   2.9262614706e+02   5.7392288986e+00  0.008158315  0.007286992 -63.05 0.0008706272    1.098    0.089
       242 -12.3830    236.4749    172.9769   2.9010531448e+02   4.4033189590e+00   0.01996546   0.01106064  35.30  0.001932675    1.784    0.439
       243 -10.7699    193.1706    168.3764   2.9057041859e+02   4.7072363454e+00   0.01095642  0.008731174  62.86 0.0005253825    1.393    0.282
       244 -11.3294    190.9558    164.1577   2.9057049301e+02   4.7688113712e+00   0.01290477  0.009826641 -74.28 0.0008105144    1.374    0.272
       245 -12.1634    186.2789    165.1264   2.9062948544e+02   4.7846815063e+00   0.02470791  0.009419205 -64.32   0.00194185    2.664    0.625
       246 -10.5158    134.9149    168.6743   2.9123540445e+02   5.0406344574e+00   0.01314537   0.00640393  17.26  0.001099112    2.526    0.604
       247 -11.6584    129.5603    167.8414   2.9129144197e+02   5.0811921476e+00   0.01494904   0.01099957   6.16 0.0007150274    1.572    0.364
       248 -10.8437    159.5122    165.9268   2.9093894374e+02   4.9302536565e+00   0.01024743  0.006459084 -66.54  0.001029375    1.604    0.376
       249 -11.0693    139.8778    165.4780   2.9115986429e+02   5.0489217294e+00   0.01148496  0.009185178  84.17 0.0007180902    1.416    0.294
       250 -10.9507    196.8053    164.9904   2.9050889129e+02   4.7253313908e+00   0.01696218  0.007522154  45.37   0.00140579    2.499    0.600
       251 -11.5799    120.1213    164.7877   2.9138080908e+02   5.1710066268e+00   0.01577638  0.009872383  40.90 0.0005754014    1.625    0.385
       252 -11.8908    223.7751    161.8229   2.9018322620e+02   4.6057519758e+00   0.01643359   0.01179004 -75.02  0.001268278    1.491    0.329
       253 -10.2528    203.9649    164.4714   2.9042434080e+02   4.6898803548e+00  0.009148475  0.008573042  10.68 0.0004500425    1.104    0.095
       254 -11.3819    203.2987    158.6003   2.9039693609e+02   4.7615816263e+00   0.02679333  0.009782058 -50.35  0.002113322    2.618    0.618
       255 -11.5948     95.7017    157.5323   2.9161594425e+02   5.3958274079e+00   0.01734416   0.01103566 -62.54  0.001784065    1.537    0.350
       256 -11.1105    100.9689    163.4947   2.9159135377e+02   5.2964893923e+00   0.01212368  0.009295044 -62.49 0.0006368627    1.277    0.217
       257 -10.9885     98.7071    160.6900   2.9160046021e+02   5.3419727537e+00   0.01608771  0.009970741   3.31  0.001267138    2.157    0.536
       258 -10.2743     55.9608    163.7456   2.9210587818e+02   5.5529691383e+00   0.01008477  0.007340877  75.82  0.001053969    1.677    0.404
       259 -11.8750     19.6769    161.3427   2.9250537109e+02   5.7894625554e+00   0.02230643   0.01515887  11.31  0.001810514    1.700    0.412
       260 -11.2587      3.0643    166.9673   2.9272816392e+02   5.8198053525e+00   0.01219156   0.01127136  43.74  0.000416647    1.103    0.093
       261  -9.9167    212.5161    162.5666   2.9031571380e+02   4.6623741403e+00  0.006484507   0.00631432  73.84 0.0001913776    1.045    0.043
       262 -10.9667    132.7074    162.1718   2.9122186937e+02   5.1285716782e+00   0.01207551    0.0083129  38.66  0.001286367    1.465    0.317
       263 -10.5246     87.2941    162.3439   2.9174036536e+02   5.3886626797e+00   0.01127055  0.007457304 -27.98  0.001118342    1.838    0.456
       264 -10.8379     51.3372    162.0640   2.9214861414e+02   5.5990365435e+00   0.01572106  0.009211867  12.49  0.001468714    2.093    0.522
       265 -11.0720    196.7857    159.6951   2.9047756641e+02   4.7866393147e+00   0.01160831   0.01048047 -67.80 0.0006710677    1.097    0.088
       266 -11.9426    191.1535    157.8964   2.9053094221e+02   4.8400287633e+00   0.01970356   0.01118676  66.75  0.001351665    2.691    0.628
       267 -11.0425    128.4275    158.7050   2.9125000135e+02   5.1933784349e+00   0.01196395  0.006462787 -67.02  0.001106562    1.911    0.477
       268 -10.5417    213.5051    157.6443   2.9027512594e+02   4.7135212879e+00   0.01205331  0.008284342  20.89 0.0005779414    1.544    0.352
       269 -10.1275     66.1624    158.3607   2.9195759818e+02   5.5565124051e+00  0.009363676  0.005702217  38.93 0.0003685892    1.651    0.394
       270 -11.6250    181.6183    156.0622   2.9062854029e+02   4.9164121623e+00    0.0205748  0.004777289 -57.79  0.001367753    3.584    0.721
       271 -11.0535    123.3859    156.0742   2.9129179072e+02   5.2529127596e+00   0.01278991   0.01070834  74.40  0.001486976    1.320    0.243
       272 -11.3983     11.6226    156.6245   2.9256926419e+02   5.8903189918e+00   0.02097945   0.01239201 -55.50 0.0002077773    1.614    0.380
       273 -11.2000     11.4995    151.9532   2.9254297373e+02   5.9450658056e+00   0.01771649   0.01076422 -29.81  0.001669004    2.078    0.519
       274 -10.9356      7.9968    150.2243   2.9257267988e+02   5.9851841057e+00   0.01162815  0.009318857  40.16 0.0003122238    1.268    0.211
       275 -10.0461    171.2762    156.3490   2.9074798158e+02   4.9729353329e+00  0.006937489  0.004760983 -33.93 0.0006804389    1.636    0.389
       276 -11.1798    146.3145    155.5041   2.9102719952e+02   5.1270390134e+00   0.01283727   0.01178816 -73.78 0.0007200844    1.091    0.084
       277 -11.0899    139.8960    155.9989   2.9110325395e+02   5.1584123350e+00   0.01016619  0.009269848  25.42  0.001243373    1.120    0.107
       278 -10.1328     48.9620    156.0225   2.9213984047e+02   5.6825927277e+00  0.007841108  0.007792072 -57.79 0.0009950018    1.014    0.014
       279 -10.2358    200.0198    154.7440   2.9041126254e+02   4.8251284542e+00  0.008683689  0.008497966 -27.92 0.0002637675    1.033    0.032
       280 -12.0106    114.4718    154.7244   2.9138533398e+02   5.3199891981e+00   0.02622316   0.01140337  25.87  0.001642545    2.389    0.581
       281 -10.7476    106.6681    154.8704   2.9147513331e+02   5.3633417846e+00   0.01144234   0.01059822  34.11 0.0006203148    1.097    0.089
       282 -12.1965    108.9417    149.5881   2.9141780819e+02   5.4113034582e+00   0.01893537   0.01383245 -31.57  0.002048105    1.527    0.345
       283 -13.9722      3.8154    200.8476   2.9292016410e+02   5.4234741696e+00   0.04070557   0.03073093 -82.06  0.004503458    1.461    0.315
       284 -11.2791     19.4391    153.2148   2.9245988917e+02   5.8848572550e+00   0.02339379   0.01661887 -22.63  0.002455558    1.698    0.411
       285 -10.9807     27.1489    153.6041   2.9237425969e+02   5.8360399118e+00   0.01336014  0.009469005  74.32 0.0008636159    1.757    0.431
       286 -12.5176    247.9294    150.8550   2.8984319322e+02   4.5924580572e+00   0.01957119   0.01548165 -67.25  0.001928066    1.262    0.208
       287 -11.2211    225.8778    152.0178   2.9010085327e+02   4.7068445533e+00   0.01089754  0.009529276  30.67  0.000432965    1.161    0.139
       288 -11.1587    137.9000    151.8586   2.9110134982e+02   5.2178130119e+00  0.009757682  0.008651645 -25.17 0.0003595599    1.189    0.159
       289 -10.0697     62.4388    152.4273   2.9196481702e+02   5.6465880397e+00  0.006420529  0.006319691 -78.92 2.431967e-05    1.017    0.017
       290 -10.9643    184.1401    149.3675   2.9055994812e+02   4.9791891256e+00  0.009733248  0.005574418  40.02 0.0009364028    1.764    0.433
       291 -11.7319    237.8201    149.8550   2.8995215436e+02   4.6626143537e+00   0.01038902  0.008793307 -30.42 0.0007393032    1.250    0.200
       292 -11.0330     51.9864    148.9028   2.9206308156e+02   5.7475388077e+00  0.009640587  0.009259104  77.66 0.0003319346    1.065    0.061
       293 -11.8848    227.8829    148.1016   2.9005469511e+02   4.7404652109e+00   0.01384922  0.008376683  32.32  0.001048162    1.646    0.392
       294 -10.4116    198.0123    145.4814   2.9037889790e+02   4.9437845471e+00   0.01286963  0.006045432  32.88 0.0009324786    2.075    0.518
       295 -10.3218    152.3681    148.1680   2.9091457450e+02   5.1768522413e+00  0.009004131  0.006215374 -78.03 0.0003417252    1.614    0.380
       296 -10.3872    103.7846    148.4362   2.9146973488e+02   5.4543850838e+00    0.0128795  0.005887728  33.39  0.001130404    2.124    0.529
       297 -10.2060     91.5405    147.9820   2.9160660425e+02   5.5302745480e+00  0.009800406  0.006366822 -63.69 0.0003612603    1.517    0.341
       298 -10.9821    202.6161    148.0640   2.9034190317e+02   4.8872820343e+00   0.01218249  0.009254958  38.56 0.0004544323    1.331    0.248
       299 -11.3976    163.1071    145.8329   2.9077836196e+02   5.1417403845e+00   0.01022271  0.008976007  65.05 0.0005839991    1.213    0.176
       300 -11.0779     54.8874    145.0849   2.9200732424e+02   5.7749970599e+00   0.01772871   0.00921496  53.32  0.001470787    2.428    0.588
       301 -11.6535    237.9171    145.1238   2.8992282922e+02   4.7166988608e+00   0.01032335   0.00885881  58.08  0.000780676    1.235    0.190
       302 -11.6064    219.2253    143.3455   2.9012480154e+02   4.8455784642e+00    0.0197518   0.01339387   3.80  0.001496661    1.826    0.452
       303 -11.6435    225.0484    143.6479   2.9006036921e+02   4.8083398113e+00   0.01972154   0.01079791 -30.60  0.001698988    2.501    0.600
       304 -12.5717    177.5571    143.1115   2.9059761142e+02   5.0895899276e+00   0.02113509   0.01607621 -39.31  0.001320922    1.368    0.269
       305 -12.1697    128.9013    139.8241   2.9113224417e+02   5.4089393355e+00   0.03700295    0.0192994  50.60  0.003288857    2.274    0.560
       306 -10.0867    122.3775    143.7366   2.9122987341e+02   5.4013893340e+00  0.008828636  0.005830395 -52.60 0.0002346478    1.464    0.317
       307 -10.1311     13.9865    143.5119   2.9246454304e+02   6.0284279557e+00   0.01013987  0.006406015  29.32  0.001030619    1.594    0.373
       308 -11.8315    241.4230    141.4858   2.8986126193e+02   4.7383896714e+00   0.01413119   0.01123197  51.77   0.00093249    1.332    0.249
       309 -11.2970    245.2079    138.8633   2.8980258153e+02   4.7467304030e+00   0.01245921  0.009018413  36.86 0.0006492087    1.390    0.281
       310 -12.2162    249.1217    136.3873   2.8974331095e+02   4.7526252953e+00   0.01217119   0.01169843  35.75 0.0002365658    1.059    0.056
       311 -11.4620     21.7364    131.0795   2.9230234567e+02   6.1276949758e+00    0.0274904   0.01564826  68.65  0.002319926    2.740    0.635
       312 -11.8498     21.9047    141.0743   2.9235974425e+02   6.0111234206e+00   0.01625691    0.0153152 -71.74  0.001863341    1.055    0.052
       313 -10.9270     25.5267    138.5524   2.9230345561e+02   6.0194740630e+00   0.01210294  0.009150189  22.40 0.0001041803    1.375    0.273
       314 -11.2144     28.5150    137.1149   2.9226083013e+02   6.0189204229e+00   0.01316719   0.01040216  65.07 0.0009491422    1.422    0.297
       315 -11.4528     59.2649    133.8816   2.9189083836e+02   5.8793605757e+00   0.01778581   0.01218197  10.31 0.0004303212    1.697    0.411
       316  -9.7839     55.4285    135.5312   2.9194439979e+02   5.8823751839e+00  0.009152453  0.005840509 -53.08 -6.164462e-05    1.509    0.337
       317 -11.0580     58.3577    140.7472   2.9194197888e+02   5.8051825770e+00   0.01270325  0.008649386  46.33 0.0005643466    1.545    0.353
       318 -10.6731     58.0256    137.7340   2.9192786434e+02   5.8419446868e+00   0.01198456  0.009936202  41.50 0.0006468291    1.228    0.186
       319 -11.9529     46.2670    139.1935   2.9207065798e+02   5.8927597300e+00    0.0203142   0.01635136 -51.90  0.002358136    1.212    0.175
       320 -10.5000     96.5145    139.0021   2.9149649884e+02   5.6054245049e+00  0.009621493  0.006368579 -63.05 0.0003460549    1.483    0.326
       321  -9.9408    207.2328    138.3450   2.9023142109e+02   4.9728335279e+00  0.008932986  0.005758948  38.35 0.0002200261    1.559    0.358
       322 -10.6388     35.0255    145.3338   2.9223534435e+02   5.8864140441e+00  0.009087874  0.008560528  23.92 0.0004881126    1.085    0.078
       323 -10.0596    103.1398    137.1213   2.9140977988e+02   5.5889421206e+00  0.009272631  0.007612315  67.23 0.0005058046    1.348    0.258
       324 -11.1118     37.3151    137.1244   2.9216048981e+02   5.9681981256e+00    0.0166098   0.01000471  16.85  0.001108306    1.887    0.470
       325 -11.8899      7.6476    134.9245   2.9248592861e+02   6.1641704525e+00   0.02119231   0.01133181 -42.43 0.0008093463    2.020    0.505
       326 -11.6744    228.0429    135.1882   2.8997584417e+02   4.8887006459e+00   0.01181867   0.01033594  35.53 0.0002714386    1.159    0.137
       327 -10.8793    195.5703    135.1479   2.9034508203e+02   5.0773251604e+00   0.02104655   0.01060266 -79.79  0.001683013    2.866    0.651
       328 -10.5704     83.9658    135.2486   2.9161725475e+02   5.7212061237e+00  0.008779615  0.008291353  17.35   0.00108891    1.087    0.080
       329 -10.7426     77.4952    134.9525   2.9168928234e+02   5.7619353569e+00   0.01336058  0.009240172  55.85 0.0009175935    1.640    0.390
       330 -10.3150    241.9678    132.7001   2.8980263938e+02   4.8366965275e+00   0.00900052  0.008302116  34.67 0.0003884296    1.101    0.092
       331 -10.9913    159.3965    133.2053   2.9074539268e+02   5.3091561142e+00   0.01667907  0.008086894  33.78  0.001031487    2.013    0.503
       332 -10.3099    199.2697    131.7157   2.9028250843e+02   5.0955537439e+00  0.008905903  0.007204312 -31.53 0.0004564254    1.324    0.245
       333 -10.3524     48.5928    131.6766   2.9199947485e+02   5.9663088482e+00   0.01132901  0.007198142  47.71  0.001138805    1.692    0.409
       334 -10.7991     39.6792    132.3069   2.9210490975e+02   6.0103159164e+00    0.0123795  0.006011942  32.63   0.00062644    2.014    0.503
       335 -11.7060     35.9788    129.6503   2.9213135052e+02   6.0623279622e+00   0.01383091   0.01330347  -2.72 0.0003028358    1.071    0.066
       336 -11.2826     32.2648    128.9970   2.9216984802e+02   6.0912467829e+00   0.01745928  0.009602527 -66.76  0.001066014    1.863    0.463
       337 -10.4877    214.1555    131.0613   2.9010920555e+02   5.0168655109e+00  0.009907382  0.008454442 -32.60 0.0003595099    1.226    0.184
       338 -11.5301    128.6475    130.2726   2.9107826742e+02   5.5208252682e+00   0.01117918   0.01110752  37.56 0.0002942314    1.026    0.025
       339  -9.4882     70.6459    131.7074   2.9174810261e+02   5.8389377895e+00  0.006928863  0.004898863 -25.26 0.0007030109    1.683    0.406
       340 -11.3632    248.3775    129.2422   2.8970912415e+02   4.8394496981e+00   0.01917694  0.009329779  40.11 0.0009491819    2.072    0.517
       341 -11.1138     86.4386    129.8019   2.9155666327e+02   5.7699272503e+00   0.01159342    0.0100105  -7.22 0.0002512743    1.265    0.210
       342 -11.4792     61.3593    129.0736   2.9183837240e+02   5.9228995057e+00   0.01379258   0.01097638   0.87 0.0008735143    1.423    0.297
       343 -11.4903     44.7167    127.6821   2.9201996520e+02   6.0348140372e+00   0.01342006   0.01092625 -39.54 0.0004534285    1.259    0.206
       344 -12.6226     68.6892    124.0206   2.9172471848e+02   5.9391001290e+00   0.02264513   0.01574921  26.36 0.0004433519    1.470    0.320
       345 -10.6354     50.7634    128.1714   2.9195388655e+02   5.9943499643e+00   0.01145213  0.009651716  -2.81 0.0008576777    1.310    0.237
       346 -10.7378     92.6063    126.7407   2.9146811756e+02   5.7697457200e+00   0.01247097  0.009690737 -21.57 0.0006413085    1.471    0.320
       347  -9.8950    153.0155    126.0043   2.9077517119e+02   5.4292915485e+00  0.007794292  0.007564119  24.47 0.0006306116    1.051    0.049
       348 -12.1154    125.1895    124.0163   2.9108042211e+02   5.6131262384e+00   0.01566201    0.0122136  54.52 0.0003579961    1.383    0.277
       349 -10.0659    148.1380    125.0745   2.9082520209e+02   5.4682457705e+00  0.008770798  0.007474553  74.77 0.0003526422    1.284    0.221
       350 -10.7296    120.1877    124.5549   2.9114064408e+02   5.6357952349e+00   0.01613338  0.008091307 -58.87  0.001185732    1.891    0.471
       351 -10.9446    188.9659    124.4717   2.9035659760e+02   5.2389285522e+00   0.01014751  0.006444312  28.28  0.001031981    1.595    0.373
       352 -10.6933    204.7704    123.6283   2.9017166100e+02   5.1571159187e+00  0.009498005  0.005781548  38.27 0.0005890769    1.647    0.393
       353 -10.4480    250.0065    122.0054   2.8964739832e+02   4.9135605566e+00  0.007674189  0.007625849  15.88  0.000354365    1.027    0.026
       354 -11.2916    226.5651    120.5645   2.8990538546e+02   5.0661686539e+00   0.01721508  0.009366546 -77.14  0.001515634    2.302    0.566
       355 -10.8125     84.6485    121.1371   2.9152553089e+02   5.8804368925e+00   0.01251537   0.01065536 -79.44 0.0008937506    1.222    0.181
       356 -10.3137     81.2010    118.2216   2.9154750639e+02   5.9340259355e+00   0.01461873  0.005771853  35.14  0.001203406    2.420    0.587
       357 -10.2054     38.8303    122.1952   2.9205452864e+02   6.1321398603e+00  0.009415534  0.007595297 -31.05  0.001069599    1.331    0.249
       358  -9.9204     11.9219    122.0000   2.9236045269e+02   6.2891019468e+00   0.01037293  0.003747927  26.83 0.0004581476    2.826    0.646
       359 -10.7974    164.0164    119.9444   2.9061372939e+02   5.4356793116e+00  0.009584886  0.009375304 -88.68 0.0003315077    1.030    0.029
       360 -10.8359     48.4558    119.0814   2.9192619224e+02   6.1127509560e+00   0.01618209  0.009360831  57.37  0.001429231    2.202    0.546
       361 -11.6872     19.2687    118.2630   2.9225441263e+02   6.2901036920e+00   0.02052689   0.01501515 -11.80  0.002185438    1.671    0.402
       362 -12.8707     21.0383    110.4241   2.9218765499e+02   6.3705795167e+00   0.02646266   0.01880754 -27.42  0.002801115    1.641    0.391
       363 -10.8995    170.9691    119.0409   2.9052914726e+02   5.4058793921e+00   0.01122326  0.009329919 -64.06  0.000341776    1.184    0.155
       364 -10.5097    171.3025    115.0566   2.9050159041e+02   5.4499868657e+00  0.009385622  0.008161461 -67.09 0.0006193699    1.140    0.123
       365 -11.0183    106.5524    118.5766   2.9126050040e+02   5.7836469512e+00   0.01775143   0.01055726   6.01  0.001517975    2.258    0.557
       366 -10.6694     26.6679    118.4246   2.9217092440e+02   6.2456996693e+00   0.01495697  0.008359977  50.92  0.001380229    2.076    0.518
       367  -9.9246     26.5196    115.4407   2.9215489115e+02   6.2810576426e+00  0.009516607  0.006430821 -75.77  0.000541349    1.622    0.384
       368  -9.9061      4.9625    119.0141   2.9242216333e+02   6.3636063823e+00  0.008000919  0.007413689  26.17 0.0005686065    1.102    0.092
       369 -10.8751    238.5295    121.9930   2.8977782686e+02   4.9802850772e+00   0.01010578  0.006284234 -60.64 0.0005868012    1.557    0.358
       370  -9.9982    196.4384    118.5923   2.9023645481e+02   5.2635686053e+00  0.006452183  0.006247093 -35.76            0    1.037    0.036
       371 -13.0164     87.6298    114.8531   2.9145413208e+02   5.9358931095e+00   0.01996767   0.01320655  43.75  0.001420788    1.565    0.361
       372 -10.6713     60.2299    115.4938   2.9177051913e+02   6.0864318124e+00    0.0123824  0.009212332 -67.05  0.001367329    1.346    0.257
       373 -10.2503    221.6359    114.9839   2.8992815145e+02   5.1592010634e+00  0.008993851  0.008159179 -61.56  0.001093676    1.079    0.074
       374 -11.5751    183.2650    114.6906   2.9036316859e+02   5.3849503220e+00   0.02073155   0.01192451  39.58  0.001302194    1.751    0.429
       375 -11.0463    179.0410    109.6654   2.9038129447e+02   5.4674685416e+00    0.0125397  0.009442924 -80.83 0.0003840477    1.459    0.315
       376 -11.3908    125.9732    114.0966   2.9101240065e+02   5.7232585310e+00   0.01032978  0.009212882 -63.40            0    1.101    0.092
       377 -10.0328      1.6564    115.6959   2.9244020689e+02   6.4209645471e+00  0.006956484  0.004876788 -26.84 0.0007040677    1.685    0.407
       378  -9.8848    166.6884    114.3304   2.9054981839e+02   5.4850854139e+00  0.006905691  0.004936516  65.28 0.0004490755    1.671    0.402
       379 -11.6623     12.3712    113.7244   2.9230619028e+02   6.3822237021e+00   0.01262525  0.007493567  40.01 0.0009739966    1.704    0.413
       380 -12.3542    232.9366    110.8938   2.8977517080e+02   5.1408926474e+00   0.01303958   0.01236531  54.81 0.0003725096    1.080    0.074
       381 -10.2132     95.7688    112.2532   2.9134582626e+02   5.9189906350e+00  0.009119121  0.007290796 -32.52 0.0004675389    1.338    0.252
       382 -11.6263      3.8145    109.6635   2.9237975912e+02   6.4783315201e+00   0.01496583    0.0113666   7.62  0.001104484    1.485    0.327
       383 -11.2473    239.0184    110.7030   2.8970485527e+02   5.1078135128e+00   0.01133664  0.009066853 -54.44 0.0002610766    1.215    0.177
       384 -10.8324    245.1313    110.1105   2.8963179902e+02   5.0791855327e+00   0.01054196  0.008535133 -34.75 0.0006568388    1.301    0.231
       385 -10.3137    146.1457    117.1055   2.9080041351e+02   5.5718682119e+00  0.009165524  0.007668234  67.14 0.0005107475    1.309    0.236
       386 -11.4994    112.8899    108.4049   2.9112765914e+02   5.8646296151e+00   0.02078978   0.01210964  40.54  0.002006121    1.741    0.426
       387  -9.5026    215.3452    108.2716   2.8995966264e+02   5.2731966978e+00  0.006759192  0.004934713 -23.36 0.0002261917    1.618    0.382
       388 -11.3162     36.9185    108.0696   2.9199240135e+02   6.3064782953e+00  0.009831235  0.009596975 -48.92 0.0004749136    1.013    0.013
       389 -10.5991    209.9377    106.9678   2.9001342219e+02   5.3196050861e+00  0.009529767  0.009233104  89.21  0.001200238    1.044    0.042
       390 -10.3754    153.0895    107.0567   2.9066138086e+02   5.6478259994e+00   0.01032601  0.007632469  68.82 0.0003676314    1.606    0.378
       391 -12.4124    137.8189    103.3712   2.9081344670e+02   5.7787390371e+00   0.02418743   0.01577253  87.85 0.0005968889    2.023    0.506
       392  -9.9995    185.2290    106.0228   2.9028908928e+02   5.4737089801e+00   0.00859668  0.005328655 -61.97 0.0004050764    1.574    0.364
       393 -13.3855    166.4849    102.3573   2.9048072386e+02   5.6245991495e+00   0.02060418   0.01398555 -48.62  0.001161489    1.453    0.312
       394 -10.3688    173.3198    105.3379   2.9042064235e+02   5.5505936318e+00   0.01102398  0.007423647 -27.22  0.001105718    1.799    0.444
       395 -11.5658     26.9221    108.4783   2.9210893146e+02   6.3592510541e+00   0.01237753   0.01062061  26.21 0.0005419765    1.190    0.160
       396 -11.5695    233.8457    102.4518   2.8971441393e+02   5.2330929538e+00   0.01935916   0.01118817 -66.13  0.001061796    1.756    0.430
       397 -11.2483     82.4480    104.0138   2.9144872277e+02   6.0910870845e+00   0.01179095   0.01061514  29.19 0.0004220526    1.130    0.115
       398 -11.2065     84.4566    100.0894   2.9140244234e+02   6.1248642630e+00   0.01254407   0.01064932  -5.93 0.0005378343    1.299    0.230
       399 -11.3888     77.5294    104.0097   2.9150481461e+02   6.1194985238e+00   0.01006585  0.006387943 -64.08 0.0005357357    1.558    0.358
       400 -12.7765     66.9611    100.7367   2.9160592145e+02   6.2182579116e+00   0.01786431    0.0134512  43.70 0.0004609584    1.365    0.267
       401 -11.5841     47.0669    100.7785   2.9183321705e+02   6.3323679897e+00   0.01707778   0.01123747 -85.37 0.0002789196    1.872    0.466
       402 -10.6527    208.0131    101.8238   2.9000461828e+02   5.3901715451e+00   0.01006427   0.00848516  60.62 0.0004021312    1.274    0.215
       403 -11.7965     57.7221    102.8158   2.9172372691e+02   6.2474551099e+00   0.01083534   0.01032933  34.41  0.000238999    1.067    0.063
       404 -11.0710      2.6670    101.9251   2.9234690866e+02   6.5743994255e+00   0.01662421   0.01077043   6.20 0.0009356033    1.924    0.480
       405 -11.4944    148.4039    100.5886   2.9067620729e+02   5.7496716067e+00   0.01627295   0.01481929 -15.74   0.00187253    1.160    0.138
       406 -10.3667    147.7426     95.4100   2.9065285889e+02   5.8133310379e+00  0.009669098  0.008737738  51.72 0.0007220104    1.141    0.124
       407 -10.6616    104.9955     98.2495   2.9115718933e+02   6.0275938231e+00  0.009154934  0.008285906  28.01 0.0002978336    1.125    0.111
       408 -10.4620     32.9607     98.9326   2.9198326032e+02   6.4348866785e+00  0.009519087  0.009162531  82.81  0.000326485    1.060    0.056
       409 -10.6072     18.4565     95.4750   2.9212830104e+02   6.5582620664e+00   0.01194263  0.006165011 -62.57   0.00109747    1.891    0.471
       410 -10.6115    206.1402     97.8020   2.9000192463e+02   5.4474747739e+00  0.009076421  0.007416286 -31.46 0.0002869026    1.306    0.235
       411 -10.4358    124.8997     96.4750   2.9091962326e+02   5.9331147233e+00  0.009945456  0.008707951 -61.36 0.0005343425    1.118    0.105
       412 -11.3968    118.9319     96.1915   2.9098598449e+02   5.9708781040e+00    0.0112641  0.009103107 -56.53 0.0002847039    1.202    0.168
       413 -10.8733     90.3648     96.0354   2.9131089551e+02   6.1376366481e+00   0.01132754  0.008944878  34.88 0.0003760324    1.277    0.217
       414 -11.2028      9.9568     98.7213   2.9224464159e+02   6.5695731766e+00   0.02076082   0.01242151  86.54  0.001836021    2.468    0.595
       415 -11.6236     52.1893     94.5467   2.9173767622e+02   6.3749143099e+00   0.01384493   0.01056201  84.09 0.0008366036    1.534    0.348
       416 -10.7621    154.8573     93.8751   2.9056261527e+02   5.7898971823e+00  0.009133932   0.00756528  66.77  0.001048052    1.329    0.248
       417 -10.8799     83.8738     94.0762   2.9137328511e+02   6.1977294654e+00   0.01073989  0.008673817  67.88  0.001217861    1.386    0.278
       418 -10.6817    225.7137     92.6629   2.8974846054e+02   5.3932926920e+00    0.0107598  0.009231837 -69.23 0.0007573115    1.165    0.141
       419 -10.4840    159.9967     93.5018   2.9050181933e+02   5.7644638129e+00  0.009312439  0.005646549  -9.57 0.0008099746    2.487    0.598
       420 -10.1182    133.9277     94.0000   2.9080193323e+02   5.9095246616e+00    0.0109306  0.003749312  27.00 0.0003262215    2.975    0.664
       421 -10.5091     16.5298     99.0262   2.9217140423e+02   6.5282802895e+00   0.01102966  0.009147123  -2.09 0.0004931857    1.342    0.255
       422 -11.4350    202.4119     90.7540   2.9000228320e+02   5.5504809597e+00    0.0191903     0.011311 -36.58  0.001130015    1.966    0.491
       423 -10.1004    183.5620     92.4476   2.9022705334e+02   5.6401718709e+00  0.006510292  0.006262399 -43.27 1.498462e-05    1.033    0.032
       424  -9.8086     23.2934     95.7271   2.9207457271e+02   6.5275425139e+00  0.006543565  0.004910187  62.00 0.0001812183    1.519    0.342
       425 -10.1266      9.5138     91.9925   2.9220971917e+02   6.6499106095e+00  0.009750062  0.006397653 -64.57  0.000344061    1.510    0.338
       426 -10.2764    213.7445     91.0111   2.8987481019e+02   5.4817959402e+00  0.008865166  0.008265472 -64.90 0.0002560101    1.055    0.052
       427 -10.7377    109.2233     99.3148   2.9111531721e+02   5.9908675284e+00   0.01499327   0.01011389  -8.55 0.0009339916    1.953    0.488
       428 -10.7907    136.6616     90.9951   2.9075284398e+02   5.9284351129e+00   0.00953093  0.008371778 -63.17 0.0006431679    1.118    0.105
       429 -10.1992     24.3114     90.6282   2.9203263550e+02   6.5806346363e+00  0.007066119  0.004904116  67.06 0.0007033841    1.776    0.437
       430 -10.2724    240.9764     89.7562   2.8955745439e+02   5.3382723378e+00  0.008107744  0.005594443  25.96 0.0001983139    1.487    0.328
       431 -11.0916    231.4803     89.0035   2.8966098425e+02   5.4020781635e+00   0.01142196  0.009523632  26.27 5.484216e-05    1.225    0.184
       432 -10.4536    111.2909     88.9749   2.9103011349e+02   6.0984159849e+00  0.009245001  0.008037971 -67.67 0.0003809549    1.142    0.124
       433 -10.2005     43.7990     88.8376   2.9179948688e+02   6.4892169847e+00  0.008982819  0.007471993  60.30 0.0003854781    1.298    0.229
       434 -10.5752     39.0388     88.5836   2.9185232265e+02   6.5195512847e+00  0.009690939   0.00856676 -60.53 9.424674e-05    1.106    0.095
       435 -10.2865     89.0457     87.8206   2.9127701132e+02   6.2401882413e+00   0.01118132  0.007414969 -15.94  0.001084538    2.001    0.500
       436 -11.4464     63.3140     87.1563   2.9156671043e+02   6.3962517096e+00   0.01289462   0.01163024 -13.64 0.0002884024    1.178    0.151
       437 -12.0346     69.0994     84.3129   2.9148374546e+02   6.3957688580e+00   0.01637646   0.01446789 -48.41 0.0009156624    1.115    0.103
       438 -11.1504     73.3200     82.0459   2.9142207089e+02   6.3976344313e+00   0.01417094    0.0121049  58.43 0.0008293843    1.244    0.196
       439 -10.6542     80.5209     84.5088   2.9135455881e+02   6.3276434624e+00   0.01274407   0.01153372  -6.68 0.0008376722    1.175    0.149
       440 -10.9297     77.5019     84.4107   2.9138842904e+02   6.3461897556e+00   0.01622274   0.00932027 -69.68  0.001438684    1.851    0.460
       441 -10.6212    128.2273     86.1072   2.9081986216e+02   6.0336768035e+00   0.01464156  0.009729319  80.65  0.001424329    2.007    0.502
       442 -10.8800    123.0230     87.0213   2.9088466138e+02   6.0531991935e+00   0.01014571   0.01003117 -26.68  0.001021574    1.023    0.023
       443 -11.1561     56.0773     86.9879   2.9164831259e+02   6.4398923242e+00   0.01116023  0.007414989 -34.14  0.001129997    1.707    0.414
       444  -9.8533     21.6311     87.7115   2.9204589923e+02   6.6297609858e+00  0.006955318  0.004890167 -24.28 0.0007022611    1.709    0.415
       445 -10.9498     11.1474     86.1380   2.9215626724e+02   6.7082042097e+00   0.01502246  0.009590619 -26.13 0.0005551063    1.991    0.498
       446 -11.3385     16.1812     85.3272   2.9209395939e+02   6.6886493458e+00   0.02013655   0.01228175 -62.95  0.001504462    1.608    0.378
       447 -10.4757    180.7468     86.3343   2.9022262463e+02   5.7270873567e+00   0.01015515  0.007714766  52.08  0.000731436    1.411    0.291
       448 -10.8592     27.6828     85.5246   2.9196378964e+02   6.6202431009e+00   0.01195692  0.006663832  21.31 0.0007872984    1.952    0.488
       449 -11.5909    118.6709     83.8992   2.9091567901e+02   6.1144244912e+00   0.01236375   0.01090015 -24.20 0.0007594679    1.201    0.168
       450 -10.7720     47.2706     82.1045   2.9171978491e+02   6.5470537356e+00   0.01535225   0.01159896  77.02   0.00132919    1.572    0.364
       451 -12.2089    132.6410     82.4309   2.9074760559e+02   6.0506304494e+00   0.01167062   0.01122438 -57.50 0.0002727979    1.018    0.018
       452 -11.2481     53.7225     82.4937   2.9164844200e+02   6.5054007661e+00   0.01189396  0.008572891 -60.99 0.0005380618    1.350    0.259
       453 -12.3253     51.1780     76.4339   2.9164141671e+02   6.5900880882e+00   0.02837416   0.01867037  59.39   0.00156156    1.828    0.453
       454  -9.8839    193.7455     82.3456   2.9005075174e+02   5.6978184364e+00  0.006639923   0.00497626  72.92  0.000328445    1.588    0.370
       455 -10.9411    170.1219     84.1012   2.9033034153e+02   5.8144252109e+00   0.01033101  0.008438568 -29.81 0.0005218419    1.317    0.241
       456 -11.6628     95.7862     79.6316   2.9115130330e+02   6.2959152301e+00    0.0139656   0.01055635 -35.37 0.0007967945    1.416    0.294
       457 -10.7491    185.8799     79.4717   2.9012317500e+02   5.7765947189e+00   0.01428558  0.007479977 -45.34  0.001308635    1.973    0.493
       458 -10.6206    148.9694     79.7250   2.9054529687e+02   5.9874310264e+00   0.01205298  0.009066393  81.50  0.001024002    1.582    0.368
       459 -10.4584    104.7790     84.3079   2.9107657659e+02   6.1899573179e+00   0.01151669  0.007701959  30.74 0.0006728897    1.502    0.334
       460 -10.5542    107.9125     78.0185   2.9100333369e+02   6.2445291567e+00  0.009654261  0.009224813 -47.60  0.001208472    1.033    0.032
       461 -10.6877     69.7999     78.1173   2.9143884936e+02   6.4633298515e+00   0.01190985  0.008359699  37.82  0.001282169    1.434    0.303
       462 -11.1048      3.1307     77.8687   2.9219867544e+02   6.8498370432e+00   0.01314724  0.009977858  36.88  0.001274674    1.329    0.248
       463 -11.9123      2.4777     71.5849   2.9216877614e+02   6.9262127115e+00    0.0215078   0.01076312 -52.66  0.001173888    1.899    0.474
       464 -11.1144    115.1634     74.0422   2.9089690413e+02   6.2485754453e+00   0.02136282   0.01094887 -37.76   0.00154124    2.365    0.577
       465 -10.0240    174.0058     74.9870   2.9023167004e+02   5.8971864646e+00  0.007671456  0.007501761 -59.77 0.0009644022    1.002    0.002
       466 -10.8482     91.5137     75.0539   2.9117277034e+02   6.3734706894e+00   0.01149986  0.009123572 -10.71 0.0006218169    1.453    0.312
       467 -10.7299     82.0587     75.1245   2.9128109678e+02   6.4272148272e+00  0.009613678  0.009285687 -43.34 0.0004344964    1.029    0.028
       468 -11.6741     35.0195     72.4268   2.9180207907e+02   6.7294168160e+00   0.01236243   0.01083584 -77.17 0.0003977053    1.167    0.143
       469  -9.9387     43.4594     74.4563   2.9171777689e+02   6.6573875804e+00  0.009615029  0.006361213 -77.24 0.0001068188    1.699    0.412
       470 -11.1494     41.0386     72.0000   2.9173079880e+02   6.6997081589e+00   0.01799354  0.007630467  27.40  0.001512578    2.387    0.581
       471 -11.3506    231.1107     72.6742   2.8956760039e+02   5.5927063854e+00   0.01154769   0.01046344 -35.57 0.0003651795    1.124    0.110
       472 -10.2742    232.8193     68.6159   2.8952389717e+02   5.6296228750e+00    0.0089671  0.008418788  40.02 0.0001861245    1.083    0.077
       473 -11.5382     57.6760     72.9313   2.9154636823e+02   6.5931338991e+00   0.01984855   0.01405099  84.26  0.001596384    1.754    0.430
       474 -11.4198     18.0860     72.1942   2.9199410045e+02   6.8294931026e+00   0.01458529   0.01097496  -4.86   0.00106727    1.581    0.368
       475 -11.1584    166.7532     70.7618   2.9028908563e+02   5.9879908712e+00    0.0151949  0.009045823 -46.07  0.001498895    1.699    0.412
       476 -10.4261    205.0691     69.4924   2.8984501372e+02   5.7805510445e+00  0.009741168  0.008618488 -65.69 0.0003111172    1.115    0.104
       477 -11.8844     62.9374     74.7327   2.9149702893e+02   6.5419993729e+00   0.01902684   0.01418579  60.61   0.00130568    1.522    0.343
       478 -12.0251     87.5189     69.1571   2.9118321053e+02   6.4646572720e+00   0.01743126   0.00880258  47.19   0.00154452    2.217    0.549
       479 -10.1967    126.5199     69.5158   2.9074036146e+02   6.2352175942e+00  0.006568941  0.006276668 -39.44 0.0002606732    1.046    0.044
       480  -9.7751     27.2602     69.6788   2.9187434509e+02   6.8058122658e+00  0.006564159   0.00497223  70.50 0.0002408799    1.549    0.355
       481 -10.1373    176.0533     67.9907   2.9016655410e+02   5.9661104810e+00   0.01036853   0.00757592  66.16 0.0004997047    1.620    0.383
       482 -10.9925     53.5102     69.1231   2.9157125266e+02   6.6611370631e+00   0.01945424   0.01038982 -40.84  0.001253523    2.083    0.520
       483  -9.7679     77.6575     68.7151   2.9129313643e+02   6.5266593051e+00  0.006833986  0.004913087 -25.05 0.0007017157    1.639    0.390
       484 -10.0044    190.1279     67.1399   2.9000112169e+02   5.8943555494e+00  0.008773294  0.007454022  60.86 0.0003762745    1.261    0.207
       485 -10.1594     69.7945     67.6283   2.9137642177e+02   6.5845611515e+00  0.009066876  0.005812996  38.89 0.0003993126    1.571    0.363
       486 -10.4626    201.5844     66.3106   2.8986568054e+02   5.8374933504e+00   0.00911216  0.005850586 -51.53 0.0007934849    1.511    0.338
       487 -11.4386     29.0933     64.7852   2.9182428137e+02   6.8518153775e+00   0.01165426   0.01056598  80.45  0.001421702    1.163    0.140
       488 -10.1756     15.0494     65.1782   2.9198704866e+02   6.9280242925e+00   0.01347025  0.007818839  -1.92  0.001152143    2.637    0.621
       489 -10.3257      6.2398     64.8332   2.9208564258e+02   6.9826295173e+00   0.01050193  0.008353384 -35.85 0.0005426586    1.320    0.243
       490 -11.4239      6.1472     60.6531   2.9206183585e+02   7.0314631607e+00   0.01562745   0.01241611 -69.80  0.001540762    1.272    0.214
       491 -11.1689     88.8316     62.7914   2.9113027597e+02   6.5306221553e+00     0.014385  0.009167137 -81.99  0.000624927    1.907    0.476
       492 -10.0299    110.0152     63.7804   2.9089442647e+02   6.3968647686e+00  0.008755524  0.005362661  27.35 0.0005939738    1.661    0.398
       493  -9.9095    120.5090     62.5401   2.9076730295e+02   6.3505425452e+00  0.006466308  0.006366964 -65.55 0.0008092406    1.007    0.007
       494  -9.8094     11.2600     62.5817   2.9201489256e+02   6.9798046311e+00  0.006926771  0.004902135  73.57 0.0006945134    1.762    0.432
       495 -11.7695     17.1208     59.9373   2.9193219863e+02   6.9766769560e+00   0.01754501   0.01322486  76.13   0.00109091    1.578    0.366
       496 -10.8081    173.8118     58.8295   2.9013736939e+02   6.0848698956e+00   0.00979457  0.008480683 -32.54 0.0005654789    1.203    0.168
       497 -10.2408    140.8100     59.6499   2.9051849683e+02   6.2665042248e+00  0.009088063  0.005829023  36.95 0.0004549409    1.559    0.359
       498 -10.8673    106.5872     57.3026   2.9089489658e+02   6.4914915596e+00   0.01830834   0.01041901  37.91  0.001673433    1.753    0.430
       499 -10.6760     39.0774     58.1466   2.9167071126e+02   6.8710686452e+00  0.009922024  0.008525603 -24.54 0.0003767487    1.246    0.197
       500 -12.5250     93.2746     54.5956   2.9103068339e+02   6.5996446085e+00   0.01745167   0.01442449  10.89 0.0004532508    1.301    0.232
       501 -10.8607     52.8937     54.9506   2.9149386496e+02   6.8284324653e+00   0.01650744  0.008007135 -51.04  0.001065082    1.981    0.495
       502 -11.0245     45.2040     55.8994   2.9158734604e+02   6.8617596913e+00   0.01180882   0.01050941  75.16 0.0004231533    1.199    0.166
       503 -11.2775     41.6145     51.4719   2.9160197188e+02   6.9335741140e+00      0.01483  0.009680177  62.47  0.001447181    1.911    0.477
       504 -11.2258     28.5746     54.6798   2.9177004503e+02   6.9715572069e+00    0.0179878   0.01327499 -84.63   0.00194619    1.542    0.351
       505 -11.7441     21.6961     38.3088   2.9175113887e+02   7.2002228484e+00   0.01532765   0.01267831  53.42  0.001145212    1.278    0.218
       506 -11.3990     18.7023     54.7398   2.9188319401e+02   7.0276361807e+00   0.02748271   0.01318539  64.36  0.001828522    4.408    0.773
       507 -11.9755     15.7995     46.7242   2.9186864292e+02   7.1369217701e+00   0.02943119   0.01862276  50.37   0.00246985    1.751    0.429
       508 -10.8354     20.2036     44.1066   2.9180272832e+02   7.1418392337e+00   0.01814342   0.01083535 -83.71 0.0008737065    2.192    0.544
       509 -10.7461      6.6780     51.5851   2.9200181412e+02   7.1331833252e+00   0.01433871  0.006860095  17.98 0.0009666643    2.536    0.606
       510 -10.9370     12.6181     55.2715   2.9195587600e+02   7.0564649790e+00   0.01066558  0.007857733 -57.13 0.0009347132    1.312    0.238
       511 -11.3668     10.9182     51.1289   2.9195064366e+02   7.1140924321e+00   0.02007031   0.01010308 -72.20  0.001456529    2.306    0.566
       512  -9.9002    133.2433     55.0312   2.9057722036e+02   6.3636191980e+00  0.008472171  0.005431263 -61.55 0.0003310174    1.519    0.342
       513 -11.2143     75.3947     52.7881   2.9122402370e+02   6.7237040387e+00   0.01841328   0.01221784  74.98  0.001781815    2.008    0.502
       514 -11.0946      2.2076     52.9479   2.9206100966e+02   7.1431161686e+00   0.02066892   0.01153353  74.56   0.00164399    3.115    0.679
       515 -10.5483      1.9769     48.0469   2.9203448279e+02   7.2010605628e+00  0.009948059  0.009450111 -41.48 0.0004546033    1.048    0.046
       516 -11.1211    119.9919     51.8337   2.9070930265e+02   6.4771790203e+00    0.0104375  0.009177377 -62.52 0.0002956048    1.115    0.103
       517 -10.6674     32.7891     51.7035   2.9170417193e+02   6.9816936706e+00   0.01221087  0.008236292  75.09  0.001006952    1.941    0.485
       518 -11.5937    150.1301     50.4494   2.9035726905e+02   6.3187910538e+00   0.01596383   0.01123127  -9.64 0.0009979459    1.802    0.445
       519 -10.7256    100.8148     49.4591   2.9091397286e+02   6.6154225011e+00   0.01175718   0.00876508 -63.71 0.0006578356    1.321    0.243
       520 -10.3946    175.0580     49.4757   2.9006727245e+02   6.1856253218e+00  0.009780894  0.006500155  26.29 0.0004920067    1.541    0.351
       521  -9.9051    167.6341     48.8183   2.9014795998e+02   6.2362368367e+00  0.008812111  0.006200795 -77.85            0    1.570    0.363
       522 -11.0191     63.0166     48.9707   2.9134261227e+02   6.8391728695e+00  0.009784328  0.009563996 -87.57  0.000379934    1.031    0.030
       523 -12.1842     61.7667     44.4420   2.9132988703e+02   6.8986835998e+00   0.01928216   0.01127099 -57.81 0.0003048057    1.634    0.388
       524 -10.8380     38.2868     48.3168   2.9162119023e+02   6.9891763502e+00    0.0184443   0.01000312 -31.79  0.001331281    2.470    0.595
       525 -10.1177     45.6841     47.7036   2.9153303076e+02   6.9536704568e+00  0.006798798  0.004889173 -27.81 0.0003194557    1.606    0.377
       526 -10.9216     55.6995     45.9608   2.9140824038e+02   6.9161081155e+00   0.01285496  0.009354761  40.88 0.0007932575    1.398    0.285
       527  -9.8396     50.3082     46.3235   2.9147198409e+02   6.9429788345e+00  0.006927536  0.004838566 -30.22 -0.000186339    1.648    0.393
       528 -10.5775    137.9937     45.0346   2.9046333757e+02   6.4515559566e+00  0.009698435  0.009371007 -59.35            0    1.014    0.014
       529  -9.9691     67.6430     45.7023   2.9127028848e+02   6.8502506815e+00  0.006967017  0.004886586 -25.49 0.0007034867    1.702    0.413
       530 -10.7296     26.0467     44.3251   2.9173726079e+02   7.1057128929e+00   0.01071807  0.008696075 -47.27 0.0004012369    1.219    0.180
       531  -9.8176    163.7133     44.3385   2.9016588521e+02   6.3106638598e+00   0.00679448  0.004964909  68.17 0.0004147429    1.635    0.388
       532 -10.7138    151.1383     43.8057   2.9030608153e+02   6.3896506239e+00   0.01185642  0.008869591  -6.84 0.0008793683    1.607    0.378
       533 -10.2528    179.7977     43.6535   2.8997845481e+02   6.2253486366e+00  0.009747092  0.005584638  38.61 0.0009409458    1.747    0.428
       534  -9.7938     80.4747     43.5592   2.9111097655e+02   6.8009857963e+00  0.006449845  0.006346803 -52.74 0.0001740864    1.007    0.007
       535 -11.5842     37.8041     40.5065   2.9158016684e+02   7.0821661268e+00   0.01629595   0.01256451   0.72  0.001778219    1.495    0.331
       536 -10.9835     41.2057     36.7778   2.9151907857e+02   7.1056454992e+00   0.01548289   0.01086319 -81.01  0.001624561    1.621    0.383
       537 -10.3873     87.1027     40.8281   2.9101900456e+02   6.7942715390e+00  0.009868274   0.00870858  69.26 0.0005720046    1.211    0.174
       538 -10.7713    156.9366     38.9059   2.9021068300e+02   6.4126258980e+00  0.009529229  0.009447034  87.85 0.0003161282    1.019    0.019
       539 -11.3884      4.1214     37.4071   2.9194663783e+02   7.3116419337e+00   0.01892418   0.01172537 -84.49  0.001532694    2.067    0.516
       540 -10.3177    152.9107     38.3631   2.9025334711e+02   6.4422097476e+00  0.008943462  0.006235136   7.46 0.0003380863    1.695    0.410
       541 -10.3126    136.9801     37.6913   2.9043103296e+02   6.5421922365e+00  0.009039511  0.008426091  24.85 0.0004517402    1.095    0.087
       542 -11.5472    111.2598     37.3066   2.9072221780e+02   6.6953933781e+00   0.01269568   0.01090872  26.49 0.0003090099    1.187    0.158
       543 -12.0280    106.6005     32.7001   2.9074789288e+02   6.7755017933e+00   0.02091955   0.01221194 -74.22  0.001983587    1.950    0.487
       544 -10.1373    193.4450     37.4920   2.8978610582e+02   6.2173013710e+00  0.006515624  0.006296935 -49.28 0.0001029595    1.021    0.020
       545 -10.2767     13.1151     36.9336   2.9184101986e+02   7.2654365221e+00   0.01083372  0.007365956 -31.17  0.001106577    1.700    0.412
       546 -10.2358    129.4498     36.4501   2.9050952830e+02   6.6000940721e+00  0.006450776  0.006336865 -70.89 0.0001876013    1.012    0.012
       547 -11.5737     61.5430     33.8968   2.9126955616e+02   7.0217508957e+00   0.01416162   0.01230568  52.83 0.0007872601    1.200    0.167
       548 -11.2941     55.7660     34.5130   2.9133922476e+02   7.0479315789e+00   0.01225874   0.01166432 -73.30 0.0006534674    1.047    0.045
       549 -10.3810    154.3331     34.6466   2.9021491476e+02   6.4768663293e+00   0.00711106  0.004883839  64.90 0.0007045437    1.786    0.440
       550 -10.2168    200.4821    248.9978   2.9096686686e+02   3.7331535255e+00  0.009585517  0.006377658 -63.42 0.0003685406    1.479    0.324
       551 -12.0499     77.0059     32.6323   2.9108539588e+02   6.9471745378e+00   0.02959662   0.01561043  27.34  0.002634808    1.926    0.481
       552 -11.2070     76.0704     27.1095   2.9106312249e+02   7.0163341038e+00   0.01154748  0.009355364 -70.10 0.0003746131    1.247    0.198
       553 -10.8271    142.0220     33.3197   2.9034739704e+02   6.5634692531e+00   0.00928527  0.008602175  34.38 0.0006427257    1.096    0.088
       554 -11.4414    134.9890     32.5792   2.9042320372e+02   6.6127237267e+00   0.01198821  0.009361404 -62.64 0.0001796112    1.256    0.204
       555 -10.2079    117.9095     33.4720   2.9062342602e+02   6.7012177908e+00   0.00941625  0.006463016  27.59 0.0003697612    1.481    0.325
       556 -10.8198     35.9777     30.8987   2.9154377253e+02   7.2036326050e+00   0.01871513   0.01157176 -14.70  0.000872283    2.339    0.572
       557 -10.7917     24.3810     31.1260   2.9167765941e+02   7.2677317096e+00   0.01055706  0.008843318  12.42 0.0003598191    1.271    0.213
       558 -11.1069     18.6664     30.4335   2.9173884952e+02   7.3085904744e+00   0.01475447  0.007904639 -60.59  0.001185126    1.795    0.443
       559 -10.2690     63.9440     30.4723   2.9122170118e+02   7.0474495029e+00  0.009616721  0.006461252  27.47 0.0004131696    1.513    0.339
       560 -10.6466    123.1583     28.7527   2.9053533414e+02   6.7253373336e+00  0.009424051  0.008789549  63.29 0.0004824665    1.111    0.100
       561 -11.2335    187.3155     27.0387   2.8979342569e+02   6.3734616684e+00   0.01133676  0.009279293  37.28  0.000415976    1.235    0.190
       562 -11.0426    159.1326     26.3525   2.9011060010e+02   6.5447748063e+00   0.01121133  0.009086824 -71.59 0.0003233269    1.256    0.204
       563 -11.2341     66.0642     24.1840   2.9115996224e+02   7.1078238719e+00   0.01438555  0.009381261  27.75 0.0007347458    1.556    0.357
       564 -10.3284     50.3581     23.9561   2.9133804872e+02   7.2009822956e+00  0.009426905  0.008137309 -63.09  0.001034278    1.137    0.121
       565 -10.9679     18.3678     23.1746   2.9169900767e+02   7.3941227549e+00   0.01188157  0.009291316  71.24 0.0005995564    1.473    0.321
       566 -10.9988    109.8478     22.9503   2.9065259266e+02   6.8692737207e+00   0.01050798  0.009508449  21.35 0.0003482044    1.135    0.119
       567 -11.7953     70.2199     21.3712   2.9109570143e+02   7.1163279185e+00   0.02053363   0.01009899 -74.42  0.001435053    2.543    0.607
       568 -11.0115     55.0349     21.5788   2.9127042832e+02   7.2014797751e+00   0.01304781   0.01101704  19.78 0.0002812049    1.229    0.186
       569 -11.1504     58.8227     20.6249   2.9122145719e+02   7.1906609892e+00   0.01163267  0.008463948  51.63  0.001258107    1.486    0.327
       570 -11.0286     57.1922     17.3830   2.9122074235e+02   7.2374802255e+00   0.01411838   0.01064863  70.93 0.0007876846    1.564    0.361
       571 -11.7876     38.0490     21.0327   2.9146127846e+02   7.3056201941e+00   0.01442049   0.01223391  53.38 0.0004258835    1.238    0.192
       572  -9.9426    193.5952    248.7352   2.9104358918e+02   3.7759871830e+00  0.009028084  0.006316389 -78.42 0.0007963559    1.589    0.371
       573 -10.6440    169.4589    248.2829   2.9131532575e+02   3.9206487673e+00   0.01257972  0.005858217 -56.84  0.001018526    2.009    0.502
       574 -10.9660    139.6768    238.1949   2.9159421473e+02   4.2092254275e+00   0.01928193    0.0106501 -47.09  0.001139516    1.818    0.450
       575  -9.9799    150.9870     20.0443   2.9016578268e+02   6.6647521102e+00  0.007638304  0.007499824  24.67 0.0003406737    1.038    0.037
       576 -10.1784    162.0362     19.4848   2.9003642058e+02   6.6071873669e+00  0.008816708   0.00557591 -12.58 0.0008034692    2.246    0.555
       577  -9.9347    224.6688     18.6836   2.8931794541e+02   6.2529576911e+00  0.006970999  0.004869348 -28.05 0.0007046715    1.685    0.406
       578 -11.5665    150.2601    247.3360   2.9152805847e+02   4.0424438469e+00   0.01643978   0.01493521  77.55 0.0006594191    1.160    0.138
       579 -11.4555    131.4348     17.1302   2.9037142941e+02   6.8115805537e+00   0.01506423  0.009945557  39.77 0.0004134526    1.531    0.347
       580 -10.5825      5.1462     18.0678   2.9181973355e+02   7.5290675860e+00   0.01268187   0.00644766 -21.19 0.0008834394    3.924    0.745
       581 -10.8904     65.7722     15.7112   2.9111273178e+02   7.2073115165e+00   0.01555285  0.008761805  48.31 0.0006599517    1.972    0.493
       582 -12.9041    147.5595    241.1372   2.9152199417e+02   4.1297062378e+00   0.02423767   0.01943112 -48.19  0.001108606    1.231    0.188
       583 -10.7369    112.6602     15.0380   2.9057321318e+02   6.9443271447e+00  0.009369079  0.008330583 -58.72 0.0005550599    1.098    0.090
       584 -10.6345    144.2753    237.3661   2.9153697699e+02   4.1922682181e+00  0.009990752  0.006734714  24.23 0.0008267851    1.538    0.350
       585 -10.6521    177.8321     13.0691   2.8981794217e+02   6.5896122999e+00   0.01021178  0.008689491  60.29 0.0005866529    1.257    0.204
       586 -10.6005    173.5096     13.5496   2.8987009542e+02   6.6091375741e+00  0.006452907  0.006363325 -62.58 5.074003e-05    1.006    0.006
       587  -9.7355    247.7460    244.2968   2.9040191766e+02   3.5141672907e+00  0.006420119  0.004963493  69.72 0.0001898251    1.495    0.331
       588 -12.9106    203.0726    241.0318   2.9089008552e+02   3.8102412448e+00    0.0161964   0.01333403 -73.81  0.000702787    1.245    0.197
       589 -10.9032    141.9237    243.0779   2.9159762565e+02   4.1397940549e+00   0.01147895  0.009186378 -47.41 0.0005173183    1.237    0.192
       590  -9.7045      7.6450     11.2818   2.9175072083e+02   7.5930462828e+00  0.006905222  0.004823092  58.89 0.0007016059    1.661    0.398
       591 -11.1239    172.7550    241.2934   2.9123634023e+02   3.9824110091e+00   0.01842524   0.01072552 -85.12 0.0009690222    2.362    0.577
       592  -9.8321     65.5166    243.5832   2.9247021477e+02   4.5743296275e+00  0.006405298  0.006355881 -51.72  0.000111852    1.014    0.013
       593 -11.3690    161.1471    240.9671   2.9136642262e+02   4.0532254846e+00   0.01383231    0.0105853  87.52 0.0009159636    1.511    0.338
       594 -11.2799    217.5831    240.4159   2.9072150606e+02   3.7334645571e+00   0.01235517   0.01108282   2.22 0.0009243559    1.184    0.156
       595 -10.2362    237.8308    238.1854   2.9047818658e+02   3.6421256770e+00  0.009588964  0.008561666  68.63 0.0003810157    1.189    0.159
       596 -12.1697    218.8468    233.5162   2.9066611807e+02   3.8058827883e+00    0.0229396   0.01370621 -39.81   0.00126107    1.834    0.455
       597 -10.6634    183.1138    232.8192   2.9106819915e+02   4.0205219242e+00  0.009667221  0.009393385 -52.02 0.0004304705    1.013    0.012
       598 -10.2007    180.7447    235.7362   2.9111247176e+02   4.0004934385e+00   0.01225969  0.006874529 -82.48  0.001018396    2.433    0.589
       599 -11.1496    176.5145    233.0921   2.9114486988e+02   4.0555003833e+00   0.02196878   0.01209482   9.17  0.001532734    2.484    0.597
       600 -11.6144    156.2495    233.4252   2.9137735499e+02   4.1687044613e+00   0.01224357   0.01066656 -56.14 0.0002559774    1.119    0.106
       601 -11.9095    160.8291    231.9739   2.9131663944e+02   4.1590375769e+00   0.01336504   0.01131585  39.86 0.0003537798    1.199    0.166
       602 -12.5306    143.5407    231.7411   2.9151194897e+02   4.2615510936e+00   0.03384984   0.01401809  19.85  0.002623636    2.974    0.664
       603 -11.5175    136.9856    230.9422   2.9158179639e+02   4.3086250426e+00   0.01042285  0.009209546 -71.04 0.0003829349    1.133    0.117
       604 -12.0681     58.3215    229.7868   2.9247046913e+02   4.7753492058e+00   0.01356856   0.01059272  84.47  0.001404556    1.471    0.320
       605 -12.0693    129.0059    228.1733   2.9165617449e+02   4.3866933428e+00   0.01396194   0.01308138  -4.44 0.0004006889    1.114    0.102
       606 -12.1552    123.9267    225.0548   2.9169547848e+02   4.4520652739e+00   0.01910669   0.01294981  43.04 0.0005154183    1.517    0.341
       607 -12.3698    116.8078    218.7006   2.9173880743e+02   4.5666219433e+00   0.02862401   0.01854944  74.63  0.001607755    2.104    0.525
       608 -12.7032    107.6380    225.5658   2.9188392689e+02   4.5401024360e+00   0.03312927   0.02212172  55.77 0.0006016961    1.722    0.419
       609 -11.5781    111.7173    228.0089   2.9185198106e+02   4.4883217794e+00   0.01858248   0.01114574  39.03  0.001407036    1.676    0.403
       610 -12.1826    114.2593    223.5020   2.9179630922e+02   4.5257890245e+00   0.01981591   0.01826367  23.38 0.0006547464    1.110    0.099
       611 -12.0118    109.0446    215.8037   2.9181000158e+02   4.6449036485e+00   0.02057852    0.0144685  30.85  0.001385391    1.431    0.301
