#   1 NUMBER                 Running object number                                     
#   2 MAG_AUTO               Kron-like elliptical aperture magnitude                    [mag]
#   3 X_IMAGE                Object position along x                                    [pixel]
#   4 Y_IMAGE                Object position along y                                    [pixel]
#   5 X_WORLD                Barycenter position along world x axis                     [deg]
#   6 Y_WORLD                Barycenter position along world y axis                     [deg]
#   7 A_WORLD                Profile RMS along major axis (world units)                 [deg]
#   8 B_WORLD                Profile RMS along minor axis (world units)                 [deg]
#   9 THETA_WORLD            Position angle (CCW/world-x)                               [deg]
#  10 FWHM_WORLD             FWHM assuming a gaussian core                              [deg]
#  11 ELONGATION             A_IMAGE/B_IMAGE                                           
#  12 ELLIPTICITY            1 - B_IMAGE/A_IMAGE                                       
         1 -13.2731    137.0957     16.7385   2.9038117320e+02   6.7402246423e+00   0.01776928   0.01577348  42.52 0.0009611174    1.143    0.125
         2 -11.9042     13.0249     13.7792   2.9178563945e+02   7.5190164166e+00    0.0137785    0.0132895  79.24 0.0004844108    1.072    0.067
         3 -10.5089    169.7289     14.4341   2.8999321472e+02   6.5697237346e+00  0.008605716  0.006415296   8.83 0.0004063539    1.509    0.337
         4 -10.6965    127.7922     11.9113   2.9045782232e+02   6.8512942336e+00   0.00984298  0.008552266 -28.18  0.000814793    1.205    0.170
         5 -12.8513     77.6328     10.5684   2.9102447758e+02   7.1683054893e+00   0.01937288   0.01308797  39.76 0.0004467496    1.488    0.328
         6 -10.8518     66.7989     11.1598   2.9115239776e+02   7.2266178355e+00  0.009026455  0.007521336 -27.51 0.0004427619    1.282    0.220
         7 -12.1152     17.2969      7.6541   2.9169872343e+02   7.5633076713e+00   0.01529403   0.01113476 -61.92  0.000691216    1.369    0.269
         8 -10.9883    113.7722      8.6971   2.9059855148e+02   6.9723438981e+00   0.01182972  0.007939649  12.84  0.001201087    1.702    0.412
         9 -11.6314    107.3692      7.8934   2.9066695927e+02   7.0200361538e+00   0.01641746   0.01174773 -33.66  0.001669835    1.540    0.351
        10 -11.1353     23.2852      5.6991   2.9161789172e+02   7.5497563275e+00   0.02013868   0.01006982  54.03  0.001652042    2.705    0.630
        11 -11.2039    177.2882      6.4003   2.8985683940e+02   6.6156454503e+00   0.01072591  0.007518696 -23.44 0.0008099456    1.729    0.422
        12 -10.8552     30.7377      4.8411   2.9152704430e+02   7.5149099998e+00   0.01472844  0.009205208 -73.50  0.001109245    1.823    0.451
        13 -10.3886      5.9172      6.0780   2.9181961197e+02   7.6493590795e+00   0.01043171   0.00763737 -23.46 0.0006467032    1.598    0.374
        14 -11.0625     37.4431      2.6467   2.9143650505e+02   7.4997575909e+00   0.01991811   0.01085201  37.24  0.001608161    1.808    0.447
        15 -10.7595    217.9223      2.2802   2.8936644746e+02   6.4170622436e+00   0.01392507  0.009211395 -51.91  0.001453971    1.478    0.323
        16 -10.1613    194.7094      3.3365   2.8963847980e+02   6.5453386064e+00  0.006806667  0.005016608  67.49 0.0003047407    1.639    0.390
        17 -10.9722    180.0641      1.7897   2.8979645162e+02   6.6514135125e+00   0.01215148  0.008702439 -58.73 0.0008508599    1.374    0.272
        18 -10.8510     91.4954      2.7076   2.9081680201e+02   7.1746198014e+00   0.01125099  0.008539854  31.14 0.0003230119    1.314    0.239
        19 -11.6051     86.4419      2.1397   2.9087123143e+02   7.2114704565e+00   0.01592273   0.01047632  25.12 0.0005808337    1.553    0.356
        20 -10.3729     49.1454      2.7568   2.9130289520e+02   7.4283488805e+00   0.01311063  0.007635725 -36.01  0.001053118    2.012    0.503
        21  -9.7639     95.7608      3.9602   2.9077565764e+02   7.1346960344e+00  0.008536446  0.005451787 -59.94 0.0005362234    1.543    0.352
        22 -10.3940    209.9189      2.4815   2.8945920849e+02   6.4631605882e+00  0.009534122  0.006454255  28.41 0.0003841888    1.481    0.325
        23 -11.7157     72.5783      1.8251   2.9102828642e+02   7.2983462358e+00   0.02287091  0.006626863  34.89  0.001652771    3.118    0.679
        24 -10.6900    138.8974      1.4488   2.9026570490e+02   6.9036362748e+00  0.009949566  0.006381763  29.63  0.001012749    1.553    0.356
        25 -10.2426     54.7654      1.6210   2.9123137608e+02   7.4075890287e+00  0.009055191  0.005929058  37.75 0.0009287391    1.521    0.343
        26 -11.2035    174.5294    234.0242   2.9129612078e+02   4.0343953910e+00   0.01175055  0.008623329 -11.13 0.0009869552    1.661    0.398
        27 -12.4054    160.2589    248.9717   2.9155111074e+02   3.9494573964e+00   0.01899674   0.01735331 -27.90  0.001837252    1.123    0.110
        28 -12.0777    149.3327    247.8085   2.9166871381e+02   4.0283943444e+00   0.02267724   0.01409774 -50.86  0.002306067    1.574    0.365
        29 -12.3944    147.0134    241.8920   2.9165878738e+02   4.1099151171e+00   0.01464254   0.01148379 -58.36 0.0004329853    1.257    0.204
        30 -10.9177    141.6404    243.1192   2.9172770624e+02   4.1281732401e+00   0.01417027   0.01150478  65.14  0.001612137    1.383    0.277
        31 -12.0264    139.1819    239.1013   2.9173105976e+02   4.1888427592e+00   0.01732296   0.01421185 -33.76 0.0003922615    1.279    0.218
        32 -12.3425    137.9775    248.7243   2.9180402780e+02   4.0861395792e+00   0.01759257   0.01373067 -61.48 0.0005502401    1.274    0.215
        33 -11.3046    136.6580    243.4655   2.9178674441e+02   4.1541437562e+00   0.01505094   0.01039838 -53.14  0.001132443    1.413    0.292
        34 -14.1544     31.3751    180.7263   2.9260463526e+02   5.5024724058e+00   0.08131575   0.04475227 -43.83  0.007665991    1.907    0.476
        35 -13.9014     31.7176    169.7330   2.9253311867e+02   5.6260845829e+00   0.04220818   0.01906626  32.99  0.003712118    2.133    0.531
        36 -13.4632     39.4620    165.6717   2.9241948736e+02   5.6261493744e+00    0.0310598   0.02072397  70.66  0.002246101    2.005    0.501
        37 -14.8289      7.0426    187.4851   2.9292463333e+02   5.5707218451e+00    0.1156812   0.04771071  49.73  0.008595296    3.245    0.692
        38 -13.8928     16.8189    179.9171   2.9276625756e+02   5.5987967407e+00   0.05430864   0.03172468 -43.28  0.005282226    1.794    0.443
        39 -13.2013     62.6842    220.0076   2.9248790208e+02   4.8659804889e+00   0.01525845   0.01363598  44.50 0.0008208805    1.139    0.122
        40 -13.8880     57.5467    212.0083   2.9249749578e+02   4.9881931669e+00   0.06490668   0.06214966 -73.80  0.007574433    1.058    0.055
        41 -14.4530      4.7074    203.0233   2.9304673183e+02   5.4070370579e+00   0.07486827   0.02872686 -61.56  0.005997838    2.573    0.611
        42 -13.9345     45.4191    229.7212   2.9274496124e+02   4.8583380901e+00   0.05534747   0.02774492  23.06  0.004950949    2.148    0.534
        43 -15.1746     46.3893    198.5460   2.9254237678e+02   5.2088998965e+00    0.1564105   0.02931509  30.94  0.009506676    4.478    0.777
        44 -15.2934     96.5501    241.6766   2.9223395768e+02   4.4153090647e+00   0.08800199   0.05646617 -67.47  0.008995079    1.631    0.387
        45 -13.3297     89.4216    244.1826   2.9233081434e+02   4.4294198811e+00    0.0153083   0.01463718 -25.30 0.0006583574    1.056    0.053
        46 -15.2487     74.1824    237.5596   2.9246428646e+02   4.5964648142e+00   0.07119048   0.03643912  33.74   0.00663956    1.900    0.474
        47 -15.6143     73.7818    225.2584   2.9239328729e+02   4.7394623181e+00   0.08074895   0.06101524 -47.72  0.009056582    1.315    0.239
        48 -15.9201     32.8756    216.0568   2.9280451408e+02   5.0896111381e+00    0.1035249   0.08174498 -17.92   0.01164899    1.442    0.307
        49 -15.8503     10.6949    217.5688   2.9306747530e+02   5.2049617842e+00   0.06514588   0.04596073 -43.68  0.007031565    1.445    0.308
        50 -12.5426    143.0936    231.8892   2.9164198413e+02   4.2477371613e+00   0.01594866   0.01205923  23.63 0.0007970236    1.351    0.260
        51 -10.6332    137.4680    231.5351   2.9170406793e+02   4.2855786242e+00   0.01010395  0.006506118 -78.74 0.0005644695    1.870    0.465
        52 -11.1642    149.9358    231.2085   2.9155963709e+02   4.2144000762e+00   0.01050147  0.009268257 -61.64 0.0003715357    1.128    0.114
        53 -12.9982     58.6311    230.2257   2.9259700992e+02   4.7734609899e+00   0.01496015   0.01217291 -88.19  0.001022307    1.380    0.275
        54 -11.8501    121.8294    224.3811   2.9183871446e+02   4.4612410055e+00   0.01804077    0.0113992  26.45  0.001146666    1.605    0.377
        55 -11.9866    114.4544    223.3601   2.9191671122e+02   4.5171851675e+00   0.02071307   0.01330311  -5.82  0.001950993    2.162    0.537
        56 -12.4765    101.9998    228.9709   2.9209356515e+02   4.5278151081e+00   0.01686991   0.01550202   8.39 0.0006824741    1.120    0.107
        57 -13.1233    106.2580    225.5679   2.9202396847e+02   4.5411528922e+00   0.02710173   0.02238276  37.13  0.002415055    1.215    0.177
        58 -10.9260    162.6027    217.7376   2.9133196644e+02   4.2921361280e+00   0.01369212    0.0105812   0.68  0.001507542    1.484    0.326
        59 -10.7022    165.0000    228.0629   2.9136820965e+02   4.1597820529e+00   0.01479305  0.008336616 -78.02 0.0009072226    2.320    0.569
        60 -11.2521    163.3144    223.1805   2.9135737839e+02   4.2256855552e+00   0.02380047   0.01476339  84.09  0.002135393    2.429    0.588
        61 -11.8151    129.3232    228.0141   2.9177544758e+02   4.3747275971e+00   0.01481856   0.01145274  24.60 0.0006880235    1.315    0.239
        62 -10.6375    211.9501    228.0373   2.9083206340e+02   3.8776196301e+00   0.01251738  0.008448068 -40.50 0.0003745382    1.562    0.360
        63 -11.1156    213.0999    223.8313   2.9079299920e+02   3.9187182393e+00   0.01660072  0.009488498 -38.10 0.0003634662    1.997    0.499
        64 -11.0034    115.3596    227.8166   2.9193378860e+02   4.4608276846e+00   0.02395497  0.007676822 -49.73  0.001759705    3.007    0.667
        65 -11.6174    201.7536    225.8161   2.9093473475e+02   3.9643523263e+00   0.01915762   0.01143584 -71.34   0.00184166    1.877    0.467
        66 -10.3480    175.0927    227.5015   2.9124949586e+02   4.1055047611e+00  0.009991178  0.006434547  29.23    0.0010179    1.550    0.355
        67  -9.8695    181.2712    226.7323   2.9117420825e+02   4.0771278980e+00  0.006402109   0.00496834  63.36            0    1.473    0.321
        68 -11.2171    170.8116    225.7483   2.9128757906e+02   4.1512748841e+00   0.01388464   0.01018006  70.33 0.0006405098    1.674    0.403
        69 -11.2374    169.8991    221.8582   2.9127402669e+02   4.2011935968e+00   0.01169923  0.009028669 -51.01 0.0003343215    1.275    0.216
        70 -11.0474    250.0562    223.7207   2.9037072598e+02   3.6974179090e+00   0.01172258   0.00920221 -51.63 0.0003064573    1.252    0.202
        71 -10.6554    237.8490    238.1685   2.9059909798e+02   3.6060504121e+00  0.009541396  0.008659919  65.03 0.0003387579    1.168    0.144
        72 -10.4091    178.7240    224.2428   2.9118794825e+02   4.1208823430e+00  0.009112013  0.007430029 -25.10  0.000598448    1.338    0.253
        73 -11.7840    151.9819    221.5529   2.9147679508e+02   4.3124057693e+00   0.01346431   0.01109895 -28.42  0.001551945    1.300    0.231
        74 -11.7217    129.7456    209.0205   2.9165367259e+02   4.5892054032e+00   0.04778736   0.01276947 -65.64  0.002829915    4.826    0.793
        75 -12.9777    140.1846    218.7675   2.9159441645e+02   4.4151253199e+00   0.02128503   0.01410947  52.86  0.001095762    1.703    0.413
        76 -11.5711    133.6137    218.1887   2.9166593277e+02   4.4612166313e+00   0.02200485   0.01248288  53.35  0.002014413    2.145    0.534
        77 -12.7918    128.3288    218.0305   2.9172535054e+02   4.4947704442e+00   0.02395587   0.01884723  -7.17 0.0002813548    1.465    0.317
        78 -17.5416     18.2592    245.3525   2.9315132878e+02   4.8421135433e+00     0.334283   0.09789582  26.83   0.02305354    3.550    0.718
        79 -11.5136    206.4391    218.9332   2.9083880233e+02   4.0147395171e+00   0.01190135  0.009431102  30.92 0.0003372854    1.261    0.207
        80 -12.0183     90.4991    202.6563   2.9206315394e+02   4.8975445934e+00   0.02552363   0.02144443 -38.71  0.002480307    1.215    0.177
        81 -12.1002     80.0192    206.8621   2.9220886805e+02   4.9123316762e+00   0.04858705   0.02024551 -69.19  0.003736065    2.943    0.660
        82 -11.0303     85.2961    205.0506   2.9213738218e+02   4.9013901194e+00   0.01628693   0.01167305  46.77  0.001756545    1.462    0.316
        83 -11.5120    107.5872    211.1631   2.9192013819e+02   4.6977849279e+00   0.01973356   0.01571322  58.54   0.00145647    1.383    0.277
        84 -11.3463    116.9655    218.9080   2.9186061354e+02   4.5529837263e+00   0.01213022   0.01149673 -64.29 0.0008116419    1.055    0.052
        85 -11.0896     93.6214    216.1683   2.9211058935e+02   4.7243912720e+00   0.01326108   0.01123573  81.98 0.0005017976    1.318    0.241
        86 -13.9568     97.2838    209.1326   2.9202543130e+02   4.7828241471e+00   0.04595991   0.04029553 -52.56  0.002939171    1.125    0.111
        87 -12.8579    118.9793    204.4234   2.9174841694e+02   4.7064003691e+00   0.04050178   0.02225772  19.92 0.0009915611    2.030    0.507
        88 -12.5335    121.5285    198.7948   2.9168460663e+02   4.7554042506e+00   0.01941112   0.01511473  25.30 0.0006781803    1.301    0.231
        89 -11.4754     75.9088    199.5513   2.9221090244e+02   5.0205356979e+00   0.01306299   0.01117583 -82.61 0.0005869369    1.255    0.203
        90 -11.7014     73.1934    195.8426   2.9221914443e+02   5.0792044329e+00   0.01850398   0.01203662 -41.69 0.0009965457    1.613    0.380
        91 -12.1565    108.9948    215.7106   2.9193203658e+02   4.6373702752e+00   0.01620673   0.01188221  29.59  0.001091871    1.363    0.267
        92 -12.6528    112.3569    214.0254   2.9188323452e+02   4.6364441174e+00   0.02164523   0.01764357 -76.57 0.0004306824    1.308    0.236
        93 -11.9089    229.6692    216.7511   2.9056024563e+02   3.8997716717e+00   0.01942981   0.01375491 -10.35  0.001601001    1.780    0.438
        94 -11.0206    231.2589    211.7471   2.9051122040e+02   3.9473154808e+00   0.01810514  0.009256516 -46.55  0.001646736    1.989    0.497
        95 -11.4474    175.9654    217.3708   2.9117708708e+02   4.2159608771e+00   0.01631769    0.0120629  -0.47  0.001742933    1.606    0.378
        96  -9.9802    157.7147    218.7051   2.9139376263e+02   4.3104748976e+00  0.006685206  0.004922482 -27.95 0.0002404455    1.544    0.352
        97 -11.7800    193.2280    214.6044   2.9096291386e+02   4.1436865412e+00   0.01515995   0.01078599  89.20  0.000624446    1.760    0.432
        98  -9.8836    146.0000    215.8858   2.9151022242e+02   4.4130996666e+00   0.01051421  0.003717903 -61.67 0.0004947881    2.808    0.644
        99 -11.9853    217.8850    212.9344   2.9067115558e+02   4.0143122372e+00   0.01876484   0.01229701  39.29  0.001512943    1.530    0.346
       100 -11.5584    160.8241    212.8193   2.9132197111e+02   4.3590116247e+00   0.01424373  0.009581274  43.18   0.00106306    1.526    0.345
       101 -10.5817    152.9387    212.3757   2.9140932033e+02   4.4114896242e+00   0.01104392  0.008725686 -76.77 0.0006268088    1.366    0.268
       102 -11.2465    220.6111    219.9019   2.9068304341e+02   3.9183539977e+00   0.01185244  0.009136152  37.88  0.000435415    1.300    0.231
       103 -12.1957    237.9597    210.2539   2.9042555369e+02   3.9239912578e+00   0.01963208   0.01638965 -44.25  0.001222913    1.199    0.166
       104 -11.4341    242.6470    210.7496   2.9037514443e+02   3.8900912908e+00   0.01332822  0.009651545  -0.15  0.001397453    1.665    0.399
       105 -10.1535    165.2242    211.1321   2.9126130796e+02   4.3518232458e+00  0.009281061    0.0076079  67.06 0.0006645452    1.371    0.271
       106  -9.7680    147.2973    211.3264   2.9146730850e+02   4.4573887656e+00  0.006918153  0.004890763 -29.09 0.0007025517    1.631    0.387
       107 -12.2402    212.0471    207.8429   2.9070636251e+02   4.1075969660e+00   0.02271864   0.01915762 -15.61  0.002657922    1.299    0.230
       108 -11.9328    194.7586    206.0144   2.9089244715e+02   4.2325655748e+00   0.01537704   0.01086673  38.24  0.001412425    1.415    0.293
       109 -11.5893    189.3319    206.0637   2.9095471572e+02   4.2646665019e+00   0.02415909   0.01855821  86.57  0.001815346    1.548    0.354
       110 -11.2895    176.9627    208.2134   2.9110923328e+02   4.3145494560e+00   0.01021676  0.009156719 -54.00 0.0003629864    1.101    0.092
       111 -10.6476    134.0452    206.7576   2.9159059409e+02   4.5892277580e+00  0.008970542  0.008532763  11.78 0.0002834542    1.065    0.061
       112 -10.4010    227.3045    206.2561   2.9052244030e+02   4.0338173386e+00  0.009067615  0.007488212  67.43  0.001030763    1.357    0.263
       113 -10.9591    183.2898    204.6031   2.9101470565e+02   4.3177099468e+00   0.01419677   0.00905034 -68.58  0.001122634    1.666    0.400
       114 -11.1827    200.0662    204.8595   2.9082472011e+02   4.2138013042e+00   0.01071692  0.009315135 -63.74  0.000363658    1.152    0.132
       115 -11.1532    145.9447    202.5381   2.9142860546e+02   4.5659189677e+00   0.01777061  0.008675393 -51.98  0.001605311    1.969    0.492
       116 -12.1862    235.8143    203.1226   2.9040599323e+02   4.0183134169e+00   0.01337237   0.01051964  29.99 0.0004104624    1.272    0.214
       117 -11.5902    232.5092    200.9858   2.9043050757e+02   4.0626187907e+00   0.01109257  0.009865859   6.32  0.001331509    1.177    0.150
       118 -10.2759    152.9370    204.3155   2.9135966197e+02   4.5035762058e+00   0.00902081  0.008419531  20.14  0.000543001    1.082    0.076
       119 -12.9957    241.5008    200.3814   2.9032418773e+02   4.0153340153e+00   0.02973636   0.01686072  24.49  0.001451785    1.835    0.455
       120 -12.0976    239.9833    197.0000   2.9032061254e+02   4.0630724306e+00   0.02292921  0.009583286  29.21  0.001916963    2.360    0.576
       121 -11.3377    134.9373    201.4080   2.9154743724e+02   4.6449879439e+00   0.02219665   0.01051692  40.96  0.001958522    2.137    0.532
       122  -9.9884    130.5003    198.5032   2.9158025285e+02   4.7048380072e+00   0.01139629  0.006378238  29.88 0.0007764646    1.770    0.435
       123 -11.6965    139.5679    197.7560   2.9147200632e+02   4.6588828257e+00   0.02197672    0.0137261  70.16  0.001739041    2.312    0.567
       124 -11.5076    139.9274    194.2679   2.9144639741e+02   4.6965718275e+00   0.01101138   0.01050251 -68.32 0.0002574767    1.055    0.052
       125 -12.0074     93.8955    196.0731   2.9198379434e+02   4.9524030791e+00   0.02483587   0.01487469  -1.30  0.001233738    2.470    0.595
       126 -11.4397     82.3300    189.0356   2.9207274816e+02   5.1022139419e+00   0.01749316   0.01266757 -50.67  0.001281966    1.357    0.263
       127 -10.5291     89.9806    193.9622   2.9201557151e+02   5.0000157342e+00  0.009553173  0.009119722  63.17            0    1.082    0.076
       128 -11.6330     86.9506    191.8298   2.9203709909e+02   5.0425640010e+00   0.01762811   0.01453375  -4.04  0.001077174    1.348    0.258
       129 -12.4607    102.1403    199.1407   2.9190840188e+02   4.8678666366e+00   0.04455788   0.02309242 -22.39  0.003266583    3.630    0.725
       130 -11.0557     98.5022    197.5554   2.9194024089e+02   4.9078187265e+00   0.01588021   0.01060874 -46.92  0.001320525    1.498    0.332
       131 -11.3504    179.5979    198.4630   2.9101899329e+02   4.4100516559e+00   0.01155719   0.01043141 -33.29 0.0004285136    1.129    0.114
       132 -10.9910    202.2351    195.7269   2.9074359092e+02   4.3050205179e+00   0.02392472  0.006045818 -51.43  0.001607593    3.557    0.719
       133 -12.0226    198.7648    194.7363   2.9077710184e+02   4.3372296401e+00    0.0125153   0.01098303  55.02  0.000298694    1.197    0.164
       134 -11.9357    193.5644    194.7062   2.9083630062e+02   4.3688853328e+00   0.01770596  0.009031327 -55.17  0.001637099    1.875    0.467
       135 -10.6374    223.4584    197.4772   2.9051212477e+02   4.1572020942e+00  0.006468372  0.006427264 -70.16 -4.81863e-06    1.015    0.015
       136 -11.6879    215.0169    196.9980   2.9060551655e+02   4.2135257847e+00   0.01287413   0.01117621 -28.09 0.0009841629    1.208    0.172
       137 -11.9557    217.1879    193.2079   2.9055733137e+02   4.2437178876e+00   0.01115359   0.01072791  45.37 0.0002265636    1.056    0.053
       138 -10.0658    168.2844    190.9933   2.9110215226e+02   4.5634434788e+00   0.01006077  0.008635096  60.53 0.0005164667    1.254    0.202
       139 -11.9068    163.6370    193.4924   2.9117066728e+02   4.5628581465e+00   0.02659107   0.01986527 -68.58  0.002940573    1.387    0.279
       140 -10.2519    163.4491    188.5447   2.9114229382e+02   4.6205020557e+00   0.01069191  0.008056056 -54.93 0.0001408099    1.300    0.231
       141 -10.4947     82.8974    196.9589   2.9211502371e+02   5.0082571861e+00   0.01026513  0.008531988 -27.76 0.0006515883    1.288    0.223
       142 -10.9004    189.9622    186.4748   2.9082663076e+02   4.4845698048e+00   0.01082756  0.009219909  67.40   0.00126181    1.293    0.226
       143 -11.7959    187.9289    196.0143   2.9090873227e+02   4.3878743243e+00   0.01326535   0.01008866  30.11 0.0003272116    1.314    0.239
       144 -12.8592    188.5758    191.1924   2.9087158487e+02   4.4390441790e+00   0.01469055   0.01300438  76.01 0.0005145592    1.228    0.186
       145 -11.7054    250.4019    194.6744   2.9018739281e+02   4.0268139104e+00   0.01331376    0.0108916 -84.20 0.0001495847    1.351    0.260
       146 -13.2062    246.0982    190.5489   2.9021099420e+02   4.0998400747e+00   0.03484622   0.02036025 -31.52 0.0008682219    2.172    0.539
       147 -11.2317    233.5601    194.1688   2.9037641216e+02   4.1340978530e+00   0.01256462   0.01062246 -11.25 0.0006827074    1.298    0.230
       148 -11.8186    112.8542    193.5563   2.9175150805e+02   4.8673594990e+00   0.01649523   0.01471036 -77.54  0.001994586    1.167    0.143
       149 -11.8292    154.1585    192.5670   2.9127326757e+02   4.6304395987e+00   0.01881194   0.01240504  -9.85  0.001811766    2.057    0.514
       150 -11.1562     60.9972    177.6670   2.9224683381e+02   5.3600481089e+00   0.01450961  0.008776793 -62.15  0.001441755    1.649    0.393
       151 -11.8713     59.9823    171.1489   2.9221832959e+02   5.4406278876e+00   0.01218897  0.009671082 -69.88            0    1.303    0.233
       152 -11.6129     60.5878    167.2661   2.9218749771e+02   5.4813772678e+00   0.08970106   0.02961337  16.36  0.004203569    8.312    0.880
       153 -12.1517     56.0284    175.6919   2.9229153739e+02   5.4123969547e+00   0.02955037   0.02621381 -46.70  0.002600994    1.118    0.106
       154 -12.0880     51.2396    178.5840   2.9236413343e+02   5.4080295525e+00   0.02703493   0.01432994  40.04  0.002536609    1.893    0.472
       155 -11.8637     59.9752    190.6866   2.9233863019e+02   5.2173611255e+00   0.01697749   0.01295218 -68.74  0.001893751    1.354    0.261
       156 -12.7186     59.6904    183.9389   2.9230037931e+02   5.2961931276e+00   0.02963351   0.01906505  56.08  0.002445662    1.847    0.459
       157 -11.7512     67.9808    193.9980   2.9226742012e+02   5.1315345195e+00   0.02136564   0.01318273 -27.43  0.002008884    2.093    0.522
       158 -12.5335     65.3998    190.5535   2.9227575461e+02   5.1863751170e+00    0.0304826   0.01634756 -43.80  0.001635347    1.967    0.492
       159 -11.8668    210.3822    191.4529   2.9062418662e+02   4.3047523347e+00   0.01739802   0.01429312  87.60    0.0019933    1.378    0.274
       160 -10.5659    149.0110    191.0009   2.9132243668e+02   4.6792842255e+00  0.009926452   0.00950364 -52.95 0.0006572358    1.034    0.033
       161  -9.8921    117.4699    191.5177   2.9168617421e+02   4.8629334790e+00  0.006579829   0.00632803 -30.58 0.0001257054    1.042    0.040
       162 -10.6761     93.2130    190.0886   2.9195475496e+02   5.0248902201e+00   0.01916811   0.01054525  69.67   0.00126633    3.270    0.694
       163 -10.6993    195.6575    188.7130   2.9077540246e+02   4.4247188737e+00   0.01298584  0.008007891  88.79  0.001159396    2.382    0.580
       164 -10.3561    177.6998    188.6109   2.9097988544e+02   4.5339944200e+00   0.01051008  0.007529894 -21.93  0.001087827    1.678    0.404
       165 -10.8915    141.6442    189.2140   2.9139561721e+02   4.7439898085e+00   0.01782737  0.008133441  35.95  0.001562625    2.118    0.528
       166 -13.0333    105.9051    187.3407   2.9179268029e+02   4.9801106459e+00   0.02782216   0.01215226  36.57  0.001527053    2.210    0.548
       167 -12.2088    104.2042    182.2388   2.9178070200e+02   5.0486216605e+00   0.02542034   0.01494513  36.71  0.002520272    1.679    0.404
       168 -12.4452    103.9026    177.9508   2.9175773033e+02   5.0994317560e+00   0.02356045   0.01276975  45.16  0.002192853    1.970    0.492
       169 -11.7263    119.6157    186.8820   2.9163307481e+02   4.9030119466e+00   0.02038435   0.01156133 -89.20  0.001196192    2.882    0.653
       170  -9.8033    213.3415    187.2557   2.9056448139e+02   4.3348439437e+00  0.006675981  0.004987187 -19.00 0.0002914015    1.582    0.368
       171 -13.1080    123.9060    183.5971   2.9156377416e+02   4.9147694051e+00   0.04003653   0.01927045  34.90  0.002987653    2.012    0.503
       172 -12.1600    113.9977    178.6672   2.9164668824e+02   5.0306221636e+00   0.01374043    0.0108178 -85.02 0.0006639445    1.436    0.304
       173 -12.2528     76.2565    186.0574   2.9212389069e+02   5.1726764119e+00    0.0192645   0.01473516  -1.95  0.001150549    1.522    0.343
       174 -11.3010    234.0176    185.9710   2.9032054739e+02   4.2249117198e+00   0.00970457   0.00964588 -86.09 0.0003302163    1.019    0.019
       175 -10.6003     54.9658    185.9620   2.9236688221e+02   5.3013764509e+00  0.009836711  0.007463866  63.56            0    1.526    0.345
       176 -10.8908     46.5841    186.1870   2.9246416740e+02   5.3490079752e+00   0.01576753  0.008261991  33.26 0.0009271594    1.861    0.463
       177 -11.4897    175.5282    184.2256   2.9097763134e+02   4.5971471104e+00   0.01638835   0.01094263 -37.78 0.0009901238    1.627    0.385
       178 -10.8605     88.6604    183.6951   2.9196745832e+02   5.1252722609e+00   0.01822614  0.008172915 -70.30  0.000481602    2.742    0.635
       179 -10.8688    140.2182    184.2710   2.9138143857e+02   4.8090323130e+00   0.01063709  0.008351145  -7.35 0.0006049059    1.470    0.320
       180 -10.6244    227.1718    183.3987   2.9038278237e+02   4.2955348060e+00    0.0158526  0.004709104  36.92  0.001139432    3.107    0.678
       181 -10.6657     41.1650    182.8279   2.9250552228e+02   5.4198522625e+00   0.01185919  0.008722783 -50.51 0.0008303392    1.337    0.252
       182 -11.7229    230.2281    180.2938   2.9032871437e+02   4.3125539392e+00    0.0215427   0.01300218  76.94  0.001724796    2.648    0.622
       183 -11.5023    231.7864    175.4896   2.9028123951e+02   4.3579958057e+00   0.01310103  0.009674322 -27.85  0.000819843    1.538    0.350
       184 -10.0458    148.7822    181.9861   2.9126945430e+02   4.7836414389e+00   0.00845271  0.005304901 -60.98 0.0003582932    1.577    0.366
       185 -12.1202    118.3606    178.2523   2.9159423841e+02   5.0091543227e+00   0.01533001   0.01324741 -47.58 0.0002585556    1.147    0.128
       186 -11.4353     92.2642    181.1388   2.9191049222e+02   5.1328617099e+00   0.01358968  0.009989745  56.86 0.0009605855    1.532    0.347
       187 -10.2992     70.2653    182.5835   2.9217104971e+02   5.2483027572e+00  0.008301018  0.006418426  11.48  0.000288774    1.407    0.289
       188 -11.8888    219.2506    179.5644   2.9044951207e+02   4.3870436756e+00    0.0215764   0.01098363  40.97  0.001496966    1.989    0.497
       189 -10.7164    211.9137    180.1730   2.9053703559e+02   4.4243065000e+00   0.01326745  0.007544413 -38.13  0.001225556    2.011    0.503
       190 -10.6559    190.3298    180.7139   2.9078686472e+02   4.5481412533e+00   0.01217732  0.008055039 -77.17  0.001217502    1.762    0.432
       191 -12.1427    136.3753    176.4483   2.9137712778e+02   4.9215027946e+00   0.01335247   0.01113716 -44.69 0.0005328587    1.199    0.166
       192 -10.5002    123.2779    178.3147   2.9153839233e+02   4.9788981306e+00  0.009011046  0.007466476  63.09  0.001028519    1.331    0.249
       193 -11.7623     75.2963    177.4104   2.9208164493e+02   5.2772598467e+00   0.01541567   0.01142788  -4.64   0.00164437    1.619    0.382
       194 -12.0411     69.2725    175.5125   2.9213888265e+02   5.3350700257e+00   0.02343684   0.01503475  -7.00  0.001816868    2.174    0.540
       195 -12.3847    167.3368    176.0700   2.9102089048e+02   4.7395926936e+00   0.03032071   0.01525218  27.78  0.002768194    2.000    0.500
       196 -12.3279      4.0644    174.7642   2.9288059217e+02   5.7339442024e+00   0.02726629    0.0174695  50.45  0.002749696    1.732    0.423
       197 -11.0505    206.4611    175.8884   2.9057282809e+02   4.5060753133e+00    0.0176105  0.007265315  42.99  0.001420488    2.565    0.610
       198 -10.3934    148.1838    175.7855   2.9123804307e+02   4.8580705306e+00  0.008952075  0.007296504 -30.52 0.0002656149    1.309    0.236
       199 -10.9582    129.4624    175.7959   2.9145214480e+02   4.9705100551e+00   0.01278413  0.009536857  58.09 0.0009524322    1.514    0.339
       200 -10.8844    109.4353    175.5677   2.9167976398e+02   5.0934400833e+00   0.01448193  0.008634827 -27.83 0.0006186764    2.223    0.550
       201 -12.0976     83.6788    173.3294   2.9196060724e+02   5.2736199623e+00   0.02887124  0.009980899 -47.88  0.002163958    2.930    0.659
       202 -11.6188     88.3052    170.3274   2.9188918417e+02   5.2801687167e+00   0.01318628  0.009251983 -41.76  0.001102153    1.475    0.322
       203 -12.8172    243.1563    172.6422   2.9013388467e+02   4.3219375944e+00   0.01393684   0.01308312  32.87 0.0004245591    1.071    0.067
       204 -12.6343    236.7551    173.2603   2.9021075370e+02   4.3534827056e+00   0.02178238   0.01260308  29.63  0.002059954    1.718    0.418
       205 -10.0971    211.6895    174.3043   2.9050333941e+02   4.4926578822e+00  0.006795492  0.004983353  63.28 0.0006046162    1.611    0.379
       206 -10.6584    194.5708    173.8419   2.9069598508e+02   4.6010704310e+00   0.01297048  0.005938354 -56.36  0.001131683    2.073    0.518
       207 -11.6580    156.7215    172.7374   2.9112164314e+02   4.8415313104e+00   0.01473212   0.01129578  85.25 0.0009864435    1.559    0.358
       208 -10.6902     86.1254    167.4770   2.9189656287e+02   5.3258212224e+00   0.01141175   0.01045492 -75.49 0.0005604418    1.121    0.108
       209 -10.7429     42.2369    172.4830   2.9242963004e+02   5.5316816434e+00   0.01854501   0.01059098 -85.35  0.001577897    2.621    0.618
       210 -10.3045    219.4575    172.8772   2.9040582929e+02   4.4621341349e+00  0.009504639  0.006371035 -59.60 0.0004089107    1.469    0.319
       211 -11.0628     11.9131    172.2842   2.9277550731e+02   5.7153828389e+00   0.01035151  0.009186778 -41.49 0.0004016546    1.130    0.115
       212 -10.9798    208.5018    170.9167   2.9051880934e+02   4.5505405367e+00    0.0122841   0.01086966  37.68  0.001114645    1.137    0.121
       213 -10.9086     98.9555    170.7195   2.9176975631e+02   5.2117640456e+00   0.01857233  0.007982362  23.70  0.001403144    2.544    0.607
       214 -10.1064     64.4223    171.2246   2.9216798584e+02   5.4131525928e+00  0.008839478    0.0064034 -79.13 0.0004671442    1.567    0.362
       215 -11.6129    217.2492    167.6745   2.9039889041e+02   4.5348353479e+00   0.01663993   0.01035683 -57.19  0.001026518    1.563    0.360
       216 -10.5540    162.6454    170.6991   2.9104135405e+02   4.8291686884e+00  0.007004332  0.004945152 -23.59 0.0007037944    1.704    0.413
       217 -12.5875     77.4202    166.4759   2.9199000347e+02   5.3894856829e+00   0.02016462   0.01685547  55.77 0.0005478021    1.278    0.218
       218 -11.5842     73.7178    168.3404   2.9204385405e+02   5.3903825400e+00   0.01088137  0.009683178 -79.38 0.0005233993    1.176    0.150
       219 -11.2617     70.5657    168.5123   2.9208098289e+02   5.4073199115e+00   0.01188075   0.01109053  85.46 0.0005974138    1.124    0.110
       220 -10.6328     54.3487    169.2466   2.9227109503e+02   5.4961283557e+00    0.0155482  0.007906472 -69.30  0.001359983    2.226    0.551
       221 -12.2484    171.1947    168.5100   2.9093013280e+02   4.8027147647e+00   0.01790596   0.01155349  19.14  0.001814716    1.678    0.404
       222 -11.0629    193.0257    168.0308   2.9067773971e+02   4.6767284829e+00   0.01188247  0.009815775  89.05 0.0004337559    1.361    0.265
       223 -11.4444    190.8032    163.8728   2.9067744269e+02   4.7375930627e+00   0.01253994  0.009940112 -67.39  0.001186002    1.289    0.224
       224 -11.1083    133.8121    168.9377   2.9136010727e+02   5.0227145096e+00   0.01637667  0.009627379  12.00  0.001212734    2.113    0.527
       225 -10.6876     13.8796    168.0798   2.9272715441e+02   5.7516861314e+00   0.01340142  0.009099312  24.57  0.001119641    1.508    0.337
       226 -11.2145    126.0381    167.0119   2.9143712757e+02   5.0914448189e+00   0.01071359  0.007717654 -22.72 0.0008664252    1.654    0.396
       227 -10.5259      2.6542    167.0111   2.9284910184e+02   5.8309995524e+00   0.01231867  0.008956891 -14.44  0.001288853    1.680    0.405
       228 -11.9707    234.8683    166.0961   2.9018799838e+02   4.4466263365e+00   0.01409139  0.008427205  32.62  0.001088965    1.647    0.393
       229 -12.0927    139.8003    165.6277   2.9127121481e+02   5.0245231970e+00   0.01296609   0.01168436  15.86  0.000339846    1.135    0.119
       230 -10.7450     46.9850    164.8276   2.9232817938e+02   5.5907458420e+00   0.01816297  0.009231752  86.70  0.001125786    5.101    0.804
       231 -11.1560    197.1481    165.2856   2.9061369003e+02   4.6832396738e+00   0.02056586  0.009181058  46.71    0.0012485    2.575    0.612
       232 -11.8324    185.7550    164.1863   2.9073705498e+02   4.7644199943e+00   0.01507919   0.01060677 -25.73  0.001296133    1.689    0.408
       233 -10.4745    159.2211    165.1908   2.9104649020e+02   4.9126870316e+00  0.009080838  0.007668057  72.91 0.0004253513    1.323    0.244
       234 -10.1179    120.0479    164.9948   2.9149319608e+02   5.1504882770e+00  0.007721653  0.007511513  20.24 0.0003563302    1.034    0.033
       235 -11.3668    100.9420    163.9070   2.9170504098e+02   5.2776814643e+00   0.01266018   0.00934837 -67.05   0.00044226    1.389    0.280
       236 -10.7424      8.0864    163.8940   2.9276774995e+02   5.8341665348e+00   0.02484977  0.008130136 -59.85  0.001859903    2.893    0.654
       237 -12.2609     11.4279    156.6744   2.9268510470e+02   5.8967143673e+00   0.01507617   0.01300662 -68.25 0.0005030988    1.176    0.150
       238 -10.1554    204.0857    164.4821   2.9052948306e+02   4.6506122979e+00  0.009763324  0.006520751  25.73 0.0007444845    1.524    0.344
       239 -10.6039     57.3455    163.8419   2.9220352572e+02   5.5399420011e+00   0.01157124  0.008490667  39.06 0.0005516096    1.369    0.269
       240 -10.5499     50.3468    162.5396   2.9227561548e+02   5.5967597360e+00   0.01424022  0.008251466  57.67  0.001271247    2.249    0.555
       241 -12.9522     20.7134    158.9421   2.9259272936e+02   5.8152667413e+00   0.02681469   0.01437561 -57.22 0.0008154606    1.795    0.443
       242 -10.8806    223.6767    161.3334   2.9028630756e+02   4.5684694738e+00   0.01250971   0.01055105 -27.52  0.001459397    1.262    0.207
       243 -10.4781    133.0588    162.4610   2.9132876444e+02   5.1012325931e+00   0.01010864  0.006417718  29.10 0.0005308146    1.573    0.364
       244 -11.5564     96.3097    161.7163   2.9174453529e+02   5.3305241196e+00   0.01161638    0.0106005 -30.86  0.000279437    1.118    0.106
       245 -11.5722    203.2299    158.7077   2.9050357263e+02   4.7216935520e+00   0.02716293   0.01060451 -42.61  0.002033245    3.044    0.672
       246 -10.9167    180.2663    161.1343   2.9078091656e+02   4.8323255420e+00   0.01117383  0.008885891  12.31 0.0006377649    1.349    0.259
       247 -10.8949    196.9527    159.8644   2.9058242474e+02   4.7463127623e+00   0.01402837   0.00961888   1.97  0.001413774    1.814    0.449
       248 -11.0138    192.5354    159.4747   2.9063047939e+02   4.7773757038e+00   0.01181226  0.009596733 -62.62 3.592213e-05    1.229    0.187
       249 -10.0351    208.4303    159.5609   2.9044944956e+02   4.6806118890e+00  0.006444877  0.006369681 -42.86 7.062846e-05    1.003    0.003
       250 -10.6169     66.1859    158.3567   2.9206856113e+02   5.5496407221e+00   0.01545522  0.005688174  33.94  0.001227073    2.552    0.608
       251 -11.9763     61.8954    155.9786   2.9210302273e+02   5.6025380288e+00    0.0124253   0.01154104 -86.29 0.0003340688    1.123    0.109
       252 -10.2226    213.4774    157.5318   2.9037926638e+02   4.6733522827e+00  0.006465234   0.00644054 -54.36 0.0003779882    1.011    0.010
       253 -11.5111    106.9442    156.7702   2.9159236717e+02   5.3231792419e+00   0.01197802  0.009910798  89.85 0.0001973237    1.353    0.261
       254 -10.4952     95.7693    157.6307   2.9172553078e+02   5.3804517877e+00   0.00935106  0.005816635  38.44 0.0002871657    1.602    0.376
       255 -10.5774     43.9698    157.3138   2.9231644738e+02   5.6946824652e+00  0.009429907  0.008792439  24.40  0.001159061    1.080    0.074
       256 -12.4854     27.4385    154.5743   2.9248885743e+02   5.8249552953e+00   0.01570238    0.0135328 -79.09   0.00186217    1.227    0.185
       257 -11.5154    181.0408    155.3650   2.9073642505e+02   4.8935410862e+00   0.01319753  0.009959041 -69.64   0.00145583    1.381    0.276
       258 -10.6794    171.1847    156.1971   2.9085420651e+02   4.9433907670e+00  0.009054776  0.007626785  62.92 0.0003965284    1.298    0.230
       259 -11.6932    146.8906    155.7858   2.9112939644e+02   5.0942987144e+00   0.01882227   0.01317748  49.60  0.001111328    1.538    0.350
       260 -12.1072    136.6195    152.2877   2.9122525825e+02   5.1960341540e+00   0.02770228   0.01851536 -35.92  0.002848496    1.657    0.397
       261 -10.4025    132.0536    153.4915   2.9128490875e+02   5.2097388362e+00  0.009690001  0.008770484 -56.90 0.0003415832    1.093    0.085
       262  -9.6146     52.6415    156.3587   2.9221129457e+02   5.6536520340e+00  0.007271444  0.004872268  63.58 0.0007017694    1.880    0.468
       263 -10.6742    199.9085    154.6255   2.9051628120e+02   4.7883138799e+00   0.01097046  0.008462505 -50.87 0.0003439892    1.276    0.216
       264 -12.0049    115.3399    154.5340   2.9148252419e+02   5.2982911841e+00   0.01422279   0.01117717  41.19 0.0007148007    1.288    0.224
       265 -10.8283     99.7127    153.7753   2.9165663777e+02   5.4008271575e+00   0.01596866   0.01017103 -82.66  0.001181419    2.006    0.501
       266 -10.4988     86.1644    154.7903   2.9181793179e+02   5.4705588391e+00  0.009501148  0.007506992 -33.36 0.0008069894    1.347    0.258
       267 -10.3455     12.1895    162.9185   2.9271477588e+02   5.8207891880e+00  0.009376713  0.007240178 -36.17 0.0005262512    1.366    0.268
       268 -12.1172     35.3502    151.7373   2.9238080915e+02   5.8100277914e+00   0.02679859   0.01548502  79.22  0.001764712    3.018    0.669
       269 -11.0713     34.9755    145.3000   2.9234547192e+02   5.8858399724e+00    0.0121942  0.009566172 -58.14 0.0002301591    1.255    0.203
       270 -12.9609    247.8853    150.6956   2.8994419220e+02   4.5438506331e+00   0.02271747   0.01576888 -64.47  0.001708378    1.460    0.315
       271 -11.6574    225.7927    152.1229   2.9020519827e+02   4.6608355384e+00   0.01585695  0.009191621  28.72 0.0006503486    1.725    0.420
       272 -11.5389    108.9489    150.9240   2.9153337126e+02   5.3779305409e+00   0.01531778  0.009409108 -59.06  0.001189727    1.593    0.372
       273 -10.1172      4.9922    152.3401   2.9273215101e+02   5.9847257680e+00    0.0118879   0.00541629 -35.88 0.0008895794    3.092    0.677
       274 -12.2499    237.4780    150.0062   2.9005870650e+02   4.6145096302e+00   0.01285348  0.009906383  24.22 0.0005290338    1.322    0.243
       275  -9.9816    124.3445    150.7096   2.9135591871e+02   5.2878640896e+00  0.006920534  0.004909421  59.93 0.0007025922    1.656    0.396
       276 -10.8451    103.9539    149.0407   2.9157890662e+02   5.4294504292e+00   0.01473231    0.0110461  77.13   0.00157396    1.633    0.388
       277 -10.7366     91.3797    148.4710   2.9171928667e+02   5.5114624592e+00   0.01704588  0.005405912 -56.81   0.00126917    2.859    0.650
       278 -11.6083     52.3777    149.1445   2.9216988631e+02   5.7376786361e+00   0.01634666   0.01070577  63.91  0.001051474    1.967    0.492
       279 -11.6434     23.5153    148.5135   2.9249648752e+02   5.9176997781e+00   0.01094797    0.0086323 -48.16 -3.863617e-05    1.256    0.204
       280  -9.8580    219.3257    149.2898   2.9026152045e+02   4.7321710396e+00  0.006821379  0.004964998 -24.11 0.0002969729    1.613    0.380
       281 -11.3459    228.9318    148.3141   2.9014580160e+02   4.6853729693e+00   0.01011375  0.008824074  53.96 0.0005836775    1.202    0.168
       282 -12.0040    233.0184    147.0379   2.9009125338e+02   4.6752869915e+00   0.01362914  0.009622594  19.28 0.0004882913    1.503    0.335
       283 -11.1444    202.6806    147.9598   2.9044340797e+02   4.8477031419e+00   0.01300781  0.009254296  38.50  0.001252746    1.407    0.289
       284 -11.3277    152.1315    147.8941   2.9102073971e+02   5.1529000651e+00   0.01036846   0.01003988  76.03 0.0003115712    1.064    0.060
       285 -11.6097    163.5171    146.4057   2.9088136907e+02   5.1013683553e+00   0.01364541  0.009758441  86.96  0.001386868    1.761    0.432
       286  -9.8287      2.6727    147.6748   2.9273002729e+02   6.0519114219e+00  0.007032318  0.004897678 -27.07 0.0004603791    1.696    0.411
       287 -12.5658    222.3133    144.9883   2.9020080069e+02   4.7632490435e+00   0.02564665   0.01792223  39.88  0.002559279    1.440    0.305
       288 -11.0955    215.9908    145.0060   2.9027311220e+02   4.8011758914e+00   0.01061998  0.009263564 -63.24 0.0003212059    1.146    0.127
       289 -11.0867     55.2441    145.3223   2.9211352374e+02   5.7641816462e+00   0.02031809  0.009669354  49.71  0.001322406    2.569    0.611
       290 -10.5966    139.2942    145.3884   2.9115207305e+02   5.2587531909e+00   0.01479935  0.008593042   8.41 0.0009860566    2.301    0.565
       291 -11.2244    177.8948    142.6684   2.9069392155e+02   5.0574635413e+00   0.01993692  0.009605387 -62.89  0.001347109    2.101    0.524
       292 -10.9533    159.0746    143.8877   2.9091660510e+02   5.1568673949e+00   0.01062659  0.008819049  57.97  0.001223487    1.302    0.232
       293 -11.6340     27.9194    142.4652   2.9240882482e+02   5.9604713527e+00   0.02087625   0.00549623 -48.16   0.00135471    3.858    0.741
       294 -12.0810     21.6612    142.0709   2.9247807293e+02   6.0024233869e+00   0.01447122   0.01339992 -83.79 0.0007353434    1.123    0.110
       295 -12.2961     26.1490    138.4180   2.9240418533e+02   6.0173185416e+00   0.02461716    0.0115422  24.19  0.001800816    2.270    0.560
       296 -11.1593    107.0264    142.1660   2.9150133593e+02   5.4895338752e+00   0.01526234   0.01086146  52.19 0.0009583638    1.541    0.351
       297 -10.7918     13.7981    143.1016   2.9257447454e+02   6.0376735180e+00   0.01169427  0.009544022  27.74  0.001031904    1.232    0.188
       298 -12.4949    240.6456    140.2779   2.8996236142e+02   4.7064074880e+00   0.02082092   0.01596756  85.97  0.002274802    1.557    0.358
       299 -11.4489    245.3810    138.8699   2.8989959818e+02   4.6938948981e+00   0.01449276  0.008949373  37.79 0.0006079916    1.609    0.378
       300 -11.1693    248.8549    136.3633   2.8984443728e+02   4.7015260301e+00   0.01193798   0.01121228  76.15 0.0003887262    1.117    0.104
       301 -11.0360     61.3794    140.1741   2.9201155538e+02   5.7862353993e+00   0.01422757  0.008524858  45.01  0.001392557    1.758    0.431
       302 -11.4774     46.6646    139.3433   2.9217492878e+02   5.8839116558e+00   0.01617419   0.01184364   4.97 0.0009280567    1.586    0.369
       303 -10.2689    167.0381    139.0405   2.9079560697e+02   5.1642737618e+00   0.01085263  0.007814112  66.20  0.001125857    1.693    0.409
       304 -12.1356    126.9395    138.4459   2.9125052979e+02   5.4123504070e+00    0.0148851   0.01357339  57.50   0.00181961    1.145    0.126
       305 -10.1008    207.2639    138.3740   2.9033177433e+02   4.9294956730e+00  0.008923404  0.005877099  39.17 0.0001922901    1.521    0.343
       306 -11.1115    180.8140    137.1969   2.9062673395e+02   5.1023482453e+00   0.01765841  0.009534595  51.43  0.001027104    2.223    0.550
       307  -9.9225     96.6529    138.7128   2.9159874771e+02   5.5912901990e+00   0.00689285  0.004963353 -22.73 0.0005895763    1.655    0.396
       308  -9.7693     85.5558    138.5377   2.9172468668e+02   5.6599119910e+00  0.006520085  0.006341316  70.99 6.028765e-05    1.056    0.053
       309 -10.1457     73.5340    138.4947   2.9186204312e+02   5.7325374648e+00  0.006565946  0.006336581  68.43 6.582285e-05    1.068    0.064
       310 -10.6118     34.2169    138.4386   2.9231191003e+02   5.9687943034e+00  0.009726527  0.005772165  40.91 0.0009465856    1.705    0.414
       311 -11.2813    195.8696    135.3738   2.9044340148e+02   5.0324344547e+00   0.01887816   0.01033109 -74.34  0.001306349    2.255    0.556
       312 -10.1524      7.9435    133.5675   2.9258286792e+02   6.1816378135e+00   0.01161823  0.008050972 -37.15 0.0005589952    1.559    0.358
       313 -11.7130    228.1743    135.0914   2.9007264835e+02   4.8408411823e+00   0.01315426   0.01043832  37.11 0.0003307303    1.262    0.208
       314 -10.3260    219.9973    135.0082   2.9016551118e+02   4.8911190861e+00   0.01016596   0.00763349 -20.93 0.0004320526    1.556    0.357
       315 -10.9358     76.8749    134.8160   2.9180111152e+02   5.7545258815e+00   0.01317342   0.01024955  72.09 0.0009764538    1.516    0.340
       316 -12.7076     93.3665    131.4086   2.9159129675e+02   5.6944695398e+00   0.01653984   0.01262592  50.91  0.001066061    1.398    0.285
       317 -11.2480     58.9936    133.0296   2.9199483874e+02   5.8821742691e+00  0.007991881  0.007886859  10.06  0.001005986    1.018    0.018
       318 -11.0237     22.6332    132.6128   2.9240871422e+02   6.1046957356e+00   0.01407563  0.008187055 -70.53  0.001134561    1.912    0.477
       319 -10.0851    242.2997    132.6845   2.8989648794e+02   4.7830646726e+00  0.006778568  0.005005475  65.18 0.0002978211    1.612    0.380
       320 -11.6765    223.9635    130.9465   2.9009508404e+02   4.9135458146e+00   0.01292101   0.00912146 -50.42 0.0009574425    1.393    0.282
       321 -10.6011    200.7180    132.1096   2.9036781309e+02   5.0404668637e+00   0.01108254  0.008555328  40.50 0.0005717161    1.308    0.235
       322 -10.6439     48.2681    131.4115   2.9210769354e+02   5.9649405006e+00   0.01037894  0.009083674  72.13 0.0006592029    1.247    0.198
       323 -10.6463     50.3087    128.3247   2.9206529871e+02   5.9879844107e+00   0.01311099  0.007824364 -28.46  0.001172746    2.195    0.544
       324 -10.7977    214.1832    131.0538   2.9020745228e+02   4.9713189749e+00   0.01002489  0.008577603 -30.63  0.000441266    1.223    0.183
       325 -10.8724    101.9562    130.5445   2.9148764241e+02   5.6527531700e+00   0.01553615  0.009463927 -66.44  0.001084033    1.711    0.415
       326 -11.6020     36.2558    130.0360   2.9223680211e+02   6.0526056298e+00   0.01568487   0.01039407  86.96   0.00137939    2.046    0.511
       327 -11.5640    249.7516    129.5133   2.8979180078e+02   4.7742607521e+00   0.01340228   0.01166669  35.65 0.0006699291    1.153    0.133
       328 -10.6748    128.5461    130.0661   2.9118040027e+02   5.4984014658e+00   0.00953716  0.006418014 -61.58 0.0003526149    1.478    0.323
       329 -11.0851     86.3776    129.8187   2.9166149330e+02   5.7545915620e+00   0.01101416  0.008964326  29.04 0.0002453522    1.232    0.188
       330 -10.5037     32.6188    129.3017   2.9227393859e+02   6.0827703301e+00  0.007139232  0.004831905  59.45 0.0007023019    1.775    0.437
       331 -10.1791      6.9588    136.7843   2.9261394327e+02   6.1507615967e+00  0.009588943  0.008823666 -31.75 0.0004340765    1.104    0.094
       332 -10.3826     44.7207    128.0042   2.9212732603e+02   6.0251252421e+00  0.009611169  0.008191139 -52.24 0.0007421337    1.156    0.135
       333 -10.2232    238.4908    127.4921   2.8990782879e+02   4.8652966673e+00  0.006479504  0.006441743  86.56 0.0001163166    1.020    0.020
       334 -10.2846    125.6652    131.6775   2.9122331396e+02   5.4973206680e+00  0.007050293  0.004912956 -26.26 0.0007050473    1.708    0.415
       335 -10.4337    174.9481    125.2869   2.9062015124e+02   5.2736644194e+00   0.00906221  0.008398812  25.24 0.0003937989    1.086    0.079
       336 -10.9477    119.8619    120.8927   2.9122311144e+02   5.6553897673e+00   0.02101653  0.004824014 -64.07  0.001174887    5.233    0.809
       337 -11.0179    187.9937    123.7389   2.9046144945e+02   5.2127209864e+00  0.009322735  0.008498361  34.85 0.0003798702    1.103    0.093
       338 -10.8791    124.8765    123.8897   2.9118423902e+02   5.5910100450e+00   0.01001098  0.008534193 -24.65  0.001168511    1.252    0.202
       339 -12.0251     67.2621    123.9903   2.9184441449e+02   5.9358728394e+00   0.02118008  0.008746019  25.43  0.001716807    2.553    0.608
       340 -10.7080    245.7785    122.9644   2.8979660379e+02   4.8729585347e+00  0.009633505  0.007251587 -12.35 0.0006292997    1.587    0.370
       341 -11.3271    238.5851    122.4981   2.8987583549e+02   4.9217052662e+00   0.01302535   0.01047975 -37.75 0.0007397556    1.286    0.223
       342 -11.2768    106.1534    120.1174   2.9137522632e+02   5.7466397174e+00    0.0255876   0.01126731 -41.44  0.002053557    2.668    0.625
       343 -11.3613     58.8701    121.0481   2.9192237952e+02   6.0198072937e+00   0.01253061  0.008865854 -52.25   0.00134946    1.383    0.277
       344 -11.7269    232.6210    120.6470   2.8993247267e+02   4.9788253841e+00   0.01197537   0.01086416  57.58 0.0005694744    1.153    0.132
       345 -10.7463     84.2540    121.2163   2.9163272523e+02   5.8656107316e+00   0.01475187  0.009526299  46.04   0.00150099    1.635    0.388
       346 -11.0174     80.9549    118.0000   2.9165065308e+02   5.9221527709e+00   0.01366153  0.008664517  48.00  0.001367812    1.704    0.413
       347 -11.0499    247.5950    118.6089   2.8974889993e+02   4.9116763621e+00   0.01357386  0.009759189 -15.55 0.0008100715    1.717    0.418
       348 -10.4082    171.1860    118.8435   2.9062331833e+02   5.3698891579e+00   0.01245447  0.007356439 -42.09  0.000821734    1.800    0.444
       349 -11.6197    172.7098    115.1836   2.9058325877e+02   5.4024895373e+00   0.01750186  0.008510629  26.52 0.0009051418    2.104    0.525
       350 -11.4909     19.8197    118.5907   2.9235458863e+02   6.2817544630e+00   0.01883705   0.01224559  32.23   0.00195879    1.523    0.343
       351 -10.6088      5.2789    118.9723   2.9252355562e+02   6.3643483257e+00   0.01013783  0.009815628  35.43 0.0005080767    1.043    0.041
       352 -10.9426      6.2938    113.3084   2.9247704829e+02   6.4229977185e+00   0.01009468  0.008783785 -63.35 0.0004446937    1.148    0.129
       353 -11.5172      1.7521    115.8695   2.9254486719e+02   6.4208810827e+00   0.01235654  0.009301891 -55.00  0.001373309    1.300    0.231
       354 -12.0464      3.5540    109.8353   2.9248705733e+02   6.4790566204e+00   0.02031092   0.01380359 -54.31  0.001411012    1.433    0.302
       355 -11.7064     61.2873    116.1204   2.9186430115e+02   6.0616104193e+00   0.02185084   0.01206624  55.00  0.001936754    2.319    0.569
       356 -10.2905     11.6694    117.2822   2.9243991895e+02   6.3454533851e+00   0.00680701  0.004917955  59.81 0.0003119736    1.608    0.378
       357 -10.5102    221.6687    114.9555   2.9002231777e+02   5.1098640435e+00    0.0089063  0.008457958 -57.46 0.0005519861    1.045    0.043
       358 -11.2346    199.2091    114.0600   2.9027338275e+02   5.2555755820e+00   0.01756473  0.009968845  55.85 0.0009453009    2.254    0.556
       359 -10.4904     44.9645    115.3048   2.9204625010e+02   6.1687602937e+00  0.009516857  0.008101707  21.34  0.001115408    1.197    0.165
       360 -10.1441    185.5533    114.5000   2.9043219053e+02   5.3328895457e+00  0.006475615  0.006412604 -63.46 7.129792e-05    1.014    0.014
       361 -10.9228    125.8214    114.1381   2.9111317790e+02   5.6966927661e+00  0.009727024  0.008850989  70.64 0.0003445617    1.171    0.146
       362 -10.8597    109.3242    124.1475   2.9136381730e+02   5.6815557649e+00   0.01804982  0.009066974 -35.88  0.001339392    2.567    0.610
       363 -10.8211     49.6400    118.4965   2.9201236964e+02   6.1042825068e+00   0.01328034  0.006564914  26.15  0.001002853    2.076    0.518
       364 -10.9271    180.4735    112.5486   2.9047818965e+02   5.3857819193e+00   0.01243802  0.006602166 -66.68 0.0005787236    2.012    0.503
       365 -10.4511    178.9787    109.3346   2.9047539607e+02   5.4314766478e+00   0.01007818  0.008658069 -63.95 0.0003843557    1.167    0.143
       366 -11.8138    244.8300    110.8410   2.8973235560e+02   5.0169820647e+00   0.01570596   0.01034914 -47.75 0.0006711857    1.511    0.338
       367 -10.7887     95.9953    111.9049   2.9144080583e+02   5.9014671430e+00  0.009707093  0.009282018 -30.99            0    1.049    0.047
       368 -12.8882     20.7381    110.1442   2.9229202444e+02   6.3727645383e+00   0.02989962   0.02003077   4.18  0.002523014    1.853    0.460
       369 -11.2868    129.0689    110.2280   2.9105184835e+02   5.7218083939e+00   0.01040711  0.009129356 -55.47 0.0003054072    1.125    0.111
       370 -10.6581    112.0424    109.0342   2.9123935462e+02   5.8378274007e+00  0.009814839   0.00939502 -85.20 0.0004387365    1.074    0.069
       371 -11.0725     36.7532    108.4783   2.9209823930e+02   6.2959314253e+00   0.01187577  0.008798288 -61.38 0.0004615571    1.341    0.254
       372 -11.3078    165.9230    107.4271   2.9061289062e+02   5.5319212915e+00   0.01349517   0.01086933 -84.66 0.0006652919    1.386    0.278
       373 -13.5199    166.7843    101.7393   2.9056785061e+02   5.5916576252e+00   0.01624993    0.0159074 -39.54  0.000717617    1.012    0.012
       374  -9.8642    209.7733    106.9891   2.9010889373e+02   5.2725409494e+00   0.00833031  0.005382272 -60.92 0.0002036894    1.533    0.348
       375 -12.2322    137.8109    103.0148   2.9090721300e+02   5.7515694098e+00   0.02185448   0.01463763  71.06  0.001325054    2.000    0.500
       376 -10.6465     42.7281    107.1521   2.9202160031e+02   6.2752942467e+00   0.01330856  0.008514203  -9.23  0.001237119    2.195    0.544
       377  -9.7521    153.3145    108.6520   2.9076468629e+02   5.5938794075e+00  0.006996909  0.004983035  65.84 0.0007047188    1.721    0.419
       378 -11.6074    232.8074    110.8087   2.8986942769e+02   5.0899426339e+00   0.01244587   0.01005867  54.59 0.0003896221    1.329    0.247
       379 -11.0028     17.3546    104.2391   2.9229440865e+02   6.4604684472e+00   0.01344711   0.01166348  -5.76 0.0007711612    1.242    0.195
       380 -11.7071    234.4475    101.6864   2.8979419843e+02   5.1841032700e+00   0.02522385   0.01189578 -60.08  0.001997445    2.070    0.517
       381 -10.0600     69.2418    104.5919   2.9170204906e+02   6.1455915815e+00  0.009090223  0.006409401  11.16 0.0009421369    1.608    0.378
       382 -12.4163     26.6662    115.6953   2.9225830323e+02   6.2738686643e+00   0.01724232   0.01253879 -48.45  0.001888998    1.361    0.265
       383 -10.8716     57.7141    102.8000   2.9182305102e+02   6.2351946528e+00   0.01001086  0.008764652   8.73 0.0003111485    1.196    0.164
       384 -10.2602    219.5372    102.4696   2.8996935449e+02   5.2651848861e+00  0.006563175  0.006329132 -30.46 0.0002389786    1.038    0.037
       385 -12.0633    148.6730    100.8040   2.9076925065e+02   5.7114217529e+00   0.01713128   0.01608277 -34.76    0.0021321    1.070    0.066
       386 -12.5515     47.2688     99.2454   2.9192079823e+02   6.3384052760e+00   0.03227477   0.01443807 -55.17  0.002825206    2.111    0.526
       387 -13.6608     87.8353    114.9977   2.9155333557e+02   5.9151445499e+00   0.02450072   0.01624583  46.22  0.001309958    1.589    0.371
       388 -11.7382     67.4967    100.2678   2.9169534795e+02   6.2054484985e+00   0.01156744   0.01117181 -38.86 0.0005328201    1.028    0.028
       389 -11.1722    108.9275     99.2502   2.9121455807e+02   5.9682778156e+00   0.01327311   0.01017597  10.74  0.001101886    1.430    0.301
       390 -11.7920    102.8818     97.9386   2.9127567785e+02   6.0195906340e+00   0.01844916   0.01162118 -46.77  0.001565335    1.593    0.372
       391 -10.5802     32.6910     98.6061   2.9208391219e+02   6.4330288861e+00   0.01069397  0.008050891  81.12 0.0009695616    1.621    0.383
       392  -9.9483     23.3583     99.3065   2.9219519327e+02   6.4808938977e+00   0.00704851  0.004923471 -24.04 0.0004613813    1.727    0.421
       393 -10.8395    125.0189     97.4190   2.9101902028e+02   5.8924248618e+00   0.01214188  0.009327446  88.55  0.001321068    1.539    0.350
       394 -10.3662    119.2998     96.1558   2.9107668055e+02   5.9412461816e+00   0.01264664  0.007334649  44.35 0.0009598128    1.807    0.447
       395 -11.8556     38.3706     95.1422   2.9199745435e+02   6.4385815351e+00   0.01602087   0.01109458  48.47 0.0005029533    1.544    0.352
       396 -10.6620     18.4472     95.7091   2.9222930555e+02   6.5513721600e+00   0.00920658  0.005975962 -50.38 0.0009400003    1.511    0.338
       397 -11.4537    165.7064     95.0906   2.9053903791e+02   5.6740387465e+00   0.01342424  0.009791425  11.73 0.0005427619    1.527    0.345
       398 -10.4046    147.9043     95.4570   2.9074496973e+02   5.7770885895e+00  0.009823929   0.00638928  29.99  0.001005974    1.531    0.347
       399 -11.3890     83.7095     94.5629   2.9147439630e+02   6.1733012411e+00    0.0145873   0.01207194  11.20 0.0006727454    1.283    0.221
       400 -11.3952     51.7041     94.3569   2.9183980831e+02   6.3676594689e+00     0.014741  0.009285532 -87.52  0.001107341    2.176    0.541
       401  -9.9428    197.5756     94.5150   2.9017105990e+02   5.4884635966e+00  0.006492131   0.00635434 -47.75 4.964927e-05    1.012    0.012
       402 -10.4594    160.3012     92.9819   2.9058781985e+02   5.7306742214e+00  0.009433685  0.008396833 -59.94 0.0009607691    1.115    0.103
       403 -10.6147    163.3070     91.2932   2.9054298391e+02   5.7318383153e+00   0.01032867  0.006827355  21.16 0.0002683514    1.598    0.374
       404 -10.1780     72.5617     93.4749   2.9159538058e+02   6.2526404723e+00  0.006602372  0.006256477 -32.10 4.315716e-05    1.060    0.057
       405 -11.4295    140.4988     92.3507   2.9081049894e+02   5.8571324494e+00   0.02746538   0.01132804  20.22  0.002089238    3.021    0.669
       406 -11.7577    202.1951     90.3683   2.9009257787e+02   5.5079041948e+00   0.01847979   0.01262906  57.08 0.0006912313    1.708    0.414
       407 -12.0102     23.9564     89.9676   2.9213074949e+02   6.5839864423e+00   0.01400185   0.01047682  75.50 0.0009285842    1.637    0.389
       408 -10.4457    213.8212     91.0981   2.8996423107e+02   5.4294158283e+00  0.009753427  0.008646316  66.55 0.0002988141    1.213    0.175
       409 -11.2565    231.3844     89.0317   2.8975078070e+02   5.3469409744e+00   0.01153679  0.009562976  27.54 0.0003021817    1.213    0.176
       410 -10.5838     30.0213     87.9970   2.9204907168e+02   6.5701885564e+00   0.01005013  0.007612783 -19.42 0.0003550286    1.538    0.350
       411 -10.7157     11.2291     87.2377   2.9225982125e+02   6.6913084726e+00   0.01339885  0.009293482 -75.03  0.001396116    1.605    0.377
       412 -10.4030    128.1811     86.3052   2.9091409290e+02   6.0002782100e+00   0.01313155  0.008492669  82.38  0.001221314    2.212    0.548
       413 -10.4858    180.4323     86.1966   2.9031555779e+02   5.6867742657e+00  0.009020464  0.006403438 -80.43  0.000619212    1.638    0.390
       414 -11.6097    169.2615     84.9078   2.9043534271e+02   5.7688251015e+00   0.02556314    0.0132328  -3.56   0.00174175    4.256    0.765
       415 -11.5059    121.7966     86.1355   2.9098613564e+02   6.0406257246e+00   0.01361678  0.008786321  44.75 0.0008865691    1.616    0.381
       416 -11.0901     93.5206     85.7164   2.9130735481e+02   6.2153923214e+00   0.01720932  0.009298934  46.23  0.001585527    2.011    0.503
       417 -12.8098     78.0880     84.1937   2.9147473688e+02   6.3254555168e+00   0.04047549   0.01020056  33.84  0.002781878    3.471    0.712
       418 -12.1807     68.7494     85.4120   2.9158926168e+02   6.3675896875e+00    0.0178486   0.01277925  13.37  0.001382315    1.545    0.353
       419 -10.1971    105.5334     84.5058   2.9116228382e+02   6.1570252757e+00  0.006514399  0.006391503 -35.76 0.0008096863    1.011    0.011
       420 -11.0128     98.7310     83.4034   2.9123337708e+02   6.2104946279e+00   0.01396222  0.009519794 -42.51  0.001108342    1.515    0.340
       421 -12.2357     95.9621     79.5993   2.9124157590e+02   6.2705632597e+00   0.01397939   0.01294931 -27.14 0.0007146766    1.102    0.093
       422 -11.2888     47.2264     82.1418   2.9181572330e+02   6.5339958351e+00   0.01557643   0.01223845  49.65  0.001086554    1.341    0.255
       423 -10.4632    163.2747     83.6709   2.9049617227e+02   5.8190208159e+00  0.006688811  0.005031653  68.84 0.0001910273    1.591    0.371
       424 -10.4311    152.5366     83.4898   2.9061791414e+02   5.8857829189e+00  0.006562172  0.006341103 -31.83  2.94694e-05    1.034    0.033
       425 -10.9878    132.8300     82.3764   2.9083656983e+02   6.0171471115e+00   0.01147555  0.008889143 -52.94 0.0003824067    1.267    0.211
       426 -10.3227     48.2556     74.6407   2.9175760963e+02   6.6134800258e+00   0.01027601  0.009159954 -70.96 0.0005757163    1.145    0.127
       427 -11.8498     53.5287     82.8871   2.9174809192e+02   6.4877088839e+00   0.01239938    0.0105282 -58.01  0.001013109    1.163    0.140
       428 -13.2298     52.7661     77.6102   2.9172424640e+02   6.5525362140e+00   0.01778076   0.01586854 -13.51  0.001157282    1.186    0.157
       429 -10.1608     31.0490     83.4371   2.9200915620e+02   6.6161129570e+00  0.009591905  0.006483204  24.51 0.0004252414    1.516    0.340
       430  -9.7276    193.7001     82.3165   2.9013981695e+02   5.6510196102e+00  0.006784432  0.005004743  65.19 0.0007020042    1.615    0.381
       431 -11.2812    184.0022     81.6398   2.9024651479e+02   5.7172391467e+00   0.01440259   0.01009036  -3.72 0.0006534922    1.797    0.443
       432  -9.8869    155.2585     79.6544   2.9056302654e+02   5.9131574046e+00  0.006659278  0.005035683  72.13 0.0003126728    1.595    0.373
       433 -10.1733    129.3271     79.3097   2.9085769655e+02   6.0732325275e+00  0.006944434  0.004934975 -25.77 0.0007039746    1.659    0.397
       434 -11.5299    118.4636     79.3317   2.9098221562e+02   6.1383423089e+00   0.01998376  0.008595066  20.81  0.001534431    2.773    0.639
       435 -10.1604    107.5047     77.9969   2.9109945974e+02   6.2194811614e+00  0.009705035  0.006420383 -60.72 0.0004202373    1.496    0.331
       436 -11.3216      3.5907     77.9968   2.9229042290e+02   6.8425167488e+00   0.02351039  0.008721302  34.78  0.001810495    2.537    0.606
       437 -12.0387     62.4477     74.7988   2.9159591548e+02   6.5265771109e+00   0.01871449   0.01368688 -53.03  0.001222626    1.338    0.253
       438 -11.7859     57.7313     72.0657   2.9163308867e+02   6.5860694156e+00   0.02259333   0.01474756  88.63   0.00132743    2.094    0.522
       439 -11.6968     42.8863     74.1952   2.9181640944e+02   6.6507439121e+00   0.02802897   0.01353799  55.43   0.00218647    3.039    0.671
       440 -10.6267     34.9517     71.4682   2.9189053881e+02   6.7294146306e+00   0.01362063   0.01025757  70.18  0.001465081    1.596    0.373
       441 -10.8977    173.9786     75.0097   2.9032009372e+02   5.8533295702e+00  0.009560278  0.009481521 -53.06  0.001213001    1.009    0.009
       442 -12.0295     92.6346     73.6265   2.9124276642e+02   6.3587399580e+00   0.02232125   0.01058509 -43.06  0.001910348    2.311    0.567
       443 -12.2036     86.0961     68.2212   2.9128425769e+02   6.4597207122e+00   0.02202663    0.0115749  51.75  0.001464205    2.334    0.572
       444 -10.4328     82.2572     75.0737   2.9137060782e+02   6.4045487916e+00   0.00915035  0.008525576 -60.31 0.0005073489    1.068    0.063
       445 -10.7570     68.9902     73.7757   2.9151461237e+02   6.4990063778e+00  0.009760777  0.008590702  57.84 0.0004594651    1.202    0.168
       446 -10.6491    115.9951     72.9054   2.9097072974e+02   6.2265408509e+00  0.009654495  0.009510064  -6.77  0.000378335    1.017    0.017
       447 -11.2027      1.7626     72.9260   2.9228011657e+02   6.9113509045e+00   0.01453944  0.006238922 -43.19  0.001161154    2.613    0.617
       448  -9.6628    249.2719     72.6974   2.8944525757e+02   5.4251203046e+00  0.006556529   0.00501886  67.28 0.0001961397    1.534    0.348
       449 -11.1083    166.8939     70.1145   2.9037082453e+02   5.9518922609e+00    0.0106145  0.009341225  27.76 0.0003777359    1.142    0.124
       450 -11.0435     53.6557     68.7587   2.9165937542e+02   6.6482633770e+00   0.02093217   0.01129154 -40.56  0.001483289    2.063    0.515
       451 -10.2455    232.8169     68.7607   2.8960877162e+02   5.5694486871e+00  0.008844974    0.0075812  72.54   0.00102814    1.291    0.225
       452 -10.1262    205.4842     69.4859   2.8992560211e+02   5.7262596514e+00   0.00648172  0.006433007  79.49 -2.882293e-05    1.023    0.023
       453 -10.5093    126.4683     68.7853   2.9082530343e+02   6.2105528797e+00   0.01269699  0.006657332 -67.25 0.0009842396    2.062    0.515
       454  -9.8943    182.7036     68.6722   2.9018103940e+02   5.8730104616e+00  0.006916981  0.004889604 -29.12 0.0007025293    1.632    0.387
       455 -10.1885     77.4735     68.5560   2.9138513367e+02   6.5076768627e+00   0.00655026    0.0063162 -26.09 6.727593e-05    1.041    0.039
       456 -10.0592     69.5582     67.5125   2.9146939658e+02   6.5670994955e+00  0.006469946  0.006400163 -82.88 0.0001072107    1.025    0.024
       457 -10.3256     35.7994     66.2262   2.9184845133e+02   6.7841866586e+00   0.01078872  0.006309252  66.62   0.00091544    2.597    0.615
       458 -11.2267     50.0170     64.5813   2.9167528079e+02   6.7177697280e+00   0.01246923   0.00939703 -57.42  0.000569971    1.303    0.233
       459 -11.4539     29.1402     64.6903   2.9191532676e+02   6.8416016766e+00   0.01246549   0.01105926  75.05 0.0007294194    1.224    0.183
       460 -11.6514      6.3343     64.7462   2.9217722268e+02   6.9774183978e+00   0.01410581   0.01015197 -51.86  0.000653994    1.361    0.265
       461 -11.9268      3.1228     59.0717   2.9217904452e+02   7.0614030572e+00   0.02102482  0.009802188 -52.48   0.00128282    2.047    0.512
       462 -10.3701    212.0172     63.7571   2.8981541798e+02   5.7521456500e+00  0.008982944   0.00860159  16.33 0.0003289048    1.054    0.051
       463 -11.6606    137.8210     63.3934   2.9066194331e+02   6.2037409700e+00   0.01221629  0.009751675 -50.62 0.0007345955    1.234    0.190
       464 -12.2518    140.6515     60.0134   2.9060860879e+02   6.2252608565e+00   0.01233716   0.01133657   8.20  0.000302198    1.120    0.107
       465 -10.7193    110.8015     63.3781   2.9097126595e+02   6.3665142187e+00   0.01077051  0.008283253  14.20 0.0003136289    1.396    0.284
       466 -10.4250     88.5273     62.1091   2.9121860193e+02   6.5148809620e+00   0.00952728  0.006408469 -60.62 0.0003611994    1.471    0.320
       467 -10.9805     67.4572     61.8166   2.9145826951e+02   6.6447271865e+00   0.02169898  0.008387667  38.66  0.001573387    2.523    0.604
       468  -9.8334     45.5636     62.5401   2.9171372909e+02   6.7677649349e+00  0.006527806  0.006311508 -34.10 7.227498e-05    1.030    0.029
       469 -10.6841    160.1254     60.8477   2.9039087413e+02   6.0984120017e+00  0.009265665  0.007513307 -31.45 0.0004046166    1.313    0.239
       470 -10.6779     75.5702     59.9836   2.9135394661e+02   6.6169543446e+00   0.01892506  0.005646338  41.22  0.001309139    3.446    0.710
       471 -10.6175     38.8543     58.6478   2.9176661403e+02   6.8524011028e+00   0.01396936  0.007504384 -60.41     0.001158    1.828    0.453
       472 -11.1814     22.1552     59.7208   2.9196474748e+02   6.9401490363e+00   0.01137538   0.01032718  82.87 0.0002769927    1.179    0.152
       473 -10.9191     19.9937     56.2146   2.9196788841e+02   6.9931108176e+00   0.01117663  0.006632593  50.27  0.000851423    1.911    0.477
       474  -9.9009     15.7783     59.0358   2.9203365792e+02   6.9861288441e+00   0.01117185   0.00692229 -34.84  0.001075844    1.867    0.465
       475 -11.2068    174.4426     58.0296   2.9020959261e+02   6.0442342594e+00   0.01537579  0.009846351  13.31  0.000988982    1.816    0.449
       476 -10.5955    120.8488     62.3898   2.9085007232e+02   6.3173525575e+00   0.01052005  0.008852041 -79.80 0.0003209934    1.273    0.215
       477 -11.3504    107.2561     57.4047   2.9097491410e+02   6.4560016295e+00    0.0145856   0.01207829  -9.35  0.001021237    1.343    0.256
       478 -11.6388     46.0170     56.3730   2.9167042527e+02   6.8354453861e+00   0.02086896   0.01091598  54.35  0.001776208    2.512    0.602
       479 -10.4203    169.8752     55.8417   2.9024829136e+02   6.0967343948e+00    0.0099327  0.008503542 -35.58 0.0006510785    1.201    0.168
       480 -12.1349     93.6887     54.6890   2.9111355747e+02   6.5685523990e+00   0.01594491   0.01414739 -73.28 0.0008742623    1.160    0.138
       481 -11.7210     76.9550     53.8574   2.9130018957e+02   6.6785589233e+00   0.01250255   0.01026018 -67.42 0.0003976778    1.241    0.194
       482 -10.4947    165.1203     54.2143   2.9029261583e+02   6.1439684992e+00   0.01008562  0.008711241 -23.39 0.0004421605    1.232    0.188
       483 -10.7655     28.2289     53.7712   2.9185834428e+02   6.9717060164e+00   0.01283203   0.01065076 -13.56  0.001479027    1.334    0.250
       484 -10.4972     25.1193     51.1847   2.9187803388e+02   7.0198466091e+00   0.01158701   0.00810026  73.74 0.0004159586    1.856    0.461
       485  -9.7727    191.4356     53.5352   2.8998736052e+02   5.9929664350e+00  0.006502308  0.006347514 -37.95 5.803053e-05    1.017    0.016
       486 -10.9449    124.8789     52.9951   2.9074575846e+02   6.4002966558e+00   0.01159831  0.008911074 -68.30 0.0008942367    1.342    0.255
       487 -11.5925     10.8094     51.5204   2.9204425616e+02   7.1016421534e+00   0.01555178   0.01036215 -70.77 0.0008350588    1.618    0.382
       488 -11.1984      7.1770     51.5888   2.9208634932e+02   7.1225842181e+00   0.01406902  0.006674116  25.95 0.0006670681    2.173    0.540
       489 -10.2872    196.8474     50.8187   2.8990863062e+02   5.9912740925e+00  0.009293786   0.00761744  61.35 0.0004274517    1.344    0.256
       490 -10.5396    119.9334     51.5080   2.9079319321e+02   6.4470264029e+00  0.009826147  0.006481585  27.44 0.0005883594    1.527    0.345
       491 -10.2308     32.7186     51.5884   2.9179336690e+02   6.9697347486e+00  0.009367837  0.005924293  38.85 0.0009440493    1.581    0.367
       492 -12.1640    150.1069     49.8473   2.9043739304e+02   6.2842751755e+00   0.01868973   0.01008069  26.68  0.001755697    1.886    0.470
       493 -10.6843    100.8055     49.1721   2.9099786824e+02   6.5887279643e+00   0.01233703  0.008435851 -55.62   0.00125365    1.426    0.299
       494 -10.8452    175.8421     48.9053   2.9013703160e+02   6.1398556816e+00   0.01048788   0.00866201 -29.89 0.0006230118    1.289    0.224
       495 -10.1845    167.7102     48.9694   2.9023047609e+02   6.1881720122e+00  0.009159983  0.008104384 -59.53 0.0002989704    1.121    0.108
       496 -10.3762     79.9045     49.1553   2.9123729696e+02   6.7145077082e+00  0.009960376  0.008536322  58.90 0.0002803406    1.251    0.201
       497 -11.7099     62.1023     45.3784   2.9141802070e+02   6.8644666285e+00   0.01846058   0.01007826 -71.47 0.0008704053    2.124    0.529
       498 -10.2407     45.7598     47.9544   2.9162134574e+02   6.9330723772e+00  0.008608861  0.005452638 -59.86  0.000421997    1.553    0.356
       499 -12.3326     14.3604     46.6661   2.9197354359e+02   7.1358066127e+00   0.02154402   0.01512394  54.25  0.001891596    1.600    0.375
       500 -11.8550     20.0226     43.7543   2.9189060013e+02   7.1351583392e+00    0.0186638   0.01631298  66.47  0.002230988    1.240    0.194
       501 -11.1997     22.8799     39.2288   2.9182985913e+02   7.1697015387e+00   0.01883828   0.01243585 -87.40  0.001254515    1.979    0.495
       502 -10.4100      1.8901     48.1264   2.9212563047e+02   7.1937142371e+00  0.009705259  0.008850214  64.77 0.0004104132    1.161    0.138
       503  -9.7918    173.3018     46.3073   2.9014999284e+02   6.1848073610e+00  0.006822212  0.004927029 -27.33 0.0003475943    1.599    0.375
       504 -11.1525    137.9996     45.3364   2.9054806689e+02   6.4086684821e+00   0.01264946  0.009444598 -60.09  0.000715012    1.325    0.245
       505 -10.5178     67.6728     45.4229   2.9135442716e+02   6.8305319635e+00   0.01141366  0.007168448 -41.51 0.0006247268    1.683    0.406
       506 -11.0774     56.0337     45.8269   2.9149037819e+02   6.8957517430e+00   0.01449349  0.008251581  41.54  0.001131722    1.788    0.441
       507 -10.9223    123.7976     45.3034   2.9071051120e+02   6.4945551565e+00   0.01454801  0.008658669  17.98  0.001393707    1.888    0.470
       508 -10.3030     25.4747     44.9934   2.9183571007e+02   7.0883823980e+00   0.01004604  0.006394334 -60.52  0.001018038    1.551    0.355
       509 -10.9045    164.3474     43.9302   2.9023772689e+02   6.2659193147e+00   0.01169864  0.008915431 -16.15 0.0008137515    1.541    0.351
       510 -11.4209    151.5815     43.6679   2.9038222304e+02   6.3458697568e+00   0.01425745   0.01056343   0.21 0.0007937636    1.597    0.374
       511 -11.3489     90.6721     43.3345   2.9107786331e+02   6.7162403156e+00   0.01091488  0.009860522  68.15 0.0007055785    1.182    0.154
       512 -10.1909     80.4948     43.8979   2.9119800267e+02   6.7709524731e+00  0.009787587  0.006438399 -61.48 0.0006142646    1.511    0.338
       513 -10.9863    119.9949     40.6611   2.9072531807e+02   6.5703987208e+00  0.009277756   0.00806713  25.24 0.0002301307    1.160    0.138
       514 -12.5420     77.5271     39.8151   2.9120675935e+02   6.8353598176e+00   0.01319638    0.0125589  26.65 0.0004515662    1.057    0.053
       515 -12.4360     38.8569     39.2262   2.9164656236e+02   7.0740455889e+00   0.02822957   0.01818057  -8.98  0.002669773    2.161    0.537
       516 -12.7128    111.3427     37.2835   2.9080352478e+02   6.6609877918e+00   0.01565821   0.01434823 -59.89 0.0004027939    1.085    0.078
       517 -11.9633    106.9741     32.8271   2.9082598199e+02   6.7380980361e+00   0.01991656   0.01254941 -67.80  0.001348799    1.675    0.403
       518 -10.9449    152.8713     38.6421   2.9033630953e+02   6.3954121998e+00    0.0105191  0.008154526 -12.69 0.0006694155    1.504    0.335
       519 -11.4915      6.7882     38.5527   2.9201031287e+02   7.2736923186e+00   0.01689713   0.01268678   0.91  0.001452631    1.551    0.355
       520 -10.3990    136.8792     37.8504   2.9051451476e+02   6.5008002959e+00   0.01010044  0.008632918 -23.04 0.0004912479    1.253    0.202
       521 -10.6260     97.6755     37.8885   2.9096388619e+02   6.7362786653e+00   0.00915718  0.008158516 -65.09 0.0003871906    1.127    0.113
       522 -11.1260     13.3589     37.3876   2.9192772109e+02   7.2476868604e+00   0.01328159  0.009824904 -43.78  0.001297045    1.369    0.269
       523 -10.3639    129.0106     36.6937   2.9059746731e+02   6.5613794912e+00  0.008951751  0.008780188 -13.91 0.0003936374    1.021    0.021
       524 -10.2559    165.5087     38.4698   2.9019058722e+02   6.3211839662e+00  0.006593609  0.006309885 -27.90 -6.58094e-05    1.052    0.049
       525 -11.3687    154.1443     34.4268   2.9029560716e+02   6.4358062358e+00   0.01201918   0.00935255 -75.34 0.0004998961    1.383    0.277
       526 -11.6208     56.0393     34.3445   2.9141930001e+02   7.0267377540e+00   0.01287585   0.01272025 -39.27 0.0005777834    1.002    0.002
       527 -11.1136     71.3203     22.5166   2.9117085847e+02   7.0699595699e+00   0.01523508  0.009338173  37.92  0.001320177    1.622    0.383
       528 -10.9868     71.5203     31.5331   2.9122437664e+02   6.9659114167e+00   0.01360737  0.009659298 -43.79 0.0007993611    1.433    0.302
       529 -11.4605     70.9944     27.5950   2.9120603180e+02   7.0139912779e+00   0.02377872   0.01201367 -39.13   0.00205749    2.330    0.571
       530 -11.8294     77.2475     32.7817   2.9116643737e+02   6.9172785224e+00   0.02270129    0.0145557  28.17  0.002341406    1.564    0.361
       531 -11.5166     75.9881     27.4204   2.9114769012e+02   6.9859986534e+00   0.01496715  0.009897812 -54.57 0.0005030497    1.471    0.320
       532 -11.6645     60.8721     33.5457   2.9135893465e+02   7.0068586350e+00   0.01199851  0.009723464 -74.01 0.0006048339    1.302    0.232
       533 -10.8525    141.7758     33.2123   2.9042969807e+02   6.5241965934e+00  0.009046173  0.007515023 -26.90 0.0003937695    1.293    0.226
       534 -11.7005    135.0436     32.5670   2.9050279761e+02   6.5721107918e+00   0.01188701  0.009357238 -60.55 0.0002288099    1.260    0.207
       535 -10.2347    117.9416     33.5291   2.9070466303e+02   6.6641051610e+00  0.009665769  0.006473652  27.26  0.000644184    1.505    0.335
       536 -10.3661    158.2664     30.9679   2.9022697402e+02   6.4503942072e+00  0.009537431  0.008301229 -58.46 0.0005348364    1.138    0.121
       537 -10.1146     27.3181     30.7040   2.9172625092e+02   7.2404011133e+00    0.0107119  0.006535485  30.45 0.0003641642    1.625    0.384
       538 -10.2065     24.3451     30.7637   2.9176073129e+02   7.2575192119e+00  0.009397359  0.008513632 -55.56 0.0002051476    1.091    0.083
       539  -9.7339    197.3160     30.3260   2.8977617186e+02   6.2220619552e+00  0.006984586    0.0049065 -27.49 0.0007044178    1.671    0.402
       540 -10.6747     18.8512     30.1882   2.9182021232e+02   7.2969711065e+00  0.009121082   0.00741878 -28.98 0.0003351284    1.320    0.242
       541 -11.0865     83.1280     28.7672   2.9107416643e+02   6.9277513529e+00   0.01712583  0.009001703  41.77 0.0007825652    1.944    0.486
       542 -10.2550     38.8535     29.6543   2.9158741760e+02   7.1832797172e+00  0.009595557  0.005661231  38.31 0.0004985235    1.686    0.407
       543  -9.8941    204.9858     28.7793   2.8967886312e+02   6.1933621004e+00  0.008661835  0.005384948  27.29 0.0003817147    1.624    0.384
       544 -10.2630    122.7247     28.4580   2.9061844511e+02   6.6931485067e+00   0.01295818  0.006064089  32.72  0.001142785    2.067    0.516
       545 -11.4849    186.9826     27.0024   2.8987375098e+02   6.3223407045e+00  0.009840227  0.009693298  49.74 0.0004274348    1.030    0.029
       546 -10.8408    159.1265     26.3447   2.9018846131e+02   6.4979167447e+00   0.01049404  0.008530983 -48.82 0.0002717119    1.217    0.178
       547  -9.9312     55.7897     27.3717   2.9137902436e+02   7.1077812138e+00  0.008528865  0.006300799  12.36 0.0002757409    1.490    0.329
       548 -11.1985     65.8908     24.2371   2.9124377546e+02   7.0829292101e+00   0.01489543    0.0102076  37.56  0.001038446    1.455    0.313
       549 -10.2951     60.8501     25.4193   2.9130890303e+02   7.0996948580e+00  0.009044582  0.006368589   7.83 0.0003888475    1.655    0.396
       550 -11.5788     38.6696     22.5313   2.9154547158e+02   7.2656383741e+00   0.02440656   0.01419313 -74.61  0.002275783    2.059    0.514
       551 -11.1215     33.7978     17.4373   2.9156986028e+02   7.3529312411e+00   0.01430386   0.01079375 -89.33 0.0007947588    1.574    0.365
       552 -10.1985     30.8830     24.4135   2.9164645424e+02   7.2908155134e+00   0.01147932  0.007308624 -56.14  0.001172421    1.526    0.345
       553 -10.6405    244.8140     23.8849   2.8919329681e+02   6.0083338153e+00  0.009712431  0.008628518 -28.22 0.0003633359    1.169    0.145
       554  -9.8638     50.3363     24.2650   2.9142235461e+02   7.1759269981e+00  0.006708467  0.004974614 -20.68 0.0002879949    1.587    0.370
       555 -10.9765     18.6821     23.4873   2.9178073245e+02   7.3744302000e+00   0.01236477  0.008676944 -59.33  0.001326001    1.403    0.287
       556 -10.9655     46.5954     23.3142   2.9145938614e+02   7.2092023102e+00   0.01110538  0.008024956  -7.11 0.0007396823    1.703    0.413
       557  -9.8075      5.5265     23.4566   2.9193152738e+02   7.4534803639e+00  0.006467544  0.006401606 -31.13 0.0003823895    1.002    0.002
       558 -10.5264    220.8067     21.8494   2.8945498007e+02   6.1767141568e+00  0.009007951  0.007573497  67.27 0.0003545518    1.318    0.241
       559 -10.7440    146.8250     21.8952   2.9030171827e+02   6.6228064816e+00  0.009783548   0.00856885 -31.76 0.0002969842    1.180    0.153
       560 -10.2691     54.9911     21.4901   2.9135178961e+02   7.1796613755e+00  0.009660535  0.006512864  25.56 0.0004358137    1.509    0.337
       561 -10.7089    180.9910     19.7886   2.8989754850e+02   6.4407293247e+00   0.01105719   0.00734257 -16.80  0.001065618    1.999    0.500
       562 -10.0166    151.1759     20.3648   2.9024240622e+02   6.6140265349e+00  0.008929236  0.005864858  38.51 0.0002579397    1.520    0.342
       563 -11.0434    193.2860    249.0781   2.9117475964e+02   3.7496823165e+00   0.01235277  0.009343125  40.23 0.0009548261    1.333    0.250
       564 -10.7331    101.9530     18.0413   2.9079193226e+02   6.9369193492e+00  0.009990117  0.009659246  -0.88 0.0007921082    1.045    0.043
       565 -10.7421     57.8416     17.4969   2.9129437664e+02   7.2081058945e+00   0.01257663  0.009294443 -61.64  0.001382482    1.347    0.258
       566 -10.6367      4.4179     18.1799   2.9191164050e+02   7.5203012822e+00   0.01821812  0.009705095  -0.14  0.001373807    3.404    0.706
       567 -10.0633    184.3024     17.2804   2.8984409494e+02   6.4493223805e+00  0.006660447  0.004958315 -24.78 0.0002299149    1.549    0.354
       568 -11.2790    111.9195     16.5634   2.9066854403e+02   6.8938127958e+00   0.01591644  0.009497339 -28.68  0.001455971    2.190    0.543
       569 -10.3134     61.8395     17.1896   2.9124661672e+02   7.1876228182e+00  0.009083301  0.007338006 -34.45 0.0004235061    1.299    0.230
       570 -10.9896    179.4505    248.4712   2.9132893234e+02   3.8398120818e+00   0.01251927   0.01197291 -42.16 0.0006334044    1.038    0.037
       571 -10.3733     18.9768     14.7473   2.9172331066e+02   7.4723594152e+00   0.01294635  0.006029362  28.97  0.001032704    2.128    0.530
       572 -11.9097    180.8805    244.6727   2.9128921294e+02   3.8745926213e+00   0.02148297   0.01186921 -73.08 0.0002396879    2.158    0.537
       573 -10.6129    116.9967     13.9463   2.9059413801e+02   6.8930943767e+00   0.01102979  0.007752981 -24.57  0.001132369    1.705    0.413
       574 -11.5653    131.1259     17.1227   2.9045194042e+02   6.7718060468e+00   0.01162541   0.01010175 -34.39 0.0002950394    1.183    0.155
       575 -10.0017     22.8232     12.8241   2.9166727019e+02   7.4712695780e+00  0.009262564  0.007566109  60.31  0.001016024    1.347    0.258
       576 -11.3703    151.5758    240.8734   2.9160041229e+02   4.0941395189e+00   0.01480342  0.009797303  35.26  0.000693821    1.496    0.332
       577  -9.6764     66.5175    248.4651   2.9261885096e+02   4.5177452856e+00   0.00651993  0.006377919 -30.15 6.389291e-05    1.019    0.019
       578 -10.2612     58.5996    246.7209   2.9269863427e+02   4.5851046240e+00  0.007521704  0.006351782 -73.77 0.0002469559    1.233    0.189
       579 -11.0703    195.1499    245.2483   2.9112989056e+02   3.7822015979e+00   0.01406591  0.008811325  71.77 0.0006550149    2.329    0.571
       580  -9.9391    211.5339    245.5201   2.9094460946e+02   3.6805286926e+00  0.006475397  0.006427352 -49.42  1.93392e-05    1.008    0.008
       581 -12.5575    203.1208    241.3098   2.9101465507e+02   3.7792197286e+00   0.01818859   0.01266489 -61.35 0.0005984225    1.427    0.299
       582 -10.6651    173.5871    244.5107   2.9137147529e+02   3.9202954072e+00   0.01109141  0.009509364 -72.41  5.00044e-05    1.205    0.170
       583 -10.9139    172.6250    240.8251   2.9135975957e+02   3.9681727904e+00   0.01181917  0.009452172  50.08 0.0003802793    1.316    0.240
       584 -11.0210     65.4392    243.7579   2.9260227790e+02   4.5780061343e+00  0.008897405  0.007409844 -70.61 0.0003818705    1.236    0.191
       585 -11.6833    161.0814    240.5800   2.9149005457e+02   4.0403649715e+00   0.01417561   0.01031106 -72.94   0.00152677    1.480    0.325
       586 -11.0124    218.7246    240.4851   2.9083153050e+02   3.6947355049e+00   0.01439116   0.01044027   9.66 0.0007944351    1.561    0.360
       587 -11.4240    181.4914    236.4802   2.9123176700e+02   3.9644787937e+00   0.01772043   0.01041887 -85.92  0.001548336    2.483    0.597
       588 -12.4066    183.2100    232.5800   2.9118811336e+02   3.9986832967e+00    0.0240925   0.01412112 -61.97 0.0003335631    1.701    0.412
       589 -12.4405    196.7924    235.5434   2.9105133383e+02   3.8831358284e+00   0.02319731   0.01377994 -46.36  0.001322549    1.701    0.412
       590 -12.1099    190.0173    236.4411   2.9113419969e+02   3.9136431205e+00   0.02650541   0.01269333 -50.29  0.001648588    2.032    0.508
       591 -11.9156    167.4482    235.5105   2.9138613103e+02   4.0599969245e+00    0.0195871   0.01200592 -81.44 -3.792041e-05    2.117    0.528
       592 -11.6517    156.5059    226.1774   2.9145360654e+02   4.2323845826e+00   0.02034707   0.01382923 -42.33  0.001710923    1.523    0.344
       593 -12.3048    156.4603    233.2080   2.9149742986e+02   4.1523476092e+00    0.0195357   0.01170652 -56.93  0.001016599    1.618    0.382
       594 -12.3222    161.1656    231.8317   2.9143521604e+02   4.1397858295e+00   0.01556641   0.01365933 -61.08 0.0004452419    1.133    0.118
       595 -11.1363    216.6857    236.0328   2.9082733796e+02   3.7578353457e+00   0.01197338  0.009101734  35.21 0.0005132207    1.312    0.238
       596 -11.9634    219.0679    232.3942   2.9077771736e+02   3.7850333403e+00   0.01708128    0.0104767 -63.24  0.001324314    1.644    0.392
