#   1 NUMBER                 Running object number                                     
#   2 MAG_AUTO               Kron-like elliptical aperture magnitude                    [mag]
#   3 X_IMAGE                Object position along x                                    [pixel]
#   4 Y_IMAGE                Object position along y                                    [pixel]
#   5 X_WORLD                Barycenter position along world x axis                     [deg]
#   6 Y_WORLD                Barycenter position along world y axis                     [deg]
#   7 A_WORLD                Profile RMS along major axis (world units)                 [deg]
#   8 B_WORLD                Profile RMS along minor axis (world units)                 [deg]
#   9 THETA_WORLD            Position angle (CCW/world-x)                               [deg]
#  10 FWHM_WORLD             FWHM assuming a gaussian core                              [deg]
#  11 ELONGATION             A_IMAGE/B_IMAGE                                           
#  12 ELLIPTICITY            1 - B_IMAGE/A_IMAGE                                       
         1 -12.3682    157.5909     48.6514   8.3014428520e+01   3.9996497767e+01     1.238977     1.078921   4.84  0.004412943    1.286    0.223
         2 -11.1453    169.1886     21.4018   7.2064773541e+01   4.0536436163e+01     1.008377    0.4450701  57.45  0.004084839    2.012    0.503
         3 -11.4402    167.6601     15.3564   7.0355746962e+01   4.1599346949e+01    0.9623127    0.4922547  60.91  0.004237005    1.735    0.424
         4  -9.3039    120.1916      9.5817   7.6784750246e+01   5.4247130554e+01    0.3676775    0.3021371  29.23  0.001503865    1.164    0.141
         5 -10.1056    247.1378      3.8707   5.8928390513e+01   2.2714117295e+01    0.5266575      0.23556  59.28  0.001746483    2.361    0.577
         6  -9.3054    236.2770      2.3103   5.9365452749e+01   2.5417859106e+01    0.2432178    0.2188289 -36.78 0.0008925645    1.245    0.197
         7  -8.6789    211.9861    177.4818   1.0528904454e+02   4.7031788809e+00    0.2451875    0.1903837 -51.17 0.0008790884    1.616    0.381
         8  -9.3428    152.1981    249.1825   1.2769452877e+02   4.6065658147e+00    0.4494986    0.1861478  42.32  0.002218226    1.846    0.458
         9 -18.6175     77.0750    224.2268   1.3867606118e+02   2.0162967872e+01     4.749553     3.613993  66.84   0.01722498    1.020    0.019
        10 -10.0011    204.3789    176.1369   1.0645965315e+02   6.3819109907e+00    0.3328235    0.3135105  17.04  0.001044545    1.079    0.073
        11  -9.5767    197.2629    177.4457   1.0808517125e+02   7.5578344134e+00    0.3129948    0.2324721  31.46  0.001223351    1.267    0.211
        12 -10.2444    171.6655    196.6428   1.1661269935e+02   9.2830764911e+00     0.423959    0.3288855  81.08  0.001479537    1.772    0.436
        13  -9.0712    188.4725    159.5035   1.0620513265e+02   1.2409517617e+01    0.2407294    0.1431297 -39.89 0.0006981348    1.776    0.437
        14 -10.2632    193.8895    167.2359   1.0671748716e+02   9.9428599071e+00    0.3730846    0.3504724 -79.67  0.001180624    1.278    0.218
        15  -9.4344    191.2164    162.6030   1.0629900059e+02   1.1292642927e+01    0.3895971    0.2642955  18.83  0.001808411    1.856    0.461
        16  -9.3403    200.5781    168.5842   1.0568100267e+02   8.3674884339e+00    0.2892403    0.2429307  52.17  0.001397701    1.255    0.203
        17  -9.1855    203.9859    163.7158   1.0402221072e+02   8.4940855079e+00    0.5102731    0.2151254 -42.61  0.002019361    2.553    0.608
        18 -10.4183    150.4197    161.0160   1.1460023873e+02   1.9994936380e+01    0.5337673    0.3294375 -45.42  0.001829818    1.744    0.427
        19 -10.3055    150.8839    154.1867   1.1313056352e+02   2.1277265205e+01    0.6119196    0.3673308  76.82  0.002171509    3.282    0.695
        20  -9.7810    144.0386    155.5258   1.1494685670e+02   2.2400143271e+01    0.3752463    0.2420719  73.21  0.001576067    2.230    0.552
        21 -10.8159    156.4262    192.4534   1.1897895072e+02   1.2860856072e+01    0.7190139    0.4862914 -84.78  0.001327649    2.413    0.586
        22  -9.8782    143.9538    159.1518   1.1568070275e+02   2.1673080723e+01     0.532864    0.3313574  70.16  0.001572067    2.291    0.563
        23  -8.7346     11.0241    218.0257   1.4992209019e+02   2.9152258207e+01    0.2003587     0.112859 -79.22 0.0008502431    1.586    0.369
        24  -9.7085    155.0735    167.3347   1.1480182016e+02   1.7810802636e+01    0.3538487    0.2897691 -79.02 0.0007774371    1.450    0.310
        25  -9.3264    145.7509    190.7457   1.2089732331e+02   1.5160670835e+01     0.263237    0.1858509 -66.08  0.001396938    1.704    0.413
        26 -11.9006    143.4279    147.0266   1.1334876430e+02   2.4290556329e+01     1.338019    0.8243204 -75.20  0.005220284    2.634    0.620
        27  -9.7697    136.4844    139.4610   1.1337049314e+02   2.7324015941e+01    0.3436953    0.2700216 -65.14  0.001149829    1.360    0.265
        28 -11.3907    134.0444    146.9079   1.1551926029e+02   2.6222142327e+01     1.279163    0.4218534 -54.49  0.004036857    3.564    0.719
        29  -9.4786    132.6293    137.7719   1.1393185874e+02   2.8476006063e+01    0.3049732    0.2491829 -54.59 0.0007453132    1.243    0.196
        30  -8.7716     10.4084    153.2157   1.4607983124e+02   4.2266833842e+01    0.3136492    0.1871445 -34.55  0.001734689    2.976    0.664
        31  -9.0231     27.4701    146.0645   1.4151829129e+02   4.2346664854e+01    0.3299508    0.1834711 -83.37  0.001863295    1.541    0.351
        32  -8.2769     29.1788    141.6312   1.4063547487e+02   4.3182221508e+01    0.1925025    0.1292611 -49.71 0.0004101323    1.717    0.418
        33  -8.0286    172.8856    145.8652   1.0651529217e+02   1.8265168409e+01    0.2001706    0.1756123  80.76            0    1.301    0.232
        34  -8.1049     20.1394    141.1149   1.4276774512e+02   4.4118439467e+01    0.1646727    0.1305741 -68.85 0.0002588596    1.229    0.187
        35  -9.5831     47.0882    138.9230   1.3584985623e+02   4.1936993979e+01    0.1919037    0.1641806 -79.98 0.0004888137    1.075    0.070
        36  -8.3604    191.8973    133.9509   9.9824066494e+01   1.6318118783e+01    0.2121273    0.2080549   9.27 0.0003052383    1.021    0.020
        37 -11.3597     11.5087    207.0127   1.4929210919e+02   3.1163971460e+01    0.4735493    0.3393518  42.79  0.002514883    1.566    0.361
        38  -8.5424    160.8902    128.7656   1.0522844229e+02   2.4308114555e+01    0.2975438    0.2048746 -73.09  0.001236202    2.082    0.520
        39 -10.2106    123.7453    128.3925   1.1405402551e+02   3.2324328024e+01    0.4059962    0.2795906  38.12 0.0007583037    1.536    0.349
        40 -10.1111    237.8185    125.9084   8.9534605079e+01   7.6990160384e+00    0.2708049    0.2498743  41.27 0.0004972236    1.157    0.136
        41  -9.6685    111.2201    123.3685   1.1614634766e+02   3.5885619192e+01    0.2623863    0.2325047 -68.24 0.0004428246    1.097    0.088
        42  -9.5245    181.3733    183.7811   1.1241549303e+02   9.6002242577e+00    0.4251418    0.2035335 -45.29  0.001553428    2.358    0.576
        43 -10.1560    152.7817    200.3008   1.2097591660e+02   1.2151618689e+01    0.4122856    0.2732396 -58.32  0.001854129    1.816    0.449
        44  -9.8998     79.1540    118.2076   1.2375336758e+02   4.2548087400e+01    0.3252806    0.1970455 -57.53  0.001577748    1.515    0.340
        45  -9.5079    195.0647    183.1410   1.0960216464e+02   7.0559986997e+00    0.2912138    0.2550602   1.98 0.0007831927    1.174    0.148
        46  -9.3472    164.8763    180.9763   1.1525753688e+02   1.3307451819e+01    0.3671475    0.2766261  88.86  0.001077489    1.878    0.468
        47  -9.3908    222.0176    178.0750   1.0356110274e+02   2.7193924306e+00    0.2896944    0.1880448 -42.92 0.0008569349    1.768    0.434
        48  -9.8065    122.7125    112.2026   1.1046939082e+02   3.6111108414e+01    0.3918479    0.2169333  48.87  0.001199246    1.844    0.458
        49 -11.2144    112.2734    107.7766   1.1214391461e+02   3.9182807107e+01    0.6612218    0.3538545 -50.29  0.002754923    1.823    0.451
        50  -9.8253     53.6310    110.8898   1.2963483413e+02   4.7698713311e+01     0.459493    0.2392221  25.00  0.002139057    2.507    0.601
        51 -10.7181     60.2937    109.4339   1.2740522364e+02   4.7220406150e+01     0.487288    0.3309194  42.52  0.002351071    1.608    0.378
        52 -10.5202     62.8959    105.3451   1.2580596004e+02   4.7835048828e+01      0.58245    0.3778828 -84.89   0.00240064    1.880    0.468
        53 -11.2711     66.6889    101.6220   1.2386474548e+02   4.8189511758e+01     0.797721    0.5290378 -68.92  0.003869233    1.493    0.330
        54  -9.5019    241.2950    107.9722   8.4762566904e+01   9.7960544917e+00    0.3660851    0.1540861 -39.32  0.001452409    2.187    0.543
        55 -10.0980    117.1441    110.1609   1.1143021108e+02   3.7690378143e+01    0.4372913     0.223081  43.94   0.00114137    1.999    0.500
        56  -8.2912     31.9547    104.7686   1.3496405339e+02   5.1377341437e+01    0.2418199    0.1494762   0.74  0.001254699    2.611    0.617
        57  -8.1335     75.8595    100.1404   1.2074980807e+02   4.7220175668e+01    0.1860113    0.1610475 -28.51 0.0009673507    1.293    0.227
        58  -7.7749    184.0177    111.4787   9.5894471852e+01   2.2336994553e+01    0.2234097    0.1518294  51.81 0.0003436689    1.471    0.320
        59  -7.8204    124.3093     96.3257   1.0584948074e+02   3.9207989305e+01    0.1539617     0.122793  -2.28 0.0003637648    1.655    0.396
        60  -9.5915    153.9709     67.2044   8.9746116954e+01   3.7914447873e+01    0.2772637    0.2332786  73.06 0.0005557781    1.272    0.214
        61 -11.5211    147.7424     62.6949   8.9720034961e+01   4.0244430727e+01    0.7512847     0.644369 -38.79  0.002277415    1.180    0.152
        62  -8.0174    163.3103    244.2983   1.2513919106e+02   3.4884483760e+00    0.1789797    0.1337826  37.23  0.000407348    1.122    0.109
        63  -8.5286    191.9188     63.7900   8.1236753956e+01   2.8732234425e+01    0.2138405    0.1960344  34.81 0.0002971695    1.174    0.148
        64  -8.5713    132.1993     52.3874   8.9975801529e+01   4.5759037428e+01    0.2435158    0.1986088 -18.42 0.0004574473    1.298    0.230
        65  -9.7328    247.1385     50.3437   6.9951850382e+01   1.7069095257e+01    0.2449338    0.2342229  76.45 0.0004175566    1.152    0.132
        66  -7.9316    250.6194     46.2049   6.8577492960e+01   1.6832298861e+01    0.1770844    0.1245439 -21.24 0.0002985536    1.580    0.367
        67 -10.9146    162.0786     39.2869   7.9078269296e+01   4.0173636267e+01    0.5399995    0.4572954  54.74 0.0007888699    1.131    0.116
        68  -8.2929    247.5075     39.4998   6.7288511185e+01   1.8425956842e+01    0.1337622    0.1217707 -58.43 -0.0002542508    1.055    0.052
        69  -8.2567    188.1685     37.6880   7.4185588847e+01   3.3513345725e+01    0.1971644    0.1851425  59.49 0.0005704025    1.084    0.077
        70 -10.2769    142.1324     28.8252   7.9409658778e+01   4.6690668842e+01    0.2347685    0.2270608  32.85 0.0002315979    1.038    0.036
        71  -9.1012    166.3705    247.7017   1.2502395688e+02   2.5330988912e+00     0.190328    0.1666253  23.50 0.0005527227    1.245    0.197
        72  -9.0910    162.5598    247.9998   1.2573092807e+02   3.1066096800e+00    0.1906521    0.1875446  88.18 0.0004451725    1.315    0.239
        73  -8.0309     12.4278     23.2304   1.2248275105e+02   7.0075000013e+01    0.1490806   0.09388294 -57.29 0.0009409252    1.565    0.361
        74  -8.7426    190.2710     15.4432   6.7321371356e+01   3.5630076162e+01     0.279286    0.1197179  64.31 0.0008696328    2.073    0.518
        75  -9.3038    170.1869    241.8221   1.2359897852e+02   2.7039701931e+00    0.2900559    0.2069228  35.38  0.001710976    1.174    0.148
        76  -9.6128    168.4835    236.4226   1.2319212137e+02   3.7299073767e+00    0.2905054    0.1733664  40.38 0.0007933895    1.329    0.248
