#   1 NUMBER                 Running object number                                     
#   2 MAG_AUTO               Kron-like elliptical aperture magnitude                    [mag]
#   3 X_IMAGE                Object position along x                                    [pixel]
#   4 Y_IMAGE                Object position along y                                    [pixel]
#   5 X_WORLD                Barycenter position along world x axis                     [deg]
#   6 Y_WORLD                Barycenter position along world y axis                     [deg]
#   7 A_WORLD                Profile RMS along major axis (world units)                 [deg]
#   8 B_WORLD                Profile RMS along minor axis (world units)                 [deg]
#   9 THETA_WORLD            Position angle (CCW/world-x)                               [deg]
#  10 FWHM_WORLD             FWHM assuming a gaussian core                              [deg]
#  11 ELONGATION             A_IMAGE/B_IMAGE                                           
#  12 ELLIPTICITY            1 - B_IMAGE/A_IMAGE                                       
         1 -13.1410    203.6031     34.7610   6.0082280961e+01   3.0761041352e+01     1.059465    0.8686848  76.45  0.006484425    1.154    0.133
         2 -13.7818    221.4747     15.6873   5.4388642415e+01   2.9250743187e+01    0.9167316    0.7892641  54.86  0.002613893    1.573    0.364
         3 -13.5037      4.5518     17.7177   1.0675463804e+02   6.9840313750e+01     1.487506    0.3889661 -41.36  0.007073786    3.204    0.688
         4 -12.8504      5.1833      5.0767   1.0115717776e+02   7.1375411127e+01     1.012784    0.4835376  20.46  0.006525951    1.880    0.468
         5 -11.1027     68.3466    245.6207   1.3251619021e+02   1.3314737157e+01    0.3162299    0.2255743  66.89 0.0009906854    1.255    0.203
         6 -12.0957    165.6239    242.8535   1.1166739918e+02  -1.4717759944e+00    0.4806578    0.3569394  62.31  0.002553429    1.761    0.432
         7 -10.7945    184.4524    250.0315   1.0893648570e+02  -5.7070652104e+00    0.3002473     0.203142  -2.72  0.001355667    1.815    0.449
         8 -12.6293    181.4607    244.3030   1.0861730624e+02  -4.2583237525e+00     0.698675    0.3355655  39.96  0.003251851    1.963    0.490
         9 -11.1616    169.4437    248.5952   1.1177972078e+02  -3.1185411063e+00    0.4443613    0.2629224   7.51  0.001690569    2.729    0.634
        10 -11.5327    176.7136    249.7579   1.1046809417e+02  -4.4644274108e+00     0.584727    0.2586676  29.05  0.002509292    2.359    0.576
        11 -11.2483    162.0179    250.1145   1.1355282743e+02  -2.2086957138e+00    0.4561562    0.1997916  37.10  0.002025487    2.044    0.511
        12 -12.1207    150.5183    246.5824   1.1542136417e+02   2.9004679642e-01    0.5797159    0.3714383 -36.84  0.002998951    1.825    0.452
        13 -12.6325    135.2742    236.0139   1.1709043788e+02   4.8650409430e+00     1.720106    0.7437394 -66.04  0.005907593    4.039    0.752
        14 -11.9964    118.6963    237.2301   1.2087051106e+02   7.3597196196e+00    0.6558498    0.4568932  -3.50  0.002591008    2.493    0.599
        15 -13.5989    125.2706    245.9700   1.2067853096e+02   4.5169589494e+00     1.786952    0.8080829  45.44  0.007883857    2.025    0.506
        16 -11.3712     99.8604    247.8648   1.2628042609e+02   8.1719638233e+00    0.5280522    0.4748882  52.09  0.002834083    1.087    0.080
        17 -11.9032    113.5482    230.8720   1.2109636579e+02   9.5471969071e+00    0.5912263    0.4365688   9.85  0.002472501    1.910    0.476
        18 -10.9688     97.3431    239.4257   1.2576696185e+02   1.0317538852e+01    0.4333181    0.2736929  71.48  0.002107074    1.875    0.467
        19 -11.6514     87.5350    248.3575   1.2889345047e+02   9.9501620444e+00    0.5930241    0.3857549  48.48   0.00172483    1.346    0.257
        20 -10.4210     81.2996    247.8972   1.3012166414e+02   1.0971668334e+01    0.3453033    0.1753428 -66.59  0.001073235    2.069    0.517
        21 -12.3110    102.5866    238.5304   1.2452868868e+02   9.6831694085e+00    0.5784342    0.5477425 -56.24  0.001627435    1.217    0.178
        22 -12.1859    102.9498    230.6197   1.2339753961e+02   1.1323361316e+01     0.767697    0.4660908  22.19  0.002348752    2.250    0.555
        23 -11.5121     83.2680    240.3307   1.2885999703e+02   1.2274384428e+01    0.7271776    0.2861146  56.01  0.002759143    3.052    0.672
        24  -9.5238     56.4781    250.4191   1.3534014399e+02   1.3939668619e+01    0.2197741    0.1419339  40.07 0.0008264623    1.521    0.343
        25 -11.4221     59.6920    245.8873   1.3428048433e+02   1.4456102164e+01    0.5732387    0.3440372  50.76  0.003214744    1.451    0.311
        26 -12.0321     44.8722    200.8491   1.3270026685e+02   2.6654456131e+01     1.000177    0.7332193 -31.82  0.003994413    1.989    0.497
        27 -11.9469     49.0207    216.8233   1.3354823359e+02   2.2341467644e+01     1.519727    0.6890826  62.44  0.005134681    2.614    0.617
        28 -14.2669      8.9213    210.9726   1.4141422569e+02   2.8196486399e+01     2.791238     1.282161 -78.11   0.01443689    1.807    0.447
        29 -14.1902      6.8114    244.1762   1.4413373377e+02   2.1149854893e+01     1.595855      1.21875 -78.55            0    1.304    0.233
        30 -13.1938     23.0250    225.0152   1.3971800851e+02   2.3560832049e+01    0.4517252    0.4070398 -50.01 0.0008192557    1.518    0.341
        31 -14.2161     28.6772    218.4885   1.3801486950e+02   2.4407906686e+01     1.148304    0.9668248 -72.54  0.007133334    1.251    0.201
        32  -9.3710     53.7104    241.0030   1.3500798790e+02   1.6301791880e+01    0.1760163     0.142869  88.51 0.0006368995    1.108    0.098
        33  -9.2206     66.3639    239.5037   1.3228694675e+02   1.4900776545e+01    0.2469526    0.1326772  77.84  0.001125452    2.307    0.566
        34  -9.6778     73.9318    237.5558   1.3050403579e+02   1.4245486950e+01    0.2963518     0.166977 -73.49  0.001148813    1.836    0.455
        35  -9.0111     48.4873    237.4748   1.3572321745e+02   1.7749828628e+01    0.2513708    0.1091732  39.35  0.001196747    2.156    0.536
        36 -10.4518    130.0414    235.7053   1.1818258234e+02   5.8004042410e+00    0.2312505    0.1907259 -73.17  0.001156369    1.358    0.264
        37  -9.4783     54.7843    235.5086   1.3425709928e+02   1.7355020223e+01     0.261369    0.1352925  70.77  0.001202096    2.189    0.543
        38  -9.7493    157.1820    234.0463   1.1204273302e+02   1.5848374263e+00     0.212891    0.1610864 -89.07 0.0007097996    1.964    0.491
        39 -10.0350    250.2379    229.9851   9.2913077841e+01  -1.1791423428e+01    0.1647902   0.08829593 -36.84 0.0008918995    1.654    0.395
        40 -11.5385    244.9904    241.1830   9.5810421407e+01  -1.2827091771e+01    0.2234856    0.1558662 -27.87  0.001334784    1.262    0.208
        41 -12.1314     89.0382    238.7079   1.2744816256e+02   1.1751224776e+01    0.7987944    0.4531621  73.73  0.003510498    2.341    0.573
        42  -9.3867     56.4068    228.6942   1.3322676070e+02   1.8653747730e+01    0.3301532    0.1639393  85.64  0.001380991    2.631    0.620
        43 -10.9866     70.7458    219.1157   1.2904109109e+02   1.8849486429e+01    0.6205631    0.3665781  83.37  0.002881803    2.027    0.507
        44 -10.0493     77.1682    220.8412   1.2782694955e+02   1.7512539747e+01    0.2918011    0.2090202  75.56 0.0003878523    1.411    0.292
        45 -10.4857     80.6853    226.6851   1.2777919649e+02   1.5657761666e+01    0.4239266     0.267098 -37.36  0.001769807    2.389    0.581
        46 -10.0170     78.9727    224.5368   1.2788898955e+02   1.6399561290e+01    0.3877776    0.2781621 -15.85  0.001837664    2.543    0.607
        47 -10.9883    136.2056    224.6717   1.1512302602e+02   7.0567712913e+00    0.4181161    0.2236294 -44.44  0.001111198    2.061    0.515
        48  -9.9272     88.0406    223.8463   1.2579284770e+02   1.5180144825e+01    0.2810425    0.2061191  55.45  0.001434283    1.272    0.214
        49  -9.4713     65.1229    224.2610   1.3088191402e+02   1.8464340703e+01    0.2989369    0.1548365 -48.42  0.001350038    2.402    0.584
        50  -9.2042     45.7877    225.2485   1.3510124418e+02   2.0816139764e+01    0.1609329    0.1367346 -67.04 0.0004312416    1.295    0.228
        51  -9.6610     92.0872    226.0801   1.2518813986e+02   1.4048214789e+01    0.2222551    0.1707278  68.94  0.000800007    1.276    0.216
        52 -11.0319     98.6049    222.7396   1.2327896756e+02   1.3766935419e+01     0.318939    0.2738739  62.77   0.00107504    1.075    0.070
        53 -10.1867    246.0000    220.4676   9.1950958849e+01  -9.7323814818e+00    0.2771812   0.06234061 -41.54 0.0009402444    3.979    0.749
        54 -10.4237    141.7687    219.4306   1.1302196077e+02   7.2075761623e+00    0.3612133    0.2443025 -47.97  0.001304999    1.548    0.354
        55  -9.4556     90.9628    220.0211   1.2462628978e+02   1.5596317207e+01    0.2258571     0.150369  68.81 0.0004191041    1.651    0.394
        56 -10.0837    116.5078    216.1177   1.1822716597e+02   1.2301354317e+01    0.3199559    0.2387177  -6.91  0.001462997    2.038    0.509
        57 -10.5402     84.3875    230.1984   1.2740630258e+02   1.4314328715e+01    0.3404735    0.2259641 -53.82  0.001149977    1.647    0.393
        58  -9.8139     87.3612    212.4845   1.2440807673e+02   1.7906833683e+01     0.412003     0.215394  69.47  0.001543715    2.947    0.661
        59 -10.4915     63.0370    208.6382   1.2948651331e+02   2.2405204738e+01    0.3860157    0.3358272 -28.77  0.001496835    1.543    0.352
        60  -9.8261     58.5113    212.5092   1.3097601230e+02   2.2104777049e+01    0.2451628    0.1879998  43.14 0.0009499138    1.341    0.254
        61 -10.5334     55.8385    208.9645   1.3115866101e+02   2.3303675419e+01    0.5000437    0.1813117 -67.44   0.00197075    2.590    0.614
        62  -8.8046     74.3590    208.2746   1.2683752141e+02   2.0875068510e+01     0.191914    0.1232539 -77.57 0.0005298638    1.577    0.366
        63 -10.3685    246.5562    206.2926   8.9241306622e+01  -7.4582569318e+00    0.2202549    0.1463555   6.10  0.001196319    1.782    0.439
        64  -9.6233     99.5078    210.0366   1.2123203996e+02   1.6540908081e+01    0.3211503    0.1570135  65.14 0.0008842423    3.604    0.722
        65 -10.2068    106.8926    203.3459   1.1844715091e+02   1.6888022906e+01     0.293919    0.2257436 -61.49 0.0004680594    1.300    0.231
        66  -9.2873     90.8632    204.7915   1.2247920074e+02   1.9179113843e+01    0.3276115    0.1230753  29.84  0.001079817    3.506    0.715
        67  -8.7081     83.3209    201.6395   1.2380515812e+02   2.1120371818e+01    0.1552491    0.1021691  73.59 0.0007043037    1.771    0.435
        68 -10.3366     74.6536    200.1185   1.2565095635e+02   2.2798923694e+01    0.2306047    0.2148246 -74.42 0.0004329059    1.120    0.107
        69 -13.5061     38.0614    242.5806   1.3822744190e+02   1.7959568560e+01     1.730503     1.017024  89.99  0.009832452    1.582    0.368
        70  -8.7750     96.8038    199.3483   1.2022450545e+02   1.9526932853e+01    0.1879275    0.1376782  27.79 0.0003117095    1.561    0.359
        71  -9.7664     52.9661    198.1986   1.3051511517e+02   2.6276491906e+01    0.2747928    0.1970486  22.94   0.00145785    1.786    0.440
        72 -11.7909     53.1135    193.1477   1.2984269210e+02   2.7494864136e+01    0.3848824    0.3439688  11.95   0.00063768    1.455    0.313
        73 -13.0702     26.3304    247.4388   1.4082195745e+02   1.8331571670e+01     1.604366    0.7972159  30.11  0.008384242    2.531    0.605
        74  -9.9597    249.7202    194.0101   8.6382136595e+01  -5.7977713994e+00    0.2246786    0.1613452  11.70  0.001288965    1.603    0.376
        75 -10.2123     30.7890    193.1855   1.3506060470e+02   3.0145156073e+01    0.2556605    0.2203681 -84.87 0.0005570946    1.076    0.071
        76 -10.0979     33.6986    192.0928   1.3427199645e+02   3.0089293297e+01     0.347149    0.1704059  82.92 0.0008514649    2.584    0.613
        77 -10.2620     25.9468    192.7282   1.3611362229e+02   3.0774229637e+01    0.2814685    0.2421014  52.77  0.000889866    1.269    0.212
        78  -9.8792     21.9004    192.9110   1.3704406264e+02   3.1147839403e+01     0.326855     0.183436  75.58  0.001232145    1.856    0.461
        79  -9.4340    191.5551    191.4970   9.6915105625e+01   4.1731174989e+00    0.2358818    0.1995062 -47.37 0.0006429256    1.191    0.160
        80  -8.4489     38.5815    192.2454   1.3315662144e+02   2.9496690782e+01    0.1408182   0.08502356  63.10 0.0005257144    1.728    0.421
        81 -10.2601    250.1222    187.5883   8.5089654743e+01  -4.7318117978e+00    0.2865649    0.1456589 -29.81  0.001336328    1.989    0.497
        82  -9.3646     76.1884    186.9061   1.2333110998e+02   2.5829422129e+01    0.3803375    0.1966734 -81.35   0.00139156    2.688    0.628
        83 -10.6762     71.0931    187.0664   1.2462202727e+02   2.6539898309e+01    0.2815016    0.2177282  33.75 0.0003134217    1.430    0.301
        84 -10.9031      9.5603    186.6747   1.3919766357e+02   3.3817537817e+01    0.4052902    0.1752879 -88.14  0.001792606    2.381    0.580
        85 -11.7651     59.8691    185.4404   1.2716462814e+02   2.8515568067e+01    0.2982691    0.2404796 -58.95 0.0004203601    1.218    0.179
        86  -8.8221    107.1883    185.6158   1.1536705362e+02   2.1117059255e+01    0.1929038    0.1457786  26.34 0.0003963908    1.516    0.340
        87 -10.6962     37.1188    180.2856   1.3206583522e+02   3.2608782380e+01    0.3670724    0.1814144 -60.22 0.0004390751    1.759    0.431
        88  -9.5446     27.0516    179.7331   1.3443127933e+02   3.3825455333e+01    0.2229692    0.1513188 -82.97 0.0003831188    1.287    0.223
        89  -8.4433     47.6580    179.7070   1.2939637985e+02   3.1517862189e+01    0.1356383    0.1007547 -37.80 0.0007028487    1.656    0.396
        90 -11.9511    248.6132    172.0405   8.2330991550e+01  -1.7169266154e+00    0.7083907    0.3143231 -37.62   0.00315566    1.988    0.497
        91  -9.5711    105.3939    176.0169   1.1406839668e+02   2.3801285262e+01    0.3030359    0.1908918  38.73  0.001179001    1.630    0.386
        92 -10.6984     71.3997    173.3949   1.2240213902e+02   2.9933693499e+01    0.2586451    0.2382041 -61.14  0.000385941    1.102    0.092
        93 -10.2499     56.2076    172.9979   1.2627413026e+02   3.2126138735e+01    0.3764471    0.2039592  52.69  0.001668511    2.063    0.515
        94  -9.4692     51.7550    171.0641   1.2713413050e+02   3.3182196464e+01    0.2189536    0.1970831  50.55 0.0006564115    1.208    0.172
        95 -10.7832     12.5690    173.0204   1.3714398009e+02   3.6839441803e+01    0.2922965    0.1545455 -52.90  0.001503468    1.837    0.456
        96 -10.7452     12.2725    153.4897   1.3498457636e+02   4.1621018754e+01    0.3313914    0.1541069 -82.49  0.001416086    2.203    0.546
        97 -11.2697      2.1741    172.2599   1.3950943254e+02   3.7880580213e+01    0.5145091    0.2186927 -86.43  0.002304756    2.343    0.573
        98 -11.9777     10.1636    157.4220   1.3599598308e+02   4.0833042849e+01    0.6757749    0.2959248  86.55  0.002649854    3.190    0.687
        99 -11.6131     13.0428    167.1382   1.3638938226e+02   3.8229104785e+01    0.4776907     0.286094  20.70  0.002027738    2.174    0.540
       100 -10.8585      5.1471    166.8537   1.3826899439e+02   3.8946140728e+01    0.2893943    0.2440936 -43.57   0.00108433    1.398    0.285
       101 -11.4367      8.9935    165.0062   1.3714286757e+02   3.9085474280e+01    0.4321027     0.183148 -53.39  0.002031231    2.154    0.536
       102 -10.3113     27.2905    171.5781   1.3340317345e+02   3.5811969670e+01    0.3364365    0.1962631 -46.79 0.0004423995    1.857    0.462
       103  -9.7588     18.0320    172.1017   1.3573244058e+02   3.6574019567e+01    0.2029255     0.168075 -83.83  0.001287382    1.033    0.032
       104 -10.4212     38.8844    167.7201   1.2997273455e+02   3.5545140131e+01    0.2338082    0.1709197 -75.54 0.0003872045    1.197    0.165
       105 -11.7662     79.3431    165.3716   1.1893033120e+02   3.0779897067e+01    0.5551002    0.4801525  15.62  0.002968723    1.379    0.275
       106  -8.7839     64.6376    166.8563   1.2310265641e+02   3.2550278401e+01    0.1996021    0.1270441 -74.64 0.0003749659    1.587    0.370
       107  -9.8541     68.1000    166.1221   1.2206039591e+02   3.2251346944e+01    0.2187686    0.1932705 -79.74 0.0004431039    1.050    0.047
       108 -10.5947     44.3128    165.5140   1.2825141059e+02   3.5480560024e+01    0.3612599    0.2214516 -26.36  0.001600689    2.557    0.609
       109 -10.1104     29.8064    164.9158   1.3192344865e+02   3.7210516729e+01    0.2008003    0.1581258 -57.07 0.0004821834    1.211    0.174
       110 -11.2724    245.1455    162.0933   8.0938244492e+01   6.6323937568e-01    0.3553447    0.2047098 -42.68  0.001788633    1.470    0.320
       111 -10.7711    249.5050    161.4577   8.0108450075e+01   7.6491885276e-02    0.3117833    0.2037439 -48.53  0.001620006    1.381    0.276
       112 -11.1630    246.4598    156.9185   7.9696663525e+01   1.4080143888e+00    0.9009286    0.4096832  61.26  0.003073792    4.980    0.799
       113  -9.5712     67.0239    161.3577   1.2153412661e+02   3.3612530301e+01     0.238311    0.1800278 -51.94 0.0002651764    1.265    0.210
       114  -8.8077     37.3223    162.7101   1.2967626029e+02   3.6971884303e+01    0.1378905   0.09506616  72.10 0.0003371649    1.607    0.378
       115  -9.9809     24.0108    161.9963   1.3302870568e+02   3.8502899098e+01    0.1981165    0.1654808 -72.73 0.0003979047    1.031    0.031
       116  -9.3124     28.6235    161.1642   1.3173042704e+02   3.8261767506e+01    0.1895194    0.1024232 -60.22   0.00030357    1.550    0.355
       117 -10.4229     82.0260    157.1062   1.1667277200e+02   3.2456656583e+01     0.380541    0.3056894  47.86  0.001955183    1.311    0.237
       118 -10.1286      3.5750    158.6293   1.3778077878e+02   4.1047918807e+01    0.2690668    0.1023898  30.88  0.001255738    2.918    0.657
       119 -10.9223     26.3002    154.9742   1.3149933928e+02   4.0023745402e+01     0.365986    0.1747769  38.70  0.001727909    2.295    0.564
       120  -8.6455    228.4342    155.4734   8.2411805789e+01   4.7728833941e+00    0.1413476    0.1228019 -45.27 0.0001105165    1.043    0.041
       121  -9.5919     32.3259    153.8988   1.2973629102e+02   3.9698186084e+01    0.1942973    0.1484884 -65.77 0.0004173328    1.106    0.096
       122 -12.0840    245.1094    121.6503   7.2817559372e+01   8.1701765083e+00    0.8320125    0.4767565  77.04  0.003578363    3.008    0.668
       123 -12.9897    248.1223    101.3432   6.8335238932e+01   1.1240268087e+01      1.00899    0.5201209 -40.21  0.004918128    1.784    0.440
       124 -12.7258    248.2236    134.8860   7.5022313368e+01   5.1897035006e+00     1.054273    0.6190245 -40.83  0.005396246    1.467    0.318
       125  -9.7778     54.0780    151.8642   1.2344683966e+02   3.7741111189e+01    0.2532511    0.1815472 -50.36   0.00131126    1.312    0.238
       126 -10.9553    240.7238    150.3310   7.9298355936e+01   3.6051824045e+00     0.273059    0.2400423 -43.20  0.001150628    1.033    0.032
       127 -10.5095     93.6820    150.1123   1.1206999232e+02   3.2309821518e+01    0.3032902    0.2953027 -36.08 0.0008517363    1.082    0.076
       128 -11.3422     21.9199    149.0212   1.3184801959e+02   4.1897270429e+01    0.5160835    0.1898762  36.81  0.002210923    2.923    0.658
       129  -9.4555     81.3796    148.5083   1.1516467903e+02   3.4725049346e+01    0.3162486    0.2109807  49.84  0.001458517    1.648    0.393
       130 -11.8244     68.1539    144.1812   1.1805614093e+02   3.7790097317e+01    0.7082334    0.4951053  85.35  0.002501299    1.862    0.463
       131  -8.8856     40.6428    147.3024   1.2643436039e+02   4.0466246060e+01    0.1413965   0.09852099  70.97 0.0007038448    1.714    0.417
       132 -12.4787      9.2740    143.3403   1.3449539534e+02   4.4316228887e+01    0.5347106     0.252705 -64.73  0.002367348    1.637    0.389
       133 -12.5684      5.1990    143.1363   1.3556164265e+02   4.4660461533e+01    0.5977945    0.3885306 -67.29  0.003531397    1.209    0.173
       134  -9.7941    236.2278    146.0866   7.9165434839e+01   5.1950211269e+00    0.2154553     0.190172  23.16 0.0006268457    1.358    0.263
       135  -8.9698     87.1367    151.1590   1.1409445852e+02   3.3137756067e+01    0.2030668    0.1707235  87.92            0    1.299    0.230
       136 -10.0246    133.1752    141.0196   9.9493635400e+01   2.7081058785e+01    0.3395796     0.243547 -59.51 0.0008392166    1.451    0.311
       137 -11.7214     16.7535    140.0628   1.3200254125e+02   4.4527821581e+01    0.3445906    0.2305916  59.96  0.001907585    1.777    0.437
       138  -9.8985     37.2331    140.0358   1.2620000004e+02   4.2635747064e+01    0.1963612     0.156916 -65.41 0.0004255302    1.079    0.074
       139  -9.7658    107.2012    135.6221   1.0513176131e+02   3.3461932743e+01    0.4039859    0.2654259 -20.29  0.001332288    2.313    0.568
       140 -12.4418      9.1381    112.9126   1.3005202138e+02   5.1531254365e+01    0.4391081    0.2368783 -59.02  0.002226529    1.438    0.304
       141 -12.5915     14.8951    100.9230   1.2602731413e+02   5.3852268078e+01    0.4707308    0.3748843 -19.59  0.001733495    1.318    0.241
       142 -13.7640      3.1809    125.0955   1.3372114313e+02   4.9082962169e+01     1.185645    0.7215213 -68.07   0.00684849    1.315    0.240
       143 -13.4027      2.6078    107.9461   1.3127317580e+02   5.3075623399e+01     1.540556    0.2095117 -57.67  0.005507326    3.451    0.710
       144  -8.6773    209.7043    125.6772   7.9332241224e+01   1.4245194794e+01    0.1405409    0.1148654  -9.68 0.0003653215    1.619    0.382
       145  -8.4158     41.3123    123.2845   1.2194048663e+02   4.6287684787e+01    0.1388575   0.09329383 -33.62 0.0006989478    1.576    0.365
       146  -9.3284     93.9091    133.2482   1.0832037717e+02   3.6427854056e+01    0.2005205    0.1932126  10.61 0.0003571004    1.105    0.095
       147 -11.1048    249.5856    151.0361   7.8034603365e+01   1.9807620723e+00    0.4967591    0.2702775 -44.14  0.002462885    1.537    0.349
       148  -9.8874     44.3405    129.9643   1.2230743065e+02   4.4339729489e+01    0.2019722    0.1562098 -59.89 0.0005662115    1.130    0.115
       149 -10.6880    232.0192    116.5005   7.3695187119e+01   1.1568473547e+01    0.2719385    0.1694949 -56.57 0.0007594344    1.531    0.347
       150  -9.6692    168.0327    113.1116   8.4501153159e+01   2.5762285606e+01    0.3374491    0.2269792  89.85  0.001265127    2.282    0.562
       151 -11.8815    247.9645    142.1526   7.6514903406e+01   3.8932836878e+00    0.6053449    0.5026975  33.42  0.003661352    1.487    0.327
       152 -10.1290     59.2185    146.7950   1.2110098164e+02   3.8356102069e+01    0.3930131    0.2131887 -30.78  0.001523152    2.785    0.641
       153  -8.4689     71.7168    100.2948   1.0696041987e+02   4.7660022697e+01    0.1318317    0.1127412  85.53 0.0002550036    1.539    0.350
       154 -10.0996    249.6922    117.9221   7.1422487255e+01   8.0194764645e+00    0.2856414    0.1936302 -46.56 0.0007484996    1.232    0.188
       155 -12.1118    247.6591    112.9072   7.0701941526e+01   9.2858980025e+00    0.5353731    0.4286162  47.27  0.003223515    1.548    0.354
       156 -12.2690    113.6797    248.2518   1.2343370147e+02   5.9239996570e+00     1.094886    0.5398616  48.40  0.005087446    1.885    0.470
       157 -11.3474    198.2859    245.6123   1.0543202415e+02  -7.0612335395e+00    0.2764316    0.2084777 -11.77  0.001169284    1.338    0.253
       158 -11.1236     74.0985    244.3905   1.3121602850e+02   1.2755552710e+01     0.403089    0.3067559 -54.59  0.001797042    1.540    0.351
