#   1 NUMBER                 Running object number                                     
#   2 MAG_AUTO               Kron-like elliptical aperture magnitude                    [mag]
#   3 X_IMAGE                Object position along x                                    [pixel]
#   4 Y_IMAGE                Object position along y                                    [pixel]
#   5 X_WORLD                Barycenter position along world x axis                     [deg]
#   6 Y_WORLD                Barycenter position along world y axis                     [deg]
#   7 A_WORLD                Profile RMS along major axis (world units)                 [deg]
#   8 B_WORLD                Profile RMS along minor axis (world units)                 [deg]
#   9 THETA_WORLD            Position angle (CCW/world-x)                               [deg]
#  10 FWHM_WORLD             FWHM assuming a gaussian core                              [deg]
#  11 ELONGATION             A_IMAGE/B_IMAGE                                           
#  12 ELLIPTICITY            1 - B_IMAGE/A_IMAGE                                       
         1 -14.6802    181.0030     79.3577   8.4909603809e+01   2.8992600313e+01     7.004541     2.473482 -45.53   0.01829045    3.053    0.672
         2 -14.4815    222.9636     37.2897   6.6962419384e+01   2.4782641304e+01     3.162884     1.758953 -46.22    0.0149621    1.673    0.402
         3 -14.8622    169.3216     57.8708   8.0834015744e+01   3.5546902801e+01     9.567923     4.958536  88.15   0.02654314    4.856    0.794
         4 -14.9303    239.3927     92.0988   7.8477588165e+01   1.2921851381e+01     9.047552     1.602821 -34.42   0.02394211    4.967    0.799
         5 -15.1622    233.1538      3.0893   5.7640336412e+01   2.6315947545e+01     7.379591          nan  66.64   0.01828401    7.733    0.871
         6 -12.8175    211.8042     47.9734   7.1131773765e+01   2.6100498285e+01     1.204267    0.9146848 -56.12  0.006307646    1.277    0.217
         7 -13.6243    207.5127     62.4951   7.5643501521e+01   2.5053014019e+01     6.389886     2.315618 -57.21   0.01350863    8.218    0.878
         8 -14.3693    245.8976     20.1244   6.0562498856e+01   2.1493499770e+01     1.003642    0.7533327 -20.15  0.003400358    1.605    0.377
         9  -9.8419    142.3890     17.0080   7.2502631257e+01   4.7903993054e+01    0.3406585    0.2483105 -29.54  0.001581851    1.477    0.323
        10 -12.8206    249.6816     26.5146   6.1701692722e+01   1.9878159404e+01    0.5481942    0.2719993 -38.10  0.001027086    1.762    0.432
        11 -11.3416    119.3392      9.7272   7.4347562553e+01   5.4335767975e+01    0.6589749    0.3869416  38.62  0.003099042    1.653    0.395
        12  -8.5534    145.6978      6.6291   6.8324887933e+01   4.8068875924e+01    0.2373418    0.1577637  21.71 0.0006603404    1.818    0.450
        13  -8.4032    146.4295      9.5507   6.9211015686e+01   4.7613497788e+01    0.2145679    0.1765794  84.88 0.0004762616    1.225    0.184
        14  -8.1529    203.6761    152.7035   9.8890522893e+01   1.0364339947e+01    0.1482849    0.1093849  10.73 0.0003416197    1.623    0.384
        15 -14.8412    227.1163    241.3272   1.1095146974e+02  -6.7356157834e+00     3.665538     1.002423  36.21   0.01522145    3.109    0.678
        16  -9.5376    211.9597    166.4704   1.0023688890e+02   6.3492208369e+00    0.3449267     0.231057  68.23  0.001133927    2.445    0.591
        17  -9.6724     91.4871    246.5329   1.3617302672e+02   1.3755600999e+01    0.1165143   0.08825343  57.14 4.113452e-05    1.026    0.025
        18  -8.9370    158.8274    142.5097   1.0610400214e+02   2.1913350590e+01    0.2881642    0.1842066 -68.17  0.001150401    2.280    0.561
        19 -10.9743    186.5323    139.0273   9.9256031867e+01   1.6534323604e+01    0.4049983    0.3050098  -6.93 0.0006592876    1.683    0.406
        20  -8.5240     29.7569    229.4158   1.4587489755e+02   2.4713650280e+01    0.1256331   0.09360692  41.83 0.0003534961    1.524    0.344
        21  -8.8043    149.5025    131.9909   1.0585630913e+02   2.6140612903e+01    0.2149098    0.1349032 -70.22 0.0008088668    2.420    0.587
        22  -8.4710    118.7512    133.0105   1.1374828528e+02   3.2307567782e+01    0.1974391    0.1854485 -76.43   0.00029943    1.042    0.040
        23  -9.5595    166.4501    130.4851   1.0157493177e+02   2.2692324625e+01    0.3303111     0.231803 -87.81 0.0009176762    2.284    0.562
        24 -12.2245    202.1388    126.2156   9.3091225272e+01   1.5444748595e+01     1.121033    0.6551756 -64.45  0.004031409    3.068    0.674
        25 -10.2018    205.4133    122.0724   9.1463792581e+01   1.5457367680e+01    0.3232386    0.2884901 -67.53  0.001237488    1.265    0.209
        26 -11.6716    200.6146    115.9248   9.0861581038e+01   1.7659362288e+01    0.5538536    0.4088356  -4.27  0.001964851    1.760    0.432
        27 -11.5996    205.0790    110.4122   8.8642601474e+01   1.7619463105e+01    0.5490225    0.4112639  27.23  0.001791437    1.562    0.360
        28 -10.1851    160.3108    128.4756   1.0248502818e+02   2.4482707131e+01    0.3934568    0.3100447 -71.31  0.001776354    1.531    0.347
        29  -9.8480    136.0690    127.2353   1.0800901441e+02   3.0061773096e+01     0.469716    0.1943392 -54.45  0.001563438    2.837    0.648
        30 -10.4275    191.8443    125.3682   9.4915412601e+01   1.7924969525e+01    0.3599692    0.2339675  72.45  0.001386001    2.269    0.559
        31  -9.5113    143.3645    125.1525   1.0570174637e+02   2.8942331995e+01    0.2265267    0.1425784 -57.32 0.0006883697    1.779    0.438
        32 -11.8230    225.2536    121.0444   8.7652132316e+01   1.1267556016e+01    0.6679181    0.4111921  47.54  0.003130741    1.690    0.408
        33 -11.6806    214.7635    115.4954   8.8146246778e+01   1.4518254034e+01    0.7473959    0.4534544 -59.20  0.003073393    2.263    0.558
        34  -8.7695    179.3010    117.2986   9.5502013347e+01   2.2359801896e+01    0.1547383    0.1224547  10.58 0.0002087747    1.580    0.367
        35 -10.7266    167.9253    113.9449   9.7115173802e+01   2.5685451416e+01    0.4334297    0.3717475 -44.91  0.001164085    1.174    0.148
        36 -10.7447    134.3681    108.9673   1.0385906962e+02   3.4401772041e+01     1.070378     0.338582 -42.77  0.003248251    3.236    0.691
        37 -11.3402    198.8838    105.8015   8.8628352779e+01   1.9895495894e+01    0.3662106    0.2582526 -49.95  0.001650156    1.477    0.323
        38  -9.1629     27.3436    216.2894   1.4553111429e+02   2.7448517782e+01   0.09253169    0.0833227 -60.41 0.0003352264    1.652    0.395
        39  -9.0103    192.1071    144.0786   9.9269677822e+01   1.4370686745e+01    0.2154783    0.2151882   6.83 0.0004577845    1.076    0.070
        40  -8.9850    124.3247    101.3404   1.0445237877e+02   3.8222209590e+01    0.1585019    0.1240435  -2.40 0.0007051152    1.728    0.421
        41 -10.0623    147.8753     97.7858   9.7425399945e+01   3.3662617687e+01    0.3913303    0.3088161   4.48  0.001125928    1.666    0.400
        42  -8.6575    120.8716    148.1743   1.1639739132e+02   2.8479940320e+01    0.1817556    0.1707398  -4.68            0    1.263    0.208
        43  -9.1550    163.4964     96.4507   9.3406762321e+01   3.0191508337e+01    0.2991778    0.1380247 -49.62  0.001031784    2.452    0.592
        44  -9.5349    134.4442     94.7327   9.9928229983e+01   3.7387615928e+01    0.2833769    0.2356628  84.63 0.0008259227    1.431    0.301
        45  -9.0987    177.2379    103.2349   9.2274305900e+01   2.5557140013e+01    0.3197456    0.2243367 -80.14  0.001303065    2.116    0.527
        46  -9.5803    220.2897     91.8516   8.1321201048e+01   1.7271996197e+01    0.2538258    0.2031364  80.22  0.001151884    1.437    0.304
        47 -10.5128    158.4929     89.3751   9.2534001060e+01   3.2772493960e+01    0.5417579     0.361504  23.54  0.002176403    2.117    0.528
        48 -10.9363     67.8285    144.2951   1.2929792608e+02   3.8170513195e+01    0.6134639    0.3392962  60.24  0.002292464    2.072    0.517
        49 -10.3203    142.0296     86.5307   9.5616909429e+01   3.7284718697e+01    0.3377285    0.3108686 -59.48 0.0006308791    1.121    0.108
        50 -12.0914    194.4008     61.4118   7.7413234462e+01   2.8531696685e+01     1.094893     0.565974  32.19    0.0036982    3.376    0.704
        51  -9.9699    165.1368     82.2631   8.8998939042e+01   3.2461473886e+01    0.3255929    0.1785077 -47.32  0.001197285    1.922    0.480
        52  -9.7278    203.6632     80.8959   8.1216466609e+01   2.3071979258e+01    0.4841343    0.2924826 -87.83  0.001569812    2.792    0.642
        53 -11.7444    156.7514     78.5493   8.9749173535e+01   3.5226804421e+01    0.4131128    0.3376626 -45.93 0.0007214722    1.240    0.193
        54  -9.3578    139.0250     76.7469   9.3399516781e+01   3.9878138154e+01    0.2979165    0.1967549 -54.56  0.001275357    1.730    0.422
        55  -9.0741    151.0796     72.1082   8.9076833176e+01   3.7796168243e+01    0.2472612    0.2110876  18.69  0.001218302    1.327    0.247
        56 -10.2926    222.7383     69.1434   7.5158801402e+01   2.0315024117e+01    0.4835847     0.296961  63.29  0.002257497    1.696    0.411
        57  -9.3142    144.6342     69.7951   8.9858204989e+01   3.9796165293e+01      0.22409    0.1389439 -46.43 0.0006957169    1.691    0.408
        58  -9.9067    249.6382     66.8915   7.1110925340e+01   1.4488996235e+01    0.3512738    0.2578096 -51.82  0.001362633    1.253    0.202
        59  -9.1865    221.7183     63.8334   7.3937175418e+01   2.1363835355e+01      0.24021    0.1910701  51.84 0.0007970849    1.350    0.259
        60 -10.6059     36.9602    214.1441   1.4361971923e+02   2.6797625420e+01    0.2172795    0.1211528  43.41  0.001349663    1.632    0.387
        61 -10.7346    243.5350     58.4882   6.9828749126e+01   1.7047512586e+01    0.4575188    0.3651589 -53.26 0.0009271158    1.132    0.116
        62 -10.1824    248.1209     53.8206   6.8200090294e+01   1.6673474575e+01    0.4782152    0.2563735 -33.08  0.002279795    1.734    0.423
        63 -10.5131    144.3258     59.2400   8.6539789483e+01   4.1684984626e+01    0.3736671    0.2868044 -62.03    0.0010216    1.529    0.346
        64 -13.2770      8.9267    206.1252   1.4830587968e+02   3.1281325093e+01    0.7846307     0.556159  76.53  0.003766919    1.016    0.016
        65  -8.5002     72.6358     58.2495   1.0723147092e+02   5.6916271702e+01    0.1855711     0.117576 -36.39 0.0004532098    1.487    0.328
        66  -9.6899    129.0069     57.0843   8.9534805231e+01   4.5763458586e+01    0.2218131     0.213884  30.83 0.0003277289    1.007    0.007
        67 -11.6880    235.4403     38.1838   6.5816041681e+01   2.1679452110e+01    0.4583569    0.3917408  89.74 0.0003040277    1.132    0.116
        68  -9.4467    135.9933     52.5856   8.6277519730e+01   4.4816046239e+01    0.2922776    0.2012861 -50.50 0.0007994352    1.630    0.386
        69  -8.8761    105.6204     52.1940   9.4240536275e+01   5.1851628212e+01    0.3032953     0.122606 -44.74  0.001096446    2.714    0.632
        70  -9.6126    174.3005     48.9097   7.7180721703e+01   3.5607706939e+01    0.2656527    0.2265016 -83.53  0.000636467    1.223    0.182
        71  -9.0603     49.3365    207.3125   1.4073658991e+02   2.6685057272e+01     0.102132   0.09111858 -45.50 0.0007045716    1.688    0.408
        72 -10.4148    248.6756    142.5169   8.8653252490e+01   3.1138934828e+00    0.3755942    0.2575697 -29.73  0.001652458    1.330    0.248
        73  -9.8541    174.8486    202.9778   1.1444621730e+02   7.3165207484e+00    0.2097759    0.1687018  38.38 0.0003461744    1.079    0.073
        74  -9.1857    166.7757     28.2816   7.2056967921e+01   4.0323814130e+01    0.4263379    0.1821053 -43.35  0.001641163    2.476    0.596
        75 -13.9489     41.0993    181.6887   1.4021504515e+02   3.3007100873e+01     1.893465     1.403707 -29.68  0.001451176    2.347    0.574
        76  -9.4183    133.0968    141.6047   1.1200933471e+02   2.7523675357e+01    0.7178949    0.1990075 -56.62  0.001604109    6.739    0.852
        77 -13.3719     51.4612    173.0856   1.3706803182e+02   3.3674196924e+01     1.114053     1.069982 -10.65  0.002598749    1.479    0.324
        78  -9.7843    194.4730    197.6008   1.0964468035e+02   4.5999627985e+00    0.3901159    0.2329374 -69.32  0.001342978    5.117    0.805
        79  -9.0867    100.9975    175.9990   1.2604181330e+02   2.5867086914e+01    0.1870608    0.1656963  70.58            0    1.008    0.008
        80 -10.0959    234.7921    173.7835   9.7574458180e+01   9.2825127993e-01    0.2975385    0.2282556  60.33  0.001285973    1.800    0.444
        81  -9.6199    215.8417    168.6110   9.9949504343e+01   5.2474837840e+00    0.2840764    0.2209845  57.30  0.001161754    1.550    0.355
