#   1 NUMBER                 Running object number                                     
#   2 MAG_AUTO               Kron-like elliptical aperture magnitude                    [mag]
#   3 X_IMAGE                Object position along x                                    [pixel]
#   4 Y_IMAGE                Object position along y                                    [pixel]
#   5 X_WORLD                Barycenter position along world x axis                     [deg]
#   6 Y_WORLD                Barycenter position along world y axis                     [deg]
#   7 A_WORLD                Profile RMS along major axis (world units)                 [deg]
#   8 B_WORLD                Profile RMS along minor axis (world units)                 [deg]
#   9 THETA_WORLD            Position angle (CCW/world-x)                               [deg]
#  10 FWHM_WORLD             FWHM assuming a gaussian core                              [deg]
#  11 ELONGATION             A_IMAGE/B_IMAGE                                           
#  12 ELLIPTICITY            1 - B_IMAGE/A_IMAGE                                       
         1 -13.8593    226.1151      3.7877   3.7473981588e+01   2.8396977615e+01     2.020053    0.9312596  56.18  0.006569957    2.329    0.571
         2 -14.0951    183.1008     47.2873   5.4311592710e+01   3.3626287767e+01     2.070498     1.334199  24.69  0.001448116    2.274    0.560
         3 -14.0744    193.9814     38.3709   5.0053417880e+01   3.2124210152e+01      1.39988     1.120581 -35.16  0.003355915    1.261    0.207
         4 -14.6444    202.6695     28.7165   4.6211239923e+01   3.1203659551e+01     1.660749     1.336661  27.73  0.001389288    1.569    0.363
         5 -12.8537     44.3433      5.7461   7.5489692969e+01   6.9096865246e+01    0.5283223    0.3155081   5.75  0.002971787    1.785    0.440
         6 -12.5385     59.8201      3.4772   6.7951438512e+01   6.6940293746e+01    0.5861093    0.3391808  49.32  0.003243819    1.901    0.474
         7 -11.4139    113.5615    207.8260   1.0733009454e+02   1.6074075747e+01     0.348338    0.2274778  70.72  0.001535652    1.768    0.434
         8 -13.8844     61.7407    188.6668   1.1603677156e+02   2.7697546580e+01    0.8812203    0.7792194 -55.39  0.005249479    1.409    0.290
         9 -18.8833     19.3916    193.7961   1.2518466309e+02   3.1360128286e+01      15.1884     5.868917 -83.74   0.07571819    2.315    0.568
        10 -11.4324    107.9654    203.5413   1.0793852217e+02   1.7821569935e+01    0.3666626    0.2173315  52.55 0.0009434138    1.551    0.355
        11  -8.8583     96.2746    201.6240   1.1016187208e+02   2.0039338412e+01    0.1364163   0.08863077  74.19 0.0007002525    1.694    0.410
        12 -10.6003    152.3996    197.4853   9.7616927464e+01   1.1429333861e+01    0.3078954    0.2385824 -48.22  0.001248918    1.424    0.298
        13 -12.4695    112.9489    196.7261   1.0594560227e+02   1.8398482656e+01    0.4695034    0.4231779   3.45  0.002859128    1.440    0.305
        14 -10.1945     81.8524    195.1595   1.1244644914e+02   2.3540155743e+01    0.2091945    0.1983457 -78.08  0.000624539    1.246    0.197
        15 -14.8331     52.1656    208.5849   1.1990469578e+02   2.4683210581e+01     1.846775     1.121037 -67.42   0.01120816    1.643    0.391
        16 -13.8615     74.5863    156.0816   1.0888391035e+02   3.3427864966e+01    0.6234592    0.5151416 -51.59  0.001289363    1.312    0.238
        17  -9.9407     95.1929    189.0823   1.0876987194e+02   2.2846595817e+01    0.2996285     0.226129   6.37  0.001245789    2.150    0.535
        18  -9.6940     98.7993    185.8830   1.0752585552e+02   2.2973354757e+01      0.21238    0.1648365  76.26 0.0004621406    1.276    0.216
        19  -8.9018    159.6951    196.3412   9.5891860643e+01   1.0330801465e+01    0.1359965    0.1058619  75.36 0.0007040914    1.681    0.405
        20 -11.3987    146.5783    182.9399   9.6383245744e+01   1.5318090778e+01    0.4056488    0.2629971  54.43  0.001211666    1.613    0.380
        21 -10.5798     99.4149    180.6933   1.0663981989e+02   2.4010255504e+01    0.2348702    0.2230863  48.28 0.0006088887    1.175    0.149
        22 -10.3486    204.5384    176.3196   8.2960607660e+01   5.6109174243e+00    0.3492292    0.2435283 -49.91  0.001767819    1.707    0.414
        23  -9.2808    197.8493    177.1550   8.4453077452e+01   6.7189302991e+00    0.2006596     0.158168   9.07  0.001072597    1.330    0.248
        24 -12.2694     74.3278    174.7014   1.1157181621e+02   2.9127111090e+01    0.4154673    0.2860219 -35.81   0.00211779    2.147    0.534
        25 -12.2661     78.0661    169.9825   1.1006140114e+02   2.9677961104e+01    0.3342294    0.2866298 -44.26  0.000756988    1.416    0.294
        26 -14.4165     68.0446    143.9651   1.0866548614e+02   3.7235366430e+01     1.463972    0.9870085  81.10   0.00738568    1.668    0.401
        27 -11.4229    141.6731    175.0133   9.6051428448e+01   1.7854877309e+01    0.4519055    0.2723234  62.01  0.001313624    2.143    0.533
        28  -9.4094    188.6955    175.3573   8.5945464034e+01   8.7783342698e+00    0.1382974    0.1153093 -88.41 0.0004327201    1.720    0.419
        29 -11.2729     54.1409    173.4140   1.1604323713e+02   3.2065208193e+01    0.2760279    0.2262097  72.62 0.0005961018    1.084    0.077
        30 -10.9361    230.3493    166.8940   7.6147532500e+01   2.4439813531e+00     0.361703    0.1940464 -51.57  0.001506426    2.732    0.634
        31  -9.7451     94.0309    249.9875   1.1570739938e+02   1.1376022349e+01    0.1720157    0.1333776  55.50 0.0004535113    1.036    0.035
        32  -9.3564    160.6346    164.3269   8.9718802763e+01   1.6406138910e+01    0.1531077    0.1169288  79.97 0.0001515156    1.802    0.445
        33 -12.2293     92.4504    153.8743   1.0404510236e+02   3.1266629206e+01    0.6537585    0.4559963 -34.25  0.003147308    1.904    0.475
        34 -11.4779    133.7804    144.9080   9.1938176801e+01   2.5938424627e+01     1.203836    0.3187124 -55.08  0.002956718    5.375    0.814
        35 -11.0597    174.3844    149.0850   8.3411403968e+01   1.6708858311e+01    0.3261379    0.3209798 -84.43  0.001036178    1.095    0.087
        36 -11.1229    143.7106    145.8826   8.9739316337e+01   2.3734375883e+01    0.4441456    0.2757557 -72.57  0.001698584    2.527    0.604
        37  -9.4135    109.1035    147.3234   9.8619095931e+01   3.0010897569e+01    0.1983646    0.1773874  63.41  0.000374252    1.109    0.099
        38 -10.8389     87.4980    146.1480   1.0395914687e+02   3.3886346066e+01    0.2684859    0.2271311 -81.19  0.001087486    1.120    0.107
        39 -10.7113    104.3051    140.3678   9.8475889880e+01   3.2494930509e+01     0.303246    0.2904299  59.98 0.0009036982    1.082    0.076
        40 -10.4771    106.5160    137.4432   9.7297369721e+01   3.2800271921e+01    0.2823664    0.2570057 -22.71 0.0005818633    1.270    0.213
        41 -12.2958     92.8062    139.4080   1.0131689860e+02   3.4660708976e+01    0.2844771    0.2467846 -52.74  0.000350926    1.156    0.135
        42 -10.8271    105.9336    130.8011   9.6040283028e+01   3.4481101089e+01     0.358888    0.3100182 -74.46  0.001208974    1.160    0.138
        43 -11.3497    135.8305    127.9915   8.7582286657e+01   2.9347474020e+01    0.6877438     0.206216 -50.86  0.001977876    3.578    0.720
        44 -10.3714    160.5745    127.8813   8.1553426686e+01   2.4082121105e+01    0.3461896    0.2632463 -59.20  0.001184509    1.455    0.313
        45 -11.0644    100.7549    125.9806   9.6390911154e+01   3.6544205676e+01    0.3026367    0.2526881 -23.43  0.001132357    1.432    0.302
        46 -11.5495    119.6319    123.7034   9.0754761102e+01   3.3589054745e+01    0.6093703    0.4134656 -15.01  0.002429152    2.419    0.587
        47 -10.8654    113.5270    129.9920   9.3832529012e+01   3.3284649622e+01    0.3467079     0.296544 -36.86 0.0007817365    1.241    0.194
        48 -10.2275    109.0463    118.9991   9.2499014148e+01   3.6705799819e+01    0.2191714    0.2103034 -61.11 0.0003075515    1.012    0.012
        49  -9.8645    167.5403    112.3681   7.6006172670e+01   2.5767170819e+01    0.3425903    0.2445853 -73.91  0.001421043    1.997    0.499
        50 -10.4893    134.7477    111.9085   8.3824193856e+01   3.3181287712e+01    0.4503885    0.1392285 -44.49  0.001340402    3.161    0.684
        51  -9.9884    134.6934    105.3658   8.2089928568e+01   3.4634864161e+01    0.5369764    0.1397327 -42.51  0.001448591    3.853    0.740
        52 -11.8073    118.2862    110.1945   8.7760077984e+01   3.6968883564e+01    0.6344891    0.4698353  57.46  0.002144068    1.514    0.339
        53 -10.3291    205.4456    110.1143   6.7618286673e+01   1.7510442415e+01    0.3185034    0.2277452  43.67 0.0009193392    1.481    0.325
        54  -9.4941     63.7824     99.1076   1.0123877707e+02   4.8671694301e+01    0.2086105     0.181528 -85.08 0.0006217803    1.238    0.192
        55 -10.2137    126.3681    208.8653   1.0480958896e+02   1.3775557485e+01    0.2492198    0.1540257 -29.59  0.001074049    2.776    0.640
        56 -12.5619    195.3472    196.7199   8.8702056011e+01   3.8443153350e+00      1.34715     1.019556  73.59  0.006082097    2.183    0.542
        57  -9.5894    156.5062     81.0492   6.9728802816e+01   3.4608759892e+01    0.2365608    0.1527051 -37.90 0.0005071952    1.524    0.344
        58  -9.7165    184.1795     77.1150   6.2780927997e+01   2.8549172979e+01    0.2368968    0.2102926  11.79 0.0006802331    1.280    0.219
        59  -9.9527     63.4652     69.6893   9.3511718922e+01   5.5395501141e+01    0.2210039    0.2063539 -33.44 0.0006030729    1.087    0.080
        60  -9.7951     72.1914    230.0757   1.1792873504e+02   1.7901963677e+01    0.3006471    0.1901258 -59.62 0.0007618013    1.854    0.461
        61 -10.2837     56.9455    224.9475   1.2033486548e+02   2.0849898145e+01    0.1695276    0.1275538  70.61 0.0002900785    1.038    0.037
        62 -10.8921    169.6931    214.9994   9.6910322304e+01   5.3025479330e+00    0.1798743    0.1674263  23.44  0.001171095    1.084    0.078
        63  -9.2009    103.5064    213.5078   1.1011443454e+02   1.6551369649e+01    0.1787261    0.1158217  33.63 0.0001527569    1.636    0.389
        64 -11.6695    153.7121     56.5435   6.2747470139e+01   3.9620902183e+01    0.4155832    0.3042347 -78.46 0.0007447001    1.828    0.453
        65 -11.2473    156.3314     50.8036   6.0350793173e+01   3.9875396586e+01    0.3384476    0.2792096 -76.03 0.0007362425    1.399    0.285
        66 -11.7378    207.5240    194.0057   8.5831279687e+01   2.1372059537e+00    0.5387455     0.243735 -38.13  0.002033946    2.300    0.565
        67 -10.1200    189.9149     14.9951   4.3983640800e+01   3.5994104297e+01    0.2095374    0.1939784  85.35 0.0006460198    1.043    0.041
        68 -10.7696    107.0476    210.8898   1.0907016218e+02   1.6510264471e+01    0.3832598    0.2329594  52.27  0.002069241    1.468    0.319
