#   1 NUMBER                 Running object number                                     
#   2 MAG_AUTO               Kron-like elliptical aperture magnitude                    [mag]
#   3 X_IMAGE                Object position along x                                    [pixel]
#   4 Y_IMAGE                Object position along y                                    [pixel]
#   5 X_WORLD                Barycenter position along world x axis                     [deg]
#   6 Y_WORLD                Barycenter position along world y axis                     [deg]
#   7 A_WORLD                Profile RMS along major axis (world units)                 [deg]
#   8 B_WORLD                Profile RMS along minor axis (world units)                 [deg]
#   9 THETA_WORLD            Position angle (CCW/world-x)                               [deg]
#  10 FWHM_WORLD             FWHM assuming a gaussian core                              [deg]
#  11 ELONGATION             A_IMAGE/B_IMAGE                                           
#  12 ELLIPTICITY            1 - B_IMAGE/A_IMAGE                                       
         1 -16.6655     21.2211    108.9770   1.0832810339e+02   5.1761015650e+01     3.008411     2.235172 -59.70   0.01347687    1.119    0.106
         2 -14.2379     42.3783     63.6129   8.9437681627e+01   6.0119407763e+01      2.16517     1.267126 -53.59   0.01098604    1.690    0.408
         3 -12.8620     24.1713     36.0722   8.7956002508e+01   6.7331934294e+01    0.9469347    0.6938487 -18.42   0.00367963    1.160    0.138
         4 -15.0872     30.9134     12.8526   7.4220910939e+01   7.0097968418e+01     2.467992     1.435731  29.56   0.01008307    1.597    0.374
         5 -16.2842    100.0666     17.2564   5.1553492294e+01   5.6979401362e+01     2.784529     2.220546  85.91   0.01044733    1.554    0.357
         6 -13.8565    121.8987      8.2471   4.3661338417e+01   5.2802683200e+01     1.303918    0.9461108 -70.68  0.007381166    1.668    0.401
         7 -14.0451    226.8744     28.0429   3.5766640356e+01   2.5969247641e+01    0.9551694    0.6130765  27.70  0.003453039    3.380    0.704
         8 -14.4497    229.1325     17.9774   3.3418146776e+01   2.6695021522e+01     1.357067    0.9869946  37.28  0.008005643    2.197    0.545
         9 -13.3237      3.3388     12.6493   8.9327448897e+01   7.3030688209e+01    0.8202828    0.3402768 -47.13  0.003812518    2.232    0.552
        10 -14.1769    245.2848     11.2585   3.0875700780e+01   2.4122213240e+01     0.700698    0.4962133 -64.56  0.002478803    1.094    0.086
        11 -12.0078    224.6846      2.6116   3.0524748057e+01   2.9334190929e+01    0.3154535    0.2099282 -70.68  0.001754362    1.234    0.189
        12 -14.4559     45.7112    223.4420   1.1535604269e+02   2.1527338762e+01     2.176214    0.9083078  67.22  0.008420577    2.945    0.660
        13 -14.8463    155.0130    241.2358   9.4301618146e+01   1.9898670162e+00     1.582047     1.260883 -35.19  0.009874316    1.425    0.298
        14 -12.9916     66.3292    250.3148   1.1343642691e+02   1.3444837440e+01     1.192778    0.2962566  30.93  0.003589054    6.079    0.835
        15 -12.3894     60.1237    248.0812   1.1446621577e+02   1.4684348690e+01    0.4209774    0.3151756  85.84  0.001878907    1.280    0.219
        16 -15.4250     10.3368    243.9291   1.2356290875e+02   2.1254866565e+01     1.742037    0.9550482  56.74   0.01127095    1.398    0.285
        17 -12.8317     14.0185    190.6210   1.1959152646e+02   3.2337820480e+01    0.9813164    0.6448078 -70.03  0.002919191    1.399    0.285
        18 -13.2231     20.1821    206.8774   1.1944146633e+02   2.8028617521e+01    0.4566716    0.2836857 -85.18  0.001009331    1.383    0.277
        19 -15.2872     23.2532    200.5162   1.1830629339e+02   2.9152949712e+01      1.84208     1.135973  30.67  0.009806469    1.829    0.453
        20 -11.8025     86.8684    224.0741   1.0659142797e+02   1.5835798695e+01    0.2508751    0.1960708  89.49 0.0003925261    1.315    0.239
        21 -11.6536    174.6505    216.7508   8.6390727266e+01   3.1080485670e+00    0.4982665     0.379104   1.04  0.002499827    1.433    0.302
        22 -11.3172     97.9374    216.2942   1.0318453065e+02   1.5812367542e+01    0.3070284    0.2300363  80.20  0.001047728    1.460    0.315
        23 -14.4350    107.5734    200.2217   9.8712165038e+01   1.7787688387e+01     1.026642     1.005132 -83.39  0.003352031    1.098    0.090
        24 -15.3521    234.4201    189.6280   6.9775309610e+01  -1.8233568266e+00     3.250716     1.682132 -18.82   0.01428556    2.499    0.600
        25 -13.3226     72.5179    187.1162   1.0533613475e+02   2.6278079364e+01    0.8056867    0.7027911  81.11  0.003117125    1.044    0.042
        26 -11.2064     51.0813    180.0146   1.0976796724e+02   3.0873641135e+01     0.251868    0.1985686 -41.65 0.0008215033    1.560    0.359
        27 -11.3178     57.7845    173.8241   1.0728035458e+02   3.1546656268e+01    0.2442155    0.2082625 -47.06 0.0004803978    1.337    0.252
        28 -10.2342     69.2561    163.9958   1.0282776443e+02   3.2442749601e+01    0.1926395    0.1677013 -71.89  0.000316037    1.078    0.072
        29 -13.1414     55.2797    160.3878   1.0607582242e+02   3.5236784661e+01    0.4801553    0.2826505 -40.85  0.001571637    2.111    0.526
        30 -11.0810     76.7494    157.7146   9.9751399550e+01   3.2930275180e+01    0.2792726    0.2612107  14.60 0.0006441024    1.238    0.193
        31 -13.0708    231.8212    152.7668   6.2780867547e+01   4.8709123244e+00    0.5626832    0.3842587  -5.80  0.002791189    1.903    0.475
        32 -11.1912     69.8511    145.8577   9.9613799499e+01   3.6958739743e+01    0.3003379    0.2937391  72.18 0.0009228413    1.094    0.086
        33 -10.9921     67.5491    142.5071   9.9675929189e+01   3.8142152707e+01    0.3472528    0.2281337  53.93  0.001383526    1.679    0.404
        34 -13.0451     24.2855    140.0890   1.1197359487e+02   4.3741069625e+01    0.8691278    0.5659577 -59.02  0.004032782    1.356    0.263
        35 -13.1290    248.3918    246.1442   7.7393418238e+01  -1.1801202531e+01    0.6423698    0.2666679 -27.27  0.003365603    2.343    0.573
        36 -12.7550     32.1286     71.8339   9.6125797719e+01   5.9497073861e+01    0.8977309    0.6309339  20.79  0.003677661    1.562    0.360
        37 -14.9430    170.2793    139.4707   7.1743044900e+01   1.9472504837e+01     1.741817    0.8324843  33.19  0.006066395    2.782    0.641
        38 -11.7631     80.8970    141.7128   9.5620444520e+01   3.6343829829e+01     0.264932    0.2172108 -56.42 0.0003027649    1.158    0.136
        39 -10.1071    106.2629    131.5648   8.6091382266e+01   3.4474625555e+01    0.2091513     0.153221  24.68 0.0007006941    1.594    0.372
        40 -10.0006     93.4232    127.7986   8.8948317550e+01   3.7739551380e+01     0.219348     0.136153 -42.89 0.0007922399    1.644    0.392
        41 -11.0928     85.2359    247.9296   1.0946354959e+02   1.1314912706e+01    0.2390761    0.1572535  88.64  0.001380001    1.751    0.429
        42 -11.0086     55.7479    118.5621   9.8662521084e+01   4.5805476970e+01    0.4320561    0.2139531  51.21   0.00170873    2.635    0.620
        43 -11.0078      1.6635     60.3138   1.0619746310e+02   6.4235168733e+01    0.4257214    0.1381315 -66.12  0.001789012    2.863    0.651
        44 -10.8688      7.7369     51.8214   1.0123307355e+02   6.5664454975e+01    0.2366044     0.179805 -38.91  0.000976685    1.031    0.030
        45 -13.4415    185.8911    242.2600   8.8249830893e+01  -2.8789960629e+00    0.9173832    0.4024782  29.92  0.002932148    2.128    0.530
        46 -12.7634    200.2130    244.3465   8.5804167774e+01  -5.2694823046e+00    0.5375448    0.3209289  29.86  0.001822936    1.449    0.310
        47 -13.9613    205.9659    237.3469   8.3588969611e+01  -5.0648921422e+00     1.149219    0.5885752  31.14  0.004986629    1.748    0.428
        48 -13.8237    195.5967    232.6044   8.4810766567e+01  -2.8305003173e+00     1.685945    0.8070956 -23.94  0.007153426    2.986    0.665
        49 -12.2727    105.0165    240.3280   1.0458804178e+02   9.8771410317e+00    0.4645631    0.3380894  32.55  0.001992924    1.327    0.246
        50 -10.4087     84.9030    231.0659   1.0779633813e+02   1.4676162686e+01    0.2631859    0.1575401  88.89  0.001315455    2.089    0.521
        51 -10.9599    171.8882    228.0877   8.8833993642e+01   1.5726136706e+00    0.3249463    0.2001942  23.77  0.001670053    1.621    0.383
        52 -12.2722     10.4703    206.5931   1.2145564267e+02   2.9043910711e+01    0.5428443    0.3161328  23.28  0.002928545    2.241    0.554
