#   1 NUMBER                 Running object number                                     
#   2 MAG_AUTO               Kron-like elliptical aperture magnitude                    [mag]
#   3 X_IMAGE                Object position along x                                    [pixel]
#   4 Y_IMAGE                Object position along y                                    [pixel]
#   5 X_WORLD                Barycenter position along world x axis                     [deg]
#   6 Y_WORLD                Barycenter position along world y axis                     [deg]
#   7 A_WORLD                Profile RMS along major axis (world units)                 [deg]
#   8 B_WORLD                Profile RMS along minor axis (world units)                 [deg]
#   9 THETA_WORLD            Position angle (CCW/world-x)                               [deg]
#  10 FWHM_WORLD             FWHM assuming a gaussian core                              [deg]
#  11 ELONGATION             A_IMAGE/B_IMAGE                                           
#  12 ELLIPTICITY            1 - B_IMAGE/A_IMAGE                                       
         1 -12.1101     60.1120     47.5368   8.1955140192e+01   6.0299238747e+01      1.37418    0.8417794  36.73  0.007128221    1.736    0.424
         2 -11.1998     83.5767     19.0180   6.1654852733e+01   6.0361910910e+01    0.8895895    0.5376839  23.11  0.004522545    1.715    0.417
         3 -11.9947    106.3139     32.6651   6.0482659683e+01   5.3918854095e+01     1.422132        0.782   3.20 0.0004417834    3.023    0.669
         4 -10.7589     65.9005     20.4016   6.8368460587e+01   6.3514700153e+01    0.5738193    0.4393659 -65.50  0.003009529    2.612    0.617
         5 -11.4682    131.6658     19.8837   4.9832838929e+01   4.9502966291e+01     1.044799    0.5071232  46.61  0.004667243    1.875    0.467
         6 -12.6953     51.9267     22.4925   7.4915529788e+01   6.5510154834e+01     2.445122     1.029597 -23.92   0.01041577    2.756    0.637
         7 -12.1081    101.8652     54.0769   6.9730230584e+01   5.1703393165e+01      1.43773    0.9402736   2.68  0.006319697    2.082    0.520
         8 -11.7625     87.1350     40.4083   6.9292414338e+01   5.6829553375e+01     1.095589    0.4626166 -29.75  0.004409404    2.494    0.599
         9 -12.2914     91.4985     18.7854   5.9150315922e+01   5.8765039692e+01     2.599327    0.5745582 -27.75  0.008356488    4.572    0.781
        10 -13.2183    115.5224     15.0211   5.1495560035e+01   5.3822315358e+01     1.544784     1.161481  40.03  0.008815714    1.187    0.158
        11 -12.3165    105.1047      8.6529   5.1443516066e+01   5.6800897963e+01     1.015781    0.6660592  35.56  0.005569737    1.392    0.282
        12 -13.3858     69.8574     31.5403   7.1752619533e+01   6.1317561729e+01     1.462782    0.7756865  46.20  0.006731545    2.035    0.509
        13 -11.1384     20.6230     65.4334   1.0405793622e+02   6.1006086498e+01     2.521625      1.16357 -60.85   0.01232573    1.913    0.477
        14 -11.1148    156.1414     43.6126   5.2824838178e+01   4.0633239006e+01     2.027364     1.055882  40.47  0.008351413    2.152    0.535
        15 -11.4309     75.8271     43.4304   7.4394091615e+01   5.8452087015e+01     0.831333    0.3836578 -21.90  0.002854822    3.070    0.674
        16 -10.8415     23.5010     28.3726   9.0757443415e+01   6.8064666161e+01     1.066057    0.4675257 -46.45  0.005434651    2.030    0.507
        17 -11.6149      4.1309     26.9576   1.0019897512e+02   6.9776775130e+01    0.6132718    0.2793818 -28.84  0.003360918    1.924    0.480
        18 -11.2630     12.5848     24.9364   9.4980488727e+01   6.9578593476e+01    0.4379972    0.2077197 -27.44  0.000664078    1.916    0.478
        19 -11.8422     30.3915     24.9414   8.5903464193e+01   6.7940504528e+01    0.8735332    0.3687485 -38.03  0.004347769    2.031    0.508
        20 -11.2417      7.2814     19.6753   9.5727847779e+01   7.0868589808e+01    0.5314265     0.381426  20.84  0.001471972    1.628    0.386
        21 -11.6718     16.8536     38.3184   9.7745542585e+01   6.6817836679e+01     1.017749    0.6042892 -20.52  0.005969426    1.589    0.371
        22 -12.6295     18.3150     13.8191   8.7097470667e+01   7.0919596269e+01     1.216734    0.4896554 -48.06  0.005829299    2.822    0.646
        23 -12.3054     25.4406      8.6966   8.0770721806e+01   7.0919225064e+01    0.6998456    0.3900383 -41.22 0.0004927635    1.981    0.495
        24 -12.6601      3.0129      2.6597   9.0513904054e+01   7.3899163588e+01     1.145146    0.2554421  25.70  0.004914244    4.379    0.772
        25 -11.1550    214.3577     25.7345   3.9499208841e+01   2.8697793339e+01     1.104393    0.6221476 -12.19    0.0049558    2.806    0.644
        26 -10.6584    204.7187     23.6106   4.0019540169e+01   3.1197590680e+01    0.4985368    0.2581463 -25.06  0.002341649    2.213    0.548
        27 -10.7159    208.9180      3.6264   3.4742837804e+01   3.2332313898e+01    0.4382464    0.3409926  73.66  0.002175069    1.204    0.169
        28  -9.8872    205.5451     15.6159   3.7949686106e+01   3.1891199438e+01    0.4087924    0.3057838  33.95  0.002333469    1.764    0.433
        29  -9.7759    221.0136     13.8270   3.6050389808e+01   2.8523345480e+01    0.2722165    0.2126095  76.91 0.0009864833    1.216    0.178
        30 -10.3272    212.7929     11.6300   3.6284997440e+01   3.0630086055e+01    0.5468272     0.348748  82.96  0.002084486    1.457    0.313
        31 -10.4490    235.6542     32.7955   3.8996493173e+01   2.3066794352e+01    0.5019531    0.3549572   2.01  0.001583922    2.360    0.576
        32 -11.3283    164.0254      6.0802   4.0173640653e+01   4.2876274057e+01    0.9065528    0.7044595  76.94  0.004861924    1.153    0.132
        33 -10.9359    157.1814      4.9141   4.0739497382e+01   4.4661769413e+01     1.124728    0.3253827 -20.95  0.004004204    4.132    0.758
        34 -11.6952    178.9673     18.5143   4.1767077877e+01   3.7984297954e+01    0.9600738    0.7297897  -2.76  0.005327929    1.694    0.410
        35 -11.2193    169.6733     14.1942   4.1775064137e+01   4.0718970924e+01    0.5754209    0.4251958  70.40  0.002591933    1.214    0.176
        36 -10.7719    154.2417     17.5461   4.5036805827e+01   4.4203466644e+01    0.4037618    0.2994147  31.57 0.0004401778    1.503    0.335
        37 -11.3948    149.8849     15.5694   4.5117446126e+01   4.5478974088e+01    0.6854048    0.4283201 -23.92  0.002730627    1.786    0.440
        38 -11.3402    160.8687     18.4349   4.4280710650e+01   4.2469049920e+01    0.7164939    0.5692947   0.06  0.003832976    1.527    0.345
        39  -9.6401    240.4374     14.6345   3.4607671814e+01   2.4181921398e+01    0.4512049    0.1411909  56.23  0.001839867    3.591    0.722
        40 -10.2404     38.6883     10.2195   7.4948713916e+01   6.9053898533e+01    0.4278268    0.2277754 -13.39  0.002107351    1.994    0.499
        41  -9.2263     36.4736      5.9899   7.3826878944e+01   6.9883639925e+01    0.2335891     0.134748  28.00  0.001134535    1.575    0.365
        42 -10.1105     41.8790      3.3136   6.9907394646e+01   6.9421333574e+01    0.3204777    0.1996956 -11.76  0.001333872    1.457    0.313
        43 -10.1293     31.3890     11.9298   7.9350043832e+01   6.9773773914e+01    0.2666423    0.1773241 -20.42  0.000712572    1.258    0.205
        44  -9.1641    233.3065     10.4609   3.4270227783e+01   2.6168229843e+01    0.2217174    0.1581153 -86.49 0.0007760203    1.261    0.207
        45  -9.2972    233.9945      7.0013   3.3470995240e+01   2.6386708080e+01    0.2186932    0.1770201 -28.17 0.0007217315    1.453    0.312
        46 -11.1429    200.5427      6.1366   3.6113153986e+01   3.4039257949e+01    0.5912893    0.2846444 -38.77  0.002952421    2.001    0.500
        47 -10.3123    226.4359      7.5935   3.4186812270e+01   2.7975122560e+01    0.4436107    0.2794083  23.12  0.002172618    3.066    0.674
        48 -10.8846    139.4259      4.6488   4.3284795152e+01   4.9035510350e+01    0.5707486    0.2900401 -16.21  0.002176771    2.352    0.575
        49 -10.5719    132.7213      4.4286   4.4322625890e+01   5.0679698450e+01    0.4446557    0.4243384 -72.66  0.002184128    1.179    0.152
        50  -9.8053     77.6905      9.0266   5.9118414034e+01   6.2588828041e+01    0.2345492    0.1832757  39.01 0.0001683678    1.155    0.135
        51  -8.8138    189.8416      7.6520   3.7574400591e+01   3.6438000060e+01    0.4138806    0.1546112  59.24  0.001779937    2.356    0.576
        52 -10.5110    185.9322      4.9898   3.7296177552e+01   3.7631278450e+01    0.4764721    0.3334972  39.00  0.001350262    1.715    0.417
        53 -10.1973    181.9506      4.3791   3.7563796879e+01   3.8649522468e+01    0.3409829    0.3013909 -33.15  0.001594373    1.278    0.217
        54  -9.4164     77.3968      4.5944   5.7198043597e+01   6.3062979469e+01    0.2688863    0.1604836  26.35 0.0008275336    1.570    0.363
        55  -9.0971    250.5706      7.0389   3.2299946746e+01   2.2903204296e+01     0.170829   0.09959146 -38.62 0.0006133126    1.574    0.365
        56 -10.3744    217.2084      3.6868   3.4056250672e+01   3.0434121818e+01    0.4280011     0.293537 -60.79  0.002471966    1.317    0.241
        57  -9.3809     67.5151      6.0107   6.1091540974e+01   6.4833916283e+01    0.2691756    0.1360527 -24.38 0.0008114654    2.009    0.502
        58 -10.3596     71.5422      3.6237   5.8605465875e+01   6.4296694487e+01    0.3541058    0.3248176 -16.06  0.002428212    1.332    0.249
        59  -9.7393    243.7793      3.4963   3.2038075707e+01   2.4677417443e+01    0.3409936     0.134668 -47.10  0.001246524    2.090    0.522
        60  -8.6477    145.9753      5.0420   4.2390204378e+01   4.7402796054e+01     0.149903    0.1465342  43.35 0.0005317726    1.128    0.114
        61 -13.3240      5.0702      9.2613   9.2463885617e+01   7.2736765447e+01    0.6197599    0.4935359  -2.68  0.002361714    1.258    0.205
        62  -9.1081     61.0648      6.1247   6.3464630904e+01   6.5992565965e+01    0.2507231    0.1326324  41.75  0.001269645    1.670    0.401
        63  -9.5166    248.8462      1.9050   3.1382563525e+01   2.3796271394e+01    0.1934659    0.1504824 -38.53 0.0006505301    1.354    0.262
        64  -9.0788    123.9699      2.9409   4.5356896306e+01   5.2896474901e+01    0.1963857    0.1702183  55.49 0.0004493806    1.031    0.030
        65 -10.0513     56.8927      2.0770   6.3025218802e+01   6.7124579295e+01    0.3445123    0.1863887  39.90  0.001688602    1.598    0.374
        66  -9.1701     84.4556    113.3525   9.3235254303e+01   4.2507513508e+01    0.2977038    0.1830596  17.43 0.0005023117    2.174    0.540
        67  -9.3667    211.4300    250.3012   8.9325089094e+01  -6.6564989028e+00    0.2007092    0.1287942  43.65  0.001190882    1.805    0.446
        68  -8.9312    162.2007    250.6009   9.8760678785e+01   5.6340972091e-01    0.1840687   0.09753287  28.88 0.0009549939    1.715    0.417
        69  -9.7933     61.9171    109.3305   9.9459945409e+01   4.6729871693e+01    0.4265966    0.2349756  21.40  0.001876796    2.228    0.551
        70 -10.6509     89.9957     88.0517   8.4710331156e+01   4.7392063710e+01     0.649743    0.5202544  -1.83  0.002260395    1.396    0.283
        71  -9.7747     73.2816    107.8579   9.5447584330e+01   4.5526447482e+01    0.5189976    0.3001079 -18.74  0.001944766    2.975    0.664
        72  -9.9632     75.9133    102.3562   9.3241191834e+01   4.6441278357e+01    0.3613259    0.3048066   4.11  0.001324975    1.310    0.237
        73 -11.4233     75.6442     94.4019   9.1252590407e+01   4.8328108965e+01     1.109578    0.4610738 -38.29  0.003958758    2.718    0.632
        74  -9.8895     83.0193     89.9561   8.7556372456e+01   4.8161815333e+01    0.2566674    0.2355193  33.23  0.000372105    1.174    0.148
        75  -9.7589     82.6446     85.8825   8.6499902051e+01   4.9121974182e+01    0.3421427    0.2269973 -36.34  0.001432371    1.454    0.312
        76  -9.4890    113.3094    107.4740   8.3035769438e+01   3.8709166822e+01    0.3245578    0.2687491 -25.86 0.0008053492    1.254    0.203
        77  -8.8079    110.0936    104.5160   8.3170119598e+01   4.0005510577e+01    0.3289204    0.1535362  39.98  0.001222751    2.209    0.547
        78  -9.9414     51.8669     92.2051   9.8871426328e+01   5.2032729355e+01    0.4115331    0.2775282 -42.38  0.001739495    1.329    0.248
        79 -10.7516     48.5360    100.6867   1.0198606186e+02   5.0407043805e+01    0.7662784    0.5186024 -58.36  0.004048328    1.304    0.233
        80  -9.7459     54.0620    100.7505   1.0012957424e+02   4.9760446764e+01    0.3467436    0.2275555 -49.58 0.0004529042    1.329    0.248
        81 -10.0377     55.5347     96.4888   9.8630800222e+01   5.0593644842e+01    0.3822939    0.2514752 -17.65 0.0006020477    1.922    0.480
        82 -11.9642    144.4908    100.7244   7.2692743965e+01   3.3524360495e+01    0.9158926    0.4402326  29.72  0.002842246    3.375    0.704
        83  -9.6083     36.9860    103.2629   1.0640934949e+02   5.0964763535e+01    0.4287277    0.2257191  -0.61  0.001819408    3.043    0.671
        84  -9.3919    133.4870    101.9897   7.5901163634e+01   3.5705322280e+01     0.334586    0.2623904 -78.87 0.0009054266    1.742    0.426
        85  -9.5961    132.2120     98.4053   7.5225930543e+01   3.6739832733e+01    0.3759685    0.2924162 -53.95  0.001195211    1.387    0.279
        86  -9.8275     63.4160    101.8640   9.7247292922e+01   4.8324048243e+01    0.4356859    0.2847769  -0.85  0.001986769    2.143    0.533
        87 -10.0930    236.0406    249.4484   8.4730759409e+01  -9.8935884905e+00    0.3012276    0.1220944  41.57  0.001449729    2.819    0.645
        88  -9.5407    147.8234    247.3708   1.0115364982e+02   3.2549349586e+00    0.1744457   0.09916516  30.00 0.0004188291    1.598    0.374
        89 -12.4123    114.2898     69.1854   7.1238142234e+01   4.6427949269e+01     2.127788    0.9197554  49.41  0.007872833    2.404    0.584
        90 -12.0715     33.7839     70.5807   1.0009701217e+02   5.8807470871e+01     1.406506    0.6806933 -24.96  0.006050111    2.676    0.626
        91 -11.8018     44.9327     53.7365   9.0408634990e+01   6.1150705825e+01    0.9658079    0.5395431  32.83  0.001521732    1.969    0.492
        92 -10.8872     76.6265     61.3538   8.0731496155e+01   5.5153977526e+01    0.7438096    0.5871718   8.68  0.003064697    1.283    0.221
        93  -8.7898      3.3878    246.4179   1.2799442345e+02   2.2103349906e+01    0.1802244   0.05941263 -64.87 0.0009452997    3.248    0.692
        94  -9.5210    141.6322    243.9801   1.0194271825e+02   4.7516695926e+00    0.3059288    0.1898802  19.35  0.001612511    1.931    0.482
        95  -9.2351    188.5906    243.8470   9.2658752101e+01  -2.4534674817e+00     0.140029     0.119839 -45.44 0.0004952012    1.563    0.360
        96 -11.7191     21.6554     93.4529   1.0975541356e+02   5.4568032494e+01     1.292753       0.6839  66.87    0.0050385    3.430    0.708
        97 -10.7734     19.9695     81.4868   1.0800387321e+02   5.7466661958e+01    0.5900286    0.2984604 -21.09   0.00252868    2.540    0.606
        98  -9.1329    211.3038    240.3428   8.7778990807e+01  -5.3321019417e+00    0.1276646   0.08013099   3.99  0.000704032    1.682    0.406
        99 -11.7443     31.6967     41.8197   9.1998599555e+01   6.4863140757e+01    0.8953456    0.3796511  25.30  0.003674668    2.521    0.603
       100 -12.2904     87.2628     55.5436   7.4957686014e+01   5.4332193946e+01    0.8899018    0.6839798 -43.82  0.004727388    1.411    0.291
       101  -9.7561     14.4026    239.2018   1.2581957224e+02   2.2369343173e+01    0.1533143   0.07840105  82.91  0.000954195    1.700    0.412
       102  -8.5401     55.6734    238.3128   1.1828813664e+02   1.7973280555e+01     0.124982   0.06832474  62.89 0.0002689007    1.665    0.399
       103  -8.9074     21.0762    232.3717   1.2428298001e+02   2.2995272576e+01    0.1550939    0.1111145  60.11 0.0007439954    1.121    0.108
       104  -9.2507     12.5488    231.6570   1.2576333274e+02   2.3977656962e+01    0.2049813    0.1110825  44.27  0.001339523    1.606    0.377
       105  -8.6290    227.0175    231.5314   8.3398994191e+01  -6.4091467002e+00    0.1757745    0.1028489  31.43 0.0004008668    1.511    0.338
       106 -12.2647     56.4713     38.0093   7.9695153658e+01   6.2467988331e+01    0.6094367    0.3738199  -9.79  0.003049502    1.876    0.467
       107 -11.5537     49.1297     39.6595   8.3435890550e+01   6.3219191216e+01    0.5022607    0.3384451  -2.89 0.0005796896    1.535    0.348
       108  -8.5380    218.8543    230.6388   8.4760416401e+01  -5.1110368446e+00    0.1746776    0.1012564  40.72 0.0009458906    1.802    0.445
       109 -10.3434     88.1499     97.0291   8.7863929426e+01   4.5712748380e+01    0.4475336    0.3430002  42.31  0.001520322    1.407    0.289
       110  -9.7815      4.2136    100.1071   1.1667136497e+02   5.4071593832e+01    0.5702754    0.2128521 -71.49  0.002604484    2.160    0.537
       111 -11.0893      3.2843     89.8225   1.1547058503e+02   5.6516287252e+01    0.6658307    0.2211639 -72.70   0.00143778    2.651    0.623
       112 -10.9575      7.3839     85.3556   1.1331467547e+02   5.7341372816e+01     0.370021    0.3093779 -69.22  0.000457744    1.130    0.115
       113  -9.4797     33.3850     99.3009   1.0684623857e+02   5.2241266486e+01    0.3056372    0.2271364 -26.37  0.001758616    1.455    0.313
       114 -10.8702     39.3235     80.2462   1.0046798120e+02   5.6128664098e+01      1.14318    0.5695557 -70.59  0.004733905    2.713    0.631
       115  -9.7650     39.5051     92.1054   1.0321331497e+02   5.3376606709e+01    0.2980462    0.1820334 -51.44 0.0008611691    1.366    0.268
       116 -10.5158     34.4722     91.6763   1.0490158781e+02   5.3949096454e+01    0.5823546      0.31351   3.36  0.002631766    2.613    0.617
       117 -13.0749     44.5274    124.1553   1.0782454676e+02   4.5124192862e+01     1.946522     1.220169 -49.19   0.01006011    1.477    0.323
       118  -9.8000    156.1199     96.6623   6.8714880370e+01   3.1675691156e+01    0.3767155    0.2175339 -34.12  0.001518418    1.785    0.440
       119 -12.0916    101.3280     77.8037   7.7942034961e+01   4.7434293207e+01     1.584406     0.735588  48.08  0.006026823    2.397    0.583
       120  -9.7320    126.7819     92.6481   7.5029513593e+01   3.9123083047e+01    0.3205937    0.2983694 -89.23  0.001660286    1.241    0.194
       121 -10.5604    116.6508     94.4474   7.8410087765e+01   4.0893355731e+01    0.6764877     0.459052  26.74  0.002549824    1.686    0.407
       122  -8.6353    189.4006     93.8255   6.0840016906e+01   2.4415258080e+01    0.2162972    0.1428107 -24.02 0.0009388705    1.702    0.412
       123  -9.3898     11.4495     94.4131   1.1342258922e+02   5.5009521569e+01    0.2600032    0.1190679  19.93  0.001296922    2.620    0.618
       124  -8.4030    139.6534     93.7799   7.1940962794e+01   3.6034738496e+01    0.1551276    0.1179525  20.54 0.0002209648    1.541    0.351
       125  -9.9668     39.0393     96.4801   1.0432925412e+02   5.2389762924e+01    0.3677476     0.247475  -2.88  0.001316033    1.871    0.466
       126  -9.8824    107.0000     86.9780   7.9044134552e+01   4.4430046308e+01    0.6005038    0.2548853 -29.82   0.00178055    3.782    0.736
       127 -10.1329     66.3466     88.7294   9.2893762499e+01   5.0980000894e+01    0.4364801    0.3187136 -58.49  0.001110561    1.395    0.283
       128  -8.9811    112.1750     88.3025   7.7896482154e+01   4.3109318954e+01    0.2781172    0.2007293 -29.47  0.001007886    1.433    0.302
       129  -8.7959     58.6752     89.0359   9.5669349127e+01   5.1935621776e+01    0.2837458    0.1667625 -10.50  0.001164263    2.662    0.624
       130  -9.7342     56.9054     85.8255   9.5452372167e+01   5.2891927107e+01    0.4927369    0.2560851   6.58  0.001855942    3.331    0.700
       131  -9.9947     51.8004     86.0484   9.7349947109e+01   5.3461392252e+01    0.6908589    0.3273872 -20.03  0.002135212    4.888    0.795
       132  -9.3860     53.1926     81.8600   9.5734117472e+01   5.4243932598e+01    0.2278796     0.195855   0.77 0.0005783151    1.223    0.182
       133 -10.2449    146.5120     84.5820   6.7523198156e+01   3.6258508762e+01    0.5904816     0.335367 -33.99   0.00165742    1.814    0.449
       134  -9.7049    133.4129     85.4339   7.1094578491e+01   3.9108342143e+01    0.6129408    0.3691002   3.09  0.001923729    3.772    0.735
       135 -10.2368    119.4203     86.2168   7.5164497768e+01   4.2025975575e+01    0.3817267    0.3513243  21.31   0.00139697    1.079    0.073
       136  -8.7874    156.4300     84.8118   6.5250039379e+01   3.3875415289e+01    0.2992682    0.1950938 -20.99   0.00124047    1.865    0.464
       137 -11.5879    161.3097     81.9463   6.3321633021e+01   3.3237218877e+01    0.3703877    0.2808404  60.12  0.001755344    1.389    0.280
       138  -8.8123     75.9532     84.0006   8.8222424699e+01   5.0612410023e+01    0.2495511    0.1843357  29.80  0.000491711    1.431    0.301
       139  -8.5711     72.5218     84.4904   8.9553050916e+01   5.1031921396e+01    0.1459548    0.1295787 -27.87 8.944306e-05    1.024    0.024
       140 -11.0045    177.0724     78.4778   5.9052414665e+01   3.0054623988e+01    0.2854664    0.2284077 -31.26  0.001421517    1.262    0.208
       141  -8.8339    202.2327    228.9937   8.7650845411e+01  -2.3835274923e+00     0.171258    0.1409833  10.96 0.0003768378    1.029    0.028
       142 -10.1321    189.4686     77.4275   5.6433669869e+01   2.7257948105e+01    0.5168207    0.2506498  40.99  0.001381423    2.513    0.602
       143  -9.3414    144.3611     78.2865   6.6155357699e+01   3.7939478942e+01    0.2432939     0.210144 -11.46 0.0006704023    1.235    0.190
       144 -10.3090    146.5880     74.9312   6.4598931408e+01   3.8021067881e+01    0.4096696    0.2030901  43.38 0.0002926573    2.062    0.515
       145 -10.0960      3.6725     72.8710   1.1242652604e+02   6.0358703634e+01     0.253397    0.1454601 -52.58  0.000927994    1.312    0.238
       146 -10.8825      9.9006     76.6876   1.1080025531e+02   5.9184343133e+01    0.2260513    0.1515354 -60.13 0.0003299685    1.190    0.159
       147 -10.2679      5.0641     77.0564   1.1268351485e+02   5.9351951294e+01    0.2729175    0.2095211  46.38 0.0007270321    1.685    0.407
       148  -9.6961    248.4800     77.4934   4.7648166382e+01   1.4156782854e+01     0.134471    0.1139605 -49.62  5.20491e-05    1.033    0.032
       149  -9.4321     70.0254     76.3322   8.8008812700e+01   5.3176980037e+01    0.2809559    0.2226445 -25.84   0.00118085    1.193    0.162
       150  -9.2254    244.3521     76.2893   4.7887751755e+01   1.5173670678e+01    0.1275554     0.103244  15.34 0.0004814431    1.671    0.402
       151  -9.1009    203.5896     75.8901   5.3611076524e+01   2.4180816286e+01    0.3900544    0.1700523  39.18  0.001308447    3.465    0.711
       152  -9.1546    167.2367     73.5590   5.9624795831e+01   3.3281634588e+01    0.3225417    0.2302694  14.09 0.0009876614    1.942    0.485
       153  -8.7656    169.8656     70.4029   5.8178205286e+01   3.3173072491e+01    0.2354094    0.1461485  52.86  0.001034002    1.588    0.370
       154 -12.0167     32.6178     59.0365   9.7294972904e+01   6.1377787663e+01    0.5765489    0.4790618 -13.51  0.003085059    1.159    0.137
       155 -10.6911    139.6590     69.2993   6.4521478556e+01   4.0658273626e+01    0.8911517    0.4348629  53.87  0.002689865    2.085    0.520
       156 -11.0331    148.9121     34.5929   5.1362023074e+01   4.3600580785e+01     1.215776    0.2608427  55.38  0.003717699    3.633    0.725
       157  -9.1648    137.0000    225.0150   1.0032393077e+02   8.7449988163e+00    0.1903219   0.07609702 -52.28 0.0004807487    2.890    0.654
       158 -11.2240    149.4473     66.0028   6.1191638231e+01   3.8880183637e+01    0.8720984    0.4843215 -35.79  0.003149034    1.821    0.451
       159 -10.5745    136.2435     42.0272   5.6428303700e+01   4.5730609424e+01    0.8802046    0.4013609 -51.36  0.003082808    3.324    0.699
       160  -9.8291    143.9341     58.2553   6.0007272325e+01   4.1474063965e+01    0.3453245    0.2574407  44.29 0.0004184434    1.304    0.233
       161 -10.8054    142.1631     44.5044   5.5951248136e+01   4.3952194833e+01    0.5390124    0.3161169  29.06  0.001344333    2.208    0.547
       162 -12.2981    147.2521     53.7806   5.7842964531e+01   4.1361142990e+01    0.3962244     0.319566  51.86 0.0002551909    1.188    0.158
       163 -11.7541    145.8470     48.3429   5.6406393508e+01   4.2508270916e+01    0.4114337    0.2979898  37.26 0.0001863926    1.423    0.297
       164  -9.8032    165.4611     68.0496   5.8377960253e+01   3.4639456164e+01    0.4656228    0.2767105 -19.51  0.001887045    2.165    0.538
       165  -9.1496    176.6845     68.0015   5.6170461286e+01   3.1902546561e+01    0.3989156    0.2104872  65.37  0.001581938    2.158    0.537
       166 -10.5951    107.0989     59.2742   6.9987752443e+01   4.9727684092e+01    0.3085263    0.2516681  23.75 0.0005045442    1.211    0.174
       167 -11.1367    163.9194     52.9217   5.4182168308e+01   3.7383876503e+01    0.8328193    0.5531082 -88.07  0.003201069    2.107    0.525
       168  -9.1988     88.0858     65.1445   7.8059398631e+01   5.2423075814e+01    0.3166168     0.197791 -44.24  0.001095762    1.619    0.382
       169  -9.9355    207.4460     61.2134   4.9229579081e+01   2.5570092237e+01    0.3586132     0.256411 -30.83  0.001386917    1.424    0.298
       170  -8.8098    181.8498     61.1496   5.3299289059e+01   3.1722206197e+01    0.1943583    0.1682517  31.76 0.0003954563    1.280    0.219
       171  -9.2450    200.0886     59.5871   4.9901717702e+01   2.7549825442e+01    0.3372469    0.2091652  39.20  0.001148039    1.993    0.498
       172  -9.8450    127.5988     59.8658   6.4497296597e+01   4.5081918325e+01     0.436289    0.2755365  56.57  0.001950587    1.664    0.399
       173 -10.5228    133.3458     54.3788   6.1233015656e+01   4.4617848079e+01    0.6315778    0.3700529  -2.60  0.002308714    3.001    0.667
       174  -9.2167    250.0101     58.9794   4.3353284021e+01   1.6553546183e+01    0.1626962    0.1346854 -50.24  0.001011903    1.035    0.034
       175 -10.0613    173.9406     57.4973   5.3667177379e+01   3.4222617731e+01    0.4582793    0.2814754 -10.40  0.001871218    2.411    0.585
       176 -10.0596    173.1122     46.8347   5.0722049621e+01   3.5974245165e+01    0.9970517    0.4142179  61.81  0.003830737    2.340    0.573
       177  -9.7826    178.8661     30.6694   4.5180764012e+01   3.6637016205e+01    0.3232704    0.2925337  72.74  0.001428458    1.039    0.037
       178  -9.7478    182.3379     37.9496   4.6712213384e+01   3.4876846609e+01    0.4634702    0.2974228  18.36  0.002029979    2.475    0.596
       179  -9.6152    183.0268     33.7905   4.5453216491e+01   3.5230744465e+01    0.4640057    0.2328178  55.06  0.001921062    1.889    0.471
       180  -9.9657    189.6851     57.7406   5.1037701235e+01   3.0328062756e+01    0.4483339    0.2556732  67.88  0.001971007    1.872    0.466
       181 -11.1295    184.5221     54.9051   5.1099949647e+01   3.2006598035e+01     1.053962    0.3493614 -45.59  0.003475283    3.292    0.696
       182 -10.5874    193.1230     54.0292   4.9487512562e+01   3.0039933334e+01    0.5040681    0.2611325  61.36  0.001899944    1.905    0.475
       183  -8.7908     13.3139    212.6684   1.2458461935e+02   2.7669781593e+01    0.1225752   0.06279325  65.79 0.0007045172    1.679    0.405
       184 -10.3872      2.9969     56.2336   1.0919972419e+02   6.4019022414e+01    0.3602237    0.2979706  42.50  0.002424404    1.636    0.389
       185  -9.5155      4.1705     51.5992   1.0756704010e+02   6.4937951358e+01    0.2219006    0.1413409 -54.34 0.0006896176    1.232    0.188
       186 -10.6084    121.1625     53.8524   6.4146776262e+01   4.7533425516e+01    0.5273678    0.4132218 -12.61  0.001637956    1.370    0.270
       187 -10.2427    116.8972     49.6195   6.3814215730e+01   4.9160296281e+01    0.4104075    0.3218248 -29.00  0.001436241    1.304    0.233
       188  -9.6001    234.3695     55.6650   4.4358233959e+01   2.0303263630e+01    0.3027033     0.187917 -63.04  0.001527949    1.718    0.418
       189  -8.7544     11.8637     56.4543   1.0544209519e+02   6.3503547514e+01    0.1544936    0.1150547   6.30  0.001000013    1.512    0.339
       190  -9.4329    244.5102     54.5331   4.2960778149e+01   1.8308296225e+01    0.2249342    0.1231401 -23.23  0.000844783    2.271    0.560
       191  -8.9014    227.9615     49.6637   4.3701388766e+01   2.2544354258e+01    0.1845398    0.1582315  89.19 0.0006392073    1.151    0.131
       192  -9.4293    199.0100     49.8303   4.7492529903e+01   2.9219855501e+01    0.2434921    0.1474108  39.16  0.001091139    2.093    0.522
       193 -12.3183     58.8521     67.0139   8.9231011688e+01   5.6724441421e+01     1.711951     1.134091  36.97  0.005662715    1.688    0.408
       194  -8.6203    124.0282    205.9760   1.0036340047e+02   1.4510898603e+01    0.1585571    0.1451384  46.47            0    1.012    0.012
       195  -8.9825    233.6233    199.8208   7.6457657097e+01  -2.8938925823e+00    0.1721531    0.1124795 -38.31 0.0009441694    1.631    0.387
       196  -9.2435     27.9919    193.4914   1.2030255332e+02   3.0325021870e+01       0.1715     0.111596  37.05  0.001040009    1.611    0.379
       197  -9.5600     11.2221    192.6850   1.2375310748e+02   3.2074094732e+01     0.256746    0.1032157  42.97  0.001353846    2.231    0.552
       198 -10.4301     36.5786     27.1622   8.3894782998e+01   6.6877822027e+01    0.2588105    0.2070767   0.90 0.0003282131    1.117    0.105
       199  -9.9728     10.1930    185.2890   1.2346755007e+02   3.3780443279e+01    0.3040778    0.1957446   4.74  0.001755446    2.608    0.617
       200  -9.4610     27.0160    179.0969   1.1929796797e+02   3.3651370246e+01    0.2972087    0.1565144 -52.72  0.001547103    2.092    0.522
       201 -12.1018     15.5470     30.9756   9.5768540002e+01   6.8279431490e+01    0.3754226    0.2101782 -25.29 0.0004433332    1.580    0.367
       202  -9.8422      3.1085    177.7092   1.2445983799e+02   3.6031737404e+01    0.3198199    0.2181188 -37.90  0.001996924    2.102    0.524
       203  -8.5355     70.4802    174.4982   1.0843166734e+02   2.9698079614e+01    0.1351558    0.1232887  87.72 0.0008102583    1.022    0.022
       204 -11.7705     32.4883    166.4169   1.1678916345e+02   3.6063160652e+01    0.3682751    0.2417817 -53.89 0.0004740458    1.574    0.365
       205  -9.7694    206.9892     46.0784   4.5422740962e+01   2.7840170819e+01    0.4474224    0.1793458  62.36  0.001809622    2.425    0.588
       206  -8.6947     23.7954     46.2937   9.7158680535e+01   6.4729487217e+01    0.1626518    0.1023909   3.72 0.0009293064    1.707    0.414
       207  -8.6727    223.3788     45.2847   4.3195242931e+01   2.4165250580e+01    0.1310755    0.1000267  34.87  0.000701368    1.724    0.420
       208  -9.3316    192.8262     44.1257   4.6864867007e+01   3.1496716731e+01    0.2793641    0.1920873 -70.82 0.0009667202    1.648    0.393
       209  -9.3236    190.4552     41.0697   4.6381612970e+01   3.2480742081e+01    0.5664191    0.2881257  25.15  0.001013814    5.578    0.821
       210  -9.2936    192.3273     36.3240   4.4841632805e+01   3.2637712239e+01    0.2054711    0.1880807  50.07 0.0008324867    1.182    0.154
       211 -10.5363    193.3979     32.4149   4.3656394979e+01   3.2864939330e+01    0.3954707    0.3062756 -45.87  0.001580855    1.276    0.216
       212  -8.8650    129.1703     44.7253   5.8981558246e+01   4.7045575811e+01    0.2359659    0.1894841  76.43  0.001209135    1.475    0.322
       213  -8.8783    248.3059     44.3738   4.0328269243e+01   1.8898912415e+01    0.1191654   0.09858094  14.60 0.0007031087    1.767    0.434
       214 -10.1548    118.4729     42.1760   6.0753838155e+01   4.9898991779e+01    0.4169749    0.3010173 -27.67  0.002130066    1.438    0.305
       215  -9.2923    219.8600     42.7890   4.3006420957e+01   2.5296358715e+01    0.2190164    0.1773899 -44.24 0.0006239059    1.173    0.147
       216  -8.5270    197.1902     42.1119   4.5713695501e+01   3.0710163257e+01     0.183142    0.1472197 -71.92 0.0003327806    1.247    0.198
       217  -9.2986    166.7104     41.9403   5.0385807449e+01   3.8231148206e+01    0.3279909    0.1928162  36.93  0.001425865    2.044    0.511
       218  -9.4253     22.9984     40.8575   9.5693834030e+01   6.5846259564e+01    0.3116003    0.1550249 -41.99  0.001228523    1.598    0.374
       219  -9.3589    173.1990     39.8551   4.8680131905e+01   3.6892665464e+01    0.4178823    0.2299316  35.36   0.00171907    2.431    0.589
       220  -8.9967    250.4597     40.4769   3.9279960270e+01   1.8965755155e+01    0.1242065    0.1063776 -58.93 0.0001961556    1.042    0.040
       221 -10.1059    215.6423     38.7785   4.2525173874e+01   2.6789214138e+01     0.347342     0.231391  67.92  0.001864717    1.482    0.325
       222 -10.8877    222.8316     34.4847   4.0688288294e+01   2.5694673673e+01    0.6124673    0.3742575  41.52  0.002424384    2.214    0.548
       223 -11.0681    226.8412     27.6388   3.8680698859e+01   2.5636519433e+01    0.5997131    0.3304994  52.60  0.003037628    2.064    0.515
       224  -9.4306    203.0334     37.7287   4.3799715218e+01   2.9881875765e+01    0.2361738    0.1787327 -63.33  0.001092163    1.303    0.232
       225  -9.8467    201.1637     34.6217   4.3236955375e+01   3.0721683195e+01    0.4637797    0.2307581  40.15   0.00187572    2.892    0.654
       226 -11.5802     80.0092     33.4563   6.8912280476e+01   5.9207758739e+01    0.3464714    0.2760567  32.59 0.0003186871    1.186    0.157
       227  -9.6309    124.5561     35.6874   5.6934432645e+01   4.9362203342e+01    0.3313627    0.1790754  53.56  0.001482853    1.701    0.412
       228  -8.8435    119.8203     35.6063   5.8053901553e+01   5.0479464221e+01    0.1938214     0.173034 -78.75 0.0009146036    1.381    0.276
       229  -9.0929      2.6574     35.2750   1.0371702237e+02   6.8292606687e+01    0.3302623   0.08780959 -38.47  0.001412974    2.912    0.657
       230 -10.3401    245.0210     33.6811   3.8314155739e+01   2.0959229047e+01      0.38915    0.2297622  72.66  0.001919451    1.734    0.423
       231 -10.0029     18.9882    165.5185   1.1993466385e+02   3.7518562860e+01    0.1667693    0.1184945  34.25  0.001033055    1.593    0.372
       232 -10.7077     22.3487    159.9989   1.1860496156e+02   3.8521380519e+01    0.3114297    0.1879515 -63.97  0.001189621    1.456    0.313
       233 -10.8181     15.8048    160.3989   1.2022803995e+02   3.8980608719e+01    0.3151667    0.2003467 -59.68  0.001492181    1.485    0.327
       234  -9.9328    211.3199     16.9489   3.7693793792e+01   3.0399535818e+01    0.3385637    0.2116497  55.76  0.001321924    1.677    0.404
       235  -9.9757      2.3593    160.5004   1.2340478198e+02   3.9976895791e+01    0.2856996    0.1168875  89.55   0.00133451    2.334    0.572
       236 -11.7828     13.8490    152.0557   1.1992896966e+02   4.1097785517e+01    0.4656032    0.3901584  42.46 0.0007922534    1.366    0.268
       237  -9.4929      7.9468    151.6611   1.2134988143e+02   4.1630422783e+01    0.2219155    0.1994945  64.29 0.0005705171    1.229    0.186
       238  -9.7064    135.1963     34.4362   5.4094161066e+01   4.6979264855e+01    0.2696722    0.2156303   5.85 0.0007424777    1.405    0.288
       239  -9.3175    138.2816     31.4634   5.2441993322e+01   4.6595714550e+01    0.2357741    0.2247087 -54.91 0.0007643916    1.153    0.132
       240  -9.9369     30.8140    151.5193   1.1556107906e+02   3.9779338043e+01    0.2545026    0.1907677 -75.15 0.0004681629    1.130    0.115
       241 -10.1149    237.8064     26.0429   3.7296767295e+01   2.3426554984e+01    0.3021807    0.2363172  73.57 0.0003819269    1.300    0.231
       242  -9.3143    242.5390     25.5135   3.6766972037e+01   2.2480903918e+01    0.3068187    0.1800396 -53.75  0.001219799    1.496    0.332
       243  -8.9762    206.9151     33.8631   4.2338331170e+01   2.9450753629e+01    0.1980315    0.1718922  50.62 0.0006674989    1.285    0.222
       244  -9.6746    172.8026     30.9814   4.6171103387e+01   3.8101942498e+01    0.3949496    0.2489913  34.88  0.001856631    1.957    0.489
       245 -11.2247    167.3680     29.0910   4.6459576802e+01   3.9677078206e+01    0.3141191    0.2721759 -21.03 0.0005136175    1.283    0.221
       246  -9.5554    113.8985     31.0828   5.7884302147e+01   5.2416965840e+01     0.262387    0.1933595 -13.87  0.000499395    1.453    0.312
       247  -9.2089    145.9359     28.8406   5.0070299180e+01   4.5028938099e+01    0.3242553    0.1666655  51.65  0.001287156    1.751    0.429
       248  -9.5552    150.9343     29.0985   4.9231322843e+01   4.3762911513e+01    0.3094772     0.260241  22.25 0.0008902123    1.309    0.236
       249  -9.8750    153.4842     24.4870   4.7328066207e+01   4.3654946612e+01    0.3418488    0.2646626 -22.78  0.001126128    1.430    0.301
       250  -9.4862     95.3788     24.5222   6.0373180673e+01   5.7291834944e+01    0.3661588    0.2160512  23.91  0.001734107    1.889    0.471
       251  -8.8836     34.3157    150.3579   1.1450880346e+02   3.9726442705e+01    0.2118378     0.138538 -53.47  0.001164657    1.491    0.329
       252  -9.9325     45.5894    150.4977   1.1154078831e+02   3.8532486735e+01    0.2506221    0.2018296 -46.39 0.0005758802    1.338    0.253
       253 -10.3980     40.6841    146.6047   1.1233084986e+02   4.0002947749e+01    0.3156851    0.2624291 -13.77  0.001355964    1.560    0.359
       254  -9.8487     35.7598    145.6337   1.1353038199e+02   4.0733479289e+01    0.2258691    0.1954152  74.93  0.000326029    1.147    0.128
       255  -9.7574     38.0389    143.2220   1.1259312051e+02   4.1097552742e+01    0.2568681    0.1844803  39.55 0.0007345564    1.520    0.342
       256 -11.5622     22.0510    145.7724   1.1718764552e+02   4.1937590612e+01    0.4754884    0.3759447 -74.99  0.003037343    1.055    0.052
       257  -8.6607    198.2464     23.3574   4.0690926495e+01   3.2766447572e+01    0.1875925    0.1159214  82.38 0.0009423145    1.617    0.382
       258  -8.3156    185.2423     23.4170   4.2300813193e+01   3.5909782324e+01    0.1320944   0.09966026  25.09 0.0005231149    1.718    0.418
       259 -13.4724     12.3542    126.9606   1.1766347356e+02   4.7194930519e+01    0.9964147    0.4456639 -83.17  0.001513389    2.205    0.547
       260  -8.3274    105.2700     22.2631   5.6750229919e+01   5.5401861453e+01    0.1348007   0.09170225  27.42  0.000178458    1.464    0.317
       261  -9.1458     37.7295     21.8779   8.1004748406e+01   6.7558246153e+01    0.2574022    0.1672936   5.85  0.001515959    1.483    0.326
       262  -9.4755    229.7305     20.0070   3.6676146932e+01   2.5891408938e+01    0.2557532    0.2205307 -50.40  0.001195334    1.152    0.132
       263 -10.0224    247.1732     18.9125   3.4984320873e+01   2.2283682650e+01    0.3768447    0.1851613  80.34  0.001649929    2.084    0.520
       264  -8.3326    188.6969     19.6351   4.0851640481e+01   3.5485256777e+01    0.1350466   0.09664796  35.11 0.0007035968    1.736    0.424
       265  -8.8872     74.9471     18.7349   6.4372637608e+01   6.2072979491e+01    0.1820517    0.1426524  32.28 0.0005537038    1.148    0.129
       266  -9.8475    198.3449     16.6232   3.8959999405e+01   3.3486966521e+01    0.2284941    0.2019635  63.80 0.0005359393    1.177    0.151
       267  -9.8003     70.1844     17.0235   6.5271140019e+01   6.3159371415e+01     0.282781    0.1524837  32.65 0.0007444426    1.724    0.420
       268 -10.0435     55.9296    125.9871   1.0470433469e+02   4.3394082956e+01    0.4065329    0.2305444 -66.91  0.001348291    1.670    0.401
       269  -9.0748    193.9603     14.9225   3.9006611796e+01   3.4716494100e+01     0.219046    0.1358265 -68.06  0.001116748    1.713    0.416
       270 -12.4160     12.0111    107.7493   1.1527452730e+02   5.1819586583e+01     1.445032    0.9595615 -22.50  0.008437537    1.836    0.455
       271  -9.9177      4.8850    147.1300   1.2170488595e+02   4.2905885303e+01    0.2040711       0.1887  42.81 0.0008566619    1.328    0.247
       272 -10.3293      6.3733    142.5308   1.2091071890e+02   4.3887812971e+01    0.2568668     0.174481 -79.86 0.0004913087    1.176    0.150
       273 -10.8179     30.1930    142.9249   1.1468625824e+02   4.1917087482e+01    0.4885347    0.2502263 -57.43  0.002235117    1.705    0.414
       274  -9.0369     66.0260     12.4694   6.4672637713e+01   6.4433207389e+01    0.1936785    0.1089909  41.04  0.001028249    1.598    0.374
       275  -9.0022     10.6799    144.8601   1.2003364734e+02   4.3037149710e+01    0.2016721    0.1203404 -60.73 0.0006843304    1.462    0.316
       276 -11.8792     31.4878    120.2572   1.1113851615e+02   4.7336566947e+01    0.7835788    0.6827257 -40.80  0.004406544    1.209    0.173
       277 -10.6018     37.3293    109.4044   1.0746092847e+02   4.9449203568e+01     0.530467    0.3850657  -6.24  0.002199533    1.729    0.422
       278 -10.1828     27.6508    136.9485   1.1462297254e+02   4.3596504731e+01     0.265983    0.1842887 -20.41  0.001460558    1.980    0.495
       279 -10.6214     22.3636    135.9527   1.1595724366e+02   4.4281645999e+01    0.4214397    0.1811377 -68.21  0.001770107    1.876    0.467
       280  -9.0786      4.4444    136.1186   1.2079756510e+02   4.5528923554e+01    0.2671585    0.1383678 -20.81  0.001138911    3.222    0.690
       281  -9.5560     82.4439    135.5282   9.8711511406e+01   3.7430568743e+01    0.2561904    0.1479431  18.62  0.001035029    2.415    0.586
       282 -11.0495     61.3977    120.3422   1.0194848488e+02   4.4110974003e+01    0.6438599    0.3734536 -72.83  0.001729307    1.942    0.485
       283 -11.0518     66.4687    134.5600   1.0315701457e+02   3.9945694767e+01    0.3620418    0.2789916  78.44 0.0001537017    1.485    0.327
       284 -11.4224     65.2394    128.4246   1.0236704516e+02   4.1623702610e+01     0.575054    0.3173693 -43.81  0.002559483    1.855    0.461
       285 -10.7907     68.4069    119.7894   9.9666808412e+01   4.3323237896e+01    0.6910644    0.2428422 -46.35  0.002419863    2.793    0.642
       286 -10.5112     67.1076    115.2374   9.9098302194e+01   4.4611242217e+01    0.5985049    0.3540669  43.63  0.002762987    1.889    0.470
       287  -9.8976     54.4437    133.2225   1.0642622567e+02   4.1782238281e+01    0.4111508    0.1675192  27.22  0.001636932    2.846    0.649
       288  -9.0055     73.0315    129.4825   1.0025425431e+02   4.0299433801e+01    0.2174484    0.1785721 -60.54 0.0004095452    1.127    0.113
       289 -10.5623     91.2480    121.2894   9.3044001663e+01   3.9495750386e+01    0.5248145    0.4153889 -41.04  0.001531847    1.237    0.191
       290 -11.4825     75.5917    120.0134   9.7501300763e+01   4.2252928903e+01    0.2624705    0.2478219  28.50  0.001499772    1.144    0.126
       291  -9.7698    147.8526     24.0697   4.8176630425e+01   4.5095792625e+01     0.312204    0.1867115  52.07 0.0007426238    1.510    0.338
       292  -9.9173     20.6029    117.9830   1.1409252950e+02   4.8773399688e+01    0.2808161    0.2346346 -89.17   0.00180185    1.176    0.149
       293 -10.1831    116.4023    116.4387   8.4512244499e+01   3.6060310613e+01    0.3181719    0.2738586  27.66 0.0006346081    1.208    0.172
       294  -9.1478    104.2795    116.3399   8.7982427067e+01   3.8390608658e+01    0.3021661    0.2047932 -47.65  0.001369798    1.417    0.294
       295  -9.8140     98.2703    114.5420   8.9314427910e+01   3.9897164666e+01    0.5047522    0.3373653 -33.54  0.002091304    1.630    0.387
       296  -9.2546    108.2143    114.0900   8.6260041758e+01   3.8181419524e+01    0.2608589    0.2307393  63.34 0.0004002666    1.273    0.215
