#   1 NUMBER                 Running object number                                     
#   2 MAG_AUTO               Kron-like elliptical aperture magnitude                    [mag]
#   3 X_IMAGE                Object position along x                                    [pixel]
#   4 Y_IMAGE                Object position along y                                    [pixel]
#   5 X_WORLD                Barycenter position along world x axis                     [deg]
#   6 Y_WORLD                Barycenter position along world y axis                     [deg]
#   7 A_WORLD                Profile RMS along major axis (world units)                 [deg]
#   8 B_WORLD                Profile RMS along minor axis (world units)                 [deg]
#   9 THETA_WORLD            Position angle (CCW/world-x)                               [deg]
#  10 FWHM_WORLD             FWHM assuming a gaussian core                              [deg]
#  11 ELONGATION             A_IMAGE/B_IMAGE                                           
#  12 ELLIPTICITY            1 - B_IMAGE/A_IMAGE                                       
         1 -13.5689    232.9546     58.1148   4.0104566400e+00   2.0580254145e+01    0.9780487    0.5450535 -82.00  0.005044007    2.271    0.560
         2 -13.4429    234.6443      5.7748   3.5315993978e+02   2.6608324745e+01     1.619898    0.4062698 -56.51    0.0067195    3.391    0.705
         3 -12.6940    249.4413     20.5765   3.5523057627e+02   2.2192349887e+01    0.6723606    0.1479647 -40.47 5.714144e-05    2.866    0.651
         4 -11.8782    249.4340      9.7074   3.5316852499e+02   2.3396932417e+01    0.4688253    0.2450981 -38.38  0.002943811    1.641    0.391
         5 -11.4049    241.9145      9.0729   3.5342844775e+02   2.4862748730e+01    0.1762815    0.1314832 -62.52 0.0005856886    1.030    0.029
         6 -12.9651    243.4751      3.5924   3.5229701506e+02   2.5148810041e+01    0.6534402    0.3821214 -88.37  0.003791777    1.564    0.361
         7 -12.5927     28.6944     19.9632   4.2673530688e+01   7.1765983376e+01    0.2988902    0.2259925  19.87 0.0004244139    1.184    0.155
         8 -12.1823     14.4241     18.6250   5.1943359466e+01   7.3727183845e+01    0.2605951    0.2113715  -8.86 0.0001526367    1.036    0.035
         9 -12.0100      2.8917     15.7985   5.9719315399e+01   7.5232363147e+01    0.4868041    0.2812816  37.15   0.00248347    2.136    0.532
        10 -13.0493     10.0455     10.9945   5.1443001253e+01   7.5506327746e+01    0.5913671     0.504716 -10.84  0.002949134    1.095    0.087
        11 -11.7324      3.3442     10.5338   5.6849205077e+01   7.6170883651e+01    0.3960051    0.2039573 -30.14  0.001562656    1.800    0.444
        12 -12.8251    215.1049     16.4722   3.5658119147e+02   2.9410332520e+01    0.6763747    0.2501296  58.30   0.00305981    3.125    0.680
        13 -10.9712    136.6523     14.3050   4.0191731368e+00   4.8289951118e+01    0.3608846    0.1765234 -60.89  0.001400305    2.458    0.593
        14 -12.7893     65.3265     11.6570   1.9767499873e+01   6.6142586292e+01    0.2613033    0.2259474  37.94 0.0005313965    1.028    0.027
        15 -11.7880    177.6338     11.9292   3.5853935348e+02   3.8346143976e+01    0.2962066    0.1837488  67.54 0.0006060986    1.524    0.344
        16 -11.7000     75.9897     10.3123   1.5475994716e+01   6.3868786189e+01    0.3392118    0.2551115  36.26 0.0009415848    1.273    0.215
        17 -12.3727    155.1090      8.7233   3.5995012795e+02   4.4180080980e+01    0.4069241    0.2100905  76.41  0.001693979    1.683    0.406
        18 -11.2334     82.1222      6.9444   1.2110389525e+01   6.2751457167e+01    0.2088353     0.164688  58.06 0.0002909456    1.076    0.071
        19 -11.0816    223.0303      5.2968   3.5369428153e+02   2.8974428532e+01    0.2085568    0.1315921 -51.13 0.0003445053    1.273    0.215
        20 -12.4278    179.1662      3.6910   3.5629753073e+02   3.8819327629e+01    0.4120772     0.219625  66.06 0.0004367401    1.767    0.434
        21  -9.5067     68.4297      5.5018   1.5553837154e+01   6.6090866608e+01     0.132953    0.1113523  44.54 2.186877e-05    1.024    0.024
        22 -10.4703     58.3369      4.5680   1.8706156412e+01   6.8417981650e+01    0.2333049    0.1656084  72.85 0.0007505909    1.722    0.419
        23  -9.7069     36.9828      5.5086   2.9348748997e+01   7.2537255904e+01    0.1808324   0.08847943  27.08 0.0007869952    2.349    0.574
        24 -11.1278      4.6642      2.9267   5.1482065180e+01   7.7370915919e+01     0.441718    0.2179553 -17.37  0.001947676    2.416    0.586
        25 -10.9396    164.4758      4.1228   3.5769514123e+02   4.2310605773e+01    0.1755011     0.124082 -34.19  0.001018916    1.553    0.356
        26  -9.8710     97.3122      3.0030   6.7553076698e+00   5.9376572882e+01    0.1767345    0.1630143  59.23 0.0005498133    1.109    0.099
        27 -10.9673     17.3639      2.0721   4.0190315824e+01   7.6065275673e+01    0.3653932    0.1724374  43.27  0.001780575    2.499    0.600
        28 -10.6516    168.5086      2.0420   3.5676601161e+02   4.1526332695e+01    0.1728197    0.1195418 -37.49 0.0004844509    1.524    0.344
        29  -9.7103     91.0741      2.0254   7.6907902749e+00   6.1008710575e+01    0.1608212    0.1319035  62.36 0.0004500183    1.019    0.018
        30 -10.2986    173.4550      1.4532   3.5618997654e+02   4.0391626375e+01    0.1286562    0.1027088 -80.54 2.312832e-05    1.002    0.002
        31  -9.4410    121.8037      1.3815   1.8559895957e+00   5.3303215191e+01    0.1900197    0.1009723  62.90 0.0003612005    1.566    0.362
        32  -9.3585     73.6982      1.2959   1.1804266728e+01   6.5259235715e+01    0.1235136    0.0973433 -78.43 0.0002474838    1.577    0.366
        33 -10.4980     32.7683      1.3924   2.9199367619e+01   7.3773647790e+01    0.2100457    0.1058417  46.06 0.0005248673    1.836    0.455
        34 -12.0161    196.7232    245.1898   4.5240569608e+01  -2.7244256053e+00    0.5649844    0.2769388  -3.25  0.002542817    3.218    0.689
        35 -12.4002    228.2196    228.0404   3.7049550468e+01  -4.0771234694e+00    0.7153211    0.2777852 -19.56  0.002753284    4.523    0.779
        36 -12.5236    237.9675    228.6325   3.5520944723e+01  -5.2138411503e+00      0.62779    0.3243628  -7.59  0.003543404    2.152    0.535
        37 -12.5358    239.1588    233.8865   3.6130725568e+01  -5.9900685935e+00     1.487589    0.5634949 -15.95  0.004657383    7.463    0.866
        38 -12.4418    248.9521    247.1618   3.6536680910e+01  -8.5171869058e+00    0.6475344     0.366546 -11.99   0.00452637    1.456    0.313
        39 -11.4237    243.5782    245.5662   3.7156779909e+01  -7.8211932779e+00     0.425377    0.1406476 -32.77  0.002256951    2.723    0.633
        40 -13.0553    246.3613    236.5160   3.5372196737e+01  -7.0372261883e+00    0.9794346    0.5204433   1.16  0.006090315    1.875    0.467
        41 -12.5523    247.8024    227.0794   3.3707945474e+01  -6.0468105221e+00    0.8306279    0.3131211 -28.50  0.004412625    2.415    0.586
        42 -13.0814    225.1027    245.5161   4.0207443657e+01  -5.9417873323e+00     0.709345    0.3998622 -15.41  0.004553648    1.628    0.386
        43 -13.3092    219.4332    245.9644   4.1250499280e+01  -5.3916417211e+00      0.80616    0.5207056 -23.05  0.005425976    1.405    0.288
        44 -12.5720    182.9732    250.0114   4.8532640275e+01  -1.7358819913e+00    0.6270392    0.2941965  26.70  0.003204885    1.748    0.428
        45 -11.6830    188.4359    245.8135   4.6897943633e+01  -1.8190917770e+00    0.3663288    0.2039947   4.78  0.001780713    1.963    0.490
        46 -11.3058    150.4762    250.4763   5.5127364220e+01   2.2875162997e+00    0.3437476   0.09742554  31.36  0.001381922    2.808    0.644
        47 -12.3157    125.7961    248.8093   6.0180074000e+01   5.8095348520e+00    0.4292628    0.1486349  28.21   0.00178814    2.504    0.601
        48 -10.3225    102.4915    250.5170   6.5477966068e+01   8.6121025467e+00    0.2333226   0.08148913  39.22 0.0008444247    2.196    0.545
        49 -12.8422     72.9665    249.5785   7.1955164755e+01   1.2569814462e+01     1.200733    0.1587009  31.09  0.003543907    5.022    0.801
        50 -14.0957     74.0290    240.3898   7.0949443680e+01   1.4162211471e+01     1.194688    0.7319563  30.95  0.006172465    1.358    0.264
        51 -12.0249     11.0077    249.1303   8.5354013917e+01   1.9528139125e+01     0.756449    0.1247942  36.66   0.00320998    2.941    0.660
        52 -12.1650      4.0745    243.6279   8.6614872093e+01   2.1233420460e+01    0.4258476    0.3564117  28.80  0.003148551    1.361    0.265
        53 -12.7238     10.5436    231.5362   8.4814047790e+01   2.3048418772e+01     1.133041    0.2671056  41.33  0.004973496    2.558    0.609
        54 -11.4718     13.0159    243.7820   8.4742184779e+01   2.0366277454e+01    0.4475736    0.1943401  51.03  0.001519832    1.705    0.414
        55 -12.5731     21.8270    248.8392   8.3077481976e+01   1.8520140714e+01    0.6913868    0.2112935  32.82  0.002283839    2.337    0.572
        56 -12.6602     33.2383    247.6737   8.0580608666e+01   1.7554123349e+01    0.8361185    0.2102111  34.05  0.003271625    2.611    0.617
        57 -13.2698     28.4476    242.5531   8.1364773640e+01   1.9056008120e+01    0.9227558    0.4031371  25.01  0.004571363    2.214    0.548
        58 -11.6675     18.9373    241.9816   8.3404799174e+01   2.0139736659e+01    0.4112571    0.1834927  32.39  0.001415142    1.794    0.443
        59 -13.1865      9.5669    237.1191   8.5235013425e+01   2.2009758361e+01     1.065171    0.2732509  34.56  0.004811732    2.543    0.607
        60 -11.9488     20.4604    237.6240   8.2884108575e+01   2.0853150585e+01    0.4480539    0.1806001  41.50  0.001498959    1.778    0.438
        61 -12.6935     36.7765    240.6550   7.9424580734e+01   1.8537795059e+01    0.6688084    0.3136094  66.86  0.003227049    2.226    0.551
        62 -13.3426     28.7392    233.0539   8.0813705565e+01   2.0929669227e+01      1.10221    0.2966872  43.07  0.004133741    2.482    0.597
        63 -10.3721     55.3585    232.1840   7.4614373488e+01   1.8102674901e+01    0.2674536    0.1479934  55.62  0.001405912    1.662    0.398
        64  -9.7712    202.3791    230.7410   4.2053775590e+01  -1.4196030571e+00     0.159791   0.09456698 -24.51 0.0007268654    1.636    0.389
        65 -10.2955     47.7207    230.4378   7.6275818233e+01   1.9364840490e+01    0.3280203    0.1242895  60.76   0.00130205    3.140    0.681
        66 -10.2769    124.2248    230.6293   5.8332487551e+01   9.1688983598e+00    0.1922444     0.107817  23.06 0.0008105621    1.671    0.401
        67 -10.9294    192.6628    227.2230   4.3353416740e+01   3.0323013952e-01    0.2044651    0.1718894 -38.97 0.0009852987    1.516    0.340
        68 -10.1216    117.6775    229.3030   5.9667562992e+01   1.0342068547e+01    0.1334637   0.08976026  52.45 0.0002662718    1.634    0.388
        69 -10.3599    100.0151    229.5101   6.3813279416e+01   1.2792187532e+01    0.2140572    0.1102305  32.14  0.001034009    1.594    0.373
        70 -10.2847     39.7242    229.0882   7.8055073184e+01   2.0556814391e+01    0.2335024    0.1329556  44.31 0.0008911659    1.377    0.274
        71 -10.5063    154.3301    228.4046   5.1351788198e+01   5.2898864267e+00    0.2363447    0.1375407  36.13  0.001112428    1.526    0.344
        72 -10.4996    188.4588    230.8145   4.4711522887e+01   3.1391164875e-01    0.2897998    0.1609531 -12.32  0.001064307    2.234    0.552
        73 -10.4176     11.4720    225.9236   8.4384965109e+01   2.4123858920e+01    0.2512953    0.1147283  46.00  0.001231103    1.643    0.391
        74 -10.2100    224.2752    224.9183   3.7236297554e+01  -3.2207562195e+00    0.2239116    0.1208103   2.35  0.001019178    2.108    0.526
        75 -10.0399    200.4344    224.2283   4.1413389246e+01  -2.4911397425e-01    0.2082434    0.1024716 -33.13   0.00108081    2.010    0.502
        76 -10.1283     33.7786    224.8986   7.9187185664e+01   2.2089700268e+01     0.278037    0.1023075  49.24  0.001244854    2.194    0.544
        77 -10.4876     79.3402    223.6467   6.8132554833e+01   1.6795276924e+01    0.2466066    0.1784896 -12.80  0.001047353    1.981    0.495
        78  -9.6882    104.6659    223.6866   6.2035110744e+01   1.3268279954e+01     0.133165   0.09900587  -3.80 0.0007045674    1.684    0.406
        79 -11.5088    230.1511    221.2938   3.5667694753e+01  -3.4097539999e+00    0.1941342    0.1221266 -20.52 0.0006186471    1.355    0.262
        80 -10.6193     20.0203    221.4600   8.2222027554e+01   2.4247002428e+01    0.4186765     0.101031  52.17  0.001568749    3.347    0.701
        81 -10.4643     14.8965    221.4133   8.3409486826e+01   2.4754327618e+01    0.2798508    0.1332756  59.09  0.001455403    1.782    0.439
        82  -9.8233     51.6483    221.6933   7.4690652827e+01   2.0734048835e+01    0.1226532    0.0989389 -15.49 0.0006116417    1.711    0.416
        83  -9.6359    239.4578    220.4915   3.4007598469e+01  -4.3400469818e+00    0.1142928   0.08225349  -6.96  0.000142271    1.059    0.056
        84 -10.5454     42.0322    220.5240   7.6932800447e+01   2.2107746491e+01    0.1986753    0.1091144  31.83 0.0006015744    1.569    0.363
        85 -13.5121    230.3034    234.5890   3.7701118194e+01  -5.1418327818e+00     1.182822    0.5053584  34.58  0.006570318    2.419    0.587
        86  -9.8289    150.4827    218.5085   5.0749776202e+01   7.5378403214e+00    0.1349638        0.111  12.26 7.393392e-05    1.079    0.073
        87 -10.8185      9.7912    217.0836   8.4404379204e+01   2.6160936340e+01      0.27507    0.1465165  50.08  0.001322027    1.472    0.321
        88  -9.8524    204.4456    216.7983   3.9488004056e+01   3.2511277504e-01    0.1652252   0.09761192 -23.01 0.0006867879    1.654    0.395
        89 -12.1620     51.4063    249.5979   7.6728814369e+01   1.5159949348e+01    0.4446752    0.1672662  33.89  0.001750717    1.965    0.491
        90  -9.6817     38.5052    217.4858   7.7577671255e+01   2.3163062527e+01    0.1317257    0.1056204  52.28 2.016521e-05    1.014    0.014
        91  -9.4645    106.3169    216.3077   6.0727892410e+01   1.4495486983e+01    0.1341887    0.1016631  -4.77 0.0002430443    1.632    0.387
        92 -10.3250     23.9659    216.0352   8.1003609031e+01   2.5026598935e+01     0.196632    0.1462084  54.24 0.0003355597    1.083    0.077
        93 -12.3663    218.5315    208.4541   3.5582684504e+01  -2.4851290159e-01    0.6698671    0.3351609 -19.03  0.002894959    2.339    0.572
        94 -10.2736    229.6678    208.1954   3.3632406321e+01  -1.5777774965e+00    0.2278807    0.1432288 -25.00 0.0009230812    1.367    0.268
        95 -10.7230    230.1786    199.3624   3.2071213358e+01  -3.9804880348e-01    0.3425094    0.1875187 -12.68  0.001231968    2.107    0.525
        96 -10.7699    234.5713    214.1185   3.3785936454e+01  -2.9584890487e+00    0.2179861    0.1111655 -23.87  0.001061887    1.809    0.447
        97 -10.6724    230.6640    212.6976   3.4203035117e+01  -2.3146290423e+00    0.4782323    0.2113262 -12.71  0.001792751    4.618    0.783
        98 -11.6157    237.3881    207.8395   3.2303658914e+01  -2.4380011038e+00    0.5348589    0.4173733 -29.00   0.00385265    1.330    0.248
        99 -12.2612    238.4818    200.4800   3.0906670868e+01  -1.5609812878e+00    0.4847594    0.2746834   0.55  0.002700242    2.091    0.522
       100 -11.1640      1.9686    220.9371   8.6340682015e+01   2.6030016119e+01    0.6036914     0.194584  87.08  0.002570887    3.217    0.689
       101 -10.8350      4.5315    211.0081   8.5389287635e+01   2.7953110083e+01     0.261714    0.1981323 -74.71  0.001082127    1.439    0.305
       102 -11.7178      3.3260    205.9918   8.5479340567e+01   2.9168361023e+01    0.3983394    0.2831505 -77.72  0.001771098    1.452    0.311
       103  -9.7952    106.5390    211.0206   5.9991354420e+01   1.5539205921e+01    0.1895729    0.1388095 -56.64  0.001023437    1.577    0.366
       104 -11.7269     11.1191    209.2350   8.3746213152e+01   2.7762809700e+01    0.3089442    0.2082182  69.47  0.001279792    1.279    0.218
       105  -9.9530    247.4023    205.2492   3.0294954629e+01  -3.2299559091e+00    0.2097408   0.08624237 -32.01  0.001118391    2.073    0.518
       106  -9.9542    206.1818    205.0026   3.7227670362e+01   1.8644814735e+00    0.2061082    0.1189097 -15.49  0.001069441    1.939    0.484
       107  -9.1032    123.7139    205.7613   5.5058635735e+01   1.3994667329e+01    0.1312096    0.1003077   4.40            0    1.455    0.313
       108 -10.4398    250.2711    200.0246   2.8994485211e+01  -2.8600770121e+00    0.2409201    0.1164484 -28.50  0.001011895    1.747    0.427
       109 -11.9003    249.2617    194.4048   2.8208869156e+01  -1.9926955459e+00    0.4759369    0.1845293 -24.70  0.002137797    3.022    0.669
       110 -10.5320    229.1855    204.1871   3.3047874915e+01  -9.5925282428e-01    0.2187072    0.1671525 -23.04  0.000759648    1.172    0.147
       111  -9.2180    132.7010    199.3031   5.1909639032e+01   1.3878255783e+01     0.136725    0.1049932  59.20 0.0001760481    1.585    0.369
       112 -11.1525    237.4449    196.5063   3.0402836393e+01  -8.8462045098e-01     0.397401    0.1801144 -29.14  0.002011744    2.002    0.500
       113  -9.8192    177.4907    197.9812   4.1647007487e+01   7.1000913905e+00    0.1914301    0.1260313 -41.16  0.001028129    1.584    0.369
       114  -9.8838     51.3635    197.8162   7.2723132295e+01   2.6110675810e+01      0.33688   0.09444398  41.20  0.001215681    2.757    0.637
       115  -9.8543     22.6540    198.6945   8.0312771840e+01   2.9073542834e+01    0.1227012   0.09735359 -34.04 0.0005780964    1.694    0.410
       116  -9.6671    209.5855    193.2062   3.4582245678e+01   3.2217649324e+00    0.1604301    0.1028423 -24.26 0.0002697603    1.457    0.314
       117 -11.4644     15.4807    192.2749   8.1784974266e+01   3.1258816439e+01     0.340232     0.287687  17.92  0.001375299    1.368    0.269
       118 -10.4586    225.5860    205.2225   3.3827510500e+01  -6.6413675343e-01    0.2401999    0.1495273 -16.40  0.001070356    1.489    0.328
       119 -11.9250    246.1144    190.7215   2.8063239180e+01  -1.1209052352e+00    0.2346358    0.1319809 -22.42  0.001397805    1.585    0.369
       120 -10.6290     61.9976    184.6131   6.8444454187e+01   2.7902921439e+01    0.2708872    0.2154306 -78.27 0.0008719518    1.317    0.241
       121  -9.7426    155.6842    184.6529   4.4051581010e+01   1.3022373868e+01    0.1475011    0.1043011  -6.52 0.0007047835    1.722    0.419
       122 -10.9897     15.5402    182.0931   8.1161252368e+01   3.3694687661e+01    0.4275082    0.2178543  59.68  0.001955851    1.805    0.446
       123 -10.5083    244.0264    179.0027   2.6351779442e+01   7.8191642892e-01     0.194879    0.1192972 -10.89  0.001132872    1.746    0.427
       124 -10.0674     18.3926    173.2331   7.9776979272e+01   3.5622028672e+01    0.1943118    0.1125922  82.59 0.0009497494    1.679    0.404
       125 -11.3934    247.5748    167.7519   2.3827441533e+01   1.9470802906e+00    0.2283362   0.09364546 -34.30  0.001135937    2.045    0.511
       126 -10.0261      7.2702    163.2653   8.2323105452e+01   3.9042329621e+01    0.1910381    0.1282074  61.03  0.001042672    1.342    0.255
       127 -11.0276     52.3790    160.1991   6.8312600941e+01   3.5288547941e+01    0.4080363    0.2933766  74.39  0.002014761    1.462    0.316
       128 -10.7026     55.2979    157.9726   6.7109709625e+01   3.5489739391e+01    0.3800518    0.2239179 -47.25  0.001585471    1.912    0.477
       129 -10.9303    117.8820    159.2369   4.8747994630e+01   2.5125446491e+01    0.4237487    0.2243772 -50.93  0.001526919    1.976    0.494
       130 -11.8679     17.3519    159.7159   7.9072666884e+01   3.9132592443e+01    0.3386411    0.3044258 -78.17  0.001478733    1.130    0.115
       131 -10.1321      3.2538    156.7049   8.3110640389e+01   4.0989309428e+01    0.2718704     0.158913 -42.30  0.001215282    2.091    0.522
       132 -10.9953    250.5773    155.2720   2.1143282909e+01   3.3636441904e+00     0.259347   0.09580489 -37.25  0.001231771    2.207    0.547
       133 -10.0357    221.7977    151.1101   2.4664815010e+01   8.1676371551e+00    0.1878157    0.1624469 -45.79  0.001206712    1.256    0.204
       134 -12.5437    234.4608    146.0478   2.1727109545e+01   7.0357645096e+00    0.5654278    0.3291534  11.12    0.0025834    3.099    0.677
       135  -9.6306      6.6812    145.3313   8.1303533342e+01   4.3665259471e+01    0.1470008   0.08401535  58.94 0.0003472867    1.691    0.409
       136  -9.6834     17.3812    143.1679   7.7653164531e+01   4.3425197012e+01    0.2026434    0.1166209  84.41 0.0009379376    1.751    0.429
       137  -9.6190    207.9938    136.0261   2.3909645508e+01   1.2970915194e+01    0.1567781    0.1421657 -26.89  0.000367168    1.018    0.017
       138 -11.0894     37.6589    135.2979   6.9858176583e+01   4.3590612498e+01     0.236206    0.2244341 -72.20 0.0003115527    1.064    0.060
       139 -12.9005    242.2142    133.1024   1.8132729784e+01   7.8634982782e+00    0.3369975    0.2352602 -30.38  0.002097144    1.227    0.185
       140  -9.9025     47.0309    133.5125   6.6316766228e+01   4.2984227887e+01    0.2079369    0.1451225  26.61 3.512121e-07    1.467    0.318
       141 -10.1440     36.2279    130.9296   6.9758847264e+01   4.4909790276e+01     0.224691    0.1823952  76.89  0.001122093    1.237    0.192
       142 -12.0316      4.9001    130.0522   8.0723302587e+01   4.7754937777e+01    0.2473552    0.2192478 -87.76 0.0003281579    1.013    0.013
       143  -9.6979     73.6000    129.2229   5.6324413264e+01   4.0342812815e+01    0.2214974    0.1391033 -49.06  0.000943982    1.647    0.393
       144 -10.6780     53.6684    121.5972   6.1907919064e+01   4.5298587973e+01    0.5642749    0.3552532 -30.54  0.002382158    2.053    0.513
       145  -9.7324     68.3640    121.7983   5.6635758175e+01   4.3103626196e+01    0.2139842    0.1389098 -52.00 0.0005937755    1.549    0.354
       146 -10.2670     10.4075    122.2003   7.8056012472e+01   4.9463703087e+01    0.1925014    0.1176588  85.26 0.0003181614    1.629    0.386
       147  -9.6356     61.4462    121.4627   5.9046091612e+01   4.4240717398e+01    0.1491751    0.1473092 -83.92 0.0001987464    1.025    0.024
       148 -14.5871    247.9747    109.8348   1.2876067078e+01   1.0477347381e+01     1.536885    0.4452836 -38.74  0.006372274    2.738    0.635
       149  -9.3114      1.2665    118.3304   8.1044327994e+01   5.1019718045e+01    0.1379569   0.08606642 -50.55 0.0002619193    1.578    0.366
       150  -9.9748     52.7597    116.0115   6.1185869739e+01   4.6894702304e+01    0.2073914    0.1923793 -69.88 0.0003380863    1.061    0.058
       151 -11.7635     11.9880    108.8177   7.5981371851e+01   5.2881133982e+01    0.4381573    0.1686178 -54.25  0.001773698    2.307    0.566
       152 -10.5567     30.5934    106.1595   6.8090245712e+01   5.2070100354e+01    0.2329315    0.1844832  37.30 0.0004708556    1.302    0.232
       153 -10.5031     75.2537    104.4580   5.0203997599e+01   4.6386443577e+01    0.3110014    0.2491957  79.38 0.0006189549    1.497    0.332
       154 -10.2150      3.3410    104.6906   7.8965796355e+01   5.4462601931e+01    0.1411256   0.08957476  57.20 0.0007044467    1.692    0.409
       155  -9.9482     33.6141     98.2306   6.5396445169e+01   5.3840527464e+01    0.2204765    0.1163884 -54.34 0.0009544083    1.746    0.427
       156 -10.8366     14.5405     97.9738   7.3496459836e+01   5.5544752360e+01    0.2137677    0.1246612 -71.37 0.0004807246    1.572    0.364
       157 -10.8460      2.4610     96.1948   7.8400939975e+01   5.6701662401e+01    0.2206337    0.1916934   5.97 0.0006469533    1.279    0.218
       158 -10.1753     35.0277     90.4879   6.3204336923e+01   5.5682777417e+01    0.2059169     0.181779 -59.95 2.323615e-05    1.092    0.085
       159 -13.6414    249.0248     85.2685   7.9310432893e+00   1.3887827438e+01    0.8921583     0.255282 -36.18  0.003629345    2.961    0.662
       160 -10.1224     22.5171     88.5029   6.8418888652e+01   5.7385533800e+01    0.1376825    0.1288563 -55.10 0.0008104173    1.011    0.011
       161  -9.8163     30.5642     86.5009   6.4353496925e+01   5.7158503072e+01    0.1395263     0.131918 -50.26  7.23382e-05    1.016    0.016
       162 -10.3128    184.8695     85.2091   1.6312056997e+01   2.6391980250e+01    0.1978365    0.1713201 -68.68 0.0002871612    1.116    0.104
       163 -10.3658      8.2162     85.2275   7.4417017542e+01   5.9212034683e+01    0.1844347    0.1497959  55.67  0.001065688    1.364    0.267
       164 -11.1751      3.9574     84.8038   7.6315393912e+01   5.9539044578e+01    0.2253536    0.2069354 -67.75 0.0005541026    1.042    0.040
       165 -10.7148     17.1839     81.2025   6.9527652502e+01   5.9653606990e+01    0.1836896    0.1551409  68.41 0.0002755747    1.332    0.249
       166  -9.6349    120.2087     79.7686   2.8607685068e+01   4.2531742908e+01    0.2059688    0.1799009  23.93 0.0005668604    1.303    0.233
       167 -10.2346      3.2980     78.3061   7.5697926154e+01   6.1203533351e+01     0.140543   0.08198923 -42.48            0    1.589    0.371
       168 -10.4422     88.0411     77.0666   3.7784386469e+01   5.0314792798e+01    0.2210757    0.2142788  43.40  0.001190447    1.013    0.012
       169  -9.6575    211.9957     76.0763   1.0231676886e+01   2.2110383099e+01    0.1600649    0.1301018 -49.44 0.0004865246    1.077    0.072
       170 -11.6477      8.1974     72.9172   7.2405850919e+01   6.2294766599e+01    0.5735051    0.2905068 -23.26  0.001748968    2.222    0.550
       171  -9.8859    168.0255     73.9430   1.6324604135e+01   3.2142671111e+01    0.2414351    0.1620949 -69.20 0.0008679124    1.741    0.426
       172 -11.6004     57.1827     91.0641   5.3827218170e+01   5.2665410723e+01    0.3063191    0.2719487 -52.98  0.000488091    1.122    0.109
       173 -12.2139    247.9672     62.6962   3.5639297611e+00   1.7206841199e+01    0.3973077    0.2158802 -71.44  0.002120143    2.244    0.554
       174 -10.2881    206.8653     72.9721   1.0182949294e+01   2.3640875830e+01    0.1957073    0.1667587 -58.45 0.0003452919    1.022    0.021
       175 -10.2577      1.3945     72.2509   7.5716640737e+01   6.2787713115e+01    0.1729873    0.1160351 -85.25 0.0002546803    1.529    0.346
       176 -11.8275    102.7330     69.3729   3.0420409785e+01   4.8653945460e+01    0.2729538     0.260108 -68.91 0.0002813582    1.102    0.093
       177 -11.6269     92.5985     68.2360   3.3323418893e+01   5.1160671345e+01    0.3874752    0.2841446 -63.71  0.001312947    1.667    0.400
       178 -10.6543     50.1960     68.3928   5.0428941960e+01   5.9100079427e+01    0.2489917    0.1943466 -44.41 0.0006229124    1.267    0.211
       179 -11.7033     15.3197     66.6230   6.7462427663e+01   6.3379561306e+01    0.3843636    0.1964404  36.35  0.001247034    2.138    0.532
       180 -11.8623      2.7682     61.9674   7.3247032135e+01   6.5225300779e+01    0.4327173    0.2146768 -43.17  0.002123444    1.772    0.436
       181 -10.7268     28.9792     65.6880   6.0071750370e+01   6.2409563454e+01     0.213211    0.1693878 -31.16 0.0004971375    1.206    0.171
       182 -11.9373     29.1978     60.6602   5.8525230470e+01   6.3554247402e+01    0.6584401    0.3430358   9.99  0.002023397    2.272    0.560
       183 -10.7305    159.0801     64.9499   1.5497907951e+01   3.5776618311e+01    0.2487691    0.2082576  38.15 0.0004652229    1.409    0.290
       184  -9.1653     81.6811     65.2555   3.6172952040e+01   5.4097025928e+01    0.1460988    0.1169857  72.71  0.000231273    1.537    0.350
       185 -11.3643      6.5400     67.5100   7.2267993111e+01   6.3707154856e+01    0.2423736    0.1918409 -39.40  0.001447814    1.147    0.128
       186 -10.7521    160.4813    249.4989   5.2938898311e+01   1.1433934832e+00    0.2254091   0.09696942  21.25  0.001030004    2.330    0.571
       187 -10.9375    122.9952     63.5996   2.2861642395e+01   4.4888945691e+01    0.2514207    0.2152478 -45.86 0.0002899344    1.226    0.184
       188 -10.9580    167.9727     59.6856   1.2518461535e+01   3.4466109825e+01    0.3515969    0.2279404 -78.43  0.001619836    1.846    0.458
       189 -10.9511     46.0363     60.9648   5.0000172974e+01   6.1368307243e+01    0.2068822    0.1953283  -0.16 0.0003198109    1.027    0.026
       190 -10.1218    189.0824     59.8506   9.4119253242e+00   2.9503595889e+01    0.1994465    0.1597612 -72.50 0.0003044574    1.170    0.145
       191 -11.6519     11.5036     59.5103   6.7903536439e+01   6.5333383379e+01    0.2168207    0.1925946 -34.42  0.001324443    1.018    0.018
       192 -10.7939     15.2232     58.5637   6.5594461301e+01   6.5297867693e+01    0.1949099     0.128106  10.58 0.0004678192    1.568    0.362
       193  -9.5630    135.0750     58.3268   1.8358114741e+01   4.2792576937e+01    0.1987801    0.1725463  70.71  0.000307271    1.076    0.071
       194  -9.3338     78.7313     56.6974   3.4225899901e+01   5.6387665520e+01    0.1439336    0.1141226   4.95 0.0002011424    1.529    0.346
       195 -11.6777    115.5099     54.9889   2.1965169921e+01   4.8206769992e+01    0.2661606    0.2043965  58.79 0.0003264613    1.213    0.176
       196 -12.3785      2.8301     52.9261   7.1386504411e+01   6.7352441288e+01    0.6418033    0.3388675  16.51  0.003284594    1.976    0.494
       197 -11.0083      8.2830     51.6383   6.7857011040e+01   6.7361975238e+01    0.2115941    0.1855221   4.70 0.0005586174    1.184    0.155
       198 -11.0759     12.7146     53.3142   6.5674164368e+01   6.6691733027e+01    0.2478709    0.1800741 -36.66  0.001016904    1.236    0.191
       199 -12.1453     12.5993     48.0519   6.4298036076e+01   6.7890827913e+01    0.2931738    0.2358096 -36.59 0.0001592227    1.092    0.084
       200 -11.9223     10.5353     43.9839   6.4392933621e+01   6.8937779470e+01    0.2619361    0.2009235 -35.50 0.0003141989    1.139    0.122
       201 -13.3679    149.6248     51.1971   1.3285103773e+01   4.0273188653e+01    0.3500896    0.3027022 -67.55 0.0006661744    1.124    0.110
       202 -10.5373    105.1060     52.6049   2.3994564550e+01   5.1139940013e+01    0.2264901    0.2013969 -64.43 0.0003871767    1.221    0.181
       203 -11.2749     39.1294     52.5682   5.0608719395e+01   6.4147440094e+01    0.3842769      0.24577  -9.97  0.001466924    1.999    0.500
       204 -11.4154     39.8857     48.2678   4.8632533111e+01   6.4941129009e+01     0.514917    0.2793555 -31.14  0.002266433    2.151    0.535
       205 -13.2064    248.4428     44.4408   3.5992266041e+02   1.9507609825e+01    0.7215013    0.2805712 -41.54  0.003741736    1.946    0.486
       206 -10.2156     54.3829     48.7106   4.1499209772e+01   6.2585995320e+01    0.3062403    0.1551118  46.52  0.001285902    2.135    0.532
       207  -9.9254    180.2451     47.0415   7.3565474629e+00   3.3406282529e+01     0.185269    0.1562663 -66.18 0.0001994797    1.063    0.059
       208 -10.9551    121.5347     46.5445   1.7624053522e+01   4.8055335792e+01    0.2434752    0.2211363  78.11 0.0001791234    1.039    0.038
       209 -11.8691     43.9442     42.7572   4.4316367047e+01   6.5440634898e+01    0.5024498    0.2908323 -53.68  0.002366865    2.004    0.501
       210  -9.9773    237.2856     44.4512   7.9959682019e-01   2.1568337751e+01    0.1532519      0.10081 -82.74 0.0006767681    1.531    0.347
       211 -10.9381    143.7184     42.3951   1.1709756827e+01   4.3044892671e+01     0.290266     0.236323   2.37 0.0001836303    1.696    0.410
       212  -9.8284     59.9425     54.5349   4.1171862481e+01   6.0464822992e+01    0.2174626    0.1352946  36.71 0.0007670629    1.534    0.348
       213  -9.3641    127.2490     43.3150   1.5259442893e+01   4.7093333381e+01    0.1372635     0.111355  27.14 0.0001951642    1.520    0.342
       214 -10.6381     56.4626     43.4205   3.8385684777e+01   6.3218011074e+01    0.3346321    0.1254336  44.49 0.0008100067    2.653    0.623
       215 -10.4737     89.2487     41.4891   2.4705194050e+01   5.6701559240e+01    0.2358108    0.2171284  63.85  0.000634835    1.093    0.085
       216  -9.4376    161.9762     61.9372   1.4146189067e+01   3.5560063583e+01    0.1974818    0.1545942 -72.52 0.0002920212    1.296    0.229
       217  -9.7293    203.8639     40.1253   2.9005319886e+00   2.8963562604e+01    0.1551324    0.1473185  79.26 0.0002565941    1.270    0.213
       218  -9.8559    148.7809     39.8691   1.0060277398e+01   4.2115685204e+01    0.1966907     0.150667 -72.94 0.0003891723    1.308    0.236
       219  -9.5403    167.9224     39.0083   6.8890240647e+00   3.7468420794e+01    0.1670425      0.14359 -87.09 0.0005186069    1.027    0.027
       220 -10.5785     83.9723     37.9952   2.5063280321e+01   5.8457455851e+01    0.3554121    0.2436978 -13.17  0.001678466    1.930    0.482
       221 -10.5703     87.1247     34.0577   2.2413981700e+01   5.8316919933e+01      0.25434    0.1870522  42.38 0.0003575659    1.269    0.212
       222 -10.8829     27.7426     37.5592   5.1370458052e+01   6.8676196547e+01    0.2198924    0.2015968   5.42 0.0001880274    1.112    0.100
       223 -10.2386     23.6963     35.3350   5.2984197228e+01   6.9581583617e+01    0.1948811    0.1822362   7.25 0.0007657006    1.166    0.142
       224 -10.6815     55.9770     35.9237   3.5397537917e+01   6.4629362029e+01    0.3945354    0.2725512  31.72  0.001947859    1.363    0.266
       225  -8.9350     97.6666     36.3120   2.0112758939e+01   5.5482712916e+01     0.146219    0.1106416 -82.52  0.000321028    1.679    0.405
       226 -11.1839    240.0267     34.6714   3.5860435996e+02   2.2276343504e+01    0.1643326     0.128472 -69.21 0.0005266349    1.094    0.086
       227 -10.0780     63.9582     34.7576   3.1314647604e+01   6.3276086390e+01    0.1913337    0.1696745  32.40 0.0004144056    1.023    0.023
       228  -9.5833     34.5124     33.4672   4.5586678943e+01   6.8583370026e+01    0.1347512    0.1152797  -1.39 0.0005327986    1.048    0.046
       229 -10.3237    196.1702     31.7787   1.6976303604e+00   3.1741524077e+01    0.2093341     0.148858 -54.93  0.000371577    1.228    0.185
       230 -10.6917    197.6300     28.1498   6.8634460737e-01   3.1858780716e+01    0.2242216    0.1760235 -74.17 0.0007199742    1.070    0.066
       231 -12.0967      7.8566     30.0694   6.1630660381e+01   7.2079351057e+01    0.4164746    0.3080228 -21.53  0.002125127    1.190    0.160
       232 -11.6304      9.2520     24.8866   5.8616461330e+01   7.3013659300e+01    0.3450672    0.1892363 -14.72   0.00124249    1.948    0.487
       233  -9.8639     25.7161     31.1544   4.9944018078e+01   7.0161198518e+01    0.1853821    0.1013407 -41.14 0.0009240488    1.758    0.431
       234 -10.8770     19.2096     30.6612   5.3988705770e+01   7.0979020491e+01    0.2258403    0.1877015 -25.53  0.000563656    1.081    0.075
       235 -12.3574    232.0975     26.5720   3.5752272760e+02   2.4780545886e+01    0.3129865    0.1962362 -84.39  0.001034851    1.512    0.338
       236  -9.8669     48.8386     28.2801   3.5341911022e+01   6.7190984280e+01    0.1784893    0.1397641   8.30 0.0005019876    1.300    0.230
       237 -10.1018    111.9504     27.3636   1.3076171163e+01   5.3133213034e+01    0.2068731    0.1673975  65.22 0.0006470378    1.091    0.084
       238 -12.0060    215.7427     25.7250   3.5856192336e+02   2.8207525147e+01    0.3702074    0.1859564  72.70  0.001977926    1.961    0.490
       239  -9.2058    123.0000     26.0350   1.0276046266e+01   5.0480615905e+01    0.2023585   0.08198761 -29.40 0.0004741888    2.783    0.641
       240 -11.5314    141.2244    248.2504   5.6796042541e+01   3.8471717140e+00    0.3122753    0.1823772   4.27  0.001572434    2.212    0.548
       241 -11.4743     83.2748    247.7902   6.9500487113e+01   1.1595377509e+01    0.3085663    0.2130048  48.23  0.001305049    1.268    0.211
       242 -11.4946     88.6942    247.0078   6.8213290304e+01   1.1038581064e+01     0.349015    0.1462732  33.64  0.001153013    1.819    0.450
       243 -10.8872    110.0060    248.4646   6.3604677141e+01   7.9734327043e+00    0.2044662   0.09991233  31.73 0.0007072797    1.600    0.375
       244 -11.2552     95.2841    246.6514   6.6699981064e+01   1.0241573915e+01    0.3268406    0.1823792  59.80  0.001638128    2.260    0.557
       245 -10.6508     55.0169     24.9819   3.0751663834e+01   6.6551128081e+01    0.1945951    0.1723537  24.52            0    1.016    0.016
       246 -10.1612    159.5196     22.9953   3.5274223113e+00   4.1545981768e+01    0.2228212    0.1493577 -61.47 0.0003554485    1.446    0.309
       247  -9.9038    156.4803     21.5308   3.4965110042e+00   4.2473793636e+01    0.1372269    0.1169865 -89.35 4.805889e-05    1.011    0.011
       248 -10.3585     33.9798     22.6470   4.0760003541e+01   7.0554905009e+01     0.179945    0.1414802  23.33 0.0002440753    1.145    0.127
       249 -10.1684     99.1620     20.9098   1.3635993757e+01   5.7117043802e+01    0.2967646    0.1730919 -38.47 0.0007591086    1.902    0.474
       250 -10.3747     69.7086     21.7666   2.3060721791e+01   6.3955254144e+01    0.2880352    0.1747831  61.00  0.001384954    1.736    0.424
       251  -9.6870     68.4429     18.0133   2.1746611811e+01   6.4709343281e+01    0.2540283    0.1670625 -29.63 0.0006679402    1.701    0.412
       252 -10.7566    193.0373     20.9144   3.5937327565e+02   3.3755780656e+01    0.1912234    0.1549507 -73.12 0.0002930801    1.005    0.005
       253 -10.3452    165.3339    246.6904   5.1579337439e+01   9.3766649133e-01    0.2558589     0.123651  13.35  0.001167421    2.549    0.608
       254 -11.1969    229.9832     20.0072   3.5631433903e+02   2.5962678048e+01    0.1813276      0.14196 -64.10  0.000445563    1.037    0.036
       255 -10.5480     42.9221     19.6530   3.4098164510e+01   6.9568918692e+01    0.5182149    0.1767273  42.94  0.002047082    2.695    0.629
       256 -11.8838     53.0953    244.8746   7.6042328178e+01   1.5861727886e+01    0.2849959    0.1388633  36.95  0.001013001    1.548    0.354
       257 -11.8746     44.5501    244.6249   7.7929745517e+01   1.6895063450e+01    0.3334007    0.1563478  38.12  0.001220738    1.585    0.369
       258 -11.7806    157.2941    245.3215   5.3046696778e+01   2.1852130115e+00    0.2648274    0.1713988   0.50  0.001155056    1.690    0.408
       259 -10.9283    105.2947    245.6036   6.4350311437e+01   9.1004718416e+00    0.2560959   0.09364504  34.36  0.001128106    2.072    0.517
       260 -11.2357    177.8983    243.7962   4.8665415083e+01  -2.3536335696e-01    0.3241741    0.1338855  22.88  0.001511073    2.332    0.571
       261 -10.4692    187.7168     15.9802   3.5864503216e+02   3.5537003531e+01     0.176863     0.143231 -62.80 0.0003099439    1.097    0.089
       262 -11.6987    149.6286    243.2763   5.4383200231e+01   3.5167700250e+00     0.297574    0.1399703  33.77  0.001507839    1.731    0.422
       263 -11.8873    170.9110     14.2416   3.5980214757e+02   3.9717258319e+01    0.3401995    0.1429768  62.95  0.001353965    2.169    0.539
       264 -12.4674    133.5899    241.0952   5.7556574978e+01   6.0407924304e+00    0.3658842    0.2148685  17.07  0.001589413    1.703    0.413
       265 -10.6797     26.9993     13.1355   4.0063622381e+01   7.3095206444e+01    0.1951405    0.1450119   3.31 0.0005543219    1.270    0.212
       266 -10.6950    108.9851    241.5405   6.3084095302e+01   9.3246961219e+00    0.2071518    0.1044002  30.84  0.001031521    1.598    0.374
       267 -11.5462     61.3454    241.1091   7.3909229551e+01   1.5603170322e+01    0.3933987    0.1332689  35.38  0.001740647    2.144    0.534
       268 -10.9652    203.9854    250.5246   4.4656538243e+01  -4.2616298527e+00    0.2504835   0.09063567  29.13  0.001257065    2.333    0.571
       269  -9.8946    171.0090    239.8085   4.9485319483e+01   1.2309421420e+00    0.2081455    0.1188076   6.69  0.001032252    1.997    0.499
       270 -10.2714    140.9654    241.0000   5.5940838496e+01   5.0511069757e+00    0.2159515   0.05954897  31.84 0.0008020989    2.940    0.660
       271 -11.1462     89.9877    240.2261   6.7271480452e+01   1.2118421661e+01    0.3154897    0.1503439  31.60 0.0009888189    1.686    0.407
       272 -11.9690    115.6961    241.6937   6.1592501120e+01   8.3841714952e+00      0.26143    0.2167866   2.20   0.00167427    1.296    0.228
       273 -11.3422     52.8404    238.8858   7.5686226999e+01   1.7059270863e+01    0.3146824    0.1167637  41.39  0.001459094    1.981    0.495
       274  -9.8923    196.5087    238.1044   4.4254131755e+01  -1.7315510049e+00    0.1592604    0.1056493 -31.27 0.0009979858    1.538    0.350
       275 -12.2134    183.8797    234.8956   4.6212471437e+01   3.0046051581e-01    0.5819736     0.214206  32.96  0.002708088    2.342    0.573
       276 -10.1475    148.1885    236.6369   5.3812069190e+01   4.7804431402e+00    0.1907515    0.1010331  22.70 0.0009530962    1.721    0.419
       277 -10.1833    105.2337    236.6031   6.3392190437e+01   1.0732941304e+01    0.2660078   0.09783423  34.65  0.001136287    2.107    0.525
       278 -10.5469     43.7599    235.8221   7.7554961675e+01   1.8723605612e+01    0.2617278    0.1027514  48.04  0.001226444    2.032    0.508
       279  -9.7772    204.4501    234.7661   4.2279160218e+01  -2.2278037460e+00    0.1565754   0.09336644 -21.60 0.0008893728    1.616    0.381
       280 -10.6940    161.0207    234.9872   5.0864009494e+01   3.2983364042e+00    0.2056962    0.1326319   1.39 0.0007667206    1.709    0.415
       281 -10.7534    156.3700    234.7995   5.1816274004e+01   3.9598352365e+00    0.1577859     0.110092 -28.11 0.0003813067    1.569    0.363
       282 -10.8824    130.9390    235.5156   5.7440590951e+01   7.3583934779e+00    0.2066623    0.1068649  30.43  0.001030331    1.585    0.369
       283 -10.9071     93.4790    235.0413   6.5941415454e+01   1.2629466527e+01    0.3377079    0.1675493  21.83  0.001536082    2.117    0.528
