#   1 NUMBER                 Running object number                                     
#   2 MAG_AUTO               Kron-like elliptical aperture magnitude                    [mag]
#   3 X_IMAGE                Object position along x                                    [pixel]
#   4 Y_IMAGE                Object position along y                                    [pixel]
#   5 X_WORLD                Barycenter position along world x axis                     [deg]
#   6 Y_WORLD                Barycenter position along world y axis                     [deg]
#   7 A_WORLD                Profile RMS along major axis (world units)                 [deg]
#   8 B_WORLD                Profile RMS along minor axis (world units)                 [deg]
#   9 THETA_WORLD            Position angle (CCW/world-x)                               [deg]
#  10 FWHM_WORLD             FWHM assuming a gaussian core                              [deg]
#  11 ELONGATION             A_IMAGE/B_IMAGE                                           
#  12 ELLIPTICITY            1 - B_IMAGE/A_IMAGE                                       
         1 -14.8344      6.5861     70.3549   7.4720703132e+01   6.1361207828e+01     1.005964     0.680559 -47.04  0.004972619    1.186    0.157
         2 -12.9685      9.0096      2.9666   5.0555294379e+01   7.2825317144e+01    0.6104549    0.3378396  38.96  0.003641173    2.543    0.607
         3 -15.7012     11.3587     23.1685   5.8186031618e+01   6.9770682179e+01     1.736682    0.8927735 -21.68  0.007716333    1.851    0.460
         4 -13.6016    122.3339     36.8987   2.2497004651e+01   4.8925037035e+01    0.8547049    0.4253176  38.02  0.003567948    2.250    0.556
         5 -13.9032    166.8979     29.9376   1.2346959926e+01   3.9186201656e+01    0.9723539    0.5315014  67.51  0.003978184    1.613    0.380
         6 -13.7401    147.9678     29.4595   1.5213944957e+01   4.3754626142e+01     1.185721    0.5665135  67.92  0.004795015    1.960    0.490
         7 -12.4391    187.1374     14.5233   6.0221106707e+00   3.6145979560e+01    0.3321797     0.179385 -36.09  0.001795764    1.990    0.497
         8 -11.6286    188.1735      9.9022   4.8560012221e+00   3.6379934851e+01     0.305464    0.2328551 -76.84  0.001242214    1.167    0.143
         9 -13.3854    189.3088     26.0904   8.4551750564e+00   3.4384103022e+01     0.996393    0.4043459 -55.45  0.004178741    2.879    0.653
        10 -15.0350     98.4228     12.1377   1.9772929455e+01   5.6945646797e+01      1.48831    0.6666344  55.71  0.006796296    1.811    0.448
        11 -11.5681     71.1208     16.3534   2.9093917359e+01   6.2143551017e+01    0.2708179    0.2122024  -3.39  0.001741498    1.309    0.236
        12 -11.9965     60.3560     15.2235   3.2354806642e+01   6.4238243088e+01    0.4482969    0.2361481  28.16  0.002278151    1.842    0.457
        13 -13.7967    215.1962     10.3113   2.4396298113e+00   3.0369077148e+01     0.660063    0.3715967  82.71  0.002200948    1.548    0.354
        14 -11.5565     46.7757     13.1682   3.6748907822e+01   6.6737074054e+01    0.2697748    0.2213274  31.63  0.001502053    1.261    0.207
        15 -11.5806    123.0791     10.9133   1.4146867308e+01   5.1494211653e+01    0.2909695    0.2179144 -73.56  0.001439741    1.623    0.384
        16 -13.7713     41.8408      4.5347   3.4872056463e+01   6.8424329524e+01     0.680802    0.4522479  13.00  0.003556982    1.330    0.248
        17 -11.6225     74.8691      9.9662   2.5332150679e+01   6.2042356232e+01    0.2723398    0.1785521  14.49  0.001238805    1.631    0.387
        18 -11.2443    152.9523      8.5911   8.7076247176e+00   4.4693782198e+01    0.1939351    0.1740212  34.66 0.0006095028    1.331    0.249
        19 -14.1391     26.7227     12.4153   4.5548551182e+01   6.9664545990e+01     0.799656    0.4701308  -4.73  0.004746082    1.735    0.424
        20 -11.2859    175.9210     13.8096   7.1202141709e+00   3.8807119672e+01     0.199986     0.160531 -72.24  0.000254111    1.190    0.160
        21 -10.4710     80.5131      7.4886   2.2696065625e+01   6.1133266238e+01    0.1251173     0.100528  39.12 5.010183e-05    1.007    0.007
        22 -11.6808    232.1180      2.3469   3.5961587112e+02   2.7681304423e+01    0.2624565    0.1965948  50.75  0.001791167    1.865    0.464
        23 -11.8376    120.2819      3.1649   1.2222860262e+01   5.2785519726e+01    0.5407732    0.2426675  82.76  0.002110411    3.403    0.706
        24 -11.4231     75.4240      2.5180   2.2165081007e+01   6.2572772542e+01    0.2649845      0.15355  39.97  0.001169339    1.402    0.287
        25 -11.3776     81.3021      1.3425   2.0073237988e+01   6.1473671718e+01    0.6183297   0.08278887  52.30  0.002107073    3.912    0.744
        26 -10.9536     67.6564      2.7214   2.4582335368e+01   6.4076057602e+01    0.2779548    0.1494246  29.67  0.001520159    1.757    0.431
        27 -11.2642     61.6050      1.4796   2.6011230616e+01   6.5318492925e+01    0.3648155   0.09824587  52.41  0.001465333    3.149    0.682
        28 -13.6133     39.9663    195.4885   8.2873169594e+01   2.8904163223e+01     0.772796    0.4006897  50.59  0.003779943    1.858    0.462
        29 -11.6711     51.5071    248.7046   8.5135613388e+01   1.5939913779e+01    0.3558156    0.1941523 -87.71  0.001921961    2.035    0.509
        30 -12.7953     28.6746    245.9222   8.9472768176e+01   1.9188573255e+01    0.4831361    0.3008505  78.84  0.002928326    1.461    0.315
        31 -12.1703      2.7839    249.6570   9.4540636399e+01   2.1134998344e+01    0.3949418    0.2287906  49.78   0.00193736    1.387    0.279
        32 -13.7652      9.8053    245.6846   9.3056398181e+01   2.1223968827e+01    0.8382806    0.3996543  56.13  0.003538681    1.688    0.408
        33 -11.0483     80.5234    192.7420   7.2440383796e+01   2.4219185638e+01    0.3634568    0.1663447  42.96  0.001505427    2.048    0.512
        34 -12.1088    201.1914    191.1266   4.3618406241e+01   3.6664340221e+00    0.3531661     0.277201  -1.75   0.00145364    1.297    0.229
        35 -11.5362    217.5157    187.5020   3.9721161919e+01   1.6134175131e+00    0.1352267     0.118643 -11.19 -2.679052e-05    1.010    0.010
        36 -11.9514     99.0636    186.5336   6.6734565510e+01   2.2778136359e+01    0.4451325    0.2841287 -11.47  0.001701092    2.975    0.664
        37 -11.6335    155.5169    184.9936   5.2413239661e+01   1.3054007522e+01    0.2275013    0.1465873 -46.11   0.00103903    1.610    0.379
        38 -11.6707     48.6185    181.8396   7.9183391157e+01   3.1149986863e+01    0.3621065    0.2004109 -50.43  0.001709305    1.925    0.480
        39 -11.9638    198.6384    181.4094   4.2234186015e+01   5.9073568504e+00    0.2802022    0.2744681  -5.35  0.001333972    1.162    0.139
        40 -11.2691    122.5132    181.5420   5.9845151244e+01   1.9891704751e+01    0.3463279    0.2256547  73.28  0.001379829    2.444    0.591
        41 -12.4313    124.6042    167.7889   5.6681844200e+01   2.2684929411e+01    0.6368113    0.2949906 -52.06  0.002401211    2.228    0.551
        42 -10.9584    102.0010    161.0000   6.1407763039e+01   2.8396106105e+01    0.2550043   0.08525842  35.88 0.0008045536    2.957    0.662
        43 -11.6568     23.9164    159.8382   8.3117351625e+01   3.9140152338e+01    0.2045171     0.162384 -49.35  0.001222883    1.310    0.236
        44 -12.1479    237.7160    159.5470   3.0622085118e+01   3.1893005280e+00     0.464891    0.1244646  41.10   0.00159078    4.318    0.768
        45 -12.5264    111.5307    156.2245   5.7837748459e+01   2.7839332992e+01    0.5464287    0.3823002  82.35  0.002277687    2.135    0.532
        46 -12.0107     85.3901    153.5712   6.4665444548e+01   3.2996253554e+01     0.581898     0.332811 -37.86  0.002380396    2.108    0.526
        47 -12.4082     77.3080    156.9022   6.7600055322e+01   3.3429353187e+01    0.5816352    0.4212362  19.79  0.001968255    1.587    0.370
        48 -13.3467     73.6484    153.0850   6.7974760554e+01   3.4922584829e+01    0.8037392    0.4787705  25.44  0.002549356    1.879    0.468
        49 -11.4685     54.6161    156.5771   7.4068795982e+01   3.6642598102e+01    0.4409113    0.2231211   5.71  0.001478101    4.150    0.759
        50 -12.3260      9.0249    150.4693   8.6155804814e+01   4.2636673838e+01    0.3381612    0.2686935   5.24  0.002128492    1.574    0.365
        51 -11.5245    103.3998    149.6240   5.8736635715e+01   3.0900631672e+01    0.3614237    0.2708735 -25.97  0.001647027    1.609    0.379
        52 -11.7100    190.6058    150.3830   3.7423063721e+01   1.3422201694e+01    0.3708248    0.1362511  39.61  0.001267321    2.986    0.665
        53 -11.7154     60.5824    147.6768   7.0868774919e+01   3.8096153580e+01    0.3855453    0.2597458   3.52  0.001773585    2.041    0.510
        54 -11.2887     38.1586    145.8106   7.7239097047e+01   4.1212650530e+01    0.2047298    0.1776058  78.48 0.0005696554    1.175    0.149
        55 -12.2152     42.0020    139.2647   7.5073616442e+01   4.2427492750e+01    0.2355209     0.194975 -80.75  0.001339809    1.190    0.160
        56 -11.5454    247.1870    135.2050   2.4289267383e+01   5.7647368512e+00    0.2746283    0.1640586  79.33   0.00106934    4.198    0.762
        57 -10.4467     10.7557    133.8638   8.3776944271e+01   4.6525871185e+01    0.1671549    0.1328378  72.88 0.0004098018    1.330    0.248
        58 -11.9548    110.6378    132.1282   5.2814101124e+01   3.3723566735e+01    0.5712065     0.320697  26.50  0.002188558    2.193    0.544
        59 -12.0487    138.1090    132.1143   4.5337063497e+01   2.8171800577e+01    0.3514334    0.2345861  21.35  0.001442852    1.954    0.488
        60 -11.6672     44.8081    132.4356   7.3059203723e+01   4.3807770563e+01    0.3031527    0.1430275  12.48  0.001149753    3.144    0.682
        61 -11.0572      5.2854    128.8273   8.4804670150e+01   4.8097240779e+01    0.2463283    0.1338605 -34.09  0.001251611    2.108    0.526
        62 -14.0401    106.1860    124.0666   5.2186601498e+01   3.6451177236e+01     1.295943    0.6339705  38.91  0.004989328    2.034    0.508
        63 -12.7879     28.4797    121.9417   7.6515663974e+01   4.8015829601e+01     0.453671    0.3069193 -48.27  0.002480224    1.341    0.254
        64 -12.8810    180.8585    120.8603   3.2734393464e+01   2.1289103667e+01    0.4381664    0.3406093  27.69  0.001617049    1.497    0.332
        65 -10.2245     58.9891    124.9739   6.7108914031e+01   4.3916455691e+01    0.1709286    0.1606102 -48.02 0.0004689907    1.001    0.001
        66 -13.3942    112.1889    116.7298   4.8620589241e+01   3.6949014621e+01    0.6120647    0.3520696  26.90  0.002381161    2.151    0.535
        67 -13.0284     84.5141    114.8907   5.6587081159e+01   4.2490078476e+01     1.120306    0.4913179  26.66  0.003873058    2.924    0.658
        68 -11.9659     78.8345    110.8293   5.7425793282e+01   4.4370204951e+01    0.3680021    0.2999767  46.69  0.001907959    1.320    0.243
        69 -12.5946      4.8225    119.2899   8.3749822208e+01   5.0397586617e+01    0.7512012     0.466897 -64.93  0.004309023    1.317    0.241
        70 -11.8790      8.2788    114.4587   8.1974319597e+01   5.1332551496e+01    0.3985427     0.234412  79.32  0.001743492    2.193    0.544
        71 -11.5974     42.4423     90.3785   6.5162572791e+01   5.4014138004e+01    0.2721732    0.2293417 -51.74 0.0004982613    1.159    0.137
        72 -12.3218     36.6477     92.8502   6.7926438938e+01   5.4078781321e+01    0.4650629    0.3127876  11.01   0.00154111    1.633    0.387
        73 -12.7723     19.2459     86.2719   7.3092975922e+01   5.7085333127e+01    0.5346678    0.3412229  -3.78 0.0002465422    1.757    0.431
        74 -14.1365     18.2372    111.7820   7.8243360784e+01   5.1288648923e+01    0.8100863    0.6106765 -33.13  0.003338233    1.328    0.247
        75 -13.3985      2.2635     96.8850   8.1383563875e+01   5.5757627335e+01    0.8125307    0.3784675 -73.44  0.003212248    2.047    0.512
        76 -14.3820     22.6798     94.8234   7.3568602654e+01   5.4896679209e+01     1.430746     0.797129   5.47  0.007153431    2.151    0.535
        77 -12.8079     29.6565     89.2345   6.9742080154e+01   5.5562083682e+01    0.6222023    0.4179365  68.78  0.002308184    2.414    0.586
        78 -11.8092    121.6662    112.2337   4.4783860431e+01   3.6000727121e+01    0.3432608    0.2917272 -77.49 0.0009411835    1.406    0.289
        79 -10.5367     42.0469    113.5466   7.0442295183e+01   4.8704639575e+01    0.1997299     0.134517  25.54  0.001030254    1.602    0.376
        80 -11.4176     62.2173    110.5836   6.2912595104e+01   4.6926165323e+01    0.4360561    0.2563422  59.75  0.001752349    2.705    0.630
        81 -13.9396     11.7375    103.3811   7.9092618846e+01   5.3712614690e+01    0.7154957     0.602298  32.55  0.004662191    1.391    0.281
        82 -14.4549    106.2455    103.9320   4.7026091275e+01   4.0944774563e+01     1.086786    0.9288518  27.89    0.0045741    1.170    0.146
        83 -12.6045    136.3346    103.1899   3.8494197534e+01   3.4728025260e+01    0.6535766    0.3329803  49.56  0.002142185    1.956    0.489
        84 -12.7946    120.4543    102.2002   4.2461997775e+01   3.8387067929e+01    0.4829045    0.2560431  41.61  0.001936474    1.855    0.461
        85 -10.7071     64.5139    101.5274   5.9943615925e+01   4.8692258160e+01    0.2380577    0.2288497  86.21 0.0005936376    1.199    0.166
        86 -11.9288     61.7784     97.9172   5.9991679499e+01   4.9894921419e+01    0.3901118    0.3346788  85.56  0.001530783    1.508    0.337
        87 -11.9166     48.9923     93.3177   6.3450309921e+01   5.2598247725e+01    0.3543694     0.281691  79.28  0.001890537    1.781    0.438
        88 -11.8575     52.4980     97.5576   6.3217041876e+01   5.1212625622e+01    0.3652992     0.231501  -9.38  0.001452095    2.077    0.519
        89 -12.0942     46.0069     98.7155   6.5840793215e+01   5.1733146436e+01    0.4951135    0.3597925  51.44  0.002606853    1.719    0.418
        90 -12.2167    163.1134     98.1496   3.0883901047e+01   2.9636581283e+01    0.4798821    0.3022509  52.24 0.0006557363    1.567    0.362
        91 -12.7110    137.2687     94.9737   3.6049536613e+01   3.6150360389e+01    0.5032319    0.3657635  59.73  0.001392426    1.463    0.316
        92 -11.2468    222.9796    108.7695   2.2468987876e+01   1.4719842652e+01    0.1742569    0.1134957  54.60 0.0008872461    1.674    0.403
        93 -13.7301    188.1929     84.2303   2.2549387485e+01   2.6368665253e+01    0.7043762      0.42768  46.72  0.002543207    1.762    0.433
        94 -11.8511    242.6798     83.9882   1.4590269955e+01   1.4937108391e+01    0.2734233    0.1878511  65.58  0.001597452    1.590    0.371
        95 -11.5302    152.7873     82.6136   2.9046200805e+01   3.4867524946e+01    0.5713519    0.2115495  57.17  0.001903733    2.927    0.658
        96 -13.5571    164.4557     71.5345   2.3684361555e+01   3.3992308529e+01    0.8747385     0.612108  53.66  0.004382792    1.366    0.268
        97 -11.9464    158.4638     83.4961   2.8060020380e+01   3.3383885418e+01    0.2896418    0.2532648  64.25 0.0006404364    1.112    0.101
        98 -12.9132    161.0510     80.3478   2.6687908863e+01   3.3324450205e+01    0.4774797    0.3591008  34.98  0.001440608    1.513    0.339
        99 -10.5298     42.7796    106.4320   6.8717551388e+01   5.0309469179e+01    0.1805732    0.1290366   0.63 0.0006063668    1.615    0.381
       100 -12.7842     62.1534     58.0918   4.8084156242e+01   5.7862330082e+01    0.8626119    0.4925796 -12.76  0.003686578    2.599    0.615
       101 -13.3345     91.6858     58.1092   3.7773029769e+01   5.2580005569e+01    0.5177888    0.4703644 -32.43  0.002634006    1.203    0.169
       102 -12.9986     65.4156     49.2518   4.3768993672e+01   5.8818532520e+01    0.6642379     0.608931 -55.89  0.004153076    1.468    0.319
       103 -13.2280     53.8786     67.4866   5.4358051601e+01   5.7354346327e+01     1.010694    0.8043755 -26.17  0.005934418    1.157    0.136
       104 -12.8485     54.9705     81.3243   5.8040809409e+01   5.4427586015e+01    0.5956112    0.4252115 -31.78  0.002752554    1.341    0.254
       105 -13.7278     61.3063     75.5989   5.3991547833e+01   5.4704851794e+01    0.7129146    0.4710484 -33.18   0.00181347    1.484    0.326
       106 -13.6769     73.9551     73.8895   4.8853414465e+01   5.3044853138e+01     1.431489    0.6812876  18.42  0.004633722    4.043    0.753
       107 -12.7491     87.4933     65.1431   4.1437023350e+01   5.2214727342e+01     0.475707     0.360304   5.22 0.0009933423    1.482    0.325
       108 -13.6942    215.3515     79.2545   1.7153447466e+01   2.1196201261e+01    0.9056771     0.545463  74.41  0.004438204    1.911    0.477
       109 -11.0410     41.5364     75.8815   6.1730071376e+01   5.7229476640e+01    0.2837561    0.1904503 -51.67 0.0009012961    1.450    0.310
       110 -11.5854    114.3407     79.4531   3.7726146821e+01   4.4169247107e+01    0.4269407    0.2796451 -45.81  0.001981722    1.639    0.390
       111 -12.1485    237.1290     79.9297   1.4440062422e+01   1.6637161075e+01    0.3077453    0.1915894  69.64  0.001675609    1.763    0.433
       112 -12.3359    135.6103     79.3897   3.2127822346e+01   3.9428304115e+01     0.712669    0.3172394  54.67  0.002577465    2.279    0.561
       113 -12.3220    109.7806    248.9279   7.2911392441e+01   7.7924622526e+00    0.3208168    0.1932382  62.40  0.001603045    2.043    0.511
       114 -14.1814      3.9854     63.3493   7.4234749683e+01   6.2959678000e+01    0.8301428     0.537538  -5.28  0.001425647    1.586    0.369
       115 -11.5959     27.2537     75.7921   6.7465614313e+01   5.8700276063e+01    0.4438433    0.2531892 -72.40  0.002077719    2.484    0.597
       116 -13.4791    199.2063     70.0196   1.7397647829e+01   2.6176672424e+01    0.8034038    0.4550652  44.05  0.002708195    2.162    0.537
       117 -10.0550    117.6843     72.3191   3.4669711207e+01   4.4716520336e+01    0.1451142    0.1172005 -87.45  0.000703955    1.655    0.396
       118 -11.4027     42.7532     79.7115   6.2297425986e+01   5.6289273868e+01    0.3741498    0.2222211 -62.07  0.001814507    1.955    0.488
       119 -12.1070    135.1506     66.4667   2.8519064753e+01   4.1725717948e+01    0.5063431    0.2928722  44.80  0.001749022    1.665    0.399
       120 -10.6472     45.3331     68.3545   5.8029385092e+01   5.8302242563e+01    0.3466997    0.2329418  64.33  0.001327585    3.006    0.667
       121 -11.8025     39.6498     67.7031   6.0153334748e+01   5.9103511271e+01    0.6187387    0.3214233  15.67  0.002917759    2.174    0.540
       122 -11.0640     99.9084     65.2367   3.7557259389e+01   4.9731937875e+01    0.2144665    0.1947927  56.72 0.0009655313    1.206    0.171
       123 -14.0761    169.2997     77.0575   2.4193968865e+01   3.1943755565e+01     1.428944    0.4294122  52.29  0.004553446    3.110    0.678
       124 -12.8027     78.9683     59.7729   4.2533204591e+01   5.4726505977e+01    0.6441036    0.4713919 -44.04  0.003461142    1.515    0.340
       125 -10.9486     34.7325     60.4478   6.0030574779e+01   6.1062778024e+01    0.3463436    0.1831204 -42.30  0.001776351    1.684    0.406
       126 -12.2277     38.6925     59.6991   5.8109488649e+01   6.0763492853e+01    0.3699056    0.2775624 -73.52  0.002015604    2.145    0.534
       127 -13.1933    178.1745     58.1092   1.7789587520e+01   3.2816430891e+01    0.5760243    0.5166631 -80.32   0.00178663    1.058    0.054
       128 -11.7701     24.9549     59.4728   6.3983935881e+01   6.2222464815e+01    0.3267645    0.2432735 -32.94  0.001595066    1.131    0.116
       129 -14.3147    119.7582     54.8140   2.8748879584e+01   4.7077977879e+01     1.022644    0.4601585  45.27  0.001789502    2.063    0.515
       130 -13.2263    103.4896     50.4455   3.1688816870e+01   5.1318124429e+01    0.6485235    0.3976748 -50.26  0.001128181    2.098    0.523
       131 -13.0614     97.9675     49.9895   3.3131209869e+01   5.2554723117e+01    0.5210526    0.3804142 -27.10   0.00178002    1.482    0.325
       132 -10.9832     17.8034     55.2832   6.5953768471e+01   6.3643689765e+01    0.2941009    0.1611226 -57.46  0.001577577    1.881    0.468
       133 -10.9877    248.3566     55.6771   8.3844047801e+00   1.7999881508e+01    0.1314268   0.07540892 -67.82 0.0007045466    1.766    0.434
       134 -12.1063    136.2371     50.5724   2.3601205928e+01   4.3871248477e+01    0.4109358    0.3889662  12.20  0.001630745    1.166    0.143
       135 -10.5623     23.5398     49.9997   6.1714585618e+01   6.4143984273e+01    0.1742967    0.1057609 -45.09 0.0004597685    1.490    0.329
       136 -11.9946     36.0084     54.2606   5.7514219149e+01   6.2080962041e+01    0.4267026    0.1922934 -39.48  0.002031441    2.027    0.507
       137 -12.4781    154.6276     46.2041   1.8701185036e+01   4.0089817594e+01    0.4972112    0.2374838  48.34  0.002145765    2.051    0.512
       138 -12.4801    158.8623     43.0799   1.7100508146e+01   3.9488542339e+01    0.7539116    0.3611989  52.21  0.003359065    1.928    0.481
       139 -10.7030     38.6100     46.2182   5.3631485836e+01   6.3196531516e+01    0.1716203    0.1026398 -31.85 0.0006081144    1.553    0.356
       140 -13.1695      6.0859     42.9791   6.7823207519e+01   6.6799622241e+01     0.804298    0.3355214  18.05  0.004192381    2.441    0.590
       141 -11.7978     59.9737    246.1820   8.3192013025e+01   1.5363793410e+01    0.2236268    0.1675922   5.77  0.001290245    2.048    0.512
       142 -12.3554      3.0145     34.2705   6.6623584146e+01   6.8554996743e+01    0.2563798    0.1834442 -40.26   0.00074455    1.213    0.176
       143 -13.5968    171.8754    242.3843   5.8693457844e+01  -6.3015897692e-01    0.8084512    0.4831723  27.32  0.004272782    1.486    0.327
       144 -13.1310    205.1745     40.1077   9.7760914818e+00   2.9078583450e+01      1.05532    0.4443432  85.64  0.003749031    3.939    0.746
       145 -12.2841    212.5425     43.1147   9.5857202332e+00   2.7061729627e+01    0.3633943    0.2612607  60.72  0.001705066    1.438    0.305
       146 -13.4133    219.5669     41.5646   8.4813442295e+00   2.5746894268e+01    0.5733365    0.3773852  79.89  0.001794519    1.433    0.302
       147 -11.4702    135.2177     39.7408   2.0595228202e+01   4.5556746364e+01    0.4559546    0.2472978  74.36  0.001510742    2.303    0.566
       148 -12.3022    131.3714     33.3905   1.9469135258e+01   4.7239333727e+01    0.4320035    0.3321123  33.62  0.001417462    1.393    0.282
       149 -12.0784    109.8609     41.9476   2.7149200241e+01   5.1110917992e+01    0.4560334    0.1868812  54.82 0.0009038784    2.247    0.555
       150 -13.9245     93.0160    230.5164   7.4397033419e+01   1.3941948294e+01     0.713244    0.6160131  84.22  0.004400116    1.213    0.176
       151 -12.8000    113.8840     37.8724   2.4797428540e+01   5.0735189895e+01    0.4882655    0.3557309  45.64  0.001542769    1.211    0.174
       152 -10.7084    147.1014     40.6409   1.8531231383e+01   4.2616464451e+01    0.1944681    0.1526493  61.63 0.0003296304    1.130    0.115
       153 -12.2119     40.4486     40.2248   5.0637911344e+01   6.3956558853e+01    0.5446276    0.2534042  32.67  0.002705387    2.070    0.517
       154 -12.5087     32.9512     40.2520   5.4022668647e+01   6.4868597124e+01    0.2886976    0.2225346  -5.19 0.0004548633    1.095    0.086
       155 -12.4330     75.9410     37.1068   3.5542314237e+01   5.8750706421e+01    0.4458788    0.2566673  32.56  0.001471861    1.636    0.389
       156 -11.7504     70.9760     36.4488   3.7018789007e+01   5.9754437530e+01    0.3024388     0.204142  45.37  0.001130516    1.459    0.315
       157 -12.8061    242.1939     36.0227   5.1836321897e+00   2.1801667122e+01    0.4982741    0.2827928  80.74  0.001954548    1.722    0.419
       158 -10.7482    104.6865     37.0044   2.6849286237e+01   5.2890660987e+01    0.1849551    0.1752677  12.29  0.001161098    1.122    0.109
       159 -12.6737     43.2246     33.0103   4.6640068593e+01   6.4694353234e+01     0.950915     0.444664  30.66  0.004763594    1.999    0.500
       160 -13.3525     57.2000     26.9438   3.8411104545e+01   6.3400312934e+01     0.945164    0.2948183  39.92  0.003110124    2.853    0.649
       161 -11.8236     16.7708    235.9595   9.1172579049e+01   2.2477323893e+01    0.2269865    0.1309069  75.48  0.001357409    1.542    0.351
       162 -12.4580     23.3792    216.1206   8.8472172619e+01   2.6011268939e+01    0.7484009    0.3567582  53.35  0.003880584    1.888    0.470
       163 -12.3762    139.9426     21.2728   1.4253215136e+01   4.6549338752e+01    0.5006829    0.2183728  58.21  0.001189459    1.872    0.466
       164 -13.4577     26.6535    225.6180   8.8480417125e+01   2.3606842677e+01    0.7664908    0.3469272 -55.67  0.003785929    2.561    0.609
       165 -13.7998     20.7264    224.0742   8.9603811601e+01   2.4561353394e+01    0.6680728    0.4716101 -74.32  0.003205846    1.377    0.274
       166 -13.4632     65.2737    223.2102   7.9846140915e+01   1.9450262427e+01    0.8337764    0.7181295  57.04  0.005283406    1.034    0.033
       167 -11.1843    195.0040     23.4698   7.2036839536e+00   3.3382835142e+01    0.3462692    0.1858017  61.00  0.001574178    1.727    0.421
       168 -12.9131    217.6475     28.8328   6.0163810951e+00   2.7753065267e+01    0.4317933     0.250631 -79.51   0.00235453    1.742    0.426
       169 -11.7362    121.0323     26.3716   1.9442918941e+01   5.0446675207e+01    0.3409461    0.2344566  74.31  0.001758002    1.550    0.355
       170 -11.8890     30.5370     25.3652   4.9341595626e+01   6.7453626240e+01    0.3441698    0.1858179  14.16  0.001651434    1.912    0.477
       171 -12.0603     35.7214     23.0204   4.5916043288e+01   6.7124768090e+01    0.3093569    0.2005081   0.16  0.001860661    1.494    0.331
       172 -12.2845    224.0293     20.9349   3.8206597005e+00   2.7327656564e+01    0.2690826    0.2206048  54.41  0.001174455    1.553    0.356
       173 -13.7483     64.1502    214.4124   7.9157183269e+01   2.1541296448e+01    0.5553151     0.370446  42.49  0.003034417    1.364    0.267
       174 -11.6152     51.4010     20.3994   3.7996203641e+01   6.5160873237e+01    0.4004601    0.2125087  52.70  0.001933918    2.659    0.624
       175 -11.1232     45.8151     20.4126   4.0318414211e+01   6.6030857516e+01    0.3424211     0.191847  34.62  0.001941268    1.573    0.364
       176 -12.2153    147.5043    238.7234   6.3350322109e+01   3.8126395372e+00    0.2471984    0.2189851  58.11 0.0009744902    1.304    0.233
       177 -10.8957    249.0390    225.2297   4.0903465165e+01  -8.8677892841e+00     0.152861   0.08854393  27.56 0.0008901957    1.690    0.408
       178 -12.4292    218.9940     15.4822   3.1619987031e+00   2.9002910862e+01    0.2097779    0.1794485  59.75  0.001066894    1.442    0.307
       179 -10.4997      5.5902    219.2269   9.2395691208e+01   2.7071133431e+01    0.1591564   0.09214597 -70.85 0.0007776825    1.625    0.384
       180 -10.9608     27.8636    235.4969   8.8933130728e+01   2.1396631222e+01    0.2080527    0.1332773  69.17  0.001276201    1.356    0.263
       181 -10.8654    142.5155     12.4634   1.1301093144e+01   4.6801914771e+01    0.1294377    0.1075188  70.17 0.0002490397    1.012    0.012
       182 -11.0571    156.6753    214.6798   5.7517428825e+01   6.8150398909e+00    0.1446191    0.1050519  -1.76 0.0007046208    1.678    0.404
       183 -12.3060      4.5525    212.3280   9.2192103827e+01   2.8652526292e+01      0.44857    0.2075132 -66.34   0.00242024    2.016    0.504
       184 -10.2606     46.3144    209.6516   8.2797353010e+01   2.4889650669e+01    0.1415305   0.08359216  65.55 0.0004460198    1.722    0.419
       185 -12.9103     59.4679    212.8599   8.0077883389e+01   2.2510375197e+01     0.532797    0.3046216 -37.70   0.00150159    2.752    0.637
       186 -10.6192    149.9722    207.0000   5.7730763048e+01   9.4884107403e+00    0.2451625   0.07615028  37.14 0.0008061499    2.968    0.663
       187 -12.3546     57.6338    203.6436   7.9497285960e+01   2.4851596376e+01    0.5442544    0.2831111  89.06  0.002322359    2.522    0.604
       188 -12.9601     16.4234    196.8957   8.8528680387e+01   3.1017711269e+01    0.6660014    0.2208164 -55.86  0.002700191    3.110    0.678
       189 -13.0728     22.2748    166.1090   8.4251274199e+01   3.7762159625e+01    0.4202223    0.3034625   5.02  0.002026036    1.828    0.453
       190 -14.4535     29.9747    169.1585   8.2556980245e+01   3.6287440317e+01      2.28861     1.119672 -41.06  0.009915362    2.681    0.627
       191 -13.6141     22.3448    180.9796   8.5737052586e+01   3.4179355536e+01    0.9082928    0.4162033 -56.86  0.004256197    2.094    0.522
       192 -15.1685      8.3608    183.1315   8.9304723903e+01   3.4914863497e+01     1.325231     1.049028 -76.95  0.008736481    1.133    0.117
       193 -15.2017     15.6373    175.1225   8.6850351827e+01   3.6184228221e+01     2.266945    0.9583414  60.50  0.009645583    2.818    0.645
