#   1 NUMBER                 Running object number                                     
#   2 MAG_AUTO               Kron-like elliptical aperture magnitude                    [mag]
#   3 X_IMAGE                Object position along x                                    [pixel]
#   4 Y_IMAGE                Object position along y                                    [pixel]
#   5 X_WORLD                Barycenter position along world x axis                     [deg]
#   6 Y_WORLD                Barycenter position along world y axis                     [deg]
#   7 A_WORLD                Profile RMS along major axis (world units)                 [deg]
#   8 B_WORLD                Profile RMS along minor axis (world units)                 [deg]
#   9 THETA_WORLD            Position angle (CCW/world-x)                               [deg]
#  10 FWHM_WORLD             FWHM assuming a gaussian core                              [deg]
#  11 ELONGATION             A_IMAGE/B_IMAGE                                           
#  12 ELLIPTICITY            1 - B_IMAGE/A_IMAGE                                       
         1 -11.5257    231.5982     14.3718   3.1239257670e+01   2.7136512196e+01    0.8314157    0.4090331 -32.28  0.004481895    2.193    0.544
         2 -10.8602    238.2947     16.3043   3.1133481513e+01   2.5555809919e+01    0.6020743    0.2254183 -47.68  0.003041037    2.131    0.531
         3 -12.2802    247.7522     18.9466   3.0974892043e+01   2.3378147517e+01     1.168198    0.5209439 -40.48  0.006440543    1.923    0.480
         4 -10.8069    249.7895      7.0495   2.8595189260e+01   2.4340969850e+01    0.5551826    0.1722195 -40.13  0.002759752    2.531    0.605
         5 -10.5106    239.7775      8.9487   2.9590120224e+01   2.6089345752e+01    0.3593331    0.2117732  89.24  0.001883037    1.520    0.342
         6 -11.4807    234.2700      3.1167   2.8815603560e+01   2.7822510709e+01    0.7430151    0.3246835 -83.08  0.003789468    2.331    0.571
         7 -10.7389    241.1157      1.9637   2.8166004652e+01   2.6578095991e+01    0.3898377    0.2052939 -89.69  0.001741592    1.703    0.413
         8 -11.6898    223.9519     27.8705   3.4677995300e+01   2.7136106387e+01    0.5357615    0.3150821 -31.99  0.002514182    1.867    0.464
         9  -9.8798    132.9019     19.8255   4.4170489538e+01   4.9123626117e+01    0.2229667    0.1678753  30.03 0.0005182789    1.512    0.339
        10 -10.5746     87.8745     16.4002   5.3000272149e+01   5.9646718895e+01    0.3195876    0.2605732  35.88  0.001482895    1.060    0.056
        11 -10.1776    221.8203     14.7163   3.2066757728e+01   2.9135743988e+01    0.3689492    0.1788241 -24.28  0.001776479    2.893    0.654
        12 -12.0308    220.6921      4.5764   3.0035807910e+01   3.0470627190e+01    0.6488703    0.4033216 -64.92  0.003551283    1.356    0.262
        13 -11.2891    113.0690     12.3877   4.5474740518e+01   5.4475298430e+01     0.270081     0.230004 -33.42 0.0002818689    1.342    0.255
        14 -10.4362    101.5085     13.3902   4.8364914732e+01   5.6990254870e+01    0.2620355    0.1874165  43.28  0.000737989    1.231    0.187
        15 -11.3768    204.2907     11.6582   3.2879925396e+01   3.3269127133e+01    0.3791772    0.2167074 -72.21  0.001311498    1.681    0.405
        16 -10.4108    141.0022     12.2987   4.0476007520e+01   4.7942992427e+01    0.2775427    0.2399286  12.12  0.001368771    1.402    0.287
        17  -8.8454    129.4648     11.9615   4.2252063007e+01   5.0703446468e+01    0.1717478   0.09360521 -53.49  0.000805403    2.312    0.568
        18  -9.1148     42.1205     11.1350   6.6793017656e+01   6.8638531681e+01    0.1793591    0.1296716  13.81 0.0004091886    1.170    0.145
        19  -9.0496     27.6159     10.8520   7.3582450465e+01   7.0721503070e+01    0.1878454    0.1150999  30.75  0.000881116    1.540    0.351
        20 -10.2157    183.1367      8.7412   3.4203799361e+01   3.8355662936e+01    0.2357825    0.1740146  51.60   0.00061395    1.525    0.344
        21 -11.1874     65.5929      5.7539   5.5171619625e+01   6.5128762472e+01    0.4735802    0.2293942  41.38  0.001756102    1.724    0.420
        22 -10.0803     32.3433      6.4309   6.8952933498e+01   7.0618343473e+01    0.2458715    0.1558827  12.34 0.0007140313    1.437    0.304
        23  -8.8313    138.4711      6.0551   3.8957825654e+01   4.9104741121e+01    0.1638156    0.1280103 -22.38 0.0003764529    1.514    0.339
        24  -9.8133     94.0288      5.0852   4.6941254090e+01   5.9361359966e+01    0.3938276    0.1913911  72.16  0.001768289    2.547    0.607
        25  -8.6001     20.6833      6.3406   7.4929267668e+01   7.2149314933e+01   0.09442507   0.09136484  -0.90 0.0003389526    1.708    0.415
        26 -11.2862    202.5757      2.9663   3.1080066100e+01   3.4541152707e+01    0.3708475    0.2037558  88.11  0.001040851    1.637    0.389
        27 -10.5475    185.7469      3.0779   3.2573438147e+01   3.8306350366e+01    0.3924385    0.1964804  78.98  0.001206144    1.763    0.433
        28  -9.4817    110.0203      3.5368   4.2948805544e+01   5.5925316281e+01    0.1722896    0.1587625  38.54  4.85698e-05    1.121    0.108
        29  -9.4743    149.3942      2.6564   3.6445622573e+01   4.6814917937e+01    0.2933059    0.1309027  44.64  0.001325567    2.541    0.606
        30  -8.9014     78.2054      3.1554   5.0197099669e+01   6.2859507354e+01     0.149517    0.1439236 -81.77 0.0006377788    1.340    0.254
        31 -11.6543    248.4712    236.8945   7.3863632459e+01  -1.0372027533e+01    0.9476209    0.2871294 -29.39  0.003796492    3.706    0.730
        32 -12.1012    248.3016    216.7636   7.0422659548e+01  -7.5343609464e+00    0.8995661    0.2378189 -38.55  0.003575586    3.365    0.703
        33 -10.5298    248.7801    250.0824   7.5978154517e+01  -1.2123284468e+01    0.4544529    0.1832437  25.93  0.002392609    2.362    0.577
        34 -10.0380    249.1275    245.3278   7.5147199132e+01  -1.1556270370e+01    0.2714063    0.1612645 -20.75 0.0009972084    1.438    0.305
        35 -10.3464    232.9412    250.1758   7.8756841085e+01  -1.0299433955e+01    0.2687995    0.1429255  27.14  0.001585086    1.687    0.407
        36 -11.3120    234.2650    243.8992   7.7505436125e+01  -9.6203717525e+00    0.4447529    0.2541324  -3.66  0.002502138    1.875    0.467
        37 -11.0998    241.1544    238.0558   7.5323537250e+01  -9.6605706923e+00    0.5445533    0.2586512 -15.04  0.002572286    2.717    0.632
        38  -9.2640    110.7055    249.6909   1.0296474869e+02   6.9291704231e+00    0.2566862    0.1539355  62.07  0.001214855    2.014    0.503
        39 -10.6628     65.7573    249.0546   1.1215510511e+02   1.3280954423e+01    0.3828416    0.1897707  53.45  0.002005343    1.780    0.438
        40 -10.1136     50.6309    250.1237   1.1524949300e+02   1.4976077706e+01     0.342021     0.126923  40.25  0.001663156    2.144    0.534
        41 -10.4841     36.0397    248.6022   1.1797502314e+02   1.7000683865e+01    0.4645214    0.1913874  62.32  0.002263602    2.372    0.578
        42 -10.0892     20.7267    249.3009   1.2090441108e+02   1.8548221387e+01    0.3747298    0.1338007  49.70  0.001932192    2.133    0.531
        43  -9.7423     12.7749    249.1147   1.2235364360e+02   1.9408486904e+01    0.2688591     0.140555  67.84  0.001638959    1.574    0.365
        44  -9.7636      3.5555    250.3145   1.2406266644e+02   2.0086569882e+01    0.2805877    0.1328919  33.30  0.001659066    2.128    0.530
        45 -11.4804    245.3115    228.3790   7.2961940266e+01  -8.8260327642e+00    0.3994732    0.3307815 -44.53  0.002713144    1.749    0.428
        46 -11.2926    243.1439    245.3285   7.6177585593e+01  -1.0868309905e+01    0.5934122    0.2611902 -18.62  0.002788957    2.846    0.649
        47  -8.6832    220.4324    193.5217   7.1102294877e+01   2.5882477475e-02    0.1335963    0.1131499 -14.31 0.0002334662    1.010    0.010
        48 -10.5014    246.7712    190.6912   6.5908779393e+01  -3.3496405808e+00    0.2260842    0.1591816 -31.48  0.001138932    1.206    0.171
        49 -10.0265    249.7044    150.5593   5.7583273995e+01   2.8611671565e+00    0.2474889   0.09910819 -39.79  0.001074728    2.063    0.515
        50  -9.8275      2.0094    142.9926   1.1745907122e+02   4.4546423893e+01    0.2078102    0.1278089  70.73  0.001129484    1.669    0.401
        51  -9.7522    244.4957    138.4951   5.5914057691e+01   5.7723226815e+00    0.1345927    0.1118001 -33.00 0.0008104187    1.034    0.033
        52  -9.5752    248.2262    135.3955   5.4719094905e+01   5.6858187643e+00    0.1616935    0.1282088  67.62 0.0009485853    1.693    0.409
        53  -9.6674    243.3355    135.2973   5.5426809412e+01   6.5214781724e+00    0.1306819    0.0979945  -7.50 0.0004349087    1.651    0.394
        54  -8.5468     65.6349    131.7629   9.6698919506e+01   4.1119088638e+01    0.1445123    0.1108716 -19.78 0.0006915394    1.598    0.374
        55  -9.0013    249.6620    130.3065   5.3464995576e+01   6.3159052376e+00    0.1296613   0.09413324 -64.16 0.0007041525    1.677    0.404
        56 -10.4940      2.4278    126.8178   1.1565619308e+02   4.8534248371e+01    0.2459594     0.175097  71.41  0.001166177    1.481    0.325
        57 -10.3104     69.3846    122.8987   9.3663001170e+01   4.2840499581e+01    0.2385624    0.2152622  26.52 0.0003062466    1.198    0.165
        58 -10.1647      4.0000    115.9817   1.1386477961e+02   5.1122266112e+01    0.2228748   0.06047309 -71.82 0.0008077385    2.979    0.664
        59 -10.1829    248.8092    112.8411   4.9970635540e+01   9.4198798382e+00    0.1936965    0.1659607 -29.38 0.0008041933    1.184    0.156
        60  -8.6241    105.1795    111.6128   7.9729972154e+01   3.9512676398e+01    0.2036878    0.1494689  27.45 0.0004494156    1.511    0.338
        61 -10.3776    247.5082    102.5199   4.7989613565e+01   1.1374008666e+01    0.2784365    0.1096285 -39.74  0.001195564    2.112    0.526
        62  -8.4210    130.7299     98.3283   6.8900946571e+01   3.7160538285e+01    0.1543831     0.122663 -78.07 0.0006195533    1.581    0.367
        63 -10.3668      1.8539     95.2028   1.1166053681e+02   5.6276174190e+01    0.3375116   0.05813561 -67.34  0.001102347    3.872    0.742
        64  -9.0542    210.8125     91.6177   5.0750508909e+01   2.0454583570e+01    0.1922349    0.1322719  75.23  0.000946289    1.724    0.420
        65  -9.3039     18.6837     91.6732   1.0480993189e+02   5.6092124188e+01    0.1420035   0.07957032 -38.90 0.0005528858    1.674    0.403
        66  -9.5016     38.2261     89.9362   9.6988538215e+01   5.4784493115e+01    0.1903093     0.171825 -63.74 0.0004069785    1.161    0.139
        67  -9.2366     28.0167     89.0868   1.0070133705e+02   5.5957212326e+01    0.2021511    0.1570438  73.51   0.00112444    1.700    0.412
        68 -10.2803    188.9971     88.0038   5.3458303587e+01   2.5875843584e+01     0.212838    0.1973676 -64.08            0    1.005    0.005
        69 -10.4871      4.2856     87.9950   1.0957525049e+02   5.7855721428e+01    0.2540124    0.1684371  26.33  0.001497191    1.807    0.447
        70 -10.5339    195.5491     82.1939   5.0901235747e+01   2.5419224754e+01    0.2750207    0.2297449  60.58 6.615081e-06    1.256    0.204
        71  -8.3771    135.4882     83.4974   6.3428677407e+01   3.9074810615e+01    0.1513279    0.1464226 -83.89 0.0008099244    1.057    0.054
        72  -9.3741    189.3258     82.2960   5.1963883641e+01   2.6806399233e+01    0.1394445    0.1151521  17.48 0.0001712364    1.627    0.385
        73  -8.5574     88.5044     82.4373   7.6662011141e+01   4.9154942184e+01    0.1467222    0.1390519  -9.18 0.0001554222    1.008    0.008
        74  -9.8428     12.4097     81.2142   1.0511737559e+02   5.8963218166e+01    0.1820815    0.1110573 -73.13 0.0009612729    1.671    0.401
        75  -9.5724    174.7303     78.9760   5.3700429967e+01   3.0748555814e+01    0.2074832    0.1874509 -54.93 0.0004455409    1.064    0.060
        76  -8.5584    195.5371     77.4944   4.9739893913e+01   2.6220089354e+01    0.1422475    0.1296923 -64.57 0.0002386637    1.009    0.009
        77  -9.4605    149.9398     77.4496   5.8294720354e+01   3.6843884601e+01     0.218606    0.1325239  80.01 0.0008083123    2.669    0.625
        78  -8.8961     32.6764     76.6710   9.5824410433e+01   5.8371545260e+01    0.1441161    0.0856996 -30.28 0.0007049618    1.697    0.411
        79  -9.6828     23.0236     76.0000   9.9616064381e+01   5.9381900250e+01    0.2193342    0.1676214  11.38  0.001320288    1.440    0.306
        80 -10.3449     19.5529     74.4850   1.0068459451e+02   5.9992891596e+01    0.2013661    0.1768147 -38.27  0.000544681    1.073    0.068
        81  -9.1280    234.9724     75.5005   4.3804443795e+01   1.8136940360e+01    0.1764299    0.1262057  74.84 0.0005190265    1.536    0.349
        82 -10.7528    128.9691     71.0362   6.1313865216e+01   4.2867580780e+01    0.3420889    0.2726301  25.07 0.0003719868    1.426    0.299
        83  -9.7310     28.9805     71.6901   9.6018608968e+01   5.9819359628e+01     0.210603    0.1616473 -47.25  0.000410521    1.133    0.117
        84  -8.5326    244.4740     71.4947   4.1856274590e+01   1.6894025000e+01    0.1287942    0.1057518 -56.30 0.0002653288    1.016    0.016
        85  -9.6081    138.6786     69.2399   5.8427781361e+01   4.0932256132e+01    0.4533665     0.213348  47.28  0.001781883    2.101    0.524
        86  -8.3067    191.6388     69.6988   4.8409668566e+01   2.8391405376e+01    0.1390373    0.1105858  25.86 0.0007036377    1.721    0.419
        87 -10.2165      3.1715     67.0109   1.0590593150e+02   6.2677913494e+01    0.3655201   0.09427091 -47.02  0.001514941    2.659    0.624
        88  -9.8149    235.0193     66.9757   4.1958739279e+01   1.9442584099e+01    0.1889539     0.161582  17.51  0.001137438    1.750    0.429
        89  -9.3712    249.5866     65.7848   4.0131495814e+01   1.6773607307e+01    0.1819998   0.09263171 -48.81 0.0004792838    1.611    0.379
        90  -8.9360    227.6664     65.9827   4.2598969683e+01   2.1093195747e+01    0.2042763     0.111829 -15.96 0.0007046881    4.494    0.778
        91  -9.1675    173.1862     66.2068   5.0568266765e+01   3.3257606198e+01    0.2030218    0.1607292 -69.97 0.0007015733    1.315    0.239
        92  -9.8843     15.3646     66.1166   1.0038403760e+02   6.2137448402e+01    0.2037778     0.150934 -21.88 0.0004648657    1.281    0.219
        93  -9.0923    144.4334     64.2369   5.5638720654e+01   4.0418233804e+01    0.2015243    0.1347355 -48.67 0.0008987973    1.569    0.363
        94  -8.8647    118.9822     64.5167   6.1832604570e+01   4.6269240835e+01    0.2214234     0.139648  49.06 0.0008761657    1.532    0.347
        95 -10.8554     40.3000     60.9282   8.7993024624e+01   6.0898467901e+01    0.3879787    0.2904944 -71.80 0.0008639203    1.926    0.481
        96 -10.2584     34.5330     59.5197   9.0036905252e+01   6.1825624778e+01    0.2687464    0.2240468 -24.75 0.0006340955    1.013    0.013
        97  -9.5035    100.9125     62.7849   6.6361251114e+01   5.0485798636e+01    0.2320437    0.2032551 -31.74 0.0004654449    1.159    0.137
        98  -9.8759    135.1124     59.9667   5.6420813380e+01   4.3311864259e+01      0.61592    0.2374247 -52.63  0.001822248    4.384    0.772
        99  -8.6165    235.6388     61.2664   4.0664805071e+01   2.0172098342e+01    0.1333276   0.08378417 -69.74 0.0006989854    1.642    0.391
       100 -10.0934    243.7159     58.5966   3.9252460944e+01   1.8957822871e+01    0.2413616    0.1832491 -65.18 0.0008330618    1.130    0.115
       101 -11.0245    192.8809     56.9678   4.5028160860e+01   3.0086500606e+01     0.275761    0.2158096 -65.94 0.0003321419    1.219    0.180
       102  -8.5324    120.4931     56.5438   5.8856974683e+01   4.7243222907e+01    0.1431142    0.1354555  40.22 1.082189e-05    1.008    0.008
       103  -8.9924    112.8037     55.4350   6.0497999620e+01   4.9149424658e+01    0.2098832    0.1253076  40.26 0.0009452534    1.676    0.403
       104  -8.9846    207.9960     54.5359   4.2400721950e+01   2.7025543597e+01    0.1883405    0.1253711  70.76  0.000515446    1.508    0.337
       105 -10.3146    172.8069     51.7902   4.6743279210e+01   3.5559089089e+01    0.4507794    0.1400421 -43.45  0.001575119    3.121    0.680
       106 -10.5423    244.0996     50.7506   3.7597911194e+01   1.9997904859e+01    0.3371939    0.1879151 -59.47  0.001575965    1.624    0.384
       107 -10.0916    204.9943     51.3193   4.2018456034e+01   2.8159499187e+01    0.2257454    0.1754451 -45.56   0.00100658    1.231    0.187
       108  -9.5893     11.6398     52.6871   9.8410844225e+01   6.5209040842e+01    0.1353807   0.07120407 -30.11 0.0007042305    1.749    0.428
       109  -8.8252     85.2479     51.0082   6.7173721370e+01   5.5624994880e+01    0.2023215    0.1282694  29.99 0.0009031052    1.635    0.388
       110  -8.9366    120.1440     50.5183   5.6962686695e+01   4.8252161304e+01    0.1990855    0.1326196  52.13 0.0003280825    1.412    0.292
       111 -10.6820    192.6695     48.7733   4.3012161833e+01   3.1325677779e+01    0.3295469    0.1876791  63.92 0.0009478759    1.707    0.414
       112  -9.4137    212.4930     47.0113   4.0105167944e+01   2.7103795250e+01    0.1872063    0.1196096 -39.25  0.000215529    1.510    0.338
       113  -9.3534    164.0196     45.9920   4.6594479071e+01   3.8484401884e+01    0.2125686    0.1906189 -84.08 0.0004583173    1.058    0.055
       114  -9.1557     33.9753     44.2255   8.5003170594e+01   6.4806309293e+01    0.2215734    0.1679223  16.30  0.001008074    1.301    0.231
       115  -9.2607     30.3386     44.3193   8.6739367921e+01   6.5191828908e+01    0.2052066    0.1485785 -13.65  0.001245458    1.258    0.205
       116 -10.4980    239.5730     30.8304   3.3942240378e+01   2.3545552570e+01    0.3238069    0.2552381  77.58  0.002198328    1.321    0.243
       117 -10.2955    225.8260    248.2062   7.9721204124e+01  -9.1674549669e+00    0.3043663    0.1910478   1.80  0.001848751    1.517    0.341
       118 -10.5990      2.8995    243.2766   1.2386838039e+02   2.1530174538e+01    0.4108338    0.1889336  77.20  0.002341269    1.895    0.472
       119 -11.4268    247.7473     39.9423   3.5084067585e+01   2.0753097857e+01    0.5405262    0.4898967  26.56  0.003763228    1.709    0.415
       120 -10.9138    247.1750     30.6536   3.3292450040e+01   2.2063148637e+01    0.5216093    0.3024795 -56.02  0.003141554    1.399    0.285
       121 -10.1117    212.8027    245.0815   8.1625987494e+01  -7.0650706389e+00    0.2879706    0.1350505  22.99  0.001424353    2.125    0.529
       122 -10.3378     45.2602    244.6273   1.1590160173e+02   1.6715828644e+01    0.2636277    0.1786709  66.81  0.001245153    1.258    0.205
       123 -10.4345     30.4329    242.4912   1.1866175329e+02   1.8854874142e+01    0.3872889    0.1937138 -80.43  0.002165674    1.926    0.481
       124 -11.3609    226.7278    241.2646   7.8430081970e+01  -8.3219722286e+00    0.3620542    0.2392162 -26.70  0.002288805    1.399    0.285
       125  -9.8047     84.5820    243.3943   1.0775084049e+02   1.1862833896e+01    0.2719619   0.06636542  45.19 0.0009577906    3.440    0.709
       126  -9.6168    189.8813     44.1340   4.2228011289e+01   3.2615458288e+01    0.2150595    0.1676724 -74.89 0.0007918992    1.221    0.181
       127  -9.1708    134.7917     43.0970   5.1209313787e+01   4.5890890399e+01    0.2950317    0.1421566 -51.94  0.001155157    2.719    0.632
       128  -9.2740    223.6873     41.0357   3.7551353038e+01   2.5501631678e+01    0.1857291    0.1498278 -56.12  0.001179494    1.105    0.095
       129 -10.2713    185.3446     37.8203   4.1235945129e+01   3.4513906882e+01    0.4486321    0.1569097 -39.24  0.001808517    2.646    0.622
       130  -8.8225      1.3044     40.3001   9.9822319671e+01   6.8292202941e+01    0.1250475   0.06529431 -32.39 0.0001730292    1.590    0.371
       131 -10.9954    238.7302     37.3600   3.5345250173e+01   2.2877063051e+01     0.404545    0.2932754  63.95  0.002571181    1.556    0.357
       132  -9.2895     51.7554     37.8585   7.4601801571e+01   6.3524191873e+01    0.2086745    0.1753606  66.89 0.0008839389    1.949    0.487
       133  -8.9889     61.2048     38.1647   7.0888055929e+01   6.1980384186e+01    0.1640251    0.1574246 -36.13  0.001062858    1.342    0.255
       134  -9.9726    189.7499     34.9964   3.9959896080e+01   3.3850450346e+01    0.1962021    0.1364873 -39.44 0.0008336537    1.456    0.313
       135  -9.6020    124.6205     35.0800   5.0790280904e+01   4.9336680920e+01    0.3629477    0.1853237 -39.55  0.001443599    2.106    0.525
       136 -10.0354    227.3458     30.7513   3.4985270632e+01   2.6063396419e+01    0.4970445    0.1492022 -33.68  0.001848798    3.338    0.700
       137 -10.2988     18.0779    241.5108   1.2096985708e+02   2.0378078255e+01    0.3123344    0.1803552  70.52  0.001430698    1.446    0.309
       138 -10.5836    224.1955     22.0291   3.3413804407e+01   2.7790114328e+01    0.2881176     0.149679  72.68  0.001432789    1.828    0.453
       139 -10.8637    211.7104     31.6116   3.6676586553e+01   2.9312018321e+01    0.2997789    0.2029851  72.84 0.0002886656    1.413    0.292
       140  -9.0232     20.0163     31.6829   8.6999062007e+01   6.8462752938e+01    0.1635992    0.1275644   0.24  0.000512829    1.161    0.139
       141  -8.6034     84.3282     29.2726   5.9182241049e+01   5.8925885656e+01    0.1362488   0.09007857  24.55 0.0001844404    1.585    0.369
       142  -8.7404    166.6108     28.4860   4.1343488055e+01   4.0106402278e+01    0.1308589    0.1169996 -87.86 0.0001987154    1.027    0.027
       143  -9.3267    202.4255     26.7542   3.6521798921e+01   3.1973203067e+01    0.1615645     0.123553 -23.25 0.0009531836    1.653    0.395
       144  -8.9490    136.7187     25.5417   4.5290989885e+01   4.7603583884e+01    0.2071968     0.119898 -28.83 0.0005750306    1.921    0.479
       145  -9.0497     37.9069     25.6990   7.5574782925e+01   6.7342942599e+01    0.1690634    0.1344258   9.86 0.0004314519    1.096    0.088
       146  -8.9410    174.5156     24.4883   3.9201005543e+01   3.8691134426e+01    0.1303232    0.1148373  83.83 0.0002560789    1.044    0.042
       147  -9.9299    157.2449     22.8396   4.1125081083e+01   4.2989344759e+01    0.2367651    0.1665957  67.19 0.0003354856    1.264    0.209
       148  -9.9409    199.1468     21.5691   3.5648634852e+01   3.3321657535e+01    0.2115936    0.1773902 -36.90 0.0004841712    1.352    0.260
       149  -8.7630    161.9129     21.5300   4.0089142128e+01   4.2016724206e+01    0.1950809    0.1155829  68.32 0.0004926018    1.501    0.334
       150  -8.8176    103.4908     20.9797   5.0716901432e+01   5.5792935056e+01    0.1805693   0.09979764 -51.30 0.0008104319    2.571    0.611
       151  -9.4099     71.0255     20.2577   5.9776415481e+01   6.2612362803e+01    0.1998712    0.1692856 -11.05  0.000550919    1.206    0.171
       152  -9.6631     56.7242    241.5892   1.1335779508e+02   1.5923976322e+01    0.2301062    0.1266487  46.58 0.0009336307    1.512    0.338
       153  -9.6225    169.1283     18.1186   3.8201844614e+01   4.0668108897e+01    0.1951509    0.1597383  54.94 0.0005878757    1.278    0.218
       154  -9.7253     71.8217    239.6250   1.1005667637e+02   1.4361124225e+01     0.190184   0.09355574  44.98 0.0009527226    1.708    0.414
       155  -8.7428     91.3342     12.3441   5.0459736622e+01   5.9307640111e+01    0.2142255   0.09889788  50.81  0.001026514    1.791    0.442
       156  -8.8301     51.4991     18.3602   6.6232646442e+01   6.6295148950e+01     0.227151     0.107597  54.46 0.0009558749    3.371    0.703
       157  -9.7798     23.8676     17.9786   7.9011821898e+01   7.0211256415e+01    0.4039815    0.1381934  32.30  0.001873875    2.849    0.649
       158  -9.2971     45.1069    237.2117   1.1537518743e+02   1.8247628312e+01    0.2534366    0.1253605  72.06  0.001246293    2.191    0.544
       159 -10.0837      7.0069    236.9515   1.2281282522e+02   2.2411047347e+01    0.2736299    0.1322101  86.90  0.001483585    1.831    0.454
       160  -8.8507    156.4956     16.9823   3.9571744644e+01   4.3790618344e+01    0.1832661    0.1272008 -33.06 0.0007608289    1.589    0.371
       161 -10.7125    232.3223    233.4357   7.6112676896e+01  -7.9236230374e+00    0.3035687    0.1718674 -10.92  0.001629865    1.933    0.483
       162  -9.2464    171.9969    234.7512   8.8040506604e+01   3.5543192306e-01    0.1770481   0.09897274  33.21 0.0008892092    1.594    0.373
       163  -9.0801     15.6351    234.2996   1.2103133007e+02   2.2104989057e+01    0.1291766   0.06300984  60.86 0.0007033798    1.726    0.421
       164  -9.1271     39.6563    230.3224   1.1596438705e+02   2.0336248882e+01    0.1358647   0.07235418  62.50 0.0007050306    1.731    0.422
       165  -9.1841     32.5043    229.4832   1.1737146501e+02   2.1327397141e+01    0.2354875     0.125265  64.06  0.001274642    1.707    0.414
       166  -9.9746    194.2103     11.5989   3.3796245652e+01   3.5533239916e+01    0.1786088   0.09803203  64.33 0.0009564823    1.694    0.410
       167  -9.8387      5.5238    229.5197   1.2271846601e+02   2.4087563494e+01    0.2327128   0.09514767 -81.91  0.001135205    2.160    0.537
       168  -9.3432    213.7758    229.6003   7.8885993851e+01  -4.8955432136e+00    0.1648658    0.1082824  36.70 0.0009431493    1.602    0.376
       169  -9.0682    195.3334     17.0242   3.4965415561e+01   3.4696342283e+01    0.1697331    0.1421301 -62.97 0.0003905318    1.123    0.109
       170 -10.5891    236.5101    226.7204   7.4216738121e+01  -7.4902459558e+00    0.3148867    0.1724292  -6.89  0.001579992    2.243    0.554
       171  -9.0955      9.9866    224.5314   1.2158229555e+02   2.4718204464e+01    0.1627294     0.103628  38.61 0.0007439693    1.565    0.361
       172  -8.8424      1.6041    220.2405   1.2300148123e+02   2.6413852048e+01    0.1554457   0.08927254 -73.65 0.0009390215    1.599    0.375
       173 -10.2949    239.3376    217.0312   7.2019635795e+01  -6.4275184133e+00    0.4201446    0.2462125   0.95  0.002222288    1.988    0.497
       174  -8.9873    212.4777    219.5125   7.7388404428e+01  -3.1259947835e+00    0.1299679     0.107178  -2.46 3.318378e-05    1.014    0.014
       175  -9.5744     14.0320    218.8044   1.2043239085e+02   2.5564438521e+01    0.1731229    0.1354517 -31.23  0.001095891    2.009    0.502
       176  -8.9250     56.1329    216.6527   1.1123667840e+02   2.1327641062e+01    0.1997823     0.136258 -70.31 0.0007632445    1.450    0.311
       177  -9.5242      2.6130    213.7340   1.2245447805e+02   2.7735761776e+01    0.2177041    0.1221737  85.43  0.001281322    1.484    0.326
       178  -9.0412    234.2723    210.5947   7.1760892416e+01  -4.7703419022e+00    0.1732241    0.1062967  18.69 0.0009508535    1.676    0.403
       179  -8.2835    124.2310    206.2392   9.4070957030e+01   1.3557292269e+01    0.1245653    0.1063032  -8.56 0.0006618408    1.374    0.272
