#   1 NUMBER                 Running object number                                     
#   2 MAG_AUTO               Kron-like elliptical aperture magnitude                    [mag]
#   3 X_IMAGE                Object position along x                                    [pixel]
#   4 Y_IMAGE                Object position along y                                    [pixel]
#   5 X_WORLD                Barycenter position along world x axis                     [deg]
#   6 Y_WORLD                Barycenter position along world y axis                     [deg]
#   7 A_WORLD                Profile RMS along major axis (world units)                 [deg]
#   8 B_WORLD                Profile RMS along minor axis (world units)                 [deg]
#   9 THETA_WORLD            Position angle (CCW/world-x)                               [deg]
#  10 FWHM_WORLD             FWHM assuming a gaussian core                              [deg]
#  11 ELONGATION             A_IMAGE/B_IMAGE                                           
#  12 ELLIPTICITY            1 - B_IMAGE/A_IMAGE                                       
         1 -12.5886    193.9692      9.9234   6.5262048774e+01   3.4858669259e+01     1.307532     0.943862   8.89  0.006390043    1.498    0.333
         2 -12.9516    184.8336     24.6542   7.1434299322e+01   3.5790103709e+01     1.904791     1.175593  -4.93    0.0082198    1.794    0.443
         3 -10.1607     85.0951    182.1564   1.3072501957e+02   2.8359061752e+01    0.2195206    0.2071033 -66.49 0.0008946726    1.342    0.255
         4 -10.2888     93.9906    250.3317   1.3499275055e+02   1.7054842012e+01    0.3209928    0.1381369  45.78 0.0007446738    1.627    0.385
         5 -10.9800     93.2021    240.9761   1.3444997753e+02   1.8357617419e+01    0.3472941    0.1529461  57.13  0.002213007    1.999    0.500
         6 -10.0655     95.5396    236.4310   1.3374602821e+02   1.8672677559e+01    0.2923683    0.1197564 -70.68   0.00171883    3.374    0.704
         7 -10.7475    100.7708    249.5771   1.3391754351e+02   1.6318827163e+01     0.416513    0.2491632  65.06  0.003206237    1.589    0.371
         8 -10.4740     99.1150    242.6682   1.3366018029e+02   1.7403284579e+01    0.2347865     0.164647  62.61 0.0006712757    1.211    0.174
         9 -10.8314    102.7398    241.7984   1.3303209708e+02   1.7060317075e+01    0.3133835    0.1935394 -67.47 0.0007880562    2.044    0.511
        10 -19.3532     15.1813    128.1250   1.4028980124e+02   4.6277191132e+01     15.67817     1.405404 -75.47   0.03796951   10.434    0.904
        11  -9.9523    115.0092    172.3231   1.2369280819e+02   2.5812053609e+01    0.4731815    0.2849514 -85.09  0.002405011    2.565    0.610
        12 -10.0139     92.0364    171.0869   1.2812812291e+02   2.9380542392e+01    0.2661244    0.2402179 -26.94 0.0004577196    1.545    0.353
        13 -10.7310     97.0717    163.5850   1.2616428567e+02   3.0034656859e+01     1.030673    0.6283345 -87.03  0.005069675    2.121    0.528
        14 -11.8705     80.9802    167.3092   1.2992041237e+02   3.1560649969e+01    0.4356161    0.3665958 -23.76  0.001925944    1.825    0.452
        15 -10.1397     72.2400    229.6873   1.3694695243e+02   2.2425317693e+01    0.2338104    0.1184468  71.98  0.001543937    2.096    0.523
        16  -9.8151    149.9942    228.4208   1.2422902829e+02   1.2319522076e+01    0.3129533    0.1281482  50.75  0.001690597    2.219    0.549
        17  -9.5792    194.2518    197.1352   1.1267522738e+02   9.2466157577e+00     0.410373    0.2031767 -56.31  0.001560666    5.944    0.832
        18  -9.7139     78.4441    159.6627   1.2955453917e+02   3.3326170396e+01    0.2556018    0.1464098  61.23   0.00144415    1.757    0.431
        19 -11.7416     68.2423    144.2143   1.2987767570e+02   3.7650747726e+01    0.6441253    0.3971236  72.68  0.003633118    1.747    0.428
        20 -10.5368     96.6880    146.6002   1.2386356507e+02   3.3305179069e+01    0.2414041    0.2277176  35.34 0.0005967062    1.226    0.184
        21  -9.6327     57.6404    147.4982   1.3261662582e+02   3.8256094100e+01    0.1984966   0.09731248 -69.75 0.0007784383    1.892    0.471
        22  -8.9977    107.5121    146.5265   1.2146409190e+02   3.1669556253e+01    0.2256789    0.1597504 -57.92 0.0009668748    1.461    0.315
        23  -8.4482    109.5179    142.9804   1.2044306130e+02   3.2032852246e+01    0.2785438    0.1742088 -37.03 0.0007695124    2.121    0.528
        24 -11.1582     59.0000    131.5058   1.3037977547e+02   4.1367246352e+01    0.4219997    0.1886617 -64.35  0.002146394    2.008    0.502
        25  -8.9173    115.2201    134.0813   1.1760364448e+02   3.2824694624e+01    0.2490393    0.1712147 -41.19 0.0006193803    1.639    0.390
        26  -9.3441    103.4315    130.7705   1.1973173600e+02   3.5404504494e+01    0.2404461    0.2107953   0.45 0.0006630874    1.480    0.325
        27  -8.3809    110.6322    121.8910   1.1634909802e+02   3.6014409735e+01    0.1820972    0.1613421 -64.93 0.0004343233    1.117    0.105
        28  -8.4078    168.5084    113.2472   1.0126504307e+02   2.6453047096e+01    0.2504106    0.1897061 -88.08  0.001153949    2.086    0.521
        29  -9.0202     74.1477    197.1595   1.3417283269e+02   2.7205030253e+01    0.1541119     0.101822  68.90   0.00108333    1.340    0.254
        30  -9.8843     82.5150    195.0788   1.3247653556e+02   2.6504236201e+01    0.1646154    0.1449499  43.59  0.001294535    1.314    0.239
        31 -10.5696     81.7919    187.9313   1.3193158513e+02   2.7794899953e+01    0.3431901    0.2222142 -46.50  0.002184832    2.181    0.541
        32  -9.0924    109.0089    245.7951   1.3237494112e+02   1.5756352441e+01    0.1500849    0.1208874  63.05 0.0005756926    1.183    0.155
        33 -11.2512    175.8162     31.8550   7.5336420823e+01   3.7333843730e+01    0.5464291    0.4628419 -36.00  0.001590474    1.204    0.170
