#   1 NUMBER                 Running object number                                     
#   2 MAG_AUTO               Kron-like elliptical aperture magnitude                    [mag]
#   3 X_IMAGE                Object position along x                                    [pixel]
#   4 Y_IMAGE                Object position along y                                    [pixel]
#   5 X_WORLD                Barycenter position along world x axis                     [deg]
#   6 Y_WORLD                Barycenter position along world y axis                     [deg]
#   7 A_WORLD                Profile RMS along major axis (world units)                 [deg]
#   8 B_WORLD                Profile RMS along minor axis (world units)                 [deg]
#   9 THETA_WORLD            Position angle (CCW/world-x)                               [deg]
#  10 FWHM_WORLD             FWHM assuming a gaussian core                              [deg]
#  11 ELONGATION             A_IMAGE/B_IMAGE                                           
#  12 ELLIPTICITY            1 - B_IMAGE/A_IMAGE                                       
         1 -13.6881    248.3467    125.4152   7.8394757593e+01   7.7667030493e+00     2.552107    0.4150056 -31.61  0.007519603    5.095    0.804
         2 -15.0140    244.5207     99.3465   7.2834193550e+01   1.1668825906e+01      4.30898     1.379095 -44.19   0.01206487    5.649    0.823
         3 -14.7660    245.9020     87.0948   6.9593748298e+01   1.2851139347e+01     2.422229     1.053895 -42.28  0.009527862    2.699    0.629
         4 -14.0342    248.7171     58.9924   6.2008690411e+01   1.5510340045e+01     2.512198    0.8326805 -17.25  0.008093875    3.671    0.728
         5 -16.0061    246.5298     42.8537   5.8022570341e+01   1.7795163036e+01     4.265197     2.392489 -20.61   0.02000471    1.694    0.410
         6  -9.7049    239.5054      1.4769   4.7672293096e+01   2.3471665095e+01     0.128002    0.1272097 -38.28 0.0001319896    1.048    0.046
         7 -11.9026    246.7823    241.0863   9.9640654871e+01  -3.3037455641e+00    0.2795569    0.2266675 -31.80  0.001877902    1.938    0.484
         8 -11.0152    224.6441    249.7006   1.0404637133e+02  -7.9313890347e-01    0.1832854    0.1589976  22.97  0.001157173    1.361    0.265
         9 -11.6154    225.3823    243.0789   1.0307445562e+02  -3.5471947773e-01    0.2526385    0.2261308  16.10   0.00148567    1.406    0.289
        10 -11.6556    209.7304    248.9196   1.0616914842e+02   1.4467785990e+00    0.2696341    0.2064001  17.37  0.002213249    1.283    0.221
        11 -11.4516    191.3500    248.2524   1.0887002176e+02   4.2214496519e+00     0.291262    0.2550439 -82.67  0.002415252    1.878    0.467
        12 -10.8899    201.8584    242.1997   1.0652638748e+02   3.2269010704e+00     0.195408     0.150403 -47.21   0.00150964    2.022    0.505
        13 -11.0689    240.1702    240.8066   1.0057132093e+02  -2.3302791792e+00    0.1931909    0.1831613  89.02    0.0011883    2.053    0.513
        14 -10.3076    169.2885    242.6587   1.1163389529e+02   8.0758407646e+00   0.09930724   0.06991973  61.77 0.0004202295    1.645    0.392
        15 -10.7598    219.7604    239.9280   1.0350245814e+02   7.4806087701e-01    0.2035276    0.1381313 -36.98  0.001047116    2.126    0.530
        16 -11.6737    216.1945    233.6289   1.0320017539e+02   1.8503173815e+00    0.2888634    0.2835799  47.28  0.001887325    1.580    0.367
        17 -10.5742    214.1691    240.7667   1.0446165088e+02   1.5102484361e+00    0.1489696    0.1381726   7.95  0.001022011    1.436    0.303
        18 -10.7625    183.4807    240.1708   1.0912460686e+02   6.2023646769e+00    0.2109437    0.1682232  82.04  0.001558775    2.033    0.508
        19 -10.8877    159.1397    239.3130   1.1285913194e+02   9.9613326692e+00    0.1819471    0.1286898  78.56   0.00124348    2.162    0.537
        20 -11.9989    230.8369    236.6292   1.0138336095e+02  -6.2040436185e-01    0.3172132    0.2648315  61.96   0.00188447    1.958    0.489
        21 -11.5692    205.1739    235.6464   1.0517419913e+02   3.3456100539e+00    0.3153585    0.2691454  88.95  0.002375476    2.092    0.522
        22 -11.5350    191.0875    236.0241   1.0742307149e+02   5.4671204153e+00    0.3387968    0.2620954 -82.77  0.002319928    2.524    0.604
        23 -12.0405    240.5626    208.5943   9.5711600214e+01   3.4941903177e-01    0.4485641    0.2906558 -47.67  0.002188418    2.964    0.663
        24 -12.8384    247.9581    216.8047   9.5881804233e+01  -1.5254620142e+00    0.5128581    0.3095746 -25.09  0.002355668    1.935    0.483
        25 -11.9585    248.9256    233.6780   9.8274238999e+01  -3.0431180916e+00    0.3860657    0.2879693  56.06  0.002745216    2.134    0.531
        26 -12.3715    247.7361    226.5176   9.7397814355e+01  -2.2988565165e+00    0.3389917    0.2981684  40.38  0.001830293    1.600    0.375
        27 -11.1433    235.1233    203.3721   9.5714267585e+01   1.7133522333e+00    0.2967812    0.1670465 -34.45  0.001275867    2.248    0.555
        28 -11.6013    237.1049    198.0838   9.4525939297e+01   1.9024562447e+00    0.3499408    0.2173095 -22.17  0.001644503    1.778    0.437
        29 -11.8941    237.0665    187.6595   9.2739001995e+01   2.9503493569e+00    0.4864327    0.2226481 -32.17  0.002550339    2.492    0.599
        30 -11.1959    234.8645    181.7960   9.2046561619e+01   3.9372123872e+00    0.3166232    0.2070752 -17.11  0.001263325    1.610    0.379
        31 -11.5978    250.1612    200.2125   9.2855209491e+01  -4.1128188317e-01    0.3462479    0.1570655 -29.03  0.001924992    2.480    0.597
        32 -12.6367    245.7516    191.9564   9.2122170770e+01   1.0732319636e+00    0.5727845    0.4559595 -40.53  0.003706941    1.906    0.475
        33 -12.4515    241.5097    180.3286   9.0716138369e+01   2.9433443747e+00    0.6440976     0.274481 -33.41  0.003192308    2.675    0.626
        34 -11.5019    247.1125    207.0170   9.4449159368e+01  -5.4171857611e-01    0.3360517     0.199146 -37.99  0.001596879    2.460    0.594
        35 -11.9123    242.7822    200.9828   9.4122029083e+01   7.0003635922e-01    0.3534544    0.2675815 -10.72  0.001489594    1.392    0.281
        36 -12.1118    236.5323    229.7224   9.9548768730e+01  -8.8950284911e-01    0.3747706    0.3261152  66.78  0.002427437    2.027    0.507
        37 -11.0751    229.0904    228.1333   1.0045069969e+02   3.7562839938e-01    0.2329911    0.1785756 -29.37   0.00127664    1.760    0.432
        38 -11.9445    227.7173    220.9355   9.9611174982e+01   1.2376564283e+00    0.3096262    0.3087122   7.12  0.001969459    1.629    0.386
        39 -10.7905    211.8217    227.4231   1.0302613799e+02   3.1087557223e+00    0.1964579    0.1534218 -26.43  0.001230348    1.647    0.393
        40 -10.7286    198.9012    226.9218   1.0500006473e+02   5.1833854609e+00     0.194376    0.1611089 -55.27  0.001205257    1.891    0.471
        41 -10.8793    176.5345    235.7850   1.0969263028e+02   7.7223971548e+00    0.2430651    0.1089319 -39.40  0.001429189    3.060    0.673
        42 -10.7179    223.2577    226.6827   1.0114013211e+02   1.4023416770e+00      0.17742    0.1590481  17.11  0.001060505    1.344    0.256
        43 -10.5920    190.4303    226.2156   1.0626210451e+02   6.5922198384e+00    0.2049528    0.1092474 -41.37   0.00126214    2.536    0.606
        44 -10.8844    205.8865    225.2097   1.0365494876e+02   4.2571051816e+00    0.2082227    0.1543392 -43.89  0.001307944    1.977    0.494
        45 -11.3095    216.9567    223.4480   1.0165855676e+02   2.6875235428e+00    0.2752988    0.2247235 -61.42  0.001542059    2.268    0.559
        46 -12.2598    238.4480    220.0534   9.7825851664e+01  -3.4791143450e-01    0.3437126    0.3043645 -34.60  0.001734345    1.764    0.433
        47 -11.8120    232.9217    212.8631   9.7573516587e+01   1.1668002989e+00    0.3098494    0.2432049 -18.73  0.001341978    1.514    0.340
        48 -10.1582    180.3719    223.2268   1.0750084546e+02   8.5137500885e+00     0.126618    0.1071472 -56.95 0.0009504923    1.693    0.409
        49 -10.0866    185.6603    221.8460   1.0645387717e+02   7.8264466888e+00    0.1295282    0.1051796 -52.26 0.0009457354    1.770    0.435
        50 -11.0190    193.4476    219.3475   1.0484243869e+02   6.8527796426e+00    0.2454972    0.2116556 -83.88  0.001787559    1.868    0.465
        51 -11.0285    202.1914    218.8583   1.0335450294e+02   5.4975459602e+00    0.2433839    0.1796343 -37.23  0.001588089    1.803    0.445
        52 -10.9271    210.7634    218.3688   1.0190606784e+02   4.1711023762e+00    0.2207911    0.1593752 -34.91  0.001181582    1.826    0.452
        53 -11.8298    217.7052    213.4800   1.0007088902e+02   3.5459317482e+00    0.4228869    0.2953442 -50.05   0.00269236    2.431    0.589
        54 -10.2864    170.5916    216.7857   1.0827639153e+02   1.0831257702e+01     0.131219      0.10985 -64.11 0.0009557388    1.675    0.403
        55 -10.3028    225.7449    213.1571   9.8744886204e+01   2.2835225472e+00    0.1878323    0.1599334 -23.29 0.0008544479    1.527    0.345
        56 -11.2922    225.6714    207.7786   9.7918760691e+01   2.8211261827e+00     0.289957    0.2508008  49.20  0.001582635    1.498    0.332
        57 -10.4496    209.8367    212.3249   1.0116319999e+02   4.9429202324e+00    0.1655126    0.1565845   5.79 0.0009817133    1.362    0.266
        58  -9.8714    186.2465    210.9671   1.0485447327e+02   8.9727953668e+00    0.1237742   0.09961082 -31.44 0.0006369036    1.566    0.361
        59 -10.4196    176.8325    211.0148   1.0644650276e+02   1.0517110495e+01     0.164831    0.1303345  86.18  0.001079877    1.976    0.494
        60  -9.7547    200.2753    210.6644   1.0247856805e+02   6.6911847008e+00    0.1019536    0.0855073  63.82 0.0003221083    1.605    0.377
        61 -10.4394    192.8699    210.1169   1.0362524323e+02   7.9764602539e+00    0.1700709    0.1407668  50.46 0.0007409324    1.304    0.233
        62 -10.5149    205.9630    207.8674   1.0112263352e+02   6.0558488325e+00    0.1847918    0.1593742   6.31  0.001031466    1.243    0.196
        63 -10.6684    217.2227    204.6063   9.8776218766e+01   4.5335120978e+00    0.1873855    0.1561099 -12.76  0.001095554    1.378    0.274
        64 -10.5157    197.6423    204.4946   1.0199066402e+02   7.8227445059e+00    0.1923979    0.1470044 -33.35  0.001316892    1.634    0.388
        65 -10.2929    186.9820    203.5061   1.0364302399e+02   9.7354885988e+00    0.2067171     0.147805 -64.15  0.001233247    2.404    0.584
        66 -11.0233    210.5091    201.3871   9.9365883570e+01   6.0019604906e+00    0.2680161    0.2013435 -58.24  0.001407773    2.330    0.571
        67 -11.0259    222.4950    200.9558   9.7336205129e+01   4.0357751579e+00    0.3044291    0.2219457  62.71  0.001854387    2.105    0.525
        68 -10.4103    217.9662    183.9224   9.5204206577e+01   6.6643994793e+00    0.2222704    0.2015291 -63.97  0.001291712    1.714    0.417
        69 -11.1654    228.9801    200.2347   9.6174658256e+01   3.0308539333e+00    0.2675735    0.2341154   1.31  0.001988139    1.285    0.222
        70 -11.9550    224.1138    192.7326   9.5708220109e+01   4.6266099558e+00    0.4977345    0.2648913 -45.95  0.002505152    3.145    0.682
        71 -10.5947    215.3349    197.7048   9.7976396713e+01   5.5867440770e+00    0.1834468    0.1375409 -37.50 0.0009780981    1.748    0.428
        72 -10.5437    202.0334    197.4926   1.0016145928e+02   7.8831031912e+00    0.1919593    0.1717596 -56.63  0.001175798    1.628    0.386
        73  -9.8651    176.2253    197.9654   1.0467310538e+02   1.2252223522e+01    0.1350007    0.1005129 -38.35 0.0008486292    1.662    0.398
        74  -9.9353    184.3006    196.6562   1.0306725696e+02   1.1034786250e+01    0.1118686   0.08966894  70.05 0.0004345266    1.677    0.404
        75 -11.2025    231.0317    193.7644   9.4762888450e+01   3.3457248780e+00    0.2910898    0.2039182 -21.41    0.0011031    1.585    0.369
        76 -11.2298    230.0586    187.2490   9.3794754001e+01   4.1902526313e+00    0.2394835    0.2172065 -35.85  0.001058549    1.564    0.360
        77 -10.4864    219.6708    194.5229   9.6737267943e+01   5.1931091286e+00    0.1975127    0.1358779 -41.54  0.001047437    2.007    0.502
        78 -10.3577    209.2861    194.6161   9.8476104080e+01   6.9650587416e+00    0.1831248    0.1438713 -39.12 0.0008612747    1.672    0.402
        79 -10.1459    194.4711    194.9456   1.0104309032e+02   9.4889119918e+00    0.1449478     0.105669 -67.72 0.0008092364    2.549    0.608
        80 -11.0520    215.1543    190.4327   9.6797208489e+01   6.4214027757e+00     0.328165    0.1639929 -29.29  0.001756443    2.323    0.570
        81 -10.1833    198.8284    191.0356   9.9662746765e+01   9.2023710701e+00    0.1682933    0.1413776 -75.71 0.0009900901    1.937    0.484
        82 -10.1069    210.3802    189.1801   9.7386192227e+01   7.3968026922e+00    0.1475204    0.1133338 -39.84 0.0008590793    1.699    0.412
        83 -12.3853    237.2461    158.8781   8.7299569933e+01   6.0241174016e+00     1.218995    0.5979353 -49.96  0.004346197    5.241    0.809
        84 -12.4726    235.0759    147.0036   8.5218862570e+01   7.8108304762e+00     1.003371    0.5828264 -55.02  0.004013144    3.985    0.749
        85 -12.2460    248.8949    181.4922   8.9767131328e+01   1.5698366987e+00    0.8107274    0.2158238 -35.01  0.003160624    4.485    0.777
        86 -13.4409    239.9806    124.2231   7.9427808184e+01   9.5830939989e+00     2.360269    0.3594637 -30.58  0.006541339    5.552    0.820
        87 -13.3213    245.8304    143.1747   8.2681951107e+01   6.2031865142e+00     1.939681    0.5622653 -41.44  0.005534654    6.703    0.851
        88 -11.7039    242.3986    247.8464   1.0120281277e+02  -3.1899588852e+00    0.2480355     0.192425  14.09  0.001145955    1.254    0.202
        89 -11.7992    233.2494    246.8367   1.0240515099e+02  -1.8055224853e+00    0.2716983    0.2138362  26.95  0.001371048    1.213    0.176
        90 -10.8145    175.9223    246.8432   1.1107421687e+02   6.6488012879e+00    0.2224108    0.1492808 -52.61  0.001639377    2.268    0.559
        91 -10.9734    243.4894    236.5019   9.9479880063e+01  -2.4734110959e+00     0.166131    0.1214894  28.18 0.0007995457    1.111    0.100
        92 -11.4331    250.1587    245.7098   9.9790619470e+01  -4.1259767386e+00    0.2257273    0.1694954 -10.55  0.001037387    1.561    0.360
        93  -9.8334    192.5185    173.4967   9.7769110731e+01   1.2563029165e+01    0.1291472    0.1071258  31.92 0.0008103945    1.004    0.004
        94 -10.4799    225.7567    179.1626   9.3057737409e+01   5.8210272831e+00    0.1722538     0.155566  21.50 0.0006940701    1.229    0.186
        95 -10.8537    237.3535    169.3918   8.9338509607e+01   4.8331683634e+00    0.3009205    0.1885434 -33.32  0.001122603    1.852    0.460
        96 -10.7075    233.9113    164.1028   8.8876481239e+01   6.0451891961e+00     0.288135    0.1869219 -38.28  0.001235934    1.926    0.481
        97 -10.5715    231.1761    159.7835   8.8475088484e+01   7.0465954377e+00    0.2400871    0.1746039  -8.00 0.0009457956    1.366    0.268
        98 -10.6928    205.3536    169.7746   9.4811191135e+01   1.0659819508e+01    0.2726503    0.1864849 -53.98  0.001283366    2.282    0.562
        99  -9.3098    200.7031    171.6888   9.5983569055e+01   1.1280969672e+01    0.1300591   0.08728085  18.52 0.0004863923    1.597    0.374
       100 -11.3296    218.8364    168.4542   9.2232379910e+01   8.3152858337e+00    0.3028355    0.2625571 -39.08    0.0013502    1.503    0.335
       101 -10.1470    212.1372    169.2205   9.3525873433e+01   9.4651821413e+00     0.155755    0.1516107  50.30 0.0007699463    1.353    0.261
       102 -10.0952    178.7681    169.0489   9.9488045676e+01   1.5733982899e+01    0.1557544    0.1085949 -37.59 0.0008836139    1.657    0.396
       103 -10.9463    229.1045    166.1632   9.0068855740e+01   6.6911408647e+00    0.2472656    0.1711195 -26.85  0.001015508    1.568    0.362
       104 -10.1282    184.5924    165.8074   9.7820707536e+01   1.5100091883e+01    0.1660908    0.1236453 -49.43 0.0009482495    1.703    0.413
       105 -10.3395    199.4898    165.0044   9.4957565277e+01   1.2383719458e+01      0.18028    0.1272014 -30.61 0.0009597772    1.585    0.369
       106 -10.5788    191.6264    165.7159   9.6512158121e+01   1.3780366040e+01    0.2469113    0.1604058 -41.94  0.001287395    1.839    0.456
       107 -11.1032    212.9032    163.1681   9.2239075802e+01   1.0075223957e+01    0.2938228    0.1880224 -32.65  0.001623145    1.743    0.426
       108 -10.8185    205.1809    161.6869   9.3307918669e+01   1.1735604852e+01    0.2704372    0.1879864 -40.95  0.001463205    1.745    0.427
       109 -10.5741    221.1747    161.7137   9.0534026991e+01   8.6921428979e+00    0.2067876     0.169343 -28.94 0.0008944116    1.408    0.290
       110 -10.2541    176.5929    159.7923   9.8204905653e+01   1.7494880351e+01    0.1713287    0.1258251 -50.71 0.0009539098    1.688    0.408
       111 -11.0078    226.6517    157.4945   8.8771500364e+01   8.1667694019e+00    0.3219681    0.2019709 -33.05  0.001304697    1.771    0.435
       112 -10.5785    196.9629    157.4488   9.3959604120e+01   1.3890147751e+01    0.2305875    0.1872997 -48.31  0.001359644    1.570    0.363
       113 -11.1769    221.4610    154.0763   8.8959572146e+01   9.5749095543e+00    0.5038372    0.1670179 -35.64  0.001985366    3.259    0.693
       114 -10.5515    216.2789    156.7094   9.0381648517e+01   1.0243707209e+01    0.2216479    0.2006119 -54.26  0.001147341    1.534    0.348
       115 -10.0773    187.4898    156.0268   9.5429122034e+01   1.5936978276e+01     0.189151    0.1315423 -32.60  0.001035637    1.598    0.374
       116 -10.0519    205.6264    154.2301   9.1756920701e+01   1.2634614290e+01    0.1738328    0.1213576 -15.28 0.0009432185    1.576    0.365
       117 -10.9246    228.2283    150.8069   8.7145211003e+01   8.6720456054e+00    0.4398474    0.1817101 -23.15  0.001842433    2.776    0.640
       118 -10.0342    211.6046    151.7867   9.0201079821e+01   1.1784861544e+01    0.1715984      0.12275 -38.20 0.0009442212    1.633    0.388
       119 -10.6875    215.4934    149.2265   8.8992789868e+01   1.1352587382e+01    0.2831631    0.2069451 -52.61  0.001277968    1.999    0.500
       120  -9.9432    196.6226    150.1842   9.2569974604e+01   1.4966813336e+01     0.179975    0.1240418 -16.62 0.0009460354    1.650    0.394
       121 -10.9913    223.4611    146.6797   8.7088904170e+01   1.0108379520e+01    0.2598645    0.2267758  13.14  0.001071026    1.064    0.060
       122 -10.2840    207.8851    145.0909   8.9470837543e+01   1.3414961226e+01    0.1897022    0.1893088 -84.78 0.0008531113    1.287    0.223
       123 -10.0042    200.3982    145.2685   9.0861724593e+01   1.4899329816e+01    0.1773658    0.1265702 -41.17 0.0008390584    1.635    0.389
       124  -9.9051    218.5041    144.4732   8.7472856482e+01   1.1369982412e+01    0.1354667    0.1163825  21.59 0.0002412858    1.023    0.022
       125 -10.2541    214.2354    142.5956   8.7816370845e+01   1.2470434866e+01    0.2304948    0.1576204 -38.82 0.0008552804    1.689    0.408
       126  -9.6723    194.3083    143.6632   9.1648818724e+01   1.6360594834e+01    0.1284177    0.1099674 -85.86 0.0005329601    1.679    0.404
       127 -10.0672    181.6062    141.8397   9.3678952648e+01   1.9214374923e+01    0.1855859    0.1281741 -47.89 0.0009481419    1.738    0.425
       128 -12.2162    234.9436    122.0583   7.9735428805e+01   1.0879832489e+01    0.7214236    0.1790372 -26.75  0.002240473    4.281    0.766
       129 -12.4538    234.7976    112.3226   7.7470724051e+01   1.2131605511e+01    0.3451841     0.264066 -48.28  0.001841298    1.673    0.402
       130 -10.9180    238.5034    140.5794   8.3294785656e+01   7.9104791572e+00    0.2773218    0.2430581 -39.84 0.0008644944    1.478    0.323
       131 -11.7524    234.5669    135.5854   8.2847349361e+01   9.2852311356e+00     0.402984    0.2729673 -37.14  0.001638849    1.693    0.409
       132 -11.3474    233.1216    129.6264   8.1757894907e+01   1.0309936037e+01    0.3381833    0.2292904 -27.44  0.001156635    1.490    0.329
       133 -10.4202    224.2111    140.3987   8.5622246507e+01   1.0752018169e+01    0.2381849    0.1754685 -20.70 0.0009182253    1.373    0.272
       134  -9.7365    166.3188    140.6602   9.6456074290e+01   2.2488755641e+01    0.1348376    0.1085394  87.01  0.000704948    1.711    0.416
       135 -10.6641    218.6901    138.3392   8.6121108975e+01   1.2129473395e+01    0.2813976     0.206097 -29.92  0.001301288    1.450    0.311
       136 -10.3721    198.5994    137.2626   8.9481188382e+01   1.6401797315e+01    0.2457373    0.1293096 -36.91  0.001118832    2.049    0.512
       137  -9.9212    172.5093    138.0100   9.4659869990e+01   2.1665017951e+01    0.1890358    0.1190408 -62.70 0.0008106248    2.613    0.617
       138  -9.8445    192.7357    137.0144   9.0521576920e+01   1.7652573709e+01    0.1701757     0.119736 -30.62 0.0008837445    1.515    0.340
       139 -10.4044    208.5587    138.2473   8.7883822963e+01   1.4210079505e+01    0.2414198    0.1287712 -34.97  0.001096488    2.000    0.500
       140  -9.7227    187.6818    135.3428   9.1117327582e+01   1.8951507493e+01    0.1341581    0.1120449 -84.29 0.0007049188    1.718    0.418
       141 -10.4922    225.8111    133.5659   8.3853617253e+01   1.1299116580e+01    0.2579083    0.1844849 -28.90  0.001100527    1.455    0.313
       142 -10.2803    179.5618    132.7732   9.2131030475e+01   2.1039369947e+01    0.1876996    0.1326875 -47.51 0.0009492594    1.657    0.397
       143 -10.1265    205.9559    130.9924   8.6745272959e+01   1.5757403552e+01    0.2017257    0.1739837 -70.71 0.0008410781    1.639    0.390
       144 -11.5024    220.8933    128.7017   8.3596145742e+01   1.2942129252e+01    0.2717763    0.2162234   4.10   0.00130189    1.205    0.170
       145 -10.1142    192.4155    129.2477   8.8859079518e+01   1.8872447571e+01    0.1883042    0.1314946 -42.94 0.0009465069    1.633    0.388
       146 -11.2759    227.9341    125.1928   8.1605873702e+01   1.1934552100e+01    0.3198146    0.1932947 -29.50  0.001077141    1.667    0.400
       147 -10.2506    212.0318    129.0371   8.5215552504e+01   1.4751208792e+01     0.204052    0.1733361 -66.28  0.000793776    1.678    0.404
       148 -10.1068    179.8118    124.4174   9.0199905224e+01   2.2304193654e+01    0.2629552    0.1065882 -38.96  0.001007314    2.604    0.616
       149 -10.1158    212.5984    122.7621   8.3670007488e+01   1.5493986326e+01    0.1906381    0.1275052 -37.87 0.0009453819    1.637    0.389
       150  -9.8842    188.2884    123.6425   8.8362735296e+01   2.0603583699e+01    0.1372149    0.1137827 -73.07 0.0004211839    1.681    0.405
       151  -9.9667    203.2808    121.6209   8.5074836856e+01   1.7661214449e+01    0.1372216    0.1119423 -64.23  0.000699212    1.715    0.417
       152 -10.9147    223.9443    183.9546   9.4215708650e+01   5.6084908522e+00     0.243231    0.1725115 -35.38  0.001070544    1.755    0.430
       153  -9.9658    220.2597    120.6398   8.1842963158e+01   1.4145232484e+01    0.1318682    0.1082887 -54.53   0.00047525    1.627    0.385
       154 -10.0391    225.0000    115.9010   7.9921733146e+01   1.3759692217e+01    0.2194048   0.07668903 -28.56 0.0007252746    2.858    0.650
       155 -10.4799    219.8633    115.2158   8.0623900047e+01   1.4957149633e+01    0.2669088    0.1401664 -39.67 0.0008873523    2.113    0.527
       156 -12.3248    230.8626    116.6602   7.9135336444e+01   1.2413798823e+01    0.7305228    0.1553245 -34.23  0.002229402    4.325    0.769
       157 -13.2112    244.8436    158.1798   8.5939965399e+01   4.7091892788e+00     1.849457    0.3707884 -34.01  0.006097335    5.081    0.803
       158 -12.7169    230.3784    103.4379   7.6016874930e+01   1.4216683900e+01     0.460519    0.2367274 -44.36  0.001917478    2.436    0.589
       159  -9.7247    205.6869    105.3205   8.0668289982e+01   1.9473737724e+01    0.1400729    0.1159625 -67.81 0.0007038451    1.652    0.395
       160 -10.4138    222.4303    104.7538   7.7637600109e+01   1.5796214564e+01    0.2653315    0.1278315 -32.43 0.0009874568    2.042    0.510
       161  -9.8442    195.4614     97.5020   8.0524969561e+01   2.2963473063e+01    0.1470103    0.1380319  15.20 9.406388e-05    1.031    0.030
       162 -11.3787    229.5588     95.2733   7.4103356001e+01   1.5451464456e+01    0.2640152    0.1267581 -31.11 0.0007825702    1.998    0.499
       163 -11.1456    225.1254     93.1275   7.4259608414e+01   1.6730406414e+01    0.1954856    0.1626523 -39.89 0.0006727562    1.328    0.247
       164  -9.6559    188.3300     92.6667   8.0584466957e+01   2.5360400012e+01    0.1494563    0.1186299 -69.97  0.000705205    1.723    0.420
       165 -11.1941    230.8607     90.8390   7.2770400550e+01   1.5728575866e+01    0.2544916    0.2264563   0.22 0.0007235257    1.028    0.028
       166 -11.4190    226.1348     87.8929   7.2746258217e+01   1.7183532483e+01    0.2182739    0.1901262 -39.56 0.0007206169    1.266    0.210
       167 -10.7129    203.5220    183.9556   9.7665200736e+01   9.2296322121e+00    0.2556578    0.1993544 -50.27  0.001403246    1.818    0.450
       168 -10.0380    206.0021     84.9619   7.5283466062e+01   2.2295775061e+01    0.1867047    0.1595901 -16.26 0.0008126856    1.142    0.125
       169 -10.6261    225.3133     81.6445   7.1233776892e+01   1.8183092201e+01    0.2610222    0.1597639 -36.36 0.0007624211    1.651    0.394
       170 -10.3205    159.0000     82.0032   8.3590083280e+01   3.3966655431e+01    0.2473106   0.08491059 -34.65  0.000802346    2.942    0.660
       171 -10.1968    215.2540     79.9779   7.2381125025e+01   2.0773220143e+01    0.2127378    0.1818649 -14.75 0.0007311953    1.127    0.113
       172 -10.9615    210.9316    182.4836   9.6139558469e+01   8.0815049833e+00     0.271119    0.1759054 -29.21  0.001392721    1.760    0.432
       173 -10.5027    183.5509    183.2785   1.0106223272e+02   1.2895731255e+01    0.2036313    0.1218082 -44.00  0.001123471    2.077    0.519
       174  -9.7911    174.5138     77.5175   7.9048088054e+01   3.1000138923e+01    0.1504195    0.1443349  15.15  0.000360451    1.027    0.027
       175 -10.2259    223.4580     76.0241   7.0017803958e+01   1.9343079751e+01    0.2219692    0.1373433 -23.91 0.0006119836    1.562    0.360
       176 -10.1489    211.4619     76.0635   7.1928410951e+01   2.2208025443e+01    0.2267102    0.1413425 -25.08 0.0009427242    1.573    0.364
       177 -10.5640    157.5701     75.7863   8.2079138239e+01   3.5331942562e+01    0.2158764    0.1380173 -43.85  0.000950075    1.663    0.399
       178 -11.1268    230.2050    180.5633   9.2580247486e+01   4.8819173188e+00    0.2959421    0.1634847 -22.86  0.001150839    1.982    0.495
       179 -10.7104    140.0000     73.9980   8.5541255429e+01   3.9682453049e+01    0.2460257   0.08344162 -36.52 0.0008013905    2.935    0.659
       180 -10.4653    163.4090     71.7271   7.9609860293e+01   3.4595011450e+01    0.2962894    0.1385847 -36.62  0.001133619    2.122    0.529
       181 -10.2141    221.9955     70.9901   6.8874265600e+01   2.0336182473e+01    0.1848566    0.1546882 -16.60 0.0006996049    1.145    0.126
       182  -9.7282    197.2971    182.6369   9.8520367474e+01   1.0509127321e+01    0.1138268   0.09721435  79.09 0.0006239029    1.716    0.417
       183  -9.8859    170.5008     70.4914   7.7774750222e+01   3.3064303719e+01    0.1514889    0.1447877  14.71 0.0005557123    1.016    0.016
       184 -10.3462    218.3576     68.2062   6.8661573006e+01   2.1569662559e+01    0.2131545    0.1244589 -35.17     0.000653    1.689    0.408
       185 -10.3814    203.3608     66.2183   7.0485740355e+01   2.5518371008e+01    0.2729906    0.1817157 -34.26   0.00124349    1.498    0.332
       186 -10.9571    146.0859     66.6947   8.1862256782e+01   3.9527518307e+01    0.2732771    0.2039332 -41.93  0.001325121    1.385    0.278
       187  -9.9531    176.6046    181.7983   1.0207021538e+02   1.4340764997e+01    0.1544164    0.1195624 -53.63 0.0009497005    1.687    0.407
       188 -10.4843    190.8834    179.5736   9.9126662172e+01   1.2061531384e+01    0.2204652     0.166837 -57.13  0.001276409    1.924    0.480
       189 -10.8681    219.0561    178.0934   9.3981726485e+01   7.1390369159e+00    0.2400283    0.1735439 -29.07  0.001311396    1.582    0.368
       190 -10.7216    157.6821     61.5241   7.7655903245e+01   3.7584070950e+01    0.2748082    0.1376357 -30.83  0.001078823    1.994    0.498
       191 -10.0100    171.3066     63.6729   7.5531967661e+01   3.3897769413e+01    0.1535535    0.1189857 -64.23 0.0004590584    1.652    0.395
       192 -10.2705    205.1464    177.1864   9.6197536847e+01   9.7674306676e+00    0.1583247    0.1474128  55.29 0.0007784247    1.355    0.262
       193 -10.1073    164.6825     59.3217   7.5496501110e+01   3.6193600613e+01    0.1538665    0.1193454 -65.70 0.0007042741    1.665    0.399
       194 -10.3964    206.7227     58.7624   6.7784363948e+01   2.5657748348e+01    0.2684363    0.1795455 -19.47  0.001234237    1.499    0.333
       195  -9.7180    169.4766     55.4877   7.3318160830e+01   3.5552593106e+01    0.1524822    0.1445891  16.32 0.0001608804    1.002    0.002
       196 -10.3202    163.2423     52.9724   7.3741412761e+01   3.7484160057e+01    0.2051692    0.1268149 -28.04 0.0008861371    1.614    0.380
       197 -10.1621    172.3965     50.2212   7.1066027128e+01   3.5549151288e+01    0.2065997     0.136698 -37.73 0.0002982427    1.550    0.355
       198 -10.2949    197.6859    177.0457   9.7479462419e+01   1.1148548602e+01    0.1759564     0.158124 -51.17  0.001161742    1.487    0.327
       199  -9.8896    162.6933     45.3349   7.1321274108e+01   3.8696092645e+01    0.1550615    0.1168085 -60.98 0.0007040752    1.671    0.401
       200 -10.1579    210.5050    175.9592   9.5050146202e+01   8.9404592723e+00    0.1707742      0.12177 -27.41  0.001025261    1.576    0.365
       201 -10.6875    101.0153    175.9941   1.1562293488e+02   2.7872621237e+01    0.1665415    0.1419708  61.65            0    1.024    0.023
       202 -10.9096    232.8688    174.6657   9.1062528202e+01   5.0553884979e+00    0.2476064    0.1858891 -16.93  0.001218405    1.394    0.283
       203 -11.5755    225.3775    173.4239   9.2065815421e+01   6.5370359872e+00    0.3095613    0.2797911 -26.25  0.001424391    1.403    0.287
