#   1 NUMBER                 Running object number                                     
#   2 MAG_AUTO               Kron-like elliptical aperture magnitude                    [mag]
#   3 X_IMAGE                Object position along x                                    [pixel]
#   4 Y_IMAGE                Object position along y                                    [pixel]
#   5 X_WORLD                Barycenter position along world x axis                     [deg]
#   6 Y_WORLD                Barycenter position along world y axis                     [deg]
#   7 A_WORLD                Profile RMS along major axis (world units)                 [deg]
#   8 B_WORLD                Profile RMS along minor axis (world units)                 [deg]
#   9 THETA_WORLD            Position angle (CCW/world-x)                               [deg]
#  10 FWHM_WORLD             FWHM assuming a gaussian core                              [deg]
#  11 ELONGATION             A_IMAGE/B_IMAGE                                           
#  12 ELLIPTICITY            1 - B_IMAGE/A_IMAGE                                       
         1 -13.3342    249.2308     50.2631   4.5950205441e-01   1.8349006391e+01      1.23811      0.28021 -42.64  0.005026592    3.027    0.670
         2 -16.4991    241.8389    112.6097   1.4347127425e+01   1.1464584320e+01     3.194855     1.279062 -36.60   0.01359246    2.023    0.506
         3 -15.9036    240.1250     63.0911   3.9846382268e+00   1.8410394102e+01     3.149003     1.822675 -85.80   0.01640138    2.439    0.590
         4 -12.9744     81.0512     38.7972   2.5906621592e+01   5.9991793884e+01    0.7052516    0.4533247 -43.53  0.003224551    1.678    0.404
         5 -12.6738     38.9587      8.8630   2.9572232435e+01   7.3645034067e+01    0.5572572    0.3396927   7.41  0.002544084    2.333    0.571
         6 -13.8431     44.6424     23.2798   3.5198844207e+01   7.0313108440e+01     1.084342    0.8698493 -22.20  0.006110838    1.269    0.212
         7 -13.2047    178.1457     23.3875   1.4721568215e-01   3.6808404225e+01    0.8626159     0.468799 -72.75  0.003289057    1.978    0.494
         8 -11.3646    248.3626     21.9916   3.5455839617e+02   2.1718163310e+01    0.4392363    0.2622727  14.02  0.001941293    4.566    0.781
         9 -10.1143    247.5583     16.2012   3.5338941843e+02   2.2477748853e+01    0.3215717   0.08112703 -44.40  0.001461845    2.538    0.606
        10 -11.6464    227.2881     15.9421   3.5443053180e+02   2.6469290986e+01    0.3949155     0.276175 -84.06  0.002098146    1.377    0.274
        11 -13.7536    154.9306      4.1965   3.5664290260e+02   4.4713932236e+01     1.994664    0.5250518  75.29  0.006721681    3.344    0.701
        12 -12.4320     20.6329     14.7765   4.7387515093e+01   7.5531708892e+01    0.4920149    0.2491788  -2.33  0.001822611    3.687    0.729
        13 -10.6895    231.2538      9.5795   3.5278770184e+02   2.6319247441e+01    0.2638731     0.178688 -50.85  0.001677968    1.143    0.125
        14 -13.9973    156.1186     11.5529   3.5887844137e+02   4.3703850863e+01     1.606883    0.5910276  72.78  0.006279481    2.431    0.589
        15 -13.8799      7.7457      4.7028   5.3480783914e+01   7.8806194345e+01     1.131925    0.4846621  33.95   0.00533905    2.492    0.599
        16 -12.3919     18.1791      3.2441   4.1653597905e+01   7.7895173959e+01    0.3495943    0.2467645 -52.69  0.002000366    1.807    0.447
        17 -10.7767    224.1384      5.0777   3.5213457527e+02   2.8223979659e+01    0.3259425    0.1016699 -51.93  0.001456012    2.496    0.599
        18 -12.0916    206.8341      4.0729   3.5280990180e+02   3.2053269413e+01    0.4391587    0.2475175  84.60  0.002409784    1.693    0.410
        19 -10.5659    192.3166      5.0117   3.5392941750e+02   3.5296329855e+01    0.1866194     0.148957 -49.96  0.001162261    1.138    0.121
        20 -10.6452     86.0236      3.3024   6.8384388272e+00   6.3312111864e+01    0.2113028    0.1699146  65.31  0.001173147    1.092    0.084
        21 -10.7288    217.5592      1.5188   3.5163913721e+02   2.9954896982e+01     0.227869    0.1071184  83.96  0.001184205    2.077    0.519
        22 -11.3659    220.8096    173.5911   2.9422807222e+01   6.0340724264e+00    0.3311871    0.2122915  10.50  0.001930115    1.621    0.383
        23 -11.7777    249.5000    165.8128   2.3608302628e+01   3.2382304418e+00    0.2878262    0.1669674 -27.37  0.001057693    1.401    0.286
        24 -13.1680    248.4733    157.0621   2.2156017671e+01   4.4968081761e+00    0.5517133    0.2824939 -29.17  0.003187781    1.607    0.378
        25 -11.2730    162.1114    151.8813   3.6456152948e+01   1.9139822582e+01    0.3004876    0.2680937 -26.67  0.001324623    1.126    0.112
        26 -11.5406    227.1061    146.3127   2.3224705728e+01   8.9994262664e+00    0.2935719    0.1448734 -34.81  0.001508267    1.765    0.433
        27  -9.9456    173.5062    144.0525   3.2362095483e+01   1.8478999882e+01    0.2091783    0.1344726 -39.15  0.000659879    1.541    0.351
        28 -12.4573    221.4087    135.3146   2.1884396528e+01   1.1507048408e+01    0.6795366    0.4005247 -19.57  0.003519481    1.792    0.442
        29 -11.4485     97.2449    249.2127   6.5570910463e+01   1.1422912057e+01    0.2635214    0.1483754  18.75  0.001461108    1.752    0.429
        30 -11.2728    207.4411    239.4905   4.2402095623e+01  -8.2114648620e-01    0.2229801    0.1283782  17.35  0.001458961    1.370    0.270
        31 -14.3458    247.4979    225.3555   3.3770670565e+01  -3.5480933596e+00     1.738737     0.646448 -35.86  0.009753495    2.722    0.633
        32 -11.7958    132.8648    120.0161   3.6357780674e+01   3.1419931931e+01    0.2884395     0.226493  41.35  0.001054203    1.239    0.193
        33 -10.3484    188.3755    116.8058   2.3352378646e+01   2.0431522261e+01    0.2041173    0.1251587 -26.82 0.0009456716    1.714    0.417
        34 -11.5159    147.8948    109.8546   3.0042502123e+01   3.0272946223e+01    0.5286218    0.2454165 -53.75   0.00183263    2.753    0.637
        35 -10.4804    112.8905    101.1440   3.7071057559e+01   3.9917744748e+01    0.2552393    0.2233545  83.14  0.001241746    1.275    0.216
        36  -9.9345     30.6766    101.6430   6.8242439362e+01   5.3470773852e+01      0.15774   0.09943894 -38.77 0.0007045172    1.769    0.435
        37 -10.7142     92.3405    100.3276   4.3478369309e+01   4.4446009723e+01     0.164466    0.1278196  -7.51 0.0007051504    1.736    0.424
        38 -12.8091     59.3849     97.0739   5.5148285443e+01   5.1140545014e+01    0.4762412    0.2750366  49.23  0.001959162    1.864    0.464
        39 -10.5867     12.5114     89.5058   7.4638382237e+01   5.8145295875e+01    0.1374366      0.12644 -80.41 0.0003806095    1.012    0.012
        40 -10.8205      2.9577     88.7127   7.8971557228e+01   5.8834817111e+01    0.1844402    0.1803446  60.32  0.001176403    1.107    0.097
        41 -11.1490     20.2836     88.0431   7.0790082065e+01   5.8015534182e+01    0.2107797    0.1786571 -73.68    0.0011805    1.104    0.094
        42 -10.1311    144.5941     80.6957   2.2757120713e+01   3.6707324180e+01     0.270591    0.1929283  80.28    0.0011818    1.759    0.432
        43 -10.2060     74.4794     69.4895   4.0811782539e+01   5.5289452417e+01    0.1539239    0.1495873  49.87 4.880927e-05    1.030    0.029
        44 -13.8112    234.5827     46.4805   8.0125871528e-01   2.1530984644e+01    0.8235551    0.5312363 -36.48   0.00330006    1.302    0.232
        45 -10.0614    178.9819     66.2147   1.2102005904e+01   3.0843183410e+01     0.192096    0.1151494  63.24 0.0008790629    1.730    0.422
        46 -11.2003    199.7667     63.4790   8.4571885161e+00   2.6503020850e+01    0.2532486    0.2138525 -23.76 0.0009006127    1.266    0.210
        47  -9.2313    132.3140     63.3239   2.0178528440e+01   4.2917173005e+01    0.1568657    0.1220013  21.83  0.000353047    1.662    0.398
        48 -11.1616    195.5259     56.7620   7.2668708480e+00   2.8399474679e+01     0.240912    0.1901107  70.26 0.0008933709    1.329    0.248
        49 -10.9571    164.3057     53.2424   1.0718777703e+01   3.6381169854e+01    0.3031016    0.2536364 -13.82  0.001126441    1.426    0.299
        50 -13.6686    246.9539     81.9238   7.3602429335e+00   1.4762056977e+01    0.8107243    0.5788466  73.41  0.005136004    1.796    0.443
        51 -12.7904    181.4895     40.6427   4.6536652973e+00   3.3880483710e+01    0.5441548    0.4045514 -88.05  0.002943598    1.338    0.253
        52 -12.3630    223.3284     41.2596   5.5078813721e-01   2.4409594997e+01    0.4138651    0.2920744  -5.55  0.002298201    2.018    0.504
        53 -11.6770    197.2457     42.9632   3.4731545255e+00   2.9861234306e+01    0.3262038    0.1916292 -19.14  0.001534892    2.101    0.524
        54 -13.7755    245.2245    178.9728   2.6563788717e+01   2.1089307754e+00     1.239514    0.5723686 -39.50  0.006782006    2.227    0.551
        55 -10.4735    175.6595     39.7446   5.1253369689e+00   3.5426868168e+01    0.2397854    0.1967165  85.52  0.001005305    1.171    0.146
        56 -12.4153     97.1145     36.6296   1.9541948685e+01   5.6393241627e+01    0.3549289     0.306264 -23.28  0.001343817    1.282    0.220
        57 -11.8953    228.2440     33.6709   3.5840518315e+02   2.4311039488e+01    0.3453737    0.1858825 -20.86  0.001273735    2.186    0.543
        58 -11.8504    243.7346     33.2572   3.5722634554e+02   2.1341251699e+01    0.3945305     0.261916  83.52  0.001862841    1.657    0.396
        59 -12.4065    236.2949     29.1998   3.5683438617e+02   2.3222874913e+01    0.4513237    0.2615293  89.16  0.002349028    1.876    0.467
        60 -11.2299    241.1502     25.5385   3.5572737801e+02   2.2691128985e+01    0.2645689    0.1708406 -58.87   0.00118135    1.301    0.231
        61 -13.4409    242.4557    198.9792   3.0380495759e+01  -1.4893129219e-02     0.694269    0.4170797 -36.14  0.004527051    1.779    0.438
        62 -13.6163    245.1825    193.0235   2.8976391958e+01   3.8474195273e-01    0.6369426    0.5459127 -38.83  0.003715685    1.790    0.441
        63 -10.5956      2.2522     40.9871   7.2655101138e+01   7.1091001651e+01    0.1756904    0.1014866 -71.16 0.0008942269    1.597    0.374
        64 -11.6998    150.7732    218.2552   5.0383234175e+01   9.2956227245e+00    0.3002007    0.2773713 -43.03  0.002068731    1.420    0.296
        65 -11.5809    169.0843     26.6417   2.0871932149e+00   3.8706931628e+01    0.2483885    0.1769325 -49.07 0.0009697947    1.308    0.235
        66 -13.0321    156.6320    224.2793   4.9985859840e+01   7.5543924155e+00    0.5901042    0.3878319  28.11  0.003063074    1.226    0.184
        67 -13.9324    203.5029    218.9658   4.0086238760e+01   2.1689637652e+00     1.194484    0.7798964  22.32  0.007319187    1.277    0.217
        68 -11.1039    224.1308     22.3106   3.5608509796e+02   2.6436358513e+01    0.3303224    0.2018657 -60.13  0.001622229    1.414    0.293
        69 -10.5363    128.5072     18.2359   4.8985022425e+00   5.0409941490e+01    0.2860061    0.1860858  70.46  0.001118431    1.382    0.276
        70 -11.0080    125.1693    227.1823   5.7144110689e+01   1.1394906151e+01    0.1778612    0.1307936  44.02  0.001087762    1.348    0.258
        71 -13.4253    184.2737    216.2329   4.3257144861e+01   5.0081032470e+00    0.5823144    0.4283209  20.72  0.003832296    1.128    0.113
        72 -12.6097    175.1109    217.9342   4.5310410873e+01   5.9911123064e+00    0.3655977    0.1809662  29.22   0.00193333    1.693    0.409
        73 -13.2454    174.7537    207.9960   4.3865295043e+01   7.5128907276e+00    0.7049724     0.571515  -5.97  0.004642282    1.146    0.127
        74 -11.0709    136.8196    217.9504   5.3381332776e+01   1.1311707371e+01     0.216082    0.1849519  69.28  0.001363756    1.635    0.388
        75 -12.2790    153.0356    204.1747   4.7830082077e+01   1.1263146194e+01    0.7353783    0.3938047  40.83  0.003671995    1.789    0.441
        76 -11.7924    137.9831    205.2221   5.1341220734e+01   1.3322193032e+01    0.5383123    0.3423225  30.08   0.00292029    1.318    0.241
        77 -12.3735    202.4382    195.9341   3.6569519220e+01   5.4282674804e+00    0.3717936    0.2147668 -33.99   0.00149674    1.709    0.415
        78 -10.8782    189.0136    180.7766   3.6447902949e+01   9.6301686031e+00    0.2949593    0.1800431 -36.15  0.001128747    1.642    0.391
        79 -12.5853    195.8554    184.8006   3.5861300695e+01   7.9880825712e+00    0.4258635      0.31516 -46.02  0.002543511    1.713    0.416
        80 -12.2213    190.8640    185.7088   3.6970176675e+01   8.5862037743e+00    0.3585577    0.2509428   8.37  0.002090144    1.374    0.272
