#   1 NUMBER                 Running object number                                     
#   2 MAG_AUTO               Kron-like elliptical aperture magnitude                    [mag]
#   3 X_IMAGE                Object position along x                                    [pixel]
#   4 Y_IMAGE                Object position along y                                    [pixel]
#   5 X_WORLD                Barycenter position along world x axis                     [deg]
#   6 Y_WORLD                Barycenter position along world y axis                     [deg]
#   7 A_WORLD                Profile RMS along major axis (world units)                 [deg]
#   8 B_WORLD                Profile RMS along minor axis (world units)                 [deg]
#   9 THETA_WORLD            Position angle (CCW/world-x)                               [deg]
#  10 FWHM_WORLD             FWHM assuming a gaussian core                              [deg]
#  11 ELONGATION             A_IMAGE/B_IMAGE                                           
#  12 ELLIPTICITY            1 - B_IMAGE/A_IMAGE                                       
         1 -14.4877    151.1565     57.5677   8.6723343149e+01   4.0376715762e+01     1.275785     1.127467   9.46 0.0009504824    1.255    0.203
         2 -14.9328    162.6703     42.8617   7.9606055205e+01   3.9696228658e+01     1.361192     1.112141 -11.24  0.003461107    1.376    0.273
         3 -14.6907    175.9124     10.1137   6.7067709231e+01   4.0192922664e+01     1.286253     1.043344  64.55  0.004398663    1.152    0.132
         4 -11.8805    189.9435     14.7784   6.6734591277e+01   3.6073079416e+01    0.3918434    0.2518744 -10.00  0.001746354    1.972    0.493
         5 -13.7187    194.6353      5.4603   6.3525629975e+01   3.5821199139e+01      0.92491    0.5154119 -70.18  0.004218916    2.001    0.500
         6 -12.5542    125.0962    242.9776   1.3133984959e+02   9.6153267229e+00     0.361107    0.1563354 -55.47  0.001614119    2.834    0.647
         7 -20.0690     76.1592    174.1633   1.3294617794e+02   3.0122972901e+01     16.92707     6.789855 -67.16   0.07345421    2.460    0.593
         8 -11.0655    120.9858    183.7566   1.2452173852e+02   2.0892323657e+01    0.3098299    0.1984368  77.88  0.000912915    2.033    0.508
         9 -11.1077    117.1717    180.8028   1.2488672819e+02   2.2159374566e+01    0.2903811    0.2125427  80.42 0.0008077393    1.495    0.331
        10 -11.1911     21.7034    239.4995   1.4864687646e+02   2.3969443447e+01      0.12761   0.08349369 -87.94 0.0005415712    1.355    0.262
        11 -13.8676    195.6801    169.5694   1.0648321523e+02   9.2760948362e+00    0.8772638    0.4853526 -51.66 0.0008715204    2.263    0.558
        12 -12.3003    149.5737    173.8006   1.1672619770e+02   1.7604184286e+01    0.2723917    0.2370479  69.22 0.0007064062    1.162    0.140
        13 -14.1618    143.7909    168.3051   1.1696575966e+02   1.9813488218e+01    0.7153589    0.5206268  80.03  0.002521549    1.746    0.427
        14 -12.7719    193.6018    164.7584   1.0590834379e+02   1.0523558985e+01    0.3921983    0.3516869  15.03  0.001429212    1.103    0.094
        15 -12.3602    126.1753    171.9212   1.2147762452e+02   2.2389307817e+01     0.348772    0.2720035 -55.62  0.001293835    1.351    0.260
        16 -10.7816     16.3774    249.9250   1.4994062918e+02   2.2760703599e+01    0.1301757   0.07247397  88.15  0.000962962    1.482    0.325
        17 -12.1037    165.3047    171.8169   1.1304086644e+02   1.4909116122e+01    0.2989698    0.2139588  69.03  0.001455723    1.748    0.428
        18 -11.3277     26.1362    173.6963   1.4369533942e+02   3.6316881931e+01     0.206134    0.1595833 -80.03 0.0002502557    1.201    0.167
        19 -11.2205    131.2308    236.8011   1.2955758002e+02   9.6186360349e+00    0.1890073     0.141975 -66.29 0.0005093319    1.601    0.375
        20 -12.0851    230.0840    166.7032   9.9552673726e+01   3.1010677639e+00     0.304741    0.1833633 -47.17  0.001474468    2.009    0.502
        21 -12.3378    122.0344    165.5992   1.2131221633e+02   2.4474642965e+01    0.5975763     0.236076  55.27  0.001269905    3.233    0.691
        22 -10.7322      7.5859    237.4437   1.5076739628e+02   2.5772041159e+01    0.1045859   0.06430584  69.69  0.000270623    1.090    0.083
        23 -12.8813    160.2494    161.9421   1.1217990656e+02   1.7819892939e+01    0.3206375    0.2901922  67.68  0.001802269    1.126    0.112
        24 -11.4655    138.9523    250.2912   1.2970550422e+02   6.3675906387e+00    0.2274822    0.1566127  36.65  0.001501385    1.345    0.257
        25 -14.5761    138.5192    171.2893   1.1865763291e+02   2.0219756374e+01     1.099929    0.7711786  47.29  0.005679741    1.330    0.248
        26 -10.7711     17.9434    156.6275   1.4401933351e+02   4.0813785972e+01    0.3650709    0.1797045  86.52  0.001969064    1.846    0.458
        27 -13.7300    162.3783    154.4491   1.1019011771e+02   1.8862937049e+01    0.6320266    0.4690605 -79.25  0.002422299    1.824    0.452
        28 -10.6936     22.9722    156.0984   1.4285135971e+02   4.0470540657e+01    0.1778767    0.1377828  87.42 0.0004068354    1.017    0.017
        29 -10.8315     30.2484    232.7455   1.4691574358e+02   2.4228533940e+01    0.1737031   0.09660853  54.18 0.0007996826    1.375    0.273
        30  -9.8834      6.5168    155.5518   1.4643803347e+02   4.2015166126e+01    0.1140616   0.08600581 -87.27 0.0001429254    1.071    0.066
        31  -9.7599     13.5466    233.4927   1.4966144720e+02   2.5867705495e+01    0.1001844   0.07346176  75.31 8.003029e-05    1.140    0.123
        32 -10.1371    150.9396    242.9893   1.2676090874e+02   5.5339225693e+00    0.1591075    0.1283948  16.04 0.0005116278    1.549    0.355
        33 -10.4530    133.5215    229.5415   1.2828262230e+02   1.0412353818e+01    0.1594878    0.1142799 -78.93 4.058761e-05    1.738    0.425
        34 -10.5324     26.1562    228.3264   1.4735084033e+02   2.5470620141e+01     0.089071   0.06069403 -77.27 0.0002208614    1.497    0.332
        35 -12.4391    174.1734    148.5524   1.0641157083e+02   1.7541734820e+01    0.3552651    0.3343484 -73.09  0.001254761    1.141    0.123
        36 -10.1274     16.7918    226.2114   1.4879105130e+02   2.6840373648e+01   0.09429905   0.05237384  68.04 0.0002512961    1.313    0.238
        37 -11.4104    172.9733    139.2948   1.0459143291e+02   1.9606974117e+01    0.2162039    0.1953516  49.16  0.001150088    1.093    0.085
        38 -11.3072      8.6337    137.7025   1.4448633906e+02   4.5794345865e+01    0.2362571    0.2040502 -28.51  0.001251849    1.662    0.398
        39 -11.9405     22.4510    220.9907   1.4757182043e+02   2.7210628890e+01    0.1911415    0.1237387 -71.98 0.0009336097    1.626    0.385
        40 -13.0313    160.5257    128.0362   1.0466402588e+02   2.4611253824e+01    0.4966276    0.3834506 -66.87  0.002151737    1.498    0.333
        41 -11.8817    140.2865    120.6065   1.0756076346e+02   3.0607648474e+01    0.3269885    0.2472891  89.68  0.000658809    1.711    0.416
        42 -11.5322     23.5308    215.3512   1.4706766909e+02   2.8153764204e+01    0.1468623    0.1125428 -88.86 0.0006654111    1.256    0.204
        43 -11.0709    167.5210    112.6869   9.9272328491e+01   2.6131132776e+01    0.3202444    0.2414439  87.39  0.001239024    1.768    0.434
        44 -10.8740    130.3222    212.6325   1.2674337782e+02   1.3809863209e+01    0.2325564    0.1570778 -88.66 0.0007943132    1.946    0.486
        45 -10.7977    205.3055    110.2507   9.1069337977e+01   1.7761066613e+01     0.312369    0.2079173  45.89  0.000964747    1.557    0.358
        46 -13.1658     11.3577    206.0341   1.4867846939e+02   3.1164145599e+01    0.3627021     0.243305  37.24  0.002170122    1.780    0.438
        47 -14.2111    154.1740    185.9814   1.1791011632e+02   1.4406147909e+01     1.126605    0.4375089 -51.05  0.004438359    2.916    0.657
        48 -10.8343     12.6502    100.9196   1.3927667606e+02   5.3856131570e+01    0.2464688    0.1489342  41.76  0.001492289    1.934    0.483
        49 -13.2759    162.8425    201.5721   1.1874995454e+02   1.0034286325e+01    0.7585903    0.4594058 -67.59  0.002421159    2.583    0.613
        50 -12.3214    156.5016    199.5005   1.1966966496e+02   1.1540510128e+01    0.4658538    0.3217742  69.71  0.002423396    1.832    0.454
        51 -11.6099    153.7870    194.9748   1.1948591080e+02   1.2836696482e+01    0.3485088    0.2517066  81.68  0.001272081    1.887    0.470
        52 -11.3745    139.6539    200.4295   1.2317860324e+02   1.4393332441e+01    0.3160478    0.2189493  43.30 0.0007610337    1.290    0.225
        53 -10.8834    143.9932     80.5310   9.5623207878e+01   3.8029199827e+01    0.2423539    0.2080843 -40.82 0.0004781607    1.147    0.128
        54  99.0000     12.9648    242.7697   1.5015848870e+02   2.4317127339e+01    0.2452483   0.09662546 -60.86  0.001378857    3.524    0.716
        55 -10.8288    145.9936    189.3347   1.2015535962e+02   1.5301611819e+01    0.2256397     0.189516  -8.12 0.0008214991    1.599    0.375
        56 -13.1210    166.4025     34.6517   7.6277886191e+01   3.9849412085e+01    0.4491987    0.4126152  18.60 0.0009053285    1.190    0.159
        57 -11.0434     13.5198     59.9730   1.3160867277e+02   6.2892672591e+01    0.1799315    0.1579148  62.96 0.0004439312    1.445    0.308
        58 -10.4719    144.6992     34.0625   8.0118454386e+01   4.5485681335e+01     0.238594     0.193529  75.64 0.0002736715    1.306    0.234
        59 -11.0016    138.4892    243.7865   1.2905896424e+02   7.3959139398e+00     0.221693    0.1888542 -80.56  0.001087849    1.404    0.288
        60 -10.8340    133.9129    245.3092   1.3003739787e+02   7.8865487457e+00    0.1434046    0.1290111  58.64 0.0004302593    1.174    0.148
