#   1 NUMBER                 Running object number                                     
#   2 MAG_AUTO               Kron-like elliptical aperture magnitude                    [mag]
#   3 X_IMAGE                Object position along x                                    [pixel]
#   4 Y_IMAGE                Object position along y                                    [pixel]
#   5 X_WORLD                Barycenter position along world x axis                     [deg]
#   6 Y_WORLD                Barycenter position along world y axis                     [deg]
#   7 A_WORLD                Profile RMS along major axis (world units)                 [deg]
#   8 B_WORLD                Profile RMS along minor axis (world units)                 [deg]
#   9 THETA_WORLD            Position angle (CCW/world-x)                               [deg]
#  10 FWHM_WORLD             FWHM assuming a gaussian core                              [deg]
#  11 ELONGATION             A_IMAGE/B_IMAGE                                           
#  12 ELLIPTICITY            1 - B_IMAGE/A_IMAGE                                       
         1 -12.2015    220.5115     34.0572   2.6681965258e+01   2.5830787116e+01    0.8392907    0.6878181  35.87  0.004951742    1.576    0.365
         2 -11.7781    246.6456      9.6406   1.8947419358e+01   2.2955948544e+01     0.822011    0.5672758 -44.20  0.005270028    1.304    0.233
         3 -10.2500    108.6733    218.2869   9.0700040181e+01   1.4596162451e+01    0.3741156    0.1426782  34.36  0.001527396    2.464    0.594
         4 -11.6862     72.5536    245.7465   1.0093464527e+02   1.4641485535e+01    0.8129978    0.5292273 -73.41  0.005243606    1.714    0.417
         5 -14.4372      5.6626    135.9980   1.0656396602e+02   4.5530092872e+01     10.66383     1.753883 -78.75   0.02626311    7.739    0.871
         6 -10.0750    114.4649    216.0070   8.9145009035e+01   1.4129109242e+01    0.2531558    0.1633479 -38.20  0.001298509    2.062    0.515
         7 -10.0312    127.2778    212.2079   8.5807777006e+01   1.2791119777e+01    0.3254039    0.1889104 -65.05  0.001558691    2.240    0.554
         8  -9.4637     93.9913    236.5488   9.5850996876e+01   1.3357392744e+01     0.183808    0.1532661 -81.64   0.00123613    1.338    0.253
         9 -11.7868    114.7585    228.1515   9.0612694764e+01   1.1801013515e+01    0.5971233    0.3575163 -68.13  0.003166925    2.120    0.528
        10 -13.7838      8.8410    207.7112   1.1077694654e+02   2.9238827125e+01      1.06349    0.9587266  60.51  0.004299481    1.299    0.230
        11 -11.4665    127.7776    229.9346   8.8098923354e+01   9.4527918806e+00    0.4268642    0.3484249 -20.19  0.002560152    1.588    0.370
        12  -8.2516     99.4752    180.5464   8.7616071266e+01   2.3958497682e+01    0.1412742     0.128372  60.92 0.0003029308    1.020    0.019
        13  -8.7313    114.6519    173.3016   8.2665814085e+01   2.3037321795e+01    0.1525081    0.1082191  67.25 0.0004495896    1.690    0.408
        14 -12.4591     45.4602    184.7153   1.0122170673e+02   3.0486104234e+01    0.8836107    0.7670252  69.07  0.003819603    1.063    0.059
        15 -10.2401     61.5704    170.7476   9.5736965446e+01   3.1756857852e+01    0.3893635    0.2819939 -27.67  0.001664342    2.000    0.500
        16 -10.2397     66.6942    165.8617   9.3779222759e+01   3.2240307450e+01    0.3654897    0.2605548 -34.71  0.000816225    1.848    0.459
        17  -8.3677     83.3184    170.3260   9.0132383858e+01   2.8822569575e+01    0.1380574    0.1091987 -25.74 0.0007045742    1.677    0.404
        18  -8.9744     47.2255    168.2198   9.9052878058e+01   3.4100494945e+01    0.2457969    0.1773135  69.92 0.0005670805    1.331    0.249
        19  -9.4056     95.7066    167.6831   8.6530484433e+01   2.7510510250e+01    0.3073387    0.1464289  53.74  0.001174116    2.480    0.597
        20  -8.0562    110.4745    167.4573   8.2699419494e+01   2.5085394156e+01    0.1478382    0.1351381  63.60 5.418462e-05    1.072    0.067
        21 -11.1376     76.2650    157.0364   8.9944735125e+01   3.3023291990e+01     0.609219    0.3731601  70.73 0.0009636045    2.105    0.525
        22 -10.2367     32.5634    156.7852   1.0152743098e+02   3.8378360509e+01    0.4709556    0.1993869 -75.75  0.001380281    2.189    0.543
        23  -9.9472     22.2842    156.0024   1.0408269925e+02   3.9517522883e+01    0.2405421    0.1419628  58.28  0.001312778    1.686    0.407
        24 -11.6701     63.5802    153.0833   9.2781415764e+01   3.5731463230e+01    0.4949304    0.3776695 -26.33 0.0008896272    1.730    0.422
        25 -11.6068     69.8727    144.9738   8.9753843845e+01   3.6866406750e+01    0.7547744    0.4666858  59.70  0.003147811    1.874    0.466
        26 -10.3372     83.6791    151.5920   8.7025265276e+01   3.3234552346e+01     0.488571    0.3666691 -29.36  0.001535644    1.690    0.408
        27  -9.0939    134.4787    150.0165   7.3139091877e+01   2.4587344925e+01    0.4385728    0.1477299 -46.52  0.001404172    3.039    0.671
        28 -12.6744      6.0971    185.6647   1.1010605290e+02   3.4138261553e+01     1.399152    0.7092988  74.35  0.007888515    1.760    0.432
        29  -8.9047     31.0645    142.9566   1.0036437434e+02   4.1854104341e+01    0.2330022    0.1867415  -6.15  0.001391488    1.659    0.397
        30  -9.5914     99.1783    137.9563   8.0099435221e+01   3.3999296111e+01    0.5651147    0.3517307 -24.93  0.002214564    2.511    0.602
        31 -10.6416     86.0877    137.0409   8.3665789474e+01   3.6399127053e+01    0.3088475     0.276782 -39.90 0.0004916226    1.172    0.147
        32 -10.6671     58.4942    130.9577   9.0693344415e+01   4.1827200163e+01     0.518488    0.2434744 -70.70  0.002098782    2.271    0.560
        33  -8.4143    109.3168    129.3184   7.5340297756e+01   3.4231037416e+01    0.2444136    0.2181195   0.58 0.0007120114    1.255    0.203
        34 -13.9208     34.4591    192.7720   1.0444501186e+02   2.9904136332e+01      3.04638     1.242878  67.30  0.007502994    2.969    0.663
        35  -8.5694     96.9892    124.5190   7.7824579712e+01   3.7612544816e+01    0.2776714      0.20271 -34.37 0.0008569012    1.518    0.341
        36  -8.0874    162.3533    119.6770   5.9105996928e+01   2.5261639505e+01     0.161356    0.1269466 -87.82  0.000704725    1.757    0.431
        37  -8.9133    105.8858    131.1300   7.6724907911e+01   3.4436834941e+01    0.3604642    0.2913965 -58.59  0.001792755    1.249    0.200
        38  -8.1878    106.2697    118.3501   7.3635727607e+01   3.7388241232e+01    0.2049141    0.1414577  46.93 0.0004452137    1.501    0.334
        39  -8.8597    231.0194    114.0274   4.4276208978e+01   1.1436752324e+01    0.2169356    0.1959132 -23.39  0.001167368    1.039    0.037
        40  -7.8198    158.5223    114.5770   5.8702812838e+01   2.7175792524e+01    0.1554495    0.1517865  82.93 0.0001601382    1.087    0.080
        41 -12.5491     54.6280    232.3176   1.0336200281e+02   1.9411286898e+01    0.7830381    0.5864475  69.20  0.000706246    1.123    0.110
        42  -8.9136    115.0000    108.4344   6.8564919177e+01   3.7968394639e+01    0.3535376   0.08810243 -47.39 0.0009411713    3.987    0.749
        43 -15.6017      9.5672    240.4858   1.1218793498e+02   2.2808173961e+01     4.642122     2.196917  24.12   0.02562567    3.071    0.674
        44 -11.0403     13.2904     60.5489   9.2739148366e+01   6.2742508887e+01    0.4346797    0.1538583 -56.09  0.002004415    2.079    0.519
        45 -10.7257    197.7541     51.3400   3.3904368728e+01   2.8901983287e+01    0.3674948    0.3077796  53.14  0.001034558    1.250    0.200
        46 -11.8978    207.6819     44.9794   3.0890954850e+01   2.7401054599e+01    0.9211255    0.7468935  49.58  0.003870527    1.364    0.267
        47 -10.5880     83.4401    245.1693   9.8774481335e+01   1.3285433008e+01    0.3177074    0.1981673 -48.60  0.001874945    2.198    0.545
