#   1 NUMBER                 Running object number                                     
#   2 MAG_AUTO               Kron-like elliptical aperture magnitude                    [mag]
#   3 X_IMAGE                Object position along x                                    [pixel]
#   4 Y_IMAGE                Object position along y                                    [pixel]
#   5 X_WORLD                Barycenter position along world x axis                     [deg]
#   6 Y_WORLD                Barycenter position along world y axis                     [deg]
#   7 A_WORLD                Profile RMS along major axis (world units)                 [deg]
#   8 B_WORLD                Profile RMS along minor axis (world units)                 [deg]
#   9 THETA_WORLD            Position angle (CCW/world-x)                               [deg]
#  10 FWHM_WORLD             FWHM assuming a gaussian core                              [deg]
#  11 ELONGATION             A_IMAGE/B_IMAGE                                           
#  12 ELLIPTICITY            1 - B_IMAGE/A_IMAGE                                       
         1 -13.4379    204.4648     31.9516   3.3146022444e+01   3.1010253556e+01    0.6641604    0.4121198 -18.09  0.001605451    2.671    0.626
         2 -13.1991    203.2325     20.0515   3.0741774610e+01   3.2660785027e+01    0.8653257    0.5204785  47.01  0.004830445    2.335    0.572
         3 -14.1840    212.8631     24.8326   3.0874315725e+01   3.0112232968e+01     1.065982    0.4001742 -33.84  0.005016569    2.846    0.649
         4 -18.1819    241.5193     45.0619   3.2346296822e+01   2.1970039251e+01     7.781636     5.289422 -37.25   0.03416597    1.577    0.366
         5 -15.2330    231.1096     31.6299   3.0669660164e+01   2.5657236548e+01    0.8738914    0.6236863 -38.19  0.004582408    1.534    0.348
         6 -14.2216    249.3141      4.1931   2.4489275224e+01   2.5390443343e+01    0.6028486    0.3255331 -38.37  0.003551093    1.870    0.465
         7 -13.5462    134.5877     20.7009   3.9303783095e+01   4.8012769664e+01    0.6543534    0.2522449 -24.06  0.002660095    3.387    0.705
         8 -10.9717    215.9201      9.3405   2.7538059880e+01   3.1208972542e+01    0.1755789    0.1432795 -62.10  0.000506096    1.188    0.158
         9 -12.5061    119.0823      7.1460   3.7814579139e+01   5.2826629407e+01    0.3429242    0.1832259 -14.96  0.001769876    2.524    0.604
        10 -11.9836    128.6901      6.9622   3.6214658074e+01   5.0648201180e+01    0.1694918    0.1507723  77.89 0.0007063628    1.083    0.077
        11 -12.0364    141.5016      7.7998   3.4609472470e+01   4.7638292785e+01      0.24908    0.1513806  70.72  0.001424885    1.367    0.269
        12 -11.0023    158.8465      2.6722   3.1154199782e+01   4.4135482362e+01    0.2258987    0.1727184  27.16 0.0005725004    1.840    0.456
        13 -15.3238    237.0898     81.2544   3.9793842606e+01   1.7597420269e+01     1.455997    0.7877107 -51.71   0.00333706    1.572    0.364
        14 -11.8928    232.8031    186.3779   6.1098597832e+01   3.0608217564e-01    0.2664446    0.1909136  57.89  0.001459958    2.262    0.558
        15 -14.0574     46.8354    151.5369   1.0015040321e+02   3.8714601308e+01    0.8655875     0.721036 -72.48  0.002515148    1.129    0.114
        16 -13.9008     53.4326    148.8158   9.7662098329e+01   3.8627595002e+01    0.8381084    0.6486092 -71.08  0.001795311    1.250    0.200
        17 -12.5754    192.1885    152.8539   6.1865898727e+01   1.3111545771e+01    0.4659296    0.1993807 -52.89  0.001686953    2.752    0.637
        18 -11.5725    133.4313    144.1965   7.3286851050e+01   2.6385339006e+01     1.125432     0.275982 -55.08  0.002210508    7.829    0.872
        19 -13.6737     67.4278    143.1827   9.2254080050e+01   3.8216401989e+01     1.021832    0.7554091 -83.10  0.003589619    1.565    0.361
        20 -12.4635    173.0578    145.1671   6.4126781212e+01   1.8311931570e+01    0.3541215    0.2111744 -48.96  0.001553126    1.635    0.388
        21 -11.6077    135.8356    128.6144   6.9003748615e+01   2.9472396944e+01    0.7007936    0.1085025 -46.69  0.001494709    6.321    0.842
        22 -11.2265    135.0986    120.6128   6.7222322128e+01   3.1406199778e+01    0.4610459    0.1821513 -47.10  0.001490052    2.511    0.602
        23 -13.5919    222.5773    129.1198   5.1506026197e+01   1.2156706814e+01    0.5699105    0.3810485  65.87   0.00296496    1.989    0.497
        24 -12.5923    217.5511    121.7514   5.0758423894e+01   1.4390366988e+01    0.3354342    0.2373746 -58.67   0.00102817    1.435    0.303
        25 -12.6000    214.1281    127.2753   5.2470830581e+01   1.4010878083e+01    0.2909501    0.2346048 -17.04  0.001284077    1.452    0.311
        26 -12.4591    160.8251    128.6319   6.3020805275e+01   2.4277870784e+01    0.4306696    0.3384673 -55.73  0.001805717    1.293    0.227
        27 -12.6402    227.6431    122.2465   4.9323672082e+01   1.2489753606e+01    0.3397301    0.2602702  46.90   0.00137091    1.542    0.352
        28 -13.3959    230.0630    117.6776   4.8039511702e+01   1.2862968002e+01    0.4472794    0.4024349 -57.22  0.002905934    1.084    0.078
        29 -12.9011    167.4869    115.2237   5.8376285957e+01   2.5643862228e+01    0.4852543    0.3976445  -9.79  0.002218843    1.533    0.348
        30 -11.4540    134.4765     99.0601   6.1790210891e+01   3.6089905198e+01     0.306628     0.252267  87.97 0.0008455245    1.459    0.314
        31 -11.5893    135.0000    111.4983   6.4932718089e+01   3.3400452257e+01     0.662704    0.1955175 -41.79  0.001936537    3.547    0.718
        32 -12.0260    134.5012    104.5190   6.3236984423e+01   3.4971828319e+01    0.7052915    0.3015604 -50.51  0.002482438    2.554    0.609
        33 -12.0910    162.9386    120.5392   6.0626098989e+01   2.5527054495e+01    0.2991434    0.2066538 -60.07 0.0008428909    1.611    0.379
        34 -12.5552    127.2945    105.1261   6.5248502964e+01   3.6399701548e+01    0.5594147    0.3856079 -82.63  0.002254355    2.352    0.575
        35 -14.8321    193.9545     81.7099   4.5603137602e+01   2.6105686364e+01     1.936682    0.8251776  41.05   0.00676978    3.998    0.750
        36 -10.1970    141.6884    106.6717   6.2032475801e+01   3.2964094443e+01    0.1535415    0.1222932   1.09 0.0006118177    1.666    0.400
        37 -11.4941    148.2580    103.4780   5.9661650841e+01   3.2171970116e+01    0.3068682    0.2726626  30.07 0.0007725237    1.228    0.186
        38 -13.1159    159.2353     98.7469   5.6036505242e+01   3.0671485861e+01    0.6940593    0.4368415  37.70  0.003079145    1.868    0.465
        39 -13.3100    197.0581     97.1423   4.8647512201e+01   2.2811177293e+01    0.5673627    0.2696422 -44.51  0.001624904    1.916    0.478
        40 -14.7026      7.5255    169.7838   1.1377798382e+02   3.7757485640e+01    0.9446496    0.7606704 -83.83  0.003847243    1.057    0.054
        41 -13.8411    172.4948     91.6682   5.1629187317e+01   2.9051481257e+01    0.9674521    0.5475333  45.56  0.004308442    1.932    0.482
        42 -11.7366    141.8545     93.7621   5.8591435681e+01   3.5499345932e+01    0.3168611    0.2888426 -87.43 0.0007456554    1.149    0.130
        43 -10.8546    113.5057     95.0541   6.6246364527e+01   4.1421461862e+01     0.222078    0.1489248 -43.16 0.0004384534    1.510    0.338
        44  -9.9128    131.5135     92.5343   6.0755827676e+01   3.8034977401e+01    0.1489836    0.1441509  81.52 0.0002647445    1.041    0.040
        45 -12.8281    156.6776     89.7923   5.4275905775e+01   3.2920031958e+01    0.3311423    0.2765346 -36.95  0.001026967    1.245    0.197
        46 -12.4970    199.7966     87.9709   4.6139652135e+01   2.3826548867e+01    0.4067957    0.2647766 -64.19  0.001464271    1.652    0.395
        47 -15.9995    206.5332    109.7481   4.9931118518e+01   1.8649817117e+01     2.750078      1.67117  28.79   0.01022804    2.804    0.643
        48 -12.6429    130.1679     65.9353   5.3517223560e+01   4.3097657179e+01    0.3436943    0.3179488  43.79  0.001062309    1.082    0.076
        49  -9.5326     47.6874    172.6765   1.0298494389e+02   3.3104919423e+01    0.1462697    0.1033783 -36.91 0.0007040072    1.658    0.397
        50 -11.4867    218.9794    171.2643   6.0614878181e+01   5.0314633143e+00    0.1815827    0.1666464  -9.06 0.0005076939    1.111    0.100
        51 -12.2484    175.9190     51.7286   4.1169710285e+01   3.4690427072e+01    0.5162055    0.2505485 -40.08  0.002392008    2.034    0.508
        52 -13.5734     39.3664    155.3645   1.0300481135e+02   3.8554264265e+01    0.5605112    0.4093938  -0.52  0.001341352    1.734    0.423
        53 -11.9583    191.5455     42.3658   3.6867829854e+01   3.2473986284e+01       0.2981     0.190881 -49.78  0.000690583    1.464    0.317
        54 -10.2505    187.1646     43.8586   3.7753140847e+01   3.3241942304e+01     0.156204    0.1533213  41.46 0.0007633394    1.319    0.242
        55 -12.9204    118.6195     40.1308   4.8299788811e+01   4.9479449117e+01    0.5680031    0.2349219 -35.32  0.002405692    2.606    0.616
        56 -11.4136    190.0393     35.6264   3.5507362509e+01   3.3662835401e+01    0.2246558    0.1655593 -44.75 0.0006219691    1.367    0.269
        57 -11.6794    158.4646     26.8836   3.7384450882e+01   4.1824216624e+01    0.3839383    0.2415762  64.26  0.002138527    1.401    0.286
        58  -9.6224    190.3041     27.2771   3.3585862003e+01   3.4609698826e+01    0.1120604   0.08939055  49.89 0.0002603624    1.546    0.353
        59 -12.4821    192.3803    194.2007   7.0139500666e+01   4.9139180038e+00    0.9723071    0.4730132 -62.22  0.002758414    6.135    0.837
        60 -11.1193    144.1332     20.2761   3.7682908548e+01   4.5845556021e+01     0.187922    0.1748314  -4.45 0.0004404686    1.348    0.258
        61 -11.7889    122.8330     18.8229   4.0777224036e+01   5.0912150552e+01    0.1739559    0.1419669 -79.86 0.0006111659    1.328    0.247
        62 -12.4037    216.7207    188.5422   6.4350595598e+01   2.2358603203e+00    0.2704167    0.2071485  -7.59  0.001272618    1.310    0.237
        63 -14.3085    173.1329     78.5196   4.8257646933e+01   3.1197328053e+01    0.8876199    0.6851578  -8.20  0.003081803    1.888    0.470
        64 -12.8611    248.0075    185.3586   5.8411614773e+01  -1.5702064881e+00    0.3825423    0.3050802  55.69  0.001798612    1.918    0.479
        65 -14.9430    224.9119     68.3570   3.8579728152e+01   2.1866529093e+01     1.157023    0.4991359  59.40  0.004562167    2.471    0.595
