#   1 NUMBER                 Running object number                                     
#   2 MAG_AUTO               Kron-like elliptical aperture magnitude                    [mag]
#   3 X_IMAGE                Object position along x                                    [pixel]
#   4 Y_IMAGE                Object position along y                                    [pixel]
#   5 X_WORLD                Barycenter position along world x axis                     [deg]
#   6 Y_WORLD                Barycenter position along world y axis                     [deg]
#   7 A_WORLD                Profile RMS along major axis (world units)                 [deg]
#   8 B_WORLD                Profile RMS along minor axis (world units)                 [deg]
#   9 THETA_WORLD            Position angle (CCW/world-x)                               [deg]
#  10 FWHM_WORLD             FWHM assuming a gaussian core                              [deg]
#  11 ELONGATION             A_IMAGE/B_IMAGE                                           
#  12 ELLIPTICITY            1 - B_IMAGE/A_IMAGE                                       
         1 -14.5433    153.2932     58.2287   8.2881554452e+01   3.9048844380e+01     1.299715     1.123581  40.82 0.0009940299    1.161    0.139
         2 -14.9903    164.8196     43.8879   7.6171974715e+01   3.8191756736e+01     1.376066     1.162266  -4.23  0.004101806    1.397    0.284
         3 -14.9265    179.5883     10.9686   6.4139137744e+01   3.8225047572e+01     1.468228     1.107589  89.52  0.005521273    1.244    0.196
         4 -12.8608    172.5490    188.7103   1.1081758361e+02   1.0039964495e+01    0.4249387    0.3464122  26.44 0.0009930582    1.190    0.160
         5 -20.1679     64.7459    180.9592   1.3369183580e+02   3.0336971808e+01     16.33326     6.202995 -67.66   0.07015973    2.606    0.616
         6 -13.4675    175.7939    186.2708   1.0969636856e+02   9.8428207720e+00    0.5631226    0.4205493 -85.34  0.002327988    2.174    0.540
         7 -10.7101    121.8643    198.6325   1.2330292958e+02   1.7615752499e+01    0.1896859    0.1787056 -65.66 0.0004174947    1.217    0.178
         8 -11.7221    111.7947    196.7886   1.2522840388e+02   1.9719551021e+01    0.5606856    0.3308917  21.90  0.002400949    2.761    0.638
         9 -11.9190    152.9470    192.9466   1.1569825975e+02   1.3018605163e+01    0.3252038    0.2583661  56.91  0.001041266    1.250    0.200
        10 -12.1680    153.1906    186.0567   1.1445332985e+02   1.4257707490e+01    0.2967927    0.2537727 -83.46 0.0008591659    1.403    0.287
        11 -11.3929    150.5238    180.4474   1.1403342114e+02   1.5845665187e+01    0.2626697    0.1437332 -48.60 0.0007254451    2.026    0.506
        12 -11.3163    136.8084    179.3996   1.1690453712e+02   1.8696292780e+01    0.2703587    0.2001899  30.60 0.0005579828    1.433    0.302
        13 -13.7236    141.9656    165.4341   1.1315826661e+02   2.0531542430e+01    0.7047853    0.4893126  81.21  0.002654439    2.110    0.526
        14 -12.8745    126.6756    172.7867   1.1806353993e+02   2.1971708320e+01    0.6187891    0.3956619  49.77   0.00192119    1.457    0.313
        15 -13.8506    143.1890    174.2375   1.1453727092e+02   1.8501414097e+01    0.8663431    0.6656959  24.06   0.00329287    1.486    0.327
        16 -13.9247    135.0857    169.6138   1.1553923767e+02   2.1023805487e+01    0.9235094     0.452704  47.60  0.002460265    1.914    0.478
        17 -13.0362    203.4434    166.0089   1.0011385213e+02   7.8932975717e+00    0.6104801    0.4901753  -9.36  0.001834222    1.326    0.246
        18 -13.0851    204.5525    176.4355   1.0201739943e+02   5.9366037488e+00      0.49396    0.4379353 -51.74  0.001641469    1.367    0.269
        19 -11.3072    138.9242    242.8101   1.2572885374e+02   6.9981164419e+00    0.3011359    0.1939797 -58.14  0.001810748    1.993    0.498
        20 -13.2993    125.1253    241.5326   1.2819726820e+02   9.4293904731e+00    0.4665461    0.1737016 -54.33  0.002166835    3.324    0.699
        21 -12.1222    176.9414    169.5953   1.0623784525e+02   1.2618183215e+01    0.2799921    0.2181586 -49.16  0.001100744    1.432    0.302
        22 -11.9181    230.3983    167.2220   9.5349503422e+01   2.5071877809e+00    0.3741105    0.1509106 -43.92  0.001472778    2.873    0.652
        23 -10.1056    160.3623    243.2043   1.2173159663e+02   3.4252816711e+00    0.1393004    0.1171963 -71.05 0.0004138622    1.615    0.381
        24 -12.6754     12.7517    241.6527   1.4846015233e+02   2.4474569860e+01    0.2730842    0.1745856 -74.51  0.002048837    1.669    0.401
        25 -11.0796     25.5371    164.9252   1.4099072251e+02   3.8477232659e+01    0.2424954    0.1926055  -8.26  0.001547027    2.004    0.501
        26 -13.5765    193.3489    165.2641   1.0196192593e+02   1.0055327469e+01     1.599076    0.6123765 -51.97  0.002645949    4.363    0.771
        27 -10.5578    151.2049    241.7974   1.2327609791e+02   5.1403623993e+00    0.1571362    0.1258139  24.72  0.000547297    1.306    0.234
        28 -14.3110    143.5426    143.6652   1.0830112848e+02   2.4755874055e+01     1.140724      0.60132 -62.84  0.004108892    2.806    0.644
        29 -14.6341    135.4988    128.4816   1.0681644844e+02   2.9713513476e+01     2.020213     0.537833 -48.69  0.005674881    3.999    0.750
        30 -11.6296     22.8758    155.1403   1.4068941319e+02   4.0908756156e+01    0.3916544    0.2007069 -73.84  0.002135941    1.644    0.392
        31 -12.2447     21.6710    238.1084   1.4680340694e+02   2.4164960068e+01    0.1812356    0.1388405  76.48 0.0008040479    1.158    0.137
        32 -12.4114    134.6562    109.1526   1.0221296544e+02   3.4023337909e+01     1.185934    0.1797235 -44.69  0.002520106    6.698    0.851
        33 -14.8787    132.6117    145.2865   1.1130446028e+02   2.6681124931e+01     1.369802    0.8585215 -65.78   0.00444864    2.012    0.503
        34 -11.4651    174.2487    148.4346   1.0234865039e+02   1.7180951206e+01     0.417904    0.2837006 -60.30   0.00153818    1.876    0.467
        35 -11.0186    131.0952    235.2453   1.2630859940e+02   9.4816116645e+00    0.1835845    0.1621971 -84.07 0.0006789019    1.332    0.249
        36 -10.1059      7.7684    235.8103   1.4902185282e+02   2.6009194510e+01   0.07771979   0.06508964  70.64     0.000228    1.326    0.246
        37 -10.4201     13.6661    232.3247   1.4787281800e+02   2.6043318177e+01    0.1615831   0.09270381 -82.23   0.00045812    1.573    0.364
        38 -10.8158    140.8803    230.0333   1.2373940516e+02   8.7055600656e+00     0.316444    0.1815919  62.53  0.001410007    2.196    0.545
        39 -10.6353      6.4091    138.6534   1.4315970260e+02   4.5964415656e+01    0.1884065    0.1515806  22.16  0.001328252    1.609    0.378
        40 -15.9687    100.6731    243.3914   1.3300826785e+02   1.2932921146e+01    0.8235835    0.7907996 -38.98  0.006174548    1.496    0.332
        41 -11.3172    138.8509    250.2770   1.2662755131e+02   5.8764780681e+00    0.2263947    0.1686868  31.27  0.001482651    1.324    0.245
        42 -10.7695    134.1145    244.5215   1.2684178780e+02   7.5119897396e+00    0.2295453    0.1634378 -30.35  0.001376984    2.154    0.536
        43 -12.5202    160.4046    128.0240   1.0071880441e+02   2.4301109228e+01    0.4898311    0.3432513 -54.41  0.001866189    1.573    0.364
        44 -11.6660     16.9398    225.4907   1.4696243767e+02   2.6961952418e+01    0.1635198    0.1193551 -79.65 0.0005038974    1.409    0.290
        45 -13.9365     11.7099    205.9440   1.4684228152e+02   3.1227118342e+01    0.4666223    0.3632411  23.37   0.00339603    1.875    0.467
        46 -11.0296    167.7262    112.8133   9.5267150243e+01   2.5634767992e+01    0.4057568    0.2789501 -88.23   0.00141905    2.363    0.577
        47 -13.6148    119.0039    110.1479   1.0660736539e+02   3.7180927926e+01    0.6519859     0.444781  81.60   0.00263934    2.318    0.569
        48 -11.7490    169.0504    201.3614   1.1375789848e+02   8.5085339383e+00    0.2389217    0.2063359 -57.61 0.0009631591    1.400    0.286
        49 -11.1556    138.7284    200.3583   1.1993853387e+02   1.4276109882e+01    0.2666765    0.1962893  68.02 0.0007584805    1.532    0.347
        50 -10.8323    205.4756    110.2847   8.7011369614e+01   1.7207587003e+01    0.3158587    0.2348937  43.72 0.0009587923    1.376    0.273
        51 -11.1080    141.4801    198.5307   1.1906482271e+02   1.4115344652e+01    0.2732195     0.235665 -87.19 0.0006078872    1.332    0.249
        52 -10.7048     10.4527    101.8022   1.3787430785e+02   5.3995700192e+01    0.2218751    0.1620531  73.04  0.001022728    1.478    0.323
        53 -12.8463    180.4869    193.4202   1.1003860161e+02   7.7119303136e+00    0.4466346    0.3580327  73.58  0.002354383    1.687    0.407
        54 -10.7559    145.0552     81.2811   9.1790393717e+01   3.7143450556e+01    0.2229877    0.1995189  54.19 0.0005048352    1.091    0.084
        55 -14.8105    164.1038    187.5141   1.1237432540e+02   1.1883013727e+01     1.097899    0.8787187 -30.37  0.006079155    1.436    0.304
        56 -13.9704    175.1778    196.5850   1.1168238958e+02   8.1767350617e+00    0.7336018    0.5758081  51.74  0.004151318    1.280    0.219
        57  -9.4168    133.5398    249.0659   1.2747487141e+02   6.9058067779e+00    0.1292722    0.1180697 -85.92 0.0002860249    1.337    0.252
        58 -10.3841    160.9752    247.3330   1.2215504615e+02   2.7337735677e+00    0.3585845    0.1686344  25.48  0.001424622    3.210    0.688
        59 -13.0825    169.1072     35.6783   7.2928759021e+01   3.8161530903e+01    0.4355404    0.4143378  49.41 0.0008945484    1.101    0.091
        60 -11.0945     13.5190     59.9701   1.2916695283e+02   6.2938883412e+01    0.1808719    0.1600267  49.53 0.0004407213    1.436    0.304
        61 -13.3249    169.2770    182.1131   1.1028838507e+02   1.1858390009e+01    0.5232882    0.3666191  31.25  0.001978042    1.412    0.292
        62 -10.4854    139.5720     32.0536   7.7232147048e+01   4.6235324809e+01    0.2850025    0.1932924  79.56  0.000824398    1.715    0.417
