#   1 NUMBER                 Running object number                                     
#   2 MAG_AUTO               Kron-like elliptical aperture magnitude                    [mag]
#   3 X_IMAGE                Object position along x                                    [pixel]
#   4 Y_IMAGE                Object position along y                                    [pixel]
#   5 X_WORLD                Barycenter position along world x axis                     [deg]
#   6 Y_WORLD                Barycenter position along world y axis                     [deg]
#   7 A_WORLD                Profile RMS along major axis (world units)                 [deg]
#   8 B_WORLD                Profile RMS along minor axis (world units)                 [deg]
#   9 THETA_WORLD            Position angle (CCW/world-x)                               [deg]
#  10 FWHM_WORLD             FWHM assuming a gaussian core                              [deg]
#  11 ELONGATION             A_IMAGE/B_IMAGE                                           
#  12 ELLIPTICITY            1 - B_IMAGE/A_IMAGE                                       
         1  -8.1843     97.2918     14.8177   3.6801211364e+01   5.7614267955e+01    0.2577985   0.09722718 -30.88 0.0007263072    2.508    0.601
         2  -8.5742     55.7806      9.8719   4.7224287458e+01   6.5679164258e+01    0.2124041    0.1476759 -34.85 0.0006606531    1.584    0.369
         3  -8.0258     47.6285      9.8364   5.0228303881e+01   6.6891059808e+01    0.1699567   0.09397449 -35.27 0.0005801618    1.762    0.432
         4  -8.0944    190.4202      8.2994   1.7954199231e+01   3.5887714824e+01    0.1806213    0.1231504 -36.87 0.0005012306    1.464    0.317
         5  -8.1652     90.7999      8.6070   3.5748063526e+01   5.9569129105e+01    0.1631988    0.1254991  61.56 0.0004575315    1.602    0.376
         6  -8.5857      5.9791      7.8178   6.7504048136e+01   7.1767775125e+01    0.1391871     0.131116  60.31  0.001078542    2.036    0.509
         7  -8.5919     33.5031      4.9783   5.3393817173e+01   6.9383469504e+01    0.2799421    0.1589127 -45.58  0.001488552    2.633    0.620
         8  -8.7246     79.2114      3.7103   3.6651913995e+01   6.2295441164e+01    0.2434935    0.1713265 -37.70 0.0008441487    1.735    0.424
         9  -7.9200     44.5042      2.5237   4.7630025272e+01   6.8206355074e+01    0.1207284   0.09228432  -5.83 3.985493e-05    1.048    0.046
        10  -8.2878     62.6397      1.3926   4.0567756948e+01   6.5488703401e+01    0.1894962    0.1154092  50.34 0.0006414138    1.899    0.473
        11  -8.1178    113.3163    248.1751   8.8616109377e+01   1.0236622455e+01    0.1419661   0.09353738 -78.75 0.0007241752    1.788    0.441
        12 -10.1132    248.7588    242.1012   6.5505889252e+01  -9.9394910626e+00    0.5583704    0.2126457 -26.97  0.002892682    2.875    0.652
        13  -9.5782    211.3266    247.1954   7.2338956584e+01  -4.8576396927e+00    0.3734063    0.2142369 -50.15  0.001556169    2.899    0.655
        14  -7.5339    125.3002    250.6344   8.6929548995e+01   8.0954906914e+00    0.1132353    0.0722356  70.39 0.0007033883    1.730    0.422
        15  -8.4267     94.4259    249.6035   9.1769360342e+01   1.2719713558e+01    0.2523726    0.1114194  64.88  0.001276572    2.681    0.627
        16  -7.7630     72.4696    250.5389   9.5255734369e+01   1.5522276723e+01    0.1053599   0.07736921  67.05 0.0001160224    1.009    0.008
        17  -9.1096    103.9262    246.6598   8.9982619578e+01   1.1831732502e+01    0.3146388    0.1646446 -77.23  0.001797997    2.515    0.602
        18  -9.1544    243.2004    245.7719   6.6974848154e+01  -9.4972851965e+00    0.3264031    0.1714538 -15.32  0.001924792    2.181    0.542
        19  -9.9729    223.8593    243.7468   6.9773429979e+01  -6.4032004005e+00    0.3827755    0.2267232 -43.46  0.002307928    2.409    0.585
        20  -7.7725     13.3237    247.3172   1.0368664073e+02   2.2854381439e+01   0.07963318   0.06678584 -78.05  0.000414596    1.669    0.401
        21  -9.3133    120.1699    245.0748   8.7179372914e+01   9.6880769344e+00     0.309367    0.1882002  84.07  0.001797462    2.280    0.561
        22  -8.8575     67.5080    244.4775   9.5553316758e+01   1.7134346138e+01    0.1827817   0.09222737 -71.74 0.0009518884    2.015    0.504
        23  -8.1389     50.1899    243.9571   9.8161981018e+01   1.9358422851e+01    0.2849759   0.09979818  86.67 0.0009637534    7.137    0.860
        24  -8.6674    201.9601    243.2491   7.3303818244e+01  -2.9402426407e+00    0.2064608     0.153431 -46.16 0.0008421015    1.818    0.450
        25  -9.5478    135.7146    238.6654   8.3864606857e+01   8.2701164552e+00    0.2406902      0.14525  71.17  0.001160515    2.199    0.545
        26  -8.8696     78.1845    243.0711   9.3770114348e+01   1.5970659734e+01    0.2742307    0.1234719  69.86  0.001407907    2.713    0.631
        27  -8.5480    169.0795    243.1992   7.8798777496e+01   2.3158935246e+00    0.2069897    0.1353022  55.85  0.000712121    1.546    0.353
        28  -7.9130     34.5038    243.5396   1.0046774214e+02   2.1233714497e+01    0.1039262   0.06862468  71.74 0.0001009903    1.067    0.062
        29  -9.2525    160.1663    240.2462   7.9915286814e+01   4.1495425342e+00    0.2917064    0.2077706 -83.08  0.001458202    2.194    0.544
        30  -8.3973    153.4733    241.5369   8.1213049739e+01   5.0398049815e+00    0.1722197    0.1099889 -66.35  0.001021078    2.222    0.550
        31  -7.6950     88.3219    242.1356   9.2072923567e+01   1.4747565019e+01    0.1444914   0.08750677 -84.10 0.0006754753    1.777    0.437
        32  -8.6164    240.5111    240.0395   6.6491204055e+01  -8.5213041249e+00    0.1538107    0.1030598 -22.14 0.0006980478    1.591    0.371
        33  -8.8782    194.0118    239.2999   7.4054968292e+01  -1.1921594258e+00    0.1644369     0.127252  38.01 0.0005264463    1.081    0.075
        34  -8.9742    231.2036    236.8836   6.7493772898e+01  -6.7799902787e+00    0.2489547    0.2072959  89.09   0.00142083    2.591    0.614
        35  -9.2808    217.0058    235.5227   6.9623005105e+01  -4.4132086764e+00      0.25815    0.1947543 -61.40  0.001572983    2.438    0.590
        36  -9.5341    213.6619    231.6358   6.9567097140e+01  -3.4186881733e+00    0.2830216    0.2464927 -78.96  0.001036428    1.935    0.483
        37  -8.3141    209.1678    238.1429   7.1338425709e+01  -3.4777285891e+00    0.1437694    0.1316132  46.14 0.0004557306    1.356    0.263
        38  -8.4263    129.1664    238.2546   8.4924464123e+01   9.3540043780e+00    0.1615065    0.1145291  66.14 0.0007564946    1.378    0.274
        39  -9.3942    118.3041    236.3394   8.6543450646e+01   1.1321816874e+01    0.2036883    0.1710799  56.99 0.0002623991    1.078    0.073
        40  -8.9651    203.2638    234.4688   7.1767685323e+01  -2.0859100110e+00    0.2981899    0.1871285 -57.38  0.001264877    2.876    0.652
        41  -9.8770    175.6887    233.1449   7.6287002273e+01   2.6045256774e+00    0.4269662    0.2280633 -56.27   0.00219756    2.833    0.647
        42  -8.2143    170.2507    235.4626   7.7550053206e+01   3.1780439599e+00    0.1728999    0.1384369 -83.82 0.0005480387    1.774    0.436
        43  -7.8441     57.8021    236.6532   9.6470748997e+01   1.9658561329e+01    0.1544486   0.07146408  53.17  0.000754213    1.730    0.422
        44  -7.9290     25.2482    236.2493   1.0140678080e+02   2.3466285098e+01    0.1574828    0.0626632  89.83 0.0008913481    2.439    0.590
        45  -9.1249    247.6275    234.2513   6.4397069967e+01  -8.9773932599e+00    0.1957674    0.1483976  -0.76 0.0007868764    1.188    0.158
        46  -9.7476    246.5389    229.0674   6.3698412366e+01  -8.2668003376e+00    0.5034522    0.2223078 -24.77  0.002471853    2.429    0.588
        47  -8.1006    152.9636    235.0096   8.0461697157e+01   6.0611577123e+00    0.1815727    0.1294308  71.31 0.0006037561    1.716    0.417
        48  -9.4423    109.2727    234.4141   8.7859328839e+01   1.2991700299e+01    0.4250989    0.1812101  58.58   0.00203054    2.532    0.605
        49  -8.4086     99.8208    234.4590   8.9453031850e+01   1.4374745141e+01    0.2160115    0.1168198  73.71  0.001158827    2.300    0.565
        50  -8.8469     78.8152    234.2553   9.2908586854e+01   1.7350442741e+01    0.2288789    0.1292554  88.55  0.001385633    1.926    0.481
        51  -8.7760      7.7486    234.9865   1.0388527660e+02   2.5458011329e+01    0.1228754   0.06258429 -84.47  0.000623136    1.564    0.361
        52  -8.1439    122.9784    233.9217   8.5475975546e+01   1.0988611902e+01    0.1881494    0.1205499  71.75  0.001118076    1.769    0.435
        53  -8.3665    194.7510    232.6638   7.2940096815e+01  -4.7057687656e-01    0.1836082    0.1523753 -87.71 0.0008939366    1.928    0.481
        54  -8.9270    140.3154    230.0486   8.2011033273e+01   8.8570701846e+00    0.2902408     0.128705  54.92 0.0009145704    2.348    0.574
        55  -8.5222    132.4314    232.6474   8.3702320633e+01   9.7112515527e+00    0.1915024    0.1134908 -61.90   0.00102987    2.031    0.508
        56  -8.6396     92.7630    231.9432   9.0383283514e+01   1.5808569027e+01    0.3242346    0.1678497  75.42  0.001279616    2.536    0.606
        57  -9.4545     68.4774    232.0641   9.4402348054e+01   1.9092710197e+01    0.3991541    0.1706148  69.37   0.00193954    2.926    0.658
        58  -9.2836    186.4409    230.5071   7.4042923808e+01   1.1844399037e+00    0.2984667    0.2230815 -74.65  0.001565301    2.280    0.561
        59  -8.1443    157.6669    231.5474   7.9186422366e+01   5.8018969488e+00    0.1745831    0.1124681 -49.00 0.0005997221    1.861    0.463
        60  -9.1389    236.1356    230.2304   6.5593011573e+01  -6.8054264233e+00     0.273501    0.1744035 -27.08  0.001059902    1.689    0.408
        61  -8.9795      9.8683    243.9631   1.0400953155e+02   2.3748034015e+01    0.2372023   0.07926828  79.93   0.00123261    3.199    0.687
        62  -8.7706      1.7973    230.6767   1.0453425032e+02   2.6761843518e+01    0.1933343   0.07801163  74.46  0.001208294    2.037    0.509
        63  -9.0415    151.3058    228.6483   7.9904695248e+01   7.2812331223e+00    0.2726618    0.1808112  75.39  0.001435269    2.165    0.538
        64  -9.4564    148.7970    224.4629   7.9778380207e+01   8.3407862360e+00    0.3393178    0.2181442  79.20  0.001623767    2.495    0.599
        65  -8.3759    229.8127    228.9101   6.6417701297e+01  -5.6702676262e+00    0.1578457    0.1361379 -56.18 0.0008168321    1.898    0.473
        66  -8.6849    162.5496    227.7261   7.7802982678e+01   5.5573605764e+00    0.2999403    0.1738895  63.51  0.001508754    2.374    0.579
        67  -9.0170    127.8381    227.0181   8.3812076469e+01   1.1336970625e+01    0.2936773    0.1838928  69.64  0.001641754    1.869    0.465
        68  -8.0576    223.0373    226.9513   6.7224596390e+01  -4.3641705688e+00     0.143526     0.118051  14.30 0.0004747451    1.063    0.059
        69  -8.2168    119.8296    227.0577   8.5217724330e+01   1.2589328739e+01     0.186565     0.119803  82.28  0.000670199    1.977    0.494
        70  -8.1165     49.6510    226.7586   9.7019256816e+01   2.2369170153e+01    0.2407289    0.1011683  81.04  0.001155204    3.105    0.678
        71  -8.8398    206.0389    225.5972   6.9894735323e+01  -1.4227787395e+00    0.2014159    0.1684495 -51.61 0.0007919593    1.649    0.394
        72  -8.4620    200.0944    225.6406   7.0927077104e+01  -4.4077737051e-01    0.2412648    0.1648346 -33.71   0.00103038    1.675    0.403
        73  -8.9057     93.9171    223.9467   8.9373186488e+01   1.7015779671e+01    0.2875007    0.1641991  76.19  0.001137518    2.035    0.509
        74  -9.1126    216.4588    223.2973   6.7730436984e+01  -2.8505656290e+00      0.22662    0.2138605 -45.86  0.001021373    1.475    0.322
        75  -8.6831    180.5981    224.0485   7.4083323851e+01   3.0557655797e+00    0.2537889    0.1536584  54.78  0.001004963    1.788    0.441
        76  -8.9697    173.1269    222.9001   7.5230009559e+01   4.4878393008e+00    0.2508709    0.1856223 -80.33 0.0008348746    2.156    0.536
        77  -8.7152    104.8012    223.5185   8.7435207098e+01   1.5486505881e+01    0.2860123    0.1729129  85.92  0.001595265    2.073    0.518
        78  -8.2274    163.3144    222.6808   7.6942439374e+01   6.1831126515e+00    0.1918106    0.1437434  44.22  0.001208087    1.140    0.123
        79  -8.6682    159.2409    220.2258   7.7312569131e+01   7.2487027078e+00    0.2573458    0.1764632  69.43  0.001009682    1.895    0.472
        80  -9.3243    183.2745    240.1930   7.5994711872e+01   4.2633372070e-01    0.4065301    0.2439067  66.14  0.002026051    2.951    0.661
        81  -9.0951    238.8343    221.0701   6.3581401349e+01  -6.1876615031e+00    0.2748584    0.1555164 -32.09  0.001319691    1.915    0.478
        82  -9.3644    225.9547    221.7238   6.5851039737e+01  -4.2063621327e+00    0.2719483    0.2079416  55.24  0.001593387    1.760    0.432
        83  -9.3429    192.3533    221.0599   7.1544319742e+01   1.4793863378e+00    0.2825055    0.2310719 -65.07  0.001146572    1.759    0.432
        84  -8.9784      7.8581    222.1671   1.0322660152e+02   2.7679635604e+01    0.2145717   0.06221101  55.79  0.001164011    2.708    0.631
        85  -8.2815     72.9599    220.4593   9.2626445329e+01   2.0551982983e+01    0.2375234    0.1066892  76.70 0.0008134573    3.488    0.713
        86  -8.1705     27.4858    220.9396   1.0013713284e+02   2.5919145876e+01    0.1993368   0.08296829 -78.72  0.001177449    2.078    0.519
        87  -8.2250    202.6746    219.9694   6.9557298071e+01  -1.2266028200e-01    0.1612438    0.1460986   1.76 0.0004979705    1.155    0.134
        88  -9.1225    120.6423    219.1564   8.4111700658e+01   1.3791105035e+01    0.3851267    0.2036317  68.61  0.001795968    2.703    0.630
        89  -8.8980     82.7348    220.0103   9.0902861555e+01   1.9300468220e+01    0.2106567    0.1323529  83.14  0.001003394    1.609    0.378
        90  -9.6253    248.4365    217.5160   6.1369905367e+01  -7.2812626874e+00     0.366792    0.2834747  86.14  0.001794383    4.060    0.754
        91  -8.4937    210.0362    219.0930   6.8129913270e+01  -1.2472758965e+00    0.1848359    0.1571044  22.36  0.000469518    1.039    0.038
        92  -8.1002    179.5821    217.7547   7.3285195664e+01   4.1382992418e+00     0.152852    0.1197245 -57.42 0.0006561442    1.636    0.389
        93  -9.2019    132.8822    215.8798   8.1472010286e+01   1.2371444879e+01    0.4473238    0.2635486  82.27  0.002023312    3.080    0.675
        94  -8.8458     51.8855    216.6921   9.5860179846e+01   2.3923981788e+01    0.3038248    0.1501755 -84.44  0.001359774    1.968    0.492
        95  -8.6715    169.3295    215.9627   7.4851184304e+01   6.1779610532e+00    0.2249376    0.1826848 -80.41 0.0007611079    1.662    0.398
        96  -8.6308    142.9259    216.2334   7.9691318088e+01   1.0643006828e+01    0.2175176    0.1616061  83.64  0.000920737    1.679    0.404
        97  -8.4449    112.0320    217.0328   8.5396174773e+01   1.5511284775e+01    0.2018113     0.126397  73.46  0.001122513    1.832    0.454
        98  -8.2810     62.0039    217.1590   9.4191778796e+01   2.2582338124e+01    0.2195262    0.1181808  63.47  0.001318783    1.657    0.396
        99  -8.6806    232.1698    214.4902   6.3535875211e+01  -4.3349731393e+00    0.2106471    0.1917609 -85.29  0.001008541    1.874    0.467
       100  -8.3254    154.2601    215.0995   7.7460602377e+01   8.9074062898e+00     0.227713    0.1459915  65.42  0.001201475    1.943    0.485
       101  -8.9887     93.2321    213.7637   8.8390936266e+01   1.8935542438e+01     0.333142    0.1792183  75.42   0.00148556    2.420    0.587
       102  -9.4084    214.0611    212.0724   6.6221010205e+01  -1.0016540767e+00    0.3509135    0.2481668  60.38  0.001767803    2.024    0.506
       103  -8.2956    185.6386    214.2010   7.1626638989e+01   3.6106697736e+00    0.1724071    0.1574806 -81.65 0.0007254416    1.428    0.300
       104  -9.4097     73.4286    211.7803   9.1705191441e+01   2.2086143406e+01    0.6507091    0.2367352  63.28  0.002418177    4.415    0.773
       105  -7.9067    224.9825    212.2188   6.4355395935e+01  -2.8638678389e+00    0.1567309    0.1346609 -45.53 0.0005636219    1.598    0.374
       106  -9.4100    175.4748    209.7213   7.2738669735e+01   6.0671072408e+00    0.3955286     0.274349  79.16  0.001691896    2.507    0.601
       107  -8.4935    161.6976    212.2230   7.5664065600e+01   8.0867130327e+00    0.1838238    0.1540378  85.99 0.0007536591    1.466    0.318
       108  -8.9999    204.3415    210.5374   6.7664082874e+01   8.7976733292e-01    0.2419916    0.2051898 -51.47 0.0009188151    1.549    0.355
       109  -8.3732    192.3080    210.3652   6.9786544160e+01   3.0055061338e+00    0.1851881    0.1539473 -65.33 0.0006239209    1.676    0.403
       110  -8.7370    148.0869    210.2320   7.7873286480e+01   1.0766028317e+01     0.288231    0.2055776 -83.81  0.001156661    1.952    0.488
       111  -8.8862    116.4890    210.0431   8.3704488321e+01   1.6051801981e+01    0.3300944    0.1893177  71.24 0.0009736911    2.298    0.565
       112  -9.4375      6.6797    209.1286   1.0269763657e+02   3.0164871184e+01    0.3849036    0.1211903  77.55  0.001606004    4.303    0.768
       113  -8.5868     85.4946    209.4296   8.9302877071e+01   2.0855323512e+01    0.2686173     0.141495  72.88    0.0013429    2.331    0.571
       114  -7.7731     32.3052    210.0135   9.8608315826e+01   2.7420592788e+01    0.1734204   0.06329177  84.69 0.0006992441    4.020    0.751
       115  -9.3117    236.5958    208.0824   6.1625240368e+01  -4.2677818364e+00    0.2942555    0.2226917 -41.41  0.001166129    1.729    0.422
       116  -8.0529     46.3966    209.2245   9.6172485405e+01   2.5978257395e+01    0.1558369   0.08448134 -88.40 0.0005075558    1.679    0.404
       117  -9.4098    246.4266    207.0558   5.9787739280e+01  -5.7403941840e+00    0.2539918    0.1875552  -8.89   0.00052723    1.233    0.189
       118  -9.5112    250.1591    201.6934   5.8156452699e+01  -5.6906393785e+00    0.3782164    0.1654856 -28.03  0.001556273    2.253    0.556
       119  -9.4351    245.8188    193.5054   5.7290989150e+01  -3.9506264056e+00    0.3802964    0.2853505 -57.37  0.001887025    2.396    0.583
       120  -7.9595    156.5939    207.7862   7.5919206996e+01   9.6987958895e+00    0.1602531      0.12055 -66.10 0.0006353369    1.634    0.388
       121  -8.1863    139.2886    207.7954   7.9151816295e+01   1.2685676893e+01    0.2383592    0.1770309  81.17  0.001378362    1.626    0.385
       122  -8.0297    126.6174    208.3306   8.1594649637e+01   1.4714642005e+01    0.1903177    0.1316118  75.26 0.0007816194    1.676    0.403
       123  -9.1675     99.4509    205.9771   8.6345701673e+01   1.9452146297e+01    0.3336991     0.191386  77.26   0.00101408    2.251    0.556
       124  -8.8127     11.8508    206.8304   1.0173934196e+02   3.0107711446e+01    0.1502502   0.08834678  73.37  0.000875194    1.299    0.230
       125  -8.4879     56.6174    205.2707   9.4048572866e+01   2.5501465169e+01    0.3094748    0.1424829  70.56  0.001511353    2.516    0.602
       126  -8.0832    109.0002    204.9919   8.4441278972e+01   1.8162267319e+01    0.1959887    0.1315801  76.96 0.0006812545    1.644    0.392
       127  -9.4614    194.8906    203.3778   6.8106680247e+01   3.5786253486e+00    0.3727991    0.3132258 -21.04  0.001467594    1.264    0.209
       128  -9.1826    192.3539    197.0242   6.7431279529e+01   5.0037425342e+00    0.3157564     0.248628 -58.84 0.0008364485    1.683    0.406
       129  -8.8257    183.6024    203.6477   7.0223709904e+01   5.5619509442e+00    0.2888184    0.1976721  68.02  0.001017123    2.170    0.539
       130  -9.6566    163.7310    202.7857   7.3782443261e+01   9.2661176834e+00    0.4101295    0.2550586  63.01   0.00122757    2.067    0.516
       131  -8.6533    131.1611    203.6334   8.0075122964e+01   1.4797024312e+01    0.2573367    0.1803026  84.15 0.0009621085    1.803    0.445
       132  -8.2862     17.3157    203.6436   1.0064662269e+02   3.0182206304e+01    0.1163273   0.05720414  72.18 0.0007044891    1.746    0.427
       133  -9.0650    243.3212    200.6143   5.9089309824e+01  -4.4409932536e+00    0.2718328    0.1887054 -36.84 0.0008636385    1.681    0.405
       134  -8.4871    211.0878    201.7357   6.4888714672e+01   9.3526468556e-01    0.2037658    0.1716728 -40.84 0.0007217386    1.426    0.299
       135  -8.8651    140.5607    200.9084   7.7879299129e+01   1.3677400871e+01    0.3225234    0.2084432  72.02  0.001318279    2.074    0.518
       136  -8.4200     48.0041    201.5010   9.5229710505e+01   2.7277751105e+01    0.2451281    0.1130857  88.79   0.00104612    2.424    0.587
       137  -7.8466     41.3365    202.6540   9.6498978108e+01   2.7826591053e+01    0.1226771   0.06447755  71.98 0.0007048592    1.775    0.437
       138  -8.1556     10.6303    202.3103   1.0165907331e+02   3.1080154382e+01    0.1149382    0.0549411  69.02   0.00014073    1.767    0.434
       139  -7.9256    221.9984    201.2104   6.2861987206e+01  -9.0312798188e-01    0.1650229    0.1398338 -49.92 0.0005002763    1.617    0.381
       140  -8.4418     79.7013    200.7448   8.9397838906e+01   2.3334473984e+01    0.2368637    0.1261948  88.20  0.001159052    2.391    0.582
       141  -9.3633    149.6884    198.4402   7.5743060659e+01   1.2512580066e+01    0.4192557    0.2799927  85.55  0.001541671    2.432    0.589
       142  -8.7477    124.1043    199.0707   8.0759608190e+01   1.6815420953e+01    0.2951648    0.1947453  88.40  0.001178541    2.029    0.507
       143  -9.4705    113.0177    198.2915   8.2780755022e+01   1.8782296565e+01    0.4250659    0.2433203  76.54   0.00169782    2.614    0.617
       144  -9.2819    237.0365    198.0573   5.9662739868e+01  -3.0625261912e+00    0.3131129    0.1671664 -36.48  0.001340195    2.012    0.503
       145  -8.4940    176.9755    198.5906   7.0580013036e+01   7.5633363424e+00    0.2165571    0.1835598 -67.33 0.0004531539    1.482    0.325
       146  -9.0609     88.6259    198.2250   8.7429603882e+01   2.2550123369e+01    0.3395722    0.1980404  89.77  0.001340116    2.056    0.514
       147  -8.3911    202.4503    197.7293   6.5707157644e+01   3.0613532720e+00    0.2261098    0.1803492 -60.95 0.0007810844    1.783    0.439
       148  -8.9823     61.3344    196.7917   9.2372530805e+01   2.6570074411e+01    0.4017017     0.194759  81.31  0.001419795    2.666    0.625
       149  -8.7687     12.9657    197.4689   1.0096226825e+02   3.1791626462e+01    0.2271184   0.08029247  72.81  0.001009096    3.386    0.705
       150  -7.9375     53.9583    196.7868   9.3723700722e+01   2.7491764460e+01    0.2027786    0.0992668  65.00  0.001072833    2.072    0.517
       151  -8.7341    215.9377    195.4243   6.2841813714e+01   9.7255941993e-01    0.2224856    0.1791521 -49.37 0.0007422899    1.625    0.385
       152  -8.0317    132.9953    195.7361   7.8541613675e+01   1.5925258857e+01     0.207375    0.1333187  68.71 0.0006914366    1.904    0.475
       153  -7.7064    209.3015    195.6174   6.4070087647e+01   2.1361217514e+00    0.1225416    0.1059292 -81.98 0.0007021473    1.778    0.438
       154  -8.8627    185.2905    194.7083   6.8326257221e+01   6.6653811420e+00    0.2341858    0.2042015  88.26 0.0006011832    1.523    0.343
       155  -9.3270    160.5273    193.8418   7.2891096542e+01   1.1365746025e+01    0.2856661    0.2126248  86.16 0.0009489745    1.919    0.479
       156  -8.2040    231.1147    194.1568   5.9926623484e+01  -1.5273070056e+00    0.1604205     0.153601 -18.94 0.0004921509    1.339    0.253
       157  -8.6343    224.2804    193.7421   6.1039777607e+01  -2.7221354137e-01     0.212806    0.1621738 -35.07  0.001137641    1.448    0.309
       158  -8.8399     77.0719    193.7474   8.9090661041e+01   2.5083871461e+01    0.2426212    0.1670647  76.11 0.0005893814    1.360    0.265
       159  -8.9679     43.8182    193.1177   9.5225023568e+01   2.9427781402e+01    0.3778161    0.1770391  74.33  0.001910704    2.407    0.585
       160  -8.2301    199.0067    191.5188   6.5176734792e+01   4.6347876774e+00    0.2314674    0.1844133 -54.40 0.0007801969    1.607    0.378
       161  -8.4975    172.4740    191.5950   7.0196402282e+01   9.5517221151e+00    0.2441315    0.1812513 -82.25 0.0009113475    2.091    0.522
       162  -9.0495    139.4918    190.3703   7.6416950010e+01   1.5785936009e+01    0.3480413    0.2337694  88.40  0.001025781    2.224    0.550
       163  -9.5865      6.3983    190.7979   1.0163421256e+02   3.3699450996e+01    0.2751687    0.1321492  76.32  0.001692488    1.782    0.439
       164  -8.1012    179.0444    191.3211   6.8890315205e+01   8.3760684203e+00    0.1842038    0.1646716  41.96 0.0006090652    1.074    0.069
       165 -10.3609     92.1961    188.6601   8.5526590606e+01   2.3922925394e+01     0.811021    0.2449027  51.54  0.002845576    3.653    0.726
       166  -8.4421    148.4877    189.1003   7.4430025048e+01   1.4406211331e+01    0.2094619    0.1744862  78.28  0.001144764    1.340    0.254
       167  -8.8344    129.3090    188.4620   7.8127729792e+01   1.7934158691e+01    0.2711231    0.2020665  82.56 0.0008324347    1.566    0.362
       168  -9.5109    120.7272    186.1285   7.9476127007e+01   1.9859766605e+01    0.4822323    0.2525091 -71.15  0.002059771    2.707    0.631
       169  -8.9230     34.3351    187.9795   9.6493916996e+01   3.1521416599e+01    0.2978699    0.1395185  81.72  0.001255035    2.279    0.561
       170  -9.4467    249.0018    185.8967   5.5238360963e+01  -3.4954736744e+00    0.3575334    0.2176539 -11.06  0.001447668    1.682    0.406
       171  -8.8486    216.6646    187.6780   6.1208518438e+01   1.9674914780e+00    0.2414991    0.2005729 -47.30 0.0007207895    1.511    0.338
       172  -8.7334    191.5220    187.1477   6.5742441949e+01   6.7239597595e+00    0.2906727    0.2165175 -66.92  0.001481823    2.016    0.504
       173  -9.2172    155.9709    187.1125   7.2609833498e+01   1.3398203049e+01    0.3355404    0.2129308 -59.65 0.0008447432    1.905    0.475
       174  -9.3238     54.8693    186.5197   9.2520087600e+01   2.9458899897e+01    0.4453819    0.2132472  79.41  0.001621262    2.710    0.631
       175  -8.1787    230.6711    187.1371   5.8618139661e+01  -4.7986435315e-01    0.1903725    0.1568819 -39.51 0.0007175209    1.460    0.315
       176  -8.7481    164.7339    186.5212   7.0781659978e+01   1.1874249809e+01    0.2482361    0.2124594 -75.34  0.000738052    1.398    0.285
       177  -9.1655    109.6301    186.0119   8.1686335111e+01   2.1727042908e+01    0.3503352    0.2149749  77.34  0.001188232    2.174    0.540
       178  -8.2128    237.2435    188.1103   5.7675233716e+01  -1.7709599601e+00    0.1823803    0.1481719 -16.73 0.0006798288    1.179    0.152
       179  -8.7882    210.1633    184.2921   6.1716713665e+01   3.6769470571e+00    0.2402597     0.184049 -36.30  0.000559714    1.392    0.282
       180  -8.7427    202.8099    184.4664   6.3107303362e+01   5.0273393328e+00     0.243451    0.1760067 -54.93 0.0009021055    1.852    0.460
       181  -8.7239    183.0125    184.5982   6.6875095980e+01   8.7550062463e+00    0.2315498    0.1894832 -60.64 0.0006597167    1.511    0.338
       182  -9.1378     66.7302    184.3484   8.9990322828e+01   2.8400484104e+01    0.3411963    0.1968364  67.29  0.001148203    1.775    0.437
       183  -8.3059     11.9891    184.7175   1.0025064126e+02   3.4404708819e+01    0.2039177   0.07438484  74.25 0.0008967529    3.402    0.706
       184  -8.7404    224.1949    183.4575   5.9017506970e+01   1.2126016377e+00    0.2341951    0.1742608 -25.83  0.000549593    1.324    0.245
       185  -8.9442    174.2648    183.2996   6.8321857530e+01   1.0641300540e+01    0.2788022     0.223081 -64.86 0.0004903733    1.554    0.357
       186  -8.3601    197.0676    183.0621   6.3903696669e+01   6.3366259224e+00    0.1978068    0.1693491 -81.19 0.0005627507    1.662    0.398
       187  -8.9492     44.5071    182.1663   9.4049733420e+01   3.1588470415e+01    0.3444603    0.1814086  77.52  0.001115875    1.990    0.498
       188  -7.7108      1.5185    183.5006   1.0199894982e+02   3.5569395511e+01    0.1089813    0.0745716  85.24 0.0008102658    1.026    0.025
       189  -9.1547    147.5967    180.5438   7.3115259007e+01   1.6165860781e+01    0.3399003    0.2513582 -83.86  0.001039574    1.799    0.444
       190  -8.4007    235.3763    181.2453   5.6604579297e+01  -4.8888961485e-01    0.1797637    0.1157871 -37.89 0.0006289675    1.673    0.402
       191  -7.8205     90.3178    181.3238   8.4907261307e+01   2.5707095035e+01    0.1179091    0.1005967 -30.43 0.0007044218    1.670    0.401
       192  -9.3733     25.4556    178.4607   9.7305589546e+01   3.4398044249e+01    0.5684043    0.2084134  84.62  0.002138459    4.385    0.772
       193  -8.7733    137.6351    179.0973   7.4884381550e+01   1.8270298329e+01    0.3019759    0.2169841 -86.17  0.001150504    1.831    0.454
       194  -7.6143    240.4950    179.5337   5.5370937800e+01  -1.1593132970e+00    0.1337267    0.1124748   3.97 0.0005013837    1.007    0.007
       195  -9.5148    191.5230    178.1682   6.3983450214e+01   8.2048138765e+00    0.3127126    0.2684528 -85.42 0.0008179926    1.604    0.376
       196  -8.0341    169.5696    178.7375   6.8376755677e+01   1.2346530800e+01    0.1830232    0.1315992 -57.02 0.0009330689    1.632    0.387
       197  -8.6708    250.5645    172.6384   5.2227002361e+01  -1.9769593410e+00    0.2725628      0.18236 -17.72 0.0005728813    1.367    0.269
       198  -9.1397    249.0377    177.0922   5.3419542701e+01  -2.3215287022e+00    0.2898185    0.2562863 -53.80  0.001012143    1.660    0.398
       199  -8.5735    247.4547    173.5141   5.2931510495e+01  -1.5514863255e+00    0.2150446    0.1184616 -27.75 0.0006422971    1.692    0.409
       200  -8.6824    205.2493    177.2935   6.1211195022e+01   5.7036748066e+00    0.3056777    0.1958806 -53.15 0.0009020859    2.116    0.527
       201  -8.4453    129.3157    177.2854   7.6279437767e+01   2.0121954332e+01    0.2633497    0.1801416  84.73 0.0007147747    1.992    0.498
       202  -8.3017     97.0572    177.4601   8.2977092559e+01   2.5481003643e+01    0.2404349    0.1520539 -27.90   0.00102733    3.307    0.698
       203  -9.0720     36.0310    176.5448   9.5120971529e+01   3.3704582812e+01    0.4589455     0.189487  80.80  0.001860975    3.660    0.727
       204  -8.6590    231.2074    176.5290   5.6353314128e+01   9.4278038343e-01    0.2840408    0.1668411 -33.09 0.0009953992    1.674    0.402
       205  -8.4977    217.3601    176.8752   5.8896303972e+01   3.4658115242e+00     0.229772    0.1974107 -51.78 0.0006208089    1.488    0.328
       206  -9.3004    183.1401    175.9250   6.5154923227e+01   1.0215728813e+01    0.3208601    0.2217581 -52.38  0.001065645    1.697    0.411
       207  -8.9685     89.3057    176.7160   8.4466702755e+01   2.6822207625e+01    0.2746716    0.1793596  74.60 0.0008523546    1.682    0.405
       208  -9.2207     58.3343    174.9988   9.0559067157e+01   3.1445774826e+01    0.3983178    0.1860107  79.45  0.001614698    3.394    0.705
       209  -9.4370     55.7978    170.4059   9.0527226993e+01   3.2745363914e+01    0.8551956    0.3640806  78.74  0.002612308    6.086    0.836
       210  -9.0923     13.0674    176.1587   9.9414596519e+01   3.6051100768e+01    0.3360288    0.1440131  80.27   0.00172899    2.405    0.584
       211  -7.4579    211.6801    176.3194   5.9819245650e+01   4.6288788682e+00    0.1278976    0.1121959 -82.43 0.0004082343    1.665    0.399
       212  -9.3477    158.7797    174.7410   6.9775058315e+01   1.5154015234e+01    0.4049818    0.2818877 -88.92   0.00131553    2.359    0.576
       213  -9.2699    104.3819    174.4952   8.1004519600e+01   2.4937214066e+01    0.5008965     0.276093  72.80   0.00190217    2.847    0.649
       214 -10.7169     76.0177    170.0390   8.6289740180e+01   3.0173685900e+01     1.179228     0.413793 -72.45  0.003901523    4.370    0.771
       215  -9.6829     81.5428    155.2345   8.2882217398e+01   3.2642704050e+01    0.4911472    0.4100437 -65.19  0.001919784    1.129    0.114
       216  -8.5267    224.5744    173.9236   5.6980251592e+01   2.5592423951e+00    0.2467681    0.1592528 -44.03  0.000731311    1.802    0.445
       217  -9.8233    176.1562    171.3153   6.5603885040e+01   1.2402176918e+01    0.5864756    0.3099358 -30.89   0.00224484    2.290    0.563
       218  -9.2253    153.0121    171.9810   7.0424718871e+01   1.6784079091e+01    0.2521634    0.2262552 -86.21 0.0003360484    1.222    0.182
       219  -8.4023    149.6846    169.3366   7.0604197741e+01   1.7934089526e+01    0.2329037    0.1934142 -72.66  0.000756234    1.355    0.262
       220  -8.3366    143.1081    172.6636   7.2599178223e+01   1.8524129392e+01     0.233976    0.1851262 -67.38 0.0006153044    1.384    0.278
       221  -8.7588    134.8553    171.5759   7.4119377303e+01   2.0267206371e+01    0.2638771    0.1786293 -73.42 0.0008198406    1.859    0.462
       222  -9.0486     45.1111    170.7956   9.2738911854e+01   3.3923851275e+01    0.3521175    0.1718812 -88.56  0.001250927    2.230    0.552
       223  -8.6708    198.4553    170.0345   6.0986588173e+01   8.2182459216e+00    0.2814835    0.2215298 -68.38 0.0008494733    1.836    0.455
       224  -9.4726    121.3172    170.1586   7.6719131698e+01   2.2983958045e+01    0.3552237    0.2389525 -78.31 0.0008732182    1.831    0.454
       225  -8.4808    237.2998    169.3258   5.3765404499e+01   8.7781875387e-01    0.2297999    0.1745806 -27.21 0.0007619329    1.264    0.209
       226  -9.0244    230.5020    169.1787   5.4918840124e+01   2.1630595887e+00    0.3673452    0.2201141 -43.35  0.001773027    1.913    0.477
       227  -8.2355    205.7906    169.9766   5.9585887752e+01   6.7858862849e+00    0.2127973    0.1573439 -60.39 0.0005507584    1.930    0.482
       228  -8.2795    244.2954    169.0136   5.2503020188e+01  -3.5280809964e-01    0.1894216    0.1523139 -16.65 0.0004553112    1.124    0.111
       229  -9.2396    167.0365    168.3754   6.6844219728e+01   1.4742413488e+01    0.3550824    0.2526971  75.84  0.001214063    2.071    0.517
       230  -8.2877     88.8926    168.7169   8.3379961906e+01   2.8589652209e+01    0.2548075    0.1541963  88.67 0.0009219855    2.101    0.524
       231  -8.5844    218.9127    168.1085   5.6762016318e+01   4.5335352587e+00    0.1977012    0.1899692 -49.26 0.0005110562    1.302    0.232
       232  -8.0006    211.4580    167.9641   5.8099556144e+01   6.0048105318e+00    0.1872316    0.1183303 -56.82 0.0006585014    2.445    0.591
       233  -9.0120    111.5917    167.3680   7.8310443604e+01   2.5244211316e+01    0.2939535     0.195567  84.90  0.001408758    1.968    0.492
       234  -9.1194    191.8657    166.3688   6.1481202336e+01   1.0155917897e+01    0.3221519    0.1977419 -43.75  0.000740042    1.717    0.418
       235  -9.0909    185.0743    166.3580   6.2809943812e+01   1.1518481710e+01    0.2667028    0.2023351 -46.19  0.000624797    1.410    0.291
       236  -9.0223     20.4614    165.6867   9.7122762430e+01   3.7569232175e+01    0.3551487    0.1671989  76.85  0.001736781    2.270    0.559
       237  -9.6681    137.0040    164.3997   7.2325083503e+01   2.1324530027e+01    0.5970103    0.2942943  60.62  0.002178569    3.000    0.667
       238  -9.9575     94.9979    162.6169   8.1106456483e+01   2.8974325192e+01    0.7894534    0.4059585  77.61  0.002571757    4.653    0.785
       239  -8.4152    233.9074    164.6662   5.3343662273e+01   2.2022645731e+00    0.2559882     0.165282 -44.69 0.0007238359    1.825    0.452
       240  -8.7976    159.5108    164.0040   6.7502494245e+01   1.7062002450e+01    0.2804462     0.226887 -78.15 0.0008807254    1.535    0.348
       241  -9.3878     33.7675    163.3258   9.4227141956e+01   3.6769480644e+01    0.4763128    0.1900404  58.78   0.00219424    2.928    0.658
       242  -8.3843    240.1328    163.8772   5.2095983842e+01   1.1557341256e+00    0.1972367    0.1815678 -26.80 0.0004705871    1.258    0.205
       243  -8.7138    212.8955    163.4963   5.6864888447e+01   6.4485605508e+00    0.2580266     0.194504 -37.87 0.0004726264    1.367    0.269
       244  -7.9248     55.9637    164.0363   8.9707958004e+01   3.4111494468e+01    0.2327001    0.1289191 -34.63  0.000951485    4.071    0.754
       245  -9.2332    246.1207    162.6876   5.0820822255e+01   2.2663578387e-01    0.2546524    0.1760409 -20.53 0.0005756025    1.314    0.239
       246  -8.7025    204.9310    162.4512   5.8127020872e+01   8.2078767131e+00     0.253677    0.1913855 -47.55 0.0005727676    1.506    0.336
       247  -9.3526      3.3435    162.1224   1.0014124414e+02   3.9806384741e+01    0.3613895     0.154075  67.30  0.001928869    2.442    0.591
       248  -9.1867    177.4873    160.3400   6.3044349712e+01   1.4146611497e+01    0.3069325    0.2481329 -64.76 0.0009414151    1.514    0.340
       249  -8.8917    151.6751    160.7242   6.8475446713e+01   1.9250940540e+01    0.2780964    0.2133575 -69.47 0.0009082858    1.546    0.353
       250  -8.7634     60.9015    160.1097   8.8142242570e+01   3.4363228786e+01    0.3231999    0.1783726  76.00  0.001184975    2.272    0.560
       251  -8.9665    242.0191    159.9874   5.0917146655e+01   1.3806099699e+00    0.2959797    0.1736207   8.32 0.0004542034    2.339    0.573
       252  -8.7263    227.4137    158.8128   5.3192809501e+01   4.3470872038e+00    0.2946805     0.213362 -51.83 0.0009239226    1.802    0.445
       253  -9.8348    250.1831    157.5264   4.9003883744e+01   2.3229282437e-01    0.3578361      0.18792 -33.96 0.0008249671    1.767    0.434
       254  -8.7409    246.7473    155.3432   4.9085359015e+01   1.1869314748e+00    0.1901438    0.1576493 -24.48 0.0004289364    1.159    0.137
       255  -8.4926    237.0206    158.9578   5.1543334327e+01   2.4762455469e+00    0.2029886     0.171828 -60.59 0.0007256771    1.679    0.404
       256  -8.8467    196.5939    158.0124   5.8745472674e+01   1.0660585782e+01    0.3006766     0.231841 -61.41 0.0008175552    1.705    0.414
       257  -8.4229    128.3697    158.8186   7.3114933929e+01   2.4087438910e+01    0.2761214    0.2060607 -85.52  0.001348175    1.638    0.390
       258  -9.5389    105.9297    157.6584   7.7850187326e+01   2.8285890059e+01    0.4843495    0.3228977  87.77  0.001663849    1.954    0.488
       259  -8.1682    188.1539    157.6116   6.0311987837e+01   1.2463558250e+01    0.2420873    0.1890965 -47.56 0.0005522991    1.378    0.274
       260  -9.1875    167.6276    156.9576   6.4336005926e+01   1.6795591679e+01    0.3808857    0.2756254 -76.65  0.001145419    2.061    0.515
       261  -8.6716    217.9853    156.4467   5.4361404351e+01   6.5881926558e+00     0.269176    0.1861985 -45.98 0.0007497265    1.639    0.390
       262  -9.0872    157.6498    155.5387   6.6124940799e+01   1.9095648614e+01    0.3400109    0.2179758 -50.68   0.00157806    1.621    0.383
       263  -9.2095    119.6733    154.9482   7.4286792347e+01   2.6493220196e+01    0.4004455    0.2649696 -82.86  0.001426892    2.077    0.519
       264  -9.1878     49.7874    155.2299   8.9899818136e+01   3.6797165822e+01     0.367056    0.1994463  69.47   0.00149764    2.171    0.539
       265  -9.5454    241.6140    154.0484   4.9655934478e+01   2.3467190637e+00    0.4110657    0.2899422  87.86  0.001684712    3.536    0.717
       266  -7.9666    204.9404    155.0398   5.6475945655e+01   9.4672104525e+00    0.2096232    0.1764351 -67.94 0.0006042249    1.593    0.372
       267  -8.7527    144.5995    154.5736   6.8721700138e+01   2.1885585244e+01     0.281182    0.2023498  84.63 0.0007948577    1.984    0.496
       268  -9.5336     68.1149    153.5512   8.5623454461e+01   3.4891949670e+01    0.4366475    0.2314705  73.59  0.001599949    2.784    0.641
       269  -8.1069    232.6306    153.0283   5.0968757192e+01   4.2358788235e+00    0.3177297    0.1246107 -33.66   0.00122794    2.389    0.581
       270  -9.7696    132.8861    152.7269   7.0908788410e+01   2.4530484436e+01    0.4511093    0.3221525  85.98  0.001208597    1.931    0.482
       271  -9.0263    133.4907    147.9999   6.9791491250e+01   2.5419483626e+01    0.3378095    0.2162271 -45.80  0.000994294    1.543    0.352
       272  -9.0674    151.9688    152.3503   6.6655994312e+01   2.0878711011e+01    0.3323233    0.2028379 -44.23  0.001270447    1.636    0.389
       273 -10.3409    148.9847    144.7919   6.5647630855e+01   2.3031911820e+01    0.6233618    0.4192614 -84.66  0.001681489    2.549    0.608
       274  -8.4843      9.4566    153.2840   9.8187037577e+01   4.1197075669e+01    0.1617405   0.09742429  36.56 0.0007505643    2.026    0.507
       275  -8.3878    182.7768    151.4424   6.0007968210e+01   1.4711258319e+01    0.2909484    0.1871233 -56.33 0.0008963642    1.957    0.489
       276  -9.8129     55.4142    135.8129   8.5810935207e+01   4.0543483788e+01    0.5078425    0.3201805  -4.98  0.002181228    3.836    0.739
       277  -9.8326     57.3751    146.6949   8.7026630161e+01   3.7815207809e+01    0.6013151    0.3046955  85.47  0.002448873    3.110    0.678
       278  -9.7902     53.8845    143.7080   8.7385469732e+01   3.8916311154e+01    0.4398757    0.2183156 -83.42  0.001849003    2.477    0.596
       279  -9.8201     29.1583    149.9200   9.3717627561e+01   4.0176748355e+01    0.5483926    0.2488099  88.93   0.00251674    2.611    0.617
       280  -8.6416     20.0203    152.5238   9.5937652186e+01   4.0455768776e+01    0.1462785    0.1080899  48.73  0.001009445    1.535    0.349
       281  -9.0718      2.8799    150.5703   9.9280479791e+01   4.2301319580e+01    0.3709388    0.1121081 -73.85  0.001766654    2.405    0.584
       282  -8.8847    243.1811    149.6688   4.8395463976e+01   2.7116869307e+00    0.3224465    0.1743831 -34.20  0.001494392    1.709    0.415
       283  -8.9709    189.4880    149.9531   5.8322069238e+01   1.3579445465e+01    0.3320451    0.2371524 -62.15  0.001019093    1.898    0.473
       284  -8.6282     98.4508    150.6118   7.8263832019e+01   3.1074053801e+01    0.2975441    0.1964982  87.28 0.0008417464    1.974    0.493
       285  -9.5306    248.8708    149.1137   4.7323523020e+01   1.7147133549e+00    0.3227575     0.191796 -28.82  0.000752459    1.511    0.338
       286  -8.3476    212.9878    149.5271   5.3701350259e+01   8.7537887433e+00    0.2212482    0.1827418 -28.06 0.0004384392    1.159    0.137
       287  -8.1422    162.6274    150.3723   6.3943342483e+01   1.9107917441e+01    0.2226218    0.1781789 -87.66  0.001084904    1.648    0.393
       288  -9.3567    233.7085    147.5284   4.9517719064e+01   4.8886435163e+00       0.2738    0.1890721 -34.97 0.0008299616    1.390    0.281
       289 -10.0286     89.3136    146.1285   7.9557146552e+01   3.3527341114e+01    0.6523887    0.3530754 -85.83  0.002411915    3.354    0.702
       290  -9.5289     40.0553    147.6272   9.1056017570e+01   3.9583134319e+01    0.4869203    0.2308848  70.54   0.00199998    3.003    0.667
       291  -8.5627    223.3293    146.6449   5.1142209180e+01   7.1158123380e+00    0.2660809    0.2122977 -38.11 0.0007626749    1.285    0.221
       292  -9.6924    139.3406    145.1205   6.7861929756e+01   2.4893052159e+01    0.4109943    0.2715694 -73.73  0.001263503    2.152    0.535
       293 -10.1858    106.7809    144.5259   7.5187617096e+01   3.1044828332e+01    0.6722038    0.3928052  78.48  0.002503592    3.239    0.691
       294  -8.3407    105.3284    138.3540   7.4284707046e+01   3.2678658666e+01    0.2449918      0.13723  24.67 0.0008015191    2.943    0.660
       295  -8.7240     78.1801    146.9213   8.2278309199e+01   3.5002083124e+01    0.2637034    0.1768543  84.94 0.0009821454    1.728    0.421
       296  -9.0141     13.3534    145.7286   9.6651466878e+01   4.2522611976e+01    0.3092974    0.1508372  79.71  0.001540584    2.195    0.544
       297  -8.0624    206.7077    146.2021   5.4104446180e+01   1.0629534694e+01    0.2233547    0.1817366 -50.70 0.0006681171    1.406    0.289
       298  -8.4028    175.6863    146.1131   6.0239121100e+01   1.7212510190e+01    0.2360752    0.1836642 -59.00 0.0007119848    1.492    0.330
       299 -10.3717    241.5486    143.3533   4.7209779483e+01   3.9976017890e+00    0.5951474    0.3716801   9.19  0.002655071    2.087    0.521
       300  -9.2058    247.0777    143.6127   4.6352196211e+01   2.8845819323e+00    0.3159059    0.2053756 -18.45 0.0006284553    1.463    0.317
       301  -8.3541    250.4647    140.5196   4.5080883228e+01   2.7031287584e+00    0.2515146    0.1552546 -36.95 0.0006170036    1.539    0.350
       302  -7.9914    194.5388    143.7719   5.5881872793e+01   1.3638311397e+01    0.2043451    0.1376601 -47.60 0.0005636476    1.601    0.375
       303  -8.7663    165.7032    143.7856   6.1796596993e+01   1.9775251941e+01    0.3002321    0.2529862  88.40  0.001078788    1.481    0.325
       304  -9.8205    124.9418    142.4562   7.0554573935e+01   2.8239666360e+01    0.4897803     0.320325 -77.24  0.001426124    2.157    0.536
       305 -10.8676     69.4074    139.4769   8.3074868647e+01   3.7921276687e+01     0.842469    0.3710042 -64.44  0.003322955    2.068    0.516
       306  -8.4097    198.7935    148.4100   5.6137306907e+01   1.1902506551e+01    0.2458827    0.1879007 -43.40 0.0006123848    1.359    0.264
       307  -8.4624    181.9987    141.5092   5.7860944685e+01   1.6746920532e+01    0.2799151    0.2011177 -53.41 0.0006308874    1.570    0.363
       308  -9.2765      2.4792    141.3854   9.8538320639e+01   4.4320266715e+01    0.3092509    0.1389807  82.66  0.001270513    2.310    0.567
       309  -7.9416     39.3466    141.3020   9.0384367338e+01   4.1087208137e+01    0.1204182   0.08406939 -45.49  0.000703915    1.687    0.407
       310  -8.2854    134.0000    139.9939   6.7938246518e+01   2.7036612132e+01    0.2480031   0.08153288 -47.55 0.0008018796    2.939    0.660
       311  -9.7702     23.5655    137.9053   9.3542678024e+01   4.3384135862e+01    0.5056796     0.229956  75.00   0.00184905    3.191    0.687
       312  -9.2918    139.3075    137.9016   6.6254944983e+01   2.6434092498e+01    0.4054377    0.2543097 -20.55  0.001577047    2.594    0.614
       313  -7.8357    218.5591    138.4828   5.0068140189e+01   9.4639747105e+00    0.1479647    0.1341656 -12.82 0.0001300777    1.021    0.020
       314  -8.2907    207.4486    137.6877   5.1933290781e+01   1.1962587466e+01    0.2684425    0.1355523 -40.65 0.0006919315    1.940    0.485
       315  -8.7015    197.4259    137.2050   5.3740364760e+01   1.4212257804e+01    0.2663776    0.2137156 -61.54 0.0006520934    1.549    0.354
       316 -10.3567     83.3416    133.0244   7.8530574935e+01   3.7429296358e+01    0.5779774    0.3031109 -63.91  0.001507774    1.836    0.455
       317  -9.3992    247.0607    129.8860   4.3113717688e+01   5.0006829894e+00    0.3686623    0.2593183 -25.48 0.0005851238    1.258    0.205
       318  -9.1604    248.4899    134.9808   4.4098291483e+01   3.9303808414e+00    0.3143016    0.2101319 -29.33 0.0009008938    1.325    0.245
       319  -9.1370    250.7886    130.9474   4.2772495435e+01   4.0989261751e+00    0.5860064    0.1322653 -30.23  0.001613421    4.557    0.781
       320  -8.3191    187.6446    135.7606   5.5328539081e+01   1.6609828595e+01    0.2132823    0.1358058 -45.23 0.0006866871    1.604    0.376
       321  -8.0794    162.6535    136.1674   6.0656251787e+01   2.1949012601e+01    0.2342809     0.183906 -61.34  0.000699401    1.445    0.308
       322  -9.2994    151.5500    135.4610   6.2927323691e+01   2.4441399974e+01     0.446879    0.2255467  40.89  0.001762557    2.108    0.526
       323  -9.2645     39.0530    135.8515   8.9700476881e+01   4.2358891151e+01    0.2501957    0.1648034  89.92 0.0007946972    1.461    0.316
       324  -8.1174    231.4479    133.9292   4.6687925940e+01   7.5306347218e+00    0.2189098    0.1320406 -31.87 0.0006608212    1.518    0.341
       325  -8.6793    179.3585    133.6975   5.6514956633e+01   1.8816718935e+01    0.3043338    0.2390217 -70.45 0.0007779116    1.666    0.400
       326  -9.2106    112.8756    132.8260   7.1302016391e+01   3.2594410139e+01    0.3971224    0.2672965 -59.83  0.001471614    1.460    0.315
       327  -8.2289    237.4783    133.0535   4.5450599152e+01   6.4338870192e+00    0.2223073    0.1296085 -32.98 0.0007465045    1.554    0.357
       328  -9.8949    132.4272    131.3160   6.6315826167e+01   2.9223645922e+01    0.5183973    0.3464098 -82.57  0.001065128    2.420    0.587
       329  -9.4251    142.9407    131.1516   6.3842666553e+01   2.7134189819e+01    0.3751416    0.2473114 -51.48 0.0006120972    1.512    0.339
       330 -10.1760     97.8125    129.6307   7.4277344346e+01   3.5926241415e+01    0.6932475     0.219568 -51.60  0.002392811    2.822    0.646
       331  -8.0542    204.5273    130.0458   5.0606750555e+01   1.3953039885e+01    0.2322939    0.1419261 -36.41 0.0008109518    1.553    0.356
       332  -8.0042    192.8035    129.8633   5.2836714497e+01   1.6576005691e+01    0.2059177    0.1744602 -55.06 0.0004222251    1.320    0.242
       333  -9.0650    168.4406    129.3428   5.7735776065e+01   2.2067079505e+01    0.3003265    0.2508866 -87.80 0.0004718904    1.525    0.344
       334  -9.4735    152.9823    128.8085   6.0995323958e+01   2.5522315870e+01    0.4726705     0.260399 -55.14  0.001096116    2.113    0.527
       335 -10.1779     73.3054    128.4542   8.0133573616e+01   3.9933997953e+01    0.5402334     0.276334 -69.66  0.001549865    2.089    0.521
       336  -8.6585    172.3257    138.1319   5.9061753689e+01   1.9481753947e+01    0.3406689    0.2369431 -71.08 0.0008335619    2.171    0.539
       337  -9.8160     12.7228    128.6795   9.4927506065e+01   4.6361500331e+01    0.4722342    0.2187908  88.65  0.002047728    2.376    0.579
       338  -7.9451      1.6582    130.3066   9.7632440479e+01   4.6808914437e+01    0.1165132   0.06830427  75.50 0.0006274799    1.687    0.407
       339  -8.1891    211.5143    129.0156   4.9039473759e+01   1.2604464212e+01    0.2134196    0.1205344 -53.95 0.0008092545    2.445    0.591
       340  -7.7088    186.4824    129.4809   5.4007103284e+01   1.8050777202e+01    0.1524745    0.1461605 -32.40 0.0002295596    1.063    0.059
       341  -9.3836    163.1419    127.3488   5.8382621598e+01   2.3628104776e+01      0.43819    0.2508813 -35.81  0.001137317    1.760    0.432
       342 -10.4582     60.1308    124.8982   8.2783015038e+01   4.2494007189e+01    0.7009045    0.3913028  85.18  0.002478183    2.933    0.659
       343 -10.7251     44.9725    123.2589   8.6327505395e+01   4.4632024109e+01     1.050001    0.5149252  85.57  0.003837388    4.041    0.753
       344  -9.8263    117.9880    125.1094   6.8302533555e+01   3.3379058396e+01    0.5761478    0.3693647  78.50  0.001528773    2.707    0.631
       345  -8.0940    228.4083    125.2215   4.5076821541e+01   9.6018776814e+00    0.2109453    0.1274663 -40.77 0.0007858445    1.613    0.380
       346  -8.9011    179.1642    124.4268   5.4224684450e+01   2.0653349157e+01    0.3053025    0.2363544 -57.66 0.0007763562    1.479    0.324
       347  -9.3241    133.9866    124.7079   6.4360496405e+01   3.0345213594e+01     0.468506    0.2601777  25.96  0.001685019    2.934    0.659
       348 -10.2463     28.4715    122.0786   9.0272225095e+01   4.6537605981e+01    0.7134984    0.3371289  81.82  0.002870795    3.593    0.722
       349  -7.5445    243.7763    123.9785   4.2211496465e+01   6.5907939981e+00    0.1888941    0.1075955 -30.26 0.0004341293    1.564    0.361
       350  -7.8186    188.4764    123.9489   5.2199238292e+01   1.8649810412e+01    0.2310005     0.146096 -38.78 0.0005575406    1.514    0.340
       351  -9.0573     84.7909    122.2262   7.5965506252e+01   3.9701610505e+01    0.4833384    0.3947985   9.31  0.002646354    1.661    0.398
       352  -7.9213    195.3219    122.1244   5.0371606717e+01   1.7445220361e+01    0.2260884    0.1303484 -44.35 0.0004538162    1.751    0.429
       353  -8.7377    171.9499    121.3356   5.4943322275e+01   2.2878332718e+01    0.2574014    0.2043448 -47.44 0.0004361419    1.268    0.211
       354  -9.0390    158.6089    121.2807   5.7833838136e+01   2.5857151450e+01    0.3060207    0.2412068 -78.57 0.0007429983    1.668    0.400
       355  -7.8476    203.4213    121.5368   4.8660075663e+01   1.5726196843e+01    0.1532352     0.141854 -25.04 7.740058e-05    1.038    0.037
       356 -10.0588    141.5787    117.9633   6.0866905903e+01   3.0223869641e+01    0.6141378    0.2964061 -51.24  0.001177832    2.186    0.542
       357  -9.9896    131.2051    118.5616   6.3487823909e+01   3.2240878709e+01    0.5311216    0.3639719  88.82  0.001881718    2.451    0.592
       358  -9.4849     71.2204    119.6395   7.8922901690e+01   4.2266743055e+01    0.2853076      0.20349  85.61 0.0008733086    1.710    0.415
       359  -9.5298      2.9481    117.0318   9.5865836314e+01   4.9668495677e+01     0.453088    0.2044683  78.50  0.002123392    2.972    0.664
       360  -8.5438    231.3075    117.6097   4.2678305796e+01   1.0240099004e+01    0.2696654    0.1606118 -40.72 0.0005788293    1.613    0.380
       361  -9.9859    109.4117    114.1183   6.7773120741e+01   3.7425117411e+01    0.5805261    0.3674437 -73.94  0.001445233    2.327    0.570
       362  -9.0438    109.7226    106.9752   6.5864027817e+01   3.8960171347e+01    0.3745222      0.25451  -7.56  0.001533216    2.497    0.600
       363  -8.5308    193.0250    115.4016   4.9064566017e+01   1.9211816252e+01    0.2897787    0.2022249 -47.98 0.0005038637    1.501    0.334
       364  -8.0750    185.7820    115.8081   5.0615911566e+01   2.0800759590e+01       0.2116    0.1789056 -58.91   0.00041326    1.330    0.248
       365  -9.1915    250.2748    114.6035   3.8892443646e+01   6.7314302977e+00    0.2553303    0.1934749 -47.66  0.001070007    1.431    0.301
       366 -10.3113    248.4882    107.9771   3.7522254993e+01   8.1351762538e+00    0.4338779    0.3594907  -5.12  0.001844487    1.202    0.168
       367 -10.5934    249.1815    102.8396   3.6133943913e+01   8.7914255664e+00    0.5415236    0.3333074 -30.69  0.002388671    1.418    0.295
       368  -9.8863     79.0069    112.4800   7.5333872745e+01   4.2817629649e+01    0.5081807    0.3353288 -87.67  0.001683698    2.174    0.540
       369  -8.1236    167.4884    114.4674   5.4087690522e+01   2.5247316697e+01    0.1565304    0.1495112 -31.74 0.0001572033    1.019    0.019
       370 -10.0430     92.8377    112.3382   7.1634225687e+01   4.0699597331e+01    0.5045526    0.3172536 -68.58  0.001476874    1.854    0.461
       371  -9.8248    122.0494    112.3044   6.4121908190e+01   3.5432583148e+01    0.3823895    0.2658604 -56.83 0.0006755388    1.466    0.318
       372  -8.4135    174.9174    111.9184   5.1814072993e+01   2.4048573619e+01    0.2455583    0.1898611 -68.19 0.0006983973    1.651    0.394
       373  -9.0415    159.2410    111.6358   5.5136246987e+01   2.7679827574e+01    0.2913966    0.2439015 -35.42  0.000595997    1.142    0.124
       374  -9.6844     14.1091    110.9165   9.2282333713e+01   5.0263080760e+01    0.3454581    0.1938609  85.93  0.001885833    1.980    0.495
       375 -10.2290     66.4345    109.2347   7.7999991032e+01   4.5321685913e+01     0.628547    0.2868726 -56.83  0.002296267    1.838    0.456
       376  -9.9546    133.3272    108.3560   6.0290804709e+01   3.4002180740e+01    0.5197302     0.305133 -48.70  0.001461078    1.651    0.394
       377  -8.7567     59.3358    115.1557   8.1137208087e+01   4.4855656859e+01    0.3173791    0.2031987 -14.69  0.001432061    2.938    0.660
       378  -8.9567     43.0435    109.1356   8.4335947580e+01   4.8103719490e+01    0.2696356    0.1569674   6.70  0.001256405    3.189    0.686
       379  -8.1045    189.4521    107.9245   4.7760100381e+01   2.1427272021e+01    0.2367102    0.1473182 -36.39  0.000473862    1.516    0.340
       380  -9.6286    139.8460    104.0463   5.7527083631e+01   3.3527025055e+01    0.4982607    0.3152644 -50.79  0.001325516    1.611    0.379
       381 -10.1864    118.9912    105.7114   6.3143881148e+01   3.7473029592e+01    0.5098602    0.4243314 -71.98  0.002541438    1.362    0.266
       382 -10.5638    108.6699     98.4270   6.3827927635e+01   4.1034595555e+01    0.8746439    0.5284187  72.33   0.00123198    3.451    0.710
       383  -8.8905    107.7154     92.3859   6.2366944349e+01   4.2517890629e+01    0.5055387    0.3021274  25.72  0.002085349    2.335    0.572
       384  -8.5786     78.7620    104.9883   7.3653592129e+01   4.4573433590e+01    0.3521482    0.2430098   0.07  0.001630049    2.391    0.582
       385 -10.6048     22.6208    102.0277   8.8631791711e+01   5.1622554149e+01    0.7003471    0.3570355  88.23  0.002786742    2.885    0.653
       386  -9.6194    150.5603    102.7409   5.4639618178e+01   3.1434974740e+01    0.5764396    0.2908106 -53.48  0.001274881    2.433    0.589
       387  -8.2979    150.8993     95.2804   5.2410875644e+01   3.2856099512e+01    0.3162092    0.2092954  -9.49  0.001036087    2.194    0.544
       388  -8.6711     93.2822    104.8114   6.9655529919e+01   4.2333369415e+01    0.2636668    0.1913128  -3.33  0.001223499    2.088    0.521
       389 -10.4619     45.5493    102.0173   8.2248729846e+01   4.9479569407e+01    0.6637036    0.3873427  79.73  0.002925504    2.949    0.661
       390  -8.6423    166.7111    103.9120   5.1357762521e+01   2.7509309363e+01    0.2870318    0.2026211 -51.61 0.0005908807    1.511    0.338
       391 -10.3026    128.6328    101.6420   5.9591878266e+01   3.6406011661e+01    0.4811224    0.3118989 -50.07  0.001649221    1.513    0.339
       392  -8.6681      6.8026    102.8878   9.3039243915e+01   5.2582670821e+01    0.2255143    0.1314289 -86.62 0.0008219341    1.635    0.388
       393  -7.7541    175.6168    101.8438   4.8883011443e+01   2.5824240371e+01    0.2317935    0.1380243 -46.51 0.0006511433    1.715    0.417
       394  -8.3818    159.9147    100.9226   5.2003133897e+01   2.9669883294e+01    0.2429086    0.1891953 -68.60 0.0004954643    1.612    0.380
       395  -9.2907     82.1264     99.8046   7.1438374629e+01   4.5244714460e+01    0.4175941    0.2261062 -62.62 0.0008965587    2.034    0.508
       396 -10.1314     64.0487     96.0907   7.5643819350e+01   4.8647382907e+01    0.6423799    0.3591975 -70.09  0.001724195    2.180    0.541
       397  -9.0925     95.0487     96.7586   6.7050612524e+01   4.3834607799e+01    0.2866555    0.2148274 -63.87 0.0007078595    1.428    0.300
       398 -10.4676    247.9571     92.5884   3.3723574040e+01   1.0643745985e+01    0.4815987    0.3027437 -25.65   0.00228494    1.465    0.318
       399  -8.3302    164.9814     93.9933   4.8887157654e+01   2.9834338829e+01    0.2458828    0.1894893 -66.99 0.0004386856    1.629    0.386
       400  -9.1662     46.5367     92.2141   7.9846476523e+01   5.1611378091e+01    0.4165817    0.2631292  -0.96  0.002066051    2.620    0.618
       401  -7.9253    188.5581     93.4858   4.3906023935e+01   2.4283295855e+01    0.1586131    0.1475317 -37.81 0.0003417339    1.056    0.053
       402  -8.1549    176.3055     92.9992   4.6209346900e+01   2.7322729183e+01    0.2322716    0.1941486 -39.74    0.0006263    1.151    0.131
       403  -9.2594    138.9703     91.8510   5.4209524083e+01   3.6220025455e+01    0.4667921    0.3077084 -59.32  0.001425787    1.885    0.469
       404  -8.8460    120.4065     92.8037   5.9138259298e+01   3.9954593210e+01    0.2535932    0.2173625  -0.13  0.001294101    1.319    0.242
       405  -9.7997    124.5750     90.7280   5.7451302656e+01   3.9532957897e+01    0.4348435    0.2918882 -56.70 0.0009741588    1.682    0.405
       406  -8.2149    157.6180     91.7150   4.9834094084e+01   3.2002371946e+01    0.2239541    0.1411851 -44.83  0.000687215    1.563    0.360
       407  -9.4519     34.7703     89.6588   8.2774908331e+01   5.3373485591e+01    0.4191904    0.2330063 -80.23  0.001570538    2.338    0.572
       408  -8.8941     22.8204     89.6971   8.6330003088e+01   5.4397195691e+01    0.2320415    0.1902931 -13.66 0.0009186703    1.573    0.364
       409  -7.8689    151.2181     88.9255   5.0446345500e+01   3.4029396515e+01    0.2142821    0.1227886 -38.67 0.0004263125    1.645    0.392
       410 -10.0949     86.5536     85.7295   6.6344151159e+01   4.7659851068e+01    0.6755663    0.3668686 -52.95   0.00164372    1.748    0.428
       411  -8.6754     64.9712     87.4349   7.3180020671e+01   5.0470533530e+01    0.3479073    0.2150209  -5.81  0.001481743    2.993    0.666
       412  -7.9086    164.2206     87.0273   4.6984349997e+01   3.1331352499e+01    0.2144051    0.1251732 -34.80 0.0003841339    1.631    0.387
       413  -9.6192     48.3361     84.0532   7.7357143616e+01   5.3246860869e+01    0.4155729    0.2776173  87.91  0.001727846    2.375    0.579
       414  -7.5865    179.2922     85.6323   4.3444454787e+01   2.7942936049e+01    0.1657256    0.1196996 -61.64 0.0007026691    1.715    0.417
       415  -9.9015    104.7463     82.9446   6.0357105421e+01   4.5065476560e+01    0.4605626    0.3225658 -68.86  0.001076275    2.007    0.502
       416  -8.7655    105.0128     77.4723   5.8567917068e+01   4.6135190838e+01    0.4101732    0.2455568 -11.02  0.001317854    3.018    0.669
       417  -8.3197    157.8331     83.6188   4.7342149543e+01   3.3488760731e+01    0.2549943    0.1768653 -40.90 0.0002981781    1.384    0.277
       418  -7.5443    170.6855     83.3251   4.4503099231e+01   3.0453845065e+01    0.1621705    0.1227541 -66.07 0.0007042572    1.666    0.400
       419  -9.1968    140.8075     82.2137   5.0820508848e+01   3.7707808251e+01    0.4149871     0.226149 -42.23 0.0009975565    1.751    0.429
       420  -8.2021     64.0374     82.3522   7.2090230785e+01   5.1714872353e+01    0.1845631    0.1630359 -48.66 0.0005788014    1.074    0.069
       421  -9.3545      5.2024     91.5916   9.1765052452e+01   5.5209188251e+01    0.2704884    0.1615413  84.96   0.00116326    1.936    0.484
       422  -9.5802     24.6735     80.3095   8.3825908037e+01   5.6343267210e+01    0.4013353    0.2303209 -81.13  0.001375048    2.206    0.547
       423  -9.1767     10.2836     80.8635   8.8392544288e+01   5.7267862384e+01    0.3349545    0.1819327  60.97  0.001655093    2.964    0.663
       424  -8.3081    150.3309     80.3985   4.8028288053e+01   3.5858703529e+01    0.2692669    0.1738528 -51.29 0.0007886263    1.717    0.417
       425  -8.7483    119.4556     80.1421   5.5517446753e+01   4.2739465952e+01    0.3429874    0.2267666 -59.38 0.0008831357    1.911    0.477
       426  -8.9010     74.5495     80.2342   6.8291169330e+01   5.0703685562e+01    0.3306979    0.2195469 -65.44 0.0009956075    1.820    0.450
       427  -9.1258    248.8867     80.3822   3.0482541968e+01   1.2304880749e+01    0.2862467    0.1759426  40.89  0.001327788    1.929    0.482
       428  -8.2867    166.8288     79.6097   4.4175027403e+01   3.2060342965e+01    0.2648916     0.201266 -24.93 0.0005176615    1.305    0.234
       429  -7.8801    184.2236     77.9528   4.0198411474e+01   2.8077346456e+01    0.2178817    0.1236808 -33.64 0.0008732532    1.662    0.398
       430  -8.1047     49.6746     77.6885   7.5289851035e+01   5.4498459116e+01    0.1361501   0.08662072 -31.75 0.0004658563    1.660    0.397
       431  -7.7769    157.1530     76.1977   4.5184565614e+01   3.5011178130e+01     0.216077    0.1787376 -56.58 0.0004351749    1.337    0.252
       432  -9.3435    128.1380     75.0615   5.1648985320e+01   4.1889123680e+01     0.397496    0.2360713 -51.26 0.0006833777    1.902    0.474
       433  -8.4674    140.7408     75.1626   4.8596039520e+01   3.9054560237e+01    0.2329787    0.2040531 -52.44 0.0005098792    1.218    0.179
       434 -10.0271     63.0895     73.3351   6.9796818060e+01   5.3782342931e+01    0.4669266    0.2677138 -60.72  0.001146314    1.945    0.486
       435  -8.3261    163.5626     73.3119   4.2901904978e+01   3.3970934461e+01    0.2938416    0.1406723 -38.82 0.0007623959    1.978    0.495
       436  -9.8012     82.4437     72.3209   6.3474532827e+01   5.1146880087e+01    0.4323909    0.2809618 -62.04  0.001128021    1.970    0.492
       437  -8.2820    151.4211     73.2176   4.5505531662e+01   3.6914926263e+01    0.2242728    0.1385426 -44.50 0.0006459519    1.634    0.388
       438  -8.3806    115.8257     72.7237   5.4076412932e+01   4.4937533272e+01    0.2760521    0.1818947 -58.62 0.0006659724    1.961    0.490
       439  -8.1214     42.6986     72.6026   7.6158649420e+01   5.6361304653e+01    0.2123062    0.1401008 -69.12  0.000896872    1.696    0.410
       440  -7.8342    175.5211     72.4870   4.0218651211e+01   3.1166693575e+01    0.1575785    0.1486762  -9.88 7.498338e-05    1.041    0.039
       441  -8.9997    105.9125     71.5154   5.6378219425e+01   4.7145052152e+01    0.2823632    0.1921343 -51.76 0.0006941053    1.577    0.366
       442  -9.2646     95.2485     70.9026   5.9210236651e+01   4.9252615271e+01    0.3873944    0.2188553 -55.91 0.0009190878    2.201    0.546
       443  -9.4932     51.4185     69.5896   7.2449984997e+01   5.6036095399e+01    0.4126988     0.212005 -62.86  0.001291365    2.321    0.569
       444  -9.0603     16.7892     70.1330   8.4068186038e+01   5.9169682254e+01    0.2559756    0.1591231 -79.57 0.0008712754    1.880    0.468
       445  -9.4665     30.3255     69.2970   7.9364947488e+01   5.8267481704e+01    0.3884551    0.2022986 -10.32  0.001687701    3.660    0.727
       446  -7.6130    157.2686     69.6750   4.3082538453e+01   3.6134462815e+01    0.1563669    0.1188886 -59.85  0.000182413    1.571    0.364
       447  -8.8689    147.3379     68.1397   4.4776143689e+01   3.8781873971e+01    0.2920438    0.2190425 -57.45 0.0007107859    1.580    0.367
       448  -9.1113    138.4363     66.8619   4.6415698079e+01   4.1085755829e+01    0.4049379    0.2593693 -26.25  0.001401158    1.566    0.361
       449  -8.2186    211.3309     65.8831   3.1992037885e+01   2.3312319003e+01    0.2121677    0.1842654 -23.45 0.0003862908    1.116    0.104
       450  -8.7632    121.7570     65.7769   5.0180668862e+01   4.4993212519e+01    0.2747301    0.2255855 -58.28 0.0006079916    1.434    0.303
       451  -9.0959     37.1810     63.9453   7.5578050315e+01   5.8760996066e+01    0.2796662    0.1893344 -68.00  0.001536917    1.678    0.404
       452  -7.7019    130.7156     64.3358   4.7427626537e+01   4.3285903420e+01    0.1521752    0.1176834 -61.48 0.0006621171    1.624    0.384
       453  -8.7989    110.1215     63.5034   5.2490596549e+01   4.7829338896e+01    0.2946222    0.2105736 -56.01 0.0006898128    1.708    0.415
       454  -8.3119     64.6575     63.0940   6.6075103563e+01   5.5682422589e+01    0.3732773    0.2091405  -6.59  0.001372697    3.860    0.741
       455  -8.4839     18.2582     62.8666   8.1809502375e+01   6.0615796960e+01    0.2318133    0.1236025 -28.60  0.001242707    2.168    0.539
       456  -7.8033    158.3003     61.6746   4.0263751071e+01   3.7228692870e+01    0.1577476    0.1189048 -62.11 0.0003229259    1.635    0.388
       457  -9.1018     97.7797     60.4248   5.4885948993e+01   5.0794297819e+01    0.3084019    0.2531891  72.92  0.001037605    1.742    0.426
       458  -9.6848     73.3637     59.1585   6.1913393986e+01   5.5188036690e+01    0.3847006    0.2180483 -51.40    0.0010684    1.846    0.458
       459  -8.6379     89.1630     58.9311   5.6905026213e+01   5.2633623621e+01     0.267328    0.1507401 -44.74 0.0009108056    1.690    0.408
       460  -9.7908     23.5161     56.2500   7.8158733872e+01   6.1587552742e+01    0.4032364    0.2586811 -83.33  0.002074766    2.647    0.622
       461  -9.5588      7.5167     56.6359   8.4012628956e+01   6.2644119605e+01    0.3373594    0.1740849 -71.76  0.001331454    2.078    0.519
       462  -8.2707    130.8447     57.2055   4.4928146914e+01   4.4478617746e+01    0.2280084    0.2001414 -52.53 0.0005954937    1.276    0.216
       463  -8.2574    139.9932     55.9929   4.2349540288e+01   4.2562174359e+01    0.2360023    0.1787742 -58.13  0.000559026    1.617    0.382
       464  -8.7965    119.3111     55.7027   4.7281905765e+01   4.7283422431e+01    0.2899653    0.2275341 -60.56 0.0007390449    1.635    0.388
       465  -8.7640     44.3088     55.1827   7.0386409730e+01   5.9803595060e+01    0.2752747    0.1656922 -56.71 0.0009361385    1.683    0.406
       466  -9.0354     62.8054     54.3179   6.3687621613e+01   5.7657027495e+01    0.3010779    0.1811618 -48.75 0.0007555665    1.576    0.365
       467  -8.9996     53.9449     53.2743   6.6356459989e+01   5.9033139655e+01    0.4533757    0.1756658 -54.16  0.001713356    3.122    0.680
       468  -8.6340    250.2089     54.6148   2.3744924405e+01   1.5742437828e+01    0.1891322    0.1262344  51.54 0.0009505483    1.693    0.409
       469  -8.6052    105.7983     52.9174   4.9887438841e+01   5.0568518212e+01    0.2639477    0.1872678 -48.04 0.0007206307    1.568    0.362
       470  -9.4235     92.5760     50.6334   5.2837771072e+01   5.3504144807e+01    0.3791547    0.2337051 -50.16 0.0009354952    1.931    0.482
       471  -8.5599    129.3811     49.4395   4.2514531616e+01   4.6062596713e+01    0.3715734    0.2281588  -4.52  0.001512351    2.179    0.541
       472  -7.9580     74.5054     51.4900   5.8784201765e+01   5.6445697746e+01    0.1412913    0.1149365 -20.54 4.636608e-05    1.079    0.073
       473  -8.2148    120.8180     47.2010   4.3794828658e+01   4.8331157417e+01    0.2124763    0.1932631 -37.46 0.0005363265    1.176    0.150
       474  -8.2393    112.2299     46.8356   4.5872359201e+01   5.0240703984e+01     0.213682    0.1861719 -43.78 0.0006557741    1.271    0.213
       475  -9.0326     82.2022     46.1155   5.4283144110e+01   5.6121974582e+01    0.3056488      0.21449 -51.66 0.0006954745    1.747    0.427
       476  -8.5402     44.9826     44.4606   6.6400083124e+01   6.1787559856e+01    0.2264511    0.1544865 -51.42 0.0006012836    1.500    0.333
       477  -8.8021     16.9541     44.4987   7.7062274384e+01   6.4461365441e+01    0.2093419    0.1404149 -61.02 0.0005719916    1.489    0.328
       478  -8.8983     92.9074     42.5290   4.9614977398e+01   5.4783841078e+01    0.3788477    0.1788231 -23.89  0.001519153    2.310    0.567
       479  -8.1801    132.8732     43.1013   3.9392918397e+01   4.6208693799e+01    0.2199094    0.1948263 -44.15 0.0004449293    1.231    0.188
       480  -8.7604     58.3199     42.1571   6.0705485525e+01   6.0506213837e+01     0.312122    0.1990995 -59.83  0.001290133    2.506    0.601
       481  -9.7575      5.2296     41.8581   8.0840410620e+01   6.5773960811e+01    0.3308585    0.1855975 -70.29  0.001489802    2.132    0.531
       482  -9.1807     69.5281     41.2927   5.6500879983e+01   5.9010201735e+01    0.3018464    0.2181261 -50.36  0.001125625    1.665    0.399
       483  -7.6464    140.6409     41.2801   3.7009630840e+01   4.4629328225e+01    0.1475856    0.1160978 -68.69 0.0007013784    1.667    0.400
       484  -8.3540    105.9048     41.1294   4.5380823284e+01   5.2438573872e+01    0.2086445    0.1853594 -41.08 0.0004416043    1.268    0.211
       485  -8.4700     36.8359     40.6406   6.8040978907e+01   6.3398666762e+01    0.2356663    0.1498828 -47.22 0.0007790477    1.380    0.275
       486  -8.4343     95.8052     38.0156   4.6971739758e+01   5.4926415933e+01    0.2066135    0.1775223 -40.46 0.0005273481    1.314    0.239
       487  -8.0048     80.7824     36.7377   5.0981621209e+01   5.7890798086e+01    0.1747153    0.1511841 -40.19 0.0004910388    1.337    0.252
       488  -9.4588     26.2224     35.1859   7.0162237697e+01   6.5448251470e+01     0.292889    0.1773371 -55.53 0.0009158519    1.773    0.436
       489  -7.9744    126.0443     35.3399   3.8077854401e+01   4.8871543299e+01    0.1967083    0.1782938  29.74 0.0004183951    1.084    0.078
       490  -8.4298    111.8710     34.1959   4.1083279969e+01   5.2179688566e+01    0.2093574    0.1867057 -43.26 0.0005855214    1.297    0.229
       491  -8.7095    154.9513     31.9018   3.0837061475e+01   4.2350914962e+01    0.2726777    0.2019947   3.37 0.0009738511    1.497    0.332
       492  -8.5678    119.0744     32.4375   3.8608172283e+01   5.0834952581e+01    0.3336587    0.1721673 -35.29  0.001334779    1.911    0.477
       493  -8.6826     60.7878     32.3361   5.5821314135e+01   6.1795205705e+01    0.2191814    0.1513057 -38.07  0.000712494    1.377    0.274
       494  -8.7913     48.5344     32.8197   6.0496792166e+01   6.3403066541e+01    0.2341441    0.1758651 -41.05 0.0008618934    1.341    0.254
       495  -8.7367     72.1887     30.9155   5.1309715482e+01   6.0233824208e+01    0.1932632    0.1640799 -32.03 0.0005659015    1.272    0.214
       496  -8.9598     12.9303     29.9725   7.3709019012e+01   6.7507563087e+01     0.307899    0.1450316 -58.57  0.001483695    2.379    0.580
       497  -8.5049    101.7033     29.1481   4.1710931722e+01   5.4996044000e+01    0.2133581    0.1592618 -39.93 0.0005498438    1.483    0.326
       498  -7.8868     42.3275     29.7078   6.1559573867e+01   6.4688777278e+01    0.1081129   0.09529937 -54.84 0.0003621937    1.622    0.384
       499  -8.7738     81.6425     27.2166   4.6685182096e+01   5.9130739071e+01    0.2814448    0.1996082 -46.93 0.0009269816    1.807    0.447
       500  -9.2270      3.8342     27.1318   7.6589886637e+01   6.8651995755e+01    0.2694063    0.1765348 -63.90  0.001289132    1.807    0.447
       501  -8.8371     91.9085     26.1586   4.3175199375e+01   5.7346871016e+01    0.2983897    0.1672583 -36.78 0.0007028457    1.815    0.449
       502  -8.3118     34.9114     22.9205   6.1563365254e+01   6.6650659240e+01    0.1646188    0.1442862 -54.26 0.0008999828    1.712    0.416
       503  -8.5214    104.4864     22.5229   3.8230105862e+01   5.5245393842e+01    0.1378171    0.1225513   3.47 0.0001253789    1.045    0.043
       504  -9.0267     63.6285     20.7865   4.9697622451e+01   6.3060790521e+01    0.2775735    0.1930156 -39.02 0.0007321743    1.593    0.372
       505  -8.9525     48.4824     21.3849   5.5488658412e+01   6.5201083211e+01    0.2558506    0.1873099 -39.15 0.0008383729    1.480    0.324
       506  -8.2523     19.4258     21.2074   6.7378980099e+01   6.8497856750e+01    0.1609411   0.09249398 -48.72 0.0008000826    1.694    0.410
       507  -8.9139     74.0086     19.2189   4.5520007834e+01   6.1539133278e+01    0.2941524     0.155093 -36.67 0.0008125707    1.933    0.483
       508  -7.9517     11.6745     20.3338   7.0451636084e+01   6.9295538697e+01   0.09945565   0.08485712 -61.17 0.0007051238    1.713    0.416
       509  -8.0203     39.0043     18.2910   5.7770883821e+01   6.6877677493e+01    0.1671715     0.130265 -13.62 0.0004676062    1.058    0.054
       510  -8.0259    112.8366     16.8040   3.3827495512e+01   5.4078434112e+01    0.1766131     0.157599 -35.75 0.0004020713    1.284    0.221
       511  -7.9966     87.9865     17.2592   4.0410949481e+01   5.9202536531e+01    0.1814149     0.128942 -38.10 0.0004749736    1.605    0.377
       512  -7.8946     30.3766     16.1469   6.0338523119e+01   6.8202316514e+01    0.1609122   0.09199065 -41.91 0.0005209986    1.676    0.403
       513  -7.7308    191.5469    249.5192   7.5916181067e+01  -2.0463267310e+00    0.1131877   0.09005098  37.82 7.293106e-05    1.064    0.060
       514  -7.9505     17.0350     13.7619   6.5099861411e+01   6.9911936653e+01    0.1249455   0.08836679  14.03 0.0003985477    1.556    0.357
       515  -7.6949     83.3844     10.7049   3.8749019843e+01   6.0809787895e+01    0.1204638    0.1017723 -57.61 0.0007017174    1.766    0.434
       516  -9.3864    147.9554    246.7614   8.2778029892e+01   5.1764421489e+00    0.4551221    0.2650347  78.73  0.002145237    3.637    0.725
       517  -9.0863    146.4091    239.6530   8.2172371518e+01   6.4347072585e+00    0.2998476    0.1774672 -80.24  0.001478398    3.311    0.698
       518  -7.9133     50.3027    249.3127   9.8500617176e+01   1.8470751504e+01   0.08217394   0.07612295 -87.06 0.0003448718    1.613    0.380
       519  -8.5313      7.2372     15.2379   7.0307422096e+01   7.0486424442e+01    0.1734019   0.07881825 -53.85 0.0008903269    2.454    0.592
       520  -8.8045    232.6398    247.0031   6.8854038883e+01  -8.0693448048e+00    0.2143122    0.1571483 -35.00 0.0009099765    1.780    0.438
       521  -8.6306    218.5891    247.3173   7.1172520617e+01  -5.9858837332e+00    0.2467019    0.1309609 -37.61  0.001472812    2.332    0.571
       522  -8.9820    175.6508    247.3644   7.8252607072e+01   7.2540336434e-01    0.2561903    0.1837381  76.99  0.001310766    2.221    0.550
       523  -8.5957    156.1063    247.8606   8.1559700155e+01   3.7473597424e+00    0.1696514    0.1302529  60.43 0.0005405337    1.295    0.228
       524  -8.7884    132.0128    247.5354   8.5500118864e+01   7.5308135714e+00    0.1890049    0.1418368  87.73 0.0005696439    1.567    0.362
