#   1 NUMBER                 Running object number                                     
#   2 MAG_AUTO               Kron-like elliptical aperture magnitude                    [mag]
#   3 X_IMAGE                Object position along x                                    [pixel]
#   4 Y_IMAGE                Object position along y                                    [pixel]
#   5 X_WORLD                Barycenter position along world x axis                     [deg]
#   6 Y_WORLD                Barycenter position along world y axis                     [deg]
#   7 A_WORLD                Profile RMS along major axis (world units)                 [deg]
#   8 B_WORLD                Profile RMS along minor axis (world units)                 [deg]
#   9 THETA_WORLD            Position angle (CCW/world-x)                               [deg]
#  10 FWHM_WORLD             FWHM assuming a gaussian core                              [deg]
#  11 ELONGATION             A_IMAGE/B_IMAGE                                           
#  12 ELLIPTICITY            1 - B_IMAGE/A_IMAGE                                       
         1 -15.2556    196.0240    112.4391   1.0957259772e+01   2.1428102005e+01     1.940325     1.323609  80.85  0.009805231    2.294    0.564
         2 -14.3800     32.4112     44.8827   3.8907564129e+01   6.7487956671e+01      1.00095    0.9143279  54.73  0.004965121    1.244    0.196
         3 -14.7894    247.4296     26.3611   3.4778679955e+02   2.4648121574e+01     1.466483     0.326524 -41.45  0.007052661    2.581    0.613
         4 -14.4384    246.3278     11.2233   3.4493627582e+02   2.6462429414e+01    0.9712433    0.4625137 -74.01  0.006118227    1.988    0.497
         5 -13.6308    244.7984      2.6151   3.4335475689e+02   2.7591643495e+01    0.5602238    0.3015789 -88.30  0.002910955    1.850    0.459
         6 -12.9251     46.7974     24.3957   2.1110692252e+01   6.8802742289e+01    0.4716198    0.3866351  -3.23   0.00221205    1.363    0.266
         7 -12.7702      1.8793     21.4431   5.1205799811e+01   7.5795935445e+01    0.5787457    0.1854451 -62.96  0.002277385    3.296    0.697
         8 -13.5069    208.9344     14.9893   3.4756744118e+02   3.2806474800e+01    0.3802855     0.269654 -65.56  0.001820731    1.124    0.111
         9 -13.5404    184.8947      9.9557   3.4790320302e+02   3.8234573583e+01    0.6912651    0.3553875 -55.01    0.0038568    1.595    0.373
        10 -13.4967    183.2258      2.6311   3.4619254607e+02   3.9319163537e+01    0.5431052    0.3302267  88.28   0.00228999    1.498    0.333
        11 -14.2055    120.4478      6.5591   3.5291028688e+02   5.3516126891e+01    0.8035037    0.4697002 -56.53  0.004056052    1.697    0.411
        12 -11.8300      1.5227      4.9394   4.2427967462e+01   7.9002072786e+01    0.3001755    0.1130542 -52.55  0.001364304    2.738    0.635
        13 -12.9883     91.5258      2.8533   3.5590335836e+02   6.0998533117e+01    0.3520811    0.3044399 -41.39  0.002223645    1.270    0.213
        14 -13.9393     25.3277    223.3365   6.9613307097e+01   2.2534020747e+01    0.8953347    0.4967711  71.68  0.003544883    1.860    0.462
        15 -13.3518     69.8753    249.9681   6.0810075702e+01   1.2720266795e+01    0.5438836    0.1562586  27.22  0.002250675    2.674    0.626
        16 -13.5815     38.4460    241.3902   6.7458391989e+01   1.7543351691e+01    0.8324816    0.5691388 -50.82   0.00506771    1.831    0.454
        17 -12.2478    200.0764    217.7215   2.9643683727e+01   3.5315998288e+00    0.3151681    0.1955044  25.43  0.002027012    1.589    0.371
        18 -12.9332    244.3677    216.6037   2.2458280721e+01  -6.5778714458e-01    0.2151455    0.1397295 -15.05  0.001614247    1.172    0.146
        19 -14.0587    246.0698    189.8404   1.8063477183e+01   2.6836842588e+00    0.6976804    0.5573271 -50.79  0.004861575    1.851    0.460
        20 -13.7281    246.6389    204.6448   2.0317515732e+01   6.6790962688e-01    0.7080745    0.3213494 -16.54  0.003729437    2.742    0.635
        21 -14.5642    244.7793    197.2077   1.9417125922e+01   1.8236040148e+00    0.9959549    0.6510141  -3.98  0.007147408    1.455    0.313
        22 -13.0790     37.3082    205.9091   6.5460362539e+01   2.5304319032e+01    0.6655418    0.3706453  78.47   0.00300611    2.025    0.506
        23 -13.5402     38.9128    198.6236   6.4475129039e+01   2.6857234608e+01    0.5690542      0.45097 -73.33  0.002104511    1.338    0.253
        24 -14.5739      3.7545    189.7192   7.3639562842e+01   3.2133058909e+01     1.365243    0.4186673 -81.55  0.005070022    3.156    0.683
        25 -15.5641     10.3735    175.7895   7.1062482556e+01   3.5127061056e+01     1.889085    0.6751119 -68.40  0.004439043    2.628    0.619
        26 -14.4365     70.7897    189.3989   5.4728547130e+01   2.5422607122e+01     1.423661    0.8207916  57.18   0.00637363    1.980    0.495
        27 -13.6818     77.6234    187.5738   5.2611766224e+01   2.4979357723e+01    0.7334828    0.4544697  47.68  0.003498704    1.607    0.378
        28 -12.6116    142.9877    219.6419   4.1021483134e+01   9.8155733935e+00    0.4136091    0.3407636  16.59  0.002404152    1.084    0.078
        29 -15.0040    152.9685    204.3681   3.6641267599e+01   1.1285766457e+01     1.144599    0.7822984 -58.46  0.004940632    1.885    0.470
        30 -13.1734    245.8004    150.0202   1.1377737979e+01   8.2799116887e+00    0.5089296    0.3037908 -39.26  0.002497143    1.315    0.239
        31 -14.2801    243.1589    165.4945   1.4414031918e+01   6.3749297169e+00    0.9058204     0.591933 -57.99  0.005080366    2.474    0.596
        32 -15.2300    232.7383    137.0617   1.0707168705e+01   1.1846618497e+01     1.990217     1.045125 -51.81   0.00999124    2.136    0.532
        33 -13.3866    203.3510    172.8701   2.1687088993e+01   1.0111269078e+01    0.5256696    0.4322553  20.63  0.002856993    1.312    0.238
        34 -15.0227    134.5428    161.0680   3.3363488092e+01   2.2561182737e+01     1.405878     1.141581  82.75  0.004755663    1.687    0.407
        35 -14.4669    192.1894    162.9796   2.1802584626e+01   1.3289460323e+01    0.5268686    0.4647007 -18.77  0.002694699    1.057    0.054
        36 -12.7945     98.7023    159.3492   4.2396575386e+01   2.8737061120e+01    0.6327622    0.3369655  37.86   0.00266623    1.807    0.447
        37 -15.0006    198.1116    153.9973   1.9085418492e+01   1.3978128318e+01      0.69755    0.5512905 -50.87   0.00435026    1.371    0.270
        38 -15.1630    205.4473    144.8660   1.6129821576e+01   1.4446265595e+01     1.490779    0.5097759  38.97  0.006178499    3.592    0.722
        39 -13.8467     30.9753    151.4698   6.2563768961e+01   3.9784267006e+01    0.9651124    0.5741092 -64.40  0.003859852    1.625    0.385
        40 -15.5955     28.2810    136.4341   6.1810341787e+01   4.4179940303e+01     2.820187     1.226845 -38.42  0.009808601    3.127    0.680
        41 -14.5139      2.9559    113.5449   6.9231024997e+01   5.2469526513e+01      1.18206    0.6529129 -76.47  0.005445763    1.637    0.389
        42 -15.3899      5.5473    135.1408   7.0001639659e+01   4.6343111146e+01     2.669054    0.5411986 -71.32  0.008152513    3.779    0.735
        43 -13.7982    249.2721    241.5311   2.5344135804e+01  -4.0749248092e+00     0.681363    0.1862177 -38.43  0.003585275    3.106    0.678
        44 -14.4484     10.4877     79.2885   6.1325602023e+01   6.1367081354e+01     1.160056    0.6912991   1.92  0.005439866    1.880    0.468
        45 -13.6610    115.8834     91.3899   2.1932778013e+01   4.1431961916e+01    0.6270447    0.3538671 -51.42  0.002627583    1.782    0.439
        46 -14.9076     20.1813     91.7213   5.8672651641e+01   5.7289162392e+01     1.595732    0.7844428 -59.13  0.004193738    1.821    0.451
        47 -13.8415      5.4351     95.8566   6.6281475197e+01   5.7207420310e+01    0.6660702    0.5209737 -60.33   0.00285314    1.179    0.152
        48 -12.9160    248.5576     70.5969   3.5626303291e+02   1.9063786631e+01    0.3763657    0.1363932 -45.57  0.001958621    2.016    0.504
        49 -14.6233    109.0812     67.1645   1.6417651604e+01   4.7792085205e+01     1.019645    0.7572863  55.69  0.004976142    1.328    0.247
        50 -14.5889    238.4371     57.7138   3.5454633296e+02   2.2351982146e+01     1.098391    0.7316051  -7.19  0.006086663    2.849    0.649
        51 -13.1782    230.0956     53.6038   3.5437688659e+02   2.4288686989e+01    0.4484155      0.28503 -85.82  0.002845324    1.786    0.440
        52 -14.2675     66.3158     52.8446   2.5373432187e+01   5.9914340936e+01    0.8684151    0.5341411 -46.23  0.004015511    1.688    0.408
        53 -13.3735    247.0299    231.1302   2.4201292978e+01  -2.6751373921e+00    0.3049455    0.2152347  -5.96  0.001420596    1.114    0.103
        54 -13.8957     77.2731     59.6262   2.3735264255e+01   5.6314015937e+01    0.4605997    0.4278297   3.84  0.002547666    1.195    0.163
        55 -11.7713    235.0035     42.0111   3.5163169009e+02   2.4903048306e+01    0.1823978     0.136155 -52.76  0.001164637    1.018    0.018
        56 -13.6491     48.4762    246.7324   6.5461164442e+01   1.5517598396e+01    0.8621889    0.4326096  64.51  0.004389838    2.340    0.573
        57 -13.0239    184.6339    244.2066   3.6181554358e+01   1.3340435999e+00      0.31422    0.2551605 -34.06   0.00235988    1.458    0.314
        58 -15.6826     88.0720    228.3266   5.4626234584e+01   1.4834198026e+01      2.01068     1.264122 -73.76  0.009763669    2.044    0.511
        59 -12.8399     80.5196     34.4510   1.2557371250e+01   5.9976561984e+01     0.405008    0.2611248  69.25  0.001925431    1.689    0.408
        60 -11.9804    233.2145     29.9223   3.4928957651e+02   2.6649193604e+01    0.3029168    0.1213682 -33.44  0.001597818    2.149    0.535
        61 -14.1986    193.0596    233.1570   3.3142365988e+01   2.0392198845e+00    0.5936971    0.4228025  17.11  0.004202776    1.281    0.219
        62 -14.3431    230.2307    226.0001   2.5951099406e+01  -5.8100119066e-01    0.6479773    0.5703424  -3.20  0.004216813    1.482    0.325
        63 -15.1343    149.1335    188.2144   3.4866595353e+01   1.4814929738e+01     1.668229     1.114963  -2.43   0.00851742    1.801    0.445
        64 -16.4283    163.1405    206.1667   3.4811423014e+01   9.6697105623e+00     2.055465     1.312983 -57.51   0.01108845    2.109    0.526
        65 -14.0824    187.9476    219.7884   3.2115419329e+01   4.5376924308e+00    0.5400563    0.4286035  25.53  0.003028254    1.385    0.278
        66 -14.3844     56.4005    217.7974   6.1435429547e+01   2.0621243198e+01      1.21744    0.7354186  37.68  0.006285216    1.398    0.284
        67 -15.3869     64.9786    209.4042   5.8464851009e+01   2.1507405360e+01     1.397113    0.8108086  70.17  0.006517851    2.215    0.548
