#   1 NUMBER                 Running object number                                     
#   2 MAG_AUTO               Kron-like elliptical aperture magnitude                    [mag]
#   3 X_IMAGE                Object position along x                                    [pixel]
#   4 Y_IMAGE                Object position along y                                    [pixel]
#   5 X_WORLD                Barycenter position along world x axis                     [deg]
#   6 Y_WORLD                Barycenter position along world y axis                     [deg]
#   7 A_WORLD                Profile RMS along major axis (world units)                 [deg]
#   8 B_WORLD                Profile RMS along minor axis (world units)                 [deg]
#   9 THETA_WORLD            Position angle (CCW/world-x)                               [deg]
#  10 FWHM_WORLD             FWHM assuming a gaussian core                              [deg]
#  11 ELONGATION             A_IMAGE/B_IMAGE                                           
#  12 ELLIPTICITY            1 - B_IMAGE/A_IMAGE                                       
         1 -12.5772    201.2688     40.6028   4.2540939794e+01   3.0090963578e+01    0.9910356    0.9151728  77.28  0.005503287    1.148    0.129
         2 -12.5590    212.3503     29.9747   3.8707187551e+01   2.8898511113e+01    0.8459932     0.762172  35.47  0.002286259    1.472    0.320
         3 -11.0934    240.3727      4.9770   3.0934707957e+01   2.5699194402e+01    0.5198444    0.4670277 -68.37  0.003887692    1.254    0.203
         4 -10.8004    234.3855      4.3910   3.1216561915e+01   2.7007891823e+01    0.5684777    0.2928477 -42.83  0.003151284    1.703    0.413
         5 -10.3262     17.1192      3.8628   7.9179906510e+01   7.2926244401e+01    0.2602963    0.2389076  83.12  0.001798331    2.498    0.600
         6  -7.5130    107.6733    204.2896   1.0095069312e+02   1.6953475035e+01     0.144628   0.09962242  64.82 0.0003286928    1.615    0.381
         7 -13.8312     40.9782    197.2191   1.1558164532e+02   2.7949131686e+01     3.885062     1.537006  68.07   0.00356921    3.744    0.733
         8 -14.9463      5.0083    178.3133   1.2218030820e+02   3.5880646260e+01     18.76792    0.6270044 -75.69   0.03385779   14.893    0.933
         9 -10.4288     71.9313    168.7955   1.0454483382e+02   3.0821116577e+01     0.364283    0.2794982 -44.85 0.0008496518    1.455    0.313
        10 -13.8928      9.0318    207.5633   1.2322578161e+02   2.8928240003e+01     1.305165     1.117122 -35.41   0.00413048    1.753    0.430
        11  -8.2177    188.5749    176.2176   7.7479591657e+01   8.3236649214e+00     0.203547    0.1313024 -29.90 0.0009412363    1.615    0.381
        12  -7.2382    110.3410    167.6910   9.4274959585e+01   2.4926541134e+01    0.1579576    0.1143341  71.70 0.0007044178    1.691    0.408
        13 -10.9669     80.5494    160.0306   1.0083277667e+02   3.1735463022e+01     0.651931    0.3728735  58.62 0.0003983904    2.096    0.523
        14 -11.9073     68.5975    155.4492   1.0335280579e+02   3.4633998239e+01    0.5574884    0.4305115 -33.69  0.001079202    1.565    0.361
        15 -12.4846     68.5571    144.4228   1.0148367412e+02   3.7433976809e+01     1.822533    0.9652486  79.99  0.005907726    3.914    0.744
        16  -9.4389    134.3227    148.0277   8.4029222854e+01   2.5069583327e+01    0.6359339    0.1814959 -53.22  0.001707325    4.092    0.756
        17  -8.5324    198.0018    139.5008   6.7523391897e+01   1.3706490942e+01    0.2710951    0.1985952 -54.98 0.0006236849    1.494    0.330
        18  -9.2906    101.9308    138.9180   9.0765429510e+01   3.3464712096e+01    0.4583387    0.3077618 -24.63  0.001896826    2.089    0.521
        19 -10.5651     89.0836    138.8319   9.4436632701e+01   3.5704804192e+01    0.3089953    0.2685107 -30.42 0.0004640688    1.267    0.211
        20 -10.6528     87.5271    153.5846   9.7771650183e+01   3.2258067650e+01      0.57567    0.4312821 -25.18  0.001705119    1.746    0.427
        21 -12.1784     21.0372    221.8677   1.2171186441e+02   2.4684255988e+01    0.5520706    0.4253017 -55.78  0.001433636    1.679    0.404
        22  -9.0348    105.9207    130.8853   8.7818250945e+01   3.4706260343e+01    0.3613344    0.3301224 -66.74  0.001876665    1.094    0.086
        23  -9.2639    110.9974    130.0036   8.6166157984e+01   3.3960265127e+01    0.3800418    0.2798496  13.51  0.001165553    1.781    0.438
        24  -9.3696     98.2919    125.8908   8.8869132818e+01   3.7324162908e+01    0.3319775    0.2655339 -16.73 0.0006113653    1.527    0.345
        25  -8.0092     87.8560    121.0222   9.0865703331e+01   4.0339307966e+01    0.3359834    0.1887137  62.27  0.001195234    2.905    0.656
        26 -15.9275     15.8131    242.4279   1.2386937890e+02   2.1062152714e+01     5.627196     2.216455  28.71   0.02790783    3.131    0.681
        27  -8.0637    107.6763    118.9084   8.4410221071e+01   3.7260469213e+01    0.2138621    0.1901119 -51.69 0.0004280305    1.095    0.087
        28  -9.9955     26.3454    149.4332   1.1418582549e+02   4.1041581900e+01    0.3030981    0.1472286 -76.07  0.001408171    1.829    0.453
        29  -9.0432    120.5382    112.0343   7.8948631497e+01   3.6281971103e+01    0.2302082    0.1388969 -69.32 0.0008094292    2.624    0.619
        30  -8.3102    205.5128    110.0054   5.9133604596e+01   1.7790939129e+01    0.2192686    0.2003316  53.61 0.0005811994    1.183    0.155
        31  -8.9801    114.9963    109.6342   7.9875931648e+01   3.7972433163e+01    0.3197697    0.1660569 -33.47  0.001059045    2.409    0.585
        32  -9.6342     22.1692    108.8723   1.0975256803e+02   5.1495200946e+01    0.1983016    0.1628686 -84.96 0.0004657618    1.216    0.178
        33  -8.9845     32.6689    100.5211   1.0461592829e+02   5.2641475931e+01    0.2391947    0.1099565 -62.87 0.0007944115    1.877    0.467
        34  -8.4798    238.3286     96.6491   5.0881868296e+01   1.3334158037e+01    0.1451752   0.09458146 -63.83 0.0001663078    1.766    0.434
        35  -9.2698    246.5008     94.3376   4.9282845398e+01   1.2122309600e+01    0.2179345    0.1263282  59.04  0.001100205    2.008    0.502
        36  -8.6533    125.5295     92.7399   7.2172907769e+01   3.9431986811e+01    0.2183527    0.1475094 -54.40 0.0009397522    1.621    0.383
        37  -9.3516    193.1773    194.8599   8.0216523512e+01   3.9986574380e+00    0.4049791    0.1915858 -57.95  0.001321002    4.458    0.776
        38  -7.9771     74.9354     84.9790   8.5596959126e+01   5.0937288471e+01    0.2214555    0.1803994  77.05 0.0006963196    1.705    0.413
        39  -8.3667    112.2712     81.9856   7.2671660281e+01   4.4513661871e+01    0.3011728    0.1947767  72.28 0.0007839073    2.598    0.615
        40  -7.8612     69.5131     81.5621   8.6501976632e+01   5.2542794408e+01    0.1413227    0.1328784 -30.29 0.0003256764    1.058    0.055
        41  -8.0650     99.5026    180.5373   9.9282619632e+01   2.3709366350e+01    0.1451164    0.1357794  71.25 5.769451e-05    1.005    0.005
        42 -12.0868    191.3066     48.0434   4.5760539649e+01   3.1431512565e+01    0.9795086    0.6259581  40.28  0.003286834    2.012    0.503
        43  -9.8653     95.9492    242.8617   1.0832370060e+02   1.0896850002e+01    0.3465076    0.2073168  75.41  0.001772249    2.171    0.539
        44  -8.3884    192.6579    209.3390   8.3009391439e+01   1.5244318347e+00    0.1277212    0.1091208  73.54 0.0007049516    1.771    0.435
        45  -9.4563    139.6171     45.2744   5.3932759028e+01   4.4479633542e+01     0.310004    0.2406889 -86.54 0.0007977634    1.529    0.346
        46 -10.3599     41.9835    177.3732   1.1332484231e+02   3.2535416354e+01    0.4817039    0.3382256  -1.76  0.001365873    2.291    0.563
        47  -9.7606     32.0045     32.4483   8.4871340406e+01   6.7035736567e+01    0.2595195    0.1682197 -13.61  0.001298066    1.489    0.328
        48  -8.6849    198.0641     23.9099   3.8778983507e+01   3.2941269810e+01    0.1974546    0.1525746  37.44 0.0009857679    1.707    0.414
        49 -10.5307     67.3049    173.7910   1.0647662794e+02   3.0235769835e+01     0.460435    0.2889074 -36.79  0.002099798    2.190    0.543
        50  -9.9558    142.5073    226.5007   9.6414360326e+01   6.7392335259e+00    0.2178231    0.1718638  83.82   0.00100189    1.719    0.418
        51 -12.4158     52.4698    188.5336   1.1201528995e+02   2.8608673818e+01     1.168796    0.8796539  85.92  0.006765544    1.218    0.179
