#   1 NUMBER                 Running object number                                     
#   2 MAG_AUTO               Kron-like elliptical aperture magnitude                    [mag]
#   3 X_IMAGE                Object position along x                                    [pixel]
#   4 Y_IMAGE                Object position along y                                    [pixel]
#   5 X_WORLD                Barycenter position along world x axis                     [deg]
#   6 Y_WORLD                Barycenter position along world y axis                     [deg]
#   7 A_WORLD                Profile RMS along major axis (world units)                 [deg]
#   8 B_WORLD                Profile RMS along minor axis (world units)                 [deg]
#   9 THETA_WORLD            Position angle (CCW/world-x)                               [deg]
#  10 FWHM_WORLD             FWHM assuming a gaussian core                              [deg]
#  11 ELONGATION             A_IMAGE/B_IMAGE                                           
#  12 ELLIPTICITY            1 - B_IMAGE/A_IMAGE                                       
         1 -13.8243     12.9618     48.5825   6.8544445884e+01   6.5194693880e+01    0.7664307    0.4027418 -43.60  0.001110012    1.531    0.347
         2 -12.6293     56.1821     37.4142   4.5581181356e+01   6.2384881130e+01     1.007086    0.4838759 -24.67   0.00446938    2.627    0.619
         3 -11.8439      6.8103     27.0647   6.4793134038e+01   6.9492393342e+01    0.7726411    0.3699124 -61.60   0.00302789    2.917    0.657
         4 -11.7710     10.7134     11.3557   5.6536772182e+01   7.1660060908e+01    0.6141662    0.4179008  44.32  0.003869792    2.534    0.605
         5 -12.3779      3.2044     13.6867   6.1751901157e+01   7.1899374851e+01    0.6477924    0.2338939 -45.00   0.00349094    2.287    0.563
         6 -10.5390      8.0088     15.0251   5.9589051700e+01   7.1338829017e+01    0.2084164    0.2063361 -31.92  0.001089134    1.663    0.399
         7 -11.1678     14.4419     17.7771   5.7208321401e+01   7.0384745091e+01    0.3149844    0.2413043  15.48  0.002021149    1.327    0.247
         8 -12.3553     65.2948     11.8537   3.1789234864e+01   6.4207896900e+01    0.2378327    0.1913897  20.62 0.0003823033    1.051    0.048
         9 -10.9059     59.3293     14.3712   3.5037191563e+01   6.4967261803e+01      0.55545    0.3181822  -9.56  0.002963647    2.100    0.524
        10 -10.5090     54.0844     14.2993   3.7039149111e+01   6.5840904237e+01     0.319982    0.2242645 -16.66  0.002032432    1.420    0.296
        11 -11.5911    248.9395     20.5223   3.1398626275e+00   2.2761244940e+01     0.352682    0.1667866 -56.79 0.0004109786    1.787    0.440
        12 -10.2854    100.1940     18.1147   2.3713977248e+01   5.6651204270e+01     0.343676    0.2570973 -22.21  0.002061446    1.512    0.338
        13 -10.7644     32.7662     15.2666   4.6809919807e+01   6.8780440941e+01    0.3561586    0.2471199  27.86  0.001608774    1.371    0.271
        14 -11.9434     28.8619     19.7340   5.0631752665e+01   6.8630729785e+01    0.2863181    0.1856699   3.11 0.0004041174    1.452    0.311
        15 -10.8162    130.8558     15.1471   1.5990492660e+01   5.0046713727e+01    0.2388587    0.1877307 -68.57   0.00070875    1.472    0.321
        16 -11.0003    169.5202     17.4106   1.0503437733e+01   4.0656188924e+01    0.2473689    0.2065473 -55.14 0.0009003229    1.258    0.205
        17 -10.9283    145.8086     12.2359   1.2550481329e+01   4.6817200941e+01    0.3349814    0.1846078 -43.65  0.001372864    2.019    0.505
        18 -10.8784    145.2029      8.0335   1.1438205478e+01   4.7361202861e+01    0.3082279    0.1824583  65.76 0.0003116357    1.402    0.286
        19 -11.8500     75.2411     11.2730   2.8220043115e+01   6.2429263943e+01    0.6878958    0.4222489  21.55  0.003823851    1.737    0.424
        20 -11.5217    240.3995     14.5371   2.6596741929e+00   2.5178935391e+01    0.2717742    0.1866682 -70.24 0.0005838726    1.165    0.142
        21 -10.0844    232.4812     13.4431   3.0650459005e+00   2.6931401736e+01    0.2863452   0.09836804 -46.24  0.001054412    2.422    0.587
        22 -11.9603    235.0710      9.8288   2.1603913672e+00   2.6805341882e+01     0.345154    0.1781724 -81.89 0.0008996494    1.841    0.457
        23 -10.4311    124.2853     13.9736   1.6878699192e+01   5.1686613356e+01    0.2852142    0.1978869  75.03 0.0009775109    1.437    0.304
        24 -11.3760    164.6691     12.8981   9.9797563700e+00   4.2279358655e+01      0.38982    0.2733226  80.74   0.00227134    1.260    0.206
        25 -11.8721    159.5432      9.3756   9.7392701426e+00   4.3843835965e+01    0.5558178    0.2699433  46.32  0.001305505    2.271    0.560
        26 -10.5959    154.1297      8.2581   1.0187570594e+01   4.5231618110e+01    0.2362013    0.1922099  77.87 0.0002451084    1.042    0.040
        27 -11.4186    249.1091      9.2237   1.0389072890e+00   2.4050035421e+01    0.4465673    0.1359305 -48.79  0.002150958    2.549    0.608
        28 -10.5368    177.1438     11.7640   8.1063526350e+00   3.9454867631e+01     0.330367    0.1919649  87.38 0.0006025302    1.671    0.402
        29 -10.8981    139.4447     10.5870   1.3098842682e+01   4.8477702825e+01    0.2695336    0.1937588  85.16 0.0005600952    1.392    0.282
        30 -10.1412    119.9403     10.3173   1.6555911331e+01   5.3032230489e+01    0.2354388    0.1822387   2.38  0.001203061    1.586    0.369
        31 -10.2682     28.0173     10.7205   4.7090033980e+01   6.9957717048e+01    0.2457215    0.2015179  36.61  0.001754268    1.629    0.386
        32 -10.1385    101.0010     10.1922   2.0663588586e+01   5.7263145518e+01    0.3324397    0.1916368  46.83  0.001313466    1.455    0.312
        33 -10.0739    100.9830      5.4857   1.8973774599e+01   5.7689783485e+01    0.2363265    0.1876921 -79.35 0.0005767953    1.646    0.393
        34 -10.1428     97.6266      3.2703   1.8954999731e+01   5.8601726494e+01    0.2214464    0.1718249 -11.03 0.0009256047    1.490    0.329
        35 -10.3982     36.3741      6.5040   4.1115410508e+01   6.9394264604e+01    0.2799212    0.1665122  -2.25  0.001652036    1.799    0.444
        36  -9.2989     19.7591      8.3441   5.0250366720e+01   7.1203440478e+01    0.1516573    0.1002615 -10.12 0.0003918397    1.294    0.227
        37 -10.3133     16.4717      7.5498   5.1653400789e+01   7.1649941605e+01    0.2986846     0.152035 -27.17  0.001790437    1.789    0.441
        38  -9.8550     19.0574      4.0097   4.8585097259e+01   7.1837332921e+01    0.1979401    0.1935341  74.46  0.001535793    1.981    0.495
        39 -10.7047     28.0425      3.4348   4.3650960873e+01   7.0850380048e+01    0.2880977    0.2515963  61.13  0.002010559    2.227    0.551
        40 -10.6037     22.4432      1.6640   4.5646703119e+01   7.1740186674e+01    0.2942752    0.2173275 -21.60  0.002157707    1.313    0.238
        41 -10.2605    111.9535      6.3203   1.6851536153e+01   5.5198470809e+01    0.5029823    0.3018692 -57.47  0.002560171    2.390    0.582
        42 -10.1699     90.6388      7.8312   2.2402966880e+01   5.9680571091e+01    0.2569705    0.1464832  35.06  0.000755437    1.676    0.403
        43 -11.4093     82.2252      6.9967   2.4394210078e+01   6.1474536137e+01    0.2072308    0.1541339  43.32 0.0002567834    1.111    0.100
        44 -11.8617    241.5349      3.7934   5.5392642570e-01   2.6158011258e+01    0.3945706    0.1776247  66.78 0.0008347706    2.133    0.531
        45  -9.9648    223.1195      5.3939   2.2091145453e+00   2.9793133025e+01    0.1708886    0.1458889 -53.45 0.0008018897    1.303    0.232
        46 -11.5581    179.3858      3.7708   5.8959101514e+00   3.9729064599e+01    0.3170697    0.2119879  65.85 0.0002330884    1.320    0.243
        47 -11.1854    164.5346      4.8333   7.8909602455e+00   4.3099324607e+01    0.2379042    0.1866843 -80.35 0.0004234234    1.201    0.167
        48 -10.3022     68.5418      5.3381   2.7922379223e+01   6.4268899016e+01     0.240494    0.1720246  39.78 0.0008420885    1.158    0.136
        49  -9.3745     64.7055      4.2864   2.8758286787e+01   6.5070950604e+01    0.1725285     0.112786  28.72 0.0006166628    1.334    0.250
        50 -10.2467     58.3778      5.3799   3.1480752984e+01   6.6084810471e+01    0.2928841    0.1120141  44.96  0.001035713    2.192    0.544
        51  -9.6108    135.0043      4.4958   1.2010889322e+01   5.0072090667e+01    0.1855743   0.09834261 -87.58 0.0008106184    2.628    0.620
        52 -10.5705    126.6433      2.7740   1.2891067223e+01   5.2158278956e+01    0.3117006    0.2042596  52.12   0.00181903    1.313    0.238
        53  -9.4610    169.1824      2.1811   6.6516597109e+00   4.2255304653e+01    0.1676026    0.1241375 -73.61 0.0003884489    1.301    0.231
        54  -9.4790     91.0701      2.2660   2.0178506435e+01   6.0074787307e+01    0.1686614    0.1299887  46.60 0.0003939829    1.057    0.054
        55  -9.5566     34.0381      1.7201   3.9918118037e+01   7.0252290320e+01    0.1633457    0.1188983  24.58  0.001144263    1.178    0.151
        56  -9.9484     14.1793      2.0878   5.0334887417e+01   7.2592746324e+01    0.1608389    0.1095006  -8.95 0.0002560592    1.177    0.150
        57 -10.1859    230.1837      1.4101   8.9440634420e-01   2.8732221042e+01     0.192844   0.09215301  73.81 0.0006902061    1.838    0.456
        58  -9.5400    120.9481      1.5452   1.3514570161e+01   5.3565967896e+01    0.1946876    0.1027175  62.85  0.001012579    1.546    0.353
        59 -10.6645     73.5638      1.4086   2.4679736917e+01   6.3671616012e+01    0.2781425   0.09870894  53.89   0.00100547    2.402    0.584
        60 -10.1284    145.8054    189.9290   5.7390486424e+01   1.3630558571e+01    0.2159522    0.1925059  -2.70 0.0003933872    1.229    0.186
        61 -12.1046    247.5173    249.3084   4.6934358677e+01  -1.2191913453e+01    0.6278617    0.3582513  -2.90  0.003695973    1.842    0.457
        62 -12.2541    225.8136    246.1915   5.0311647938e+01  -9.0851787806e+00    0.6396216    0.3180619 -23.60   0.00331186    2.249    0.555
        63 -10.0163     91.5030    249.5126   7.7971640869e+01   1.0225534047e+01    0.1976829    0.1169876 -84.46 0.0009590812    2.174    0.540
        64 -11.7635     22.3329    248.7309   9.1555555048e+01   1.9190845195e+01    0.4141763    0.1839362  48.53  0.001460277    1.744    0.426
        65 -10.6275      7.0598    249.1719   9.4348256650e+01   2.0692152924e+01    0.6106849    0.1674561  37.00   0.00297809    2.872    0.652
        66 -10.3906     10.3407    248.2903   9.3719613113e+01   2.0533464658e+01    0.2781921    0.1283071  47.85  0.001664142    1.685    0.407
        67 -10.6015    244.6686    188.2515   3.6865316202e+01  -2.9190318508e+00    0.2084402    0.1696764  13.40 0.0008214872    1.227    0.185
        68 -10.3098    225.8494    188.1915   4.0182420886e+01  -4.7731954654e-02    0.1868475    0.1415161  -8.32 0.0005262103    1.342    0.255
        69  -9.7368    211.8464    187.1855   4.2630404118e+01   2.4041672956e+00     0.190098    0.1477655  -3.90 0.0004363998    1.347    0.258
        70  -9.3801      2.3069    187.3011   9.1848842307e+01   3.4239832520e+01    0.1128068   0.08117713 -54.06 0.0003559916    1.597    0.374
        71  -9.8165     61.8902    184.8327   7.7408134819e+01   2.8515537098e+01    0.2012978    0.1835044 -56.35  0.001030212    1.226    0.184
        72 -10.9900     22.8716    180.0726   8.6529701750e+01   3.4115298310e+01    0.4154032    0.1640781  59.63   0.00166223    2.947    0.661
        73 -11.1470    249.4450    179.3227   3.4393570478e+01  -2.1696870153e+00    0.3197362    0.1081365 -42.12  0.001307393    2.669    0.625
        74 -10.0443      1.4834    180.4888   9.1571781549e+01   3.5866710569e+01    0.1936312   0.09791559 -78.28  0.000139854    1.631    0.387
        75 -10.5500      4.5104    179.4874   9.0808319131e+01   3.5860330461e+01    0.1820715    0.1354996 -49.94 0.0008123128    1.580    0.367
        76 -10.0362    186.5207    193.4855   4.8951003022e+01   5.5742830503e+00    0.2044535    0.1285314 -32.72 0.0006648796    1.684    0.406
        77  -9.6710     54.1485    175.0416   7.8146477044e+01   3.1892566036e+01    0.2073372    0.1747721 -53.24 0.0008141269    1.282    0.220
        78  -9.4119      1.4882    175.4848   9.1217939106e+01   3.7023946394e+01     0.122027     0.097106  87.98 8.481758e-06    1.003    0.003
        79 -11.7998      8.1105    172.8615   8.9457329114e+01   3.7120746134e+01     0.318597    0.2072647 -60.09  0.001270335    1.498    0.332
        80 -10.3004      5.6031    168.2211   8.9688632785e+01   3.8411248286e+01    0.2323442   0.09760746 -77.54  0.001056095    1.996    0.499
        81 -11.2523     17.3405    172.2200   8.7163941557e+01   3.6494113348e+01    0.3950827    0.1797391  75.14  0.001636227    2.608    0.617
        82 -10.8631      1.5013    165.9700   9.0504938607e+01   3.9246377530e+01    0.4153841    0.1069798 -79.56  0.001502636    3.580    0.721
        83  -9.0980     93.3091    166.7394   6.6506000846e+01   2.8285054770e+01    0.1488221    0.1085879  66.49 0.0002249883    1.527    0.345
        84 -10.2655     67.7134    165.6792   7.3251612264e+01   3.2418946704e+01    0.2857778     0.186504 -78.51 0.0008313828    1.598    0.374
        85 -10.4156      8.4822    163.1983   8.8559253731e+01   3.9380622678e+01    0.3094443    0.1832121 -21.37  0.001553435    2.760    0.638
        86  -8.9984     15.6708    163.7123   8.6793913702e+01   3.8676924400e+01    0.1232788   0.08663251 -46.09 0.0003577411    1.616    0.381
        87  -8.9370    200.5227    161.5446   3.9749348495e+01   9.2203078158e+00    0.1408984    0.1348248 -27.09 0.0001236849    1.045    0.043
        88 -10.0512     51.6216    160.9549   7.6952111593e+01   3.5682290575e+01    0.1980206    0.1632818 -75.40 0.0006700155    1.108    0.098
        89  -9.4578     55.2893    159.3478   7.5717757505e+01   3.5631649870e+01     0.142038    0.1003621 -39.58 0.0005246922    1.661    0.398
        90 -10.8144    247.6012    157.7820   3.0560035826e+01   1.6980220286e+00     0.232652    0.1480356 -44.72  0.001035166    1.449    0.310
        91  -9.2960     67.3284    157.7157   7.2127186034e+01   3.4455453753e+01    0.1480297    0.1029384  66.87 0.0002698257    1.608    0.378
        92  -8.9671     19.6715    157.7290   8.5163857214e+01   3.9782436883e+01     0.123742   0.08879533 -43.77 0.0006980342    1.583    0.368
        93 -10.3093    216.1130    154.3394   3.5266708093e+01   7.7050867596e+00    0.2812977    0.2181477 -33.95  0.001064764    1.205    0.170
        94 -10.2098    158.8698    153.5963   4.7103047527e+01   1.9072265459e+01    0.3646622    0.2542592  29.60  0.001114959    1.584    0.369
        95 -10.5934     40.9575    151.2492   7.8576802402e+01   3.9317971472e+01    0.2800552    0.1702631 -61.44 0.0007483267    1.473    0.321
        96 -10.0954    145.3097    151.6395   4.9951223499e+01   2.2253741190e+01    0.2757382    0.1947363 -85.54  0.001041495    2.140    0.533
        97  -9.9163     82.2414    150.0124   6.6597064150e+01   3.4189289546e+01     0.292709    0.1902118   0.08   0.00116473    2.644    0.622
        98 -11.9497     13.8357    147.7756   8.5681511113e+01   4.2676687249e+01    0.2956349    0.2050481 -88.28 0.0002369674    1.297    0.229
        99 -10.5546     26.1855    147.9538   8.2295699770e+01   4.1597466610e+01    0.2079865    0.1570197  83.73 0.0008478283    1.278    0.217
       100 -11.1606     40.2579    145.9092   7.8034013197e+01   4.0721071809e+01    0.3851315    0.2009992  37.28 0.0005561881    1.985    0.496
       101 -10.8300    217.5559    145.0550   3.3066725564e+01   9.1731995678e+00    0.3703135    0.1955008  33.69  0.001341298    2.400    0.583
       102 -10.7961     17.5205    143.4951   8.4192931099e+01   4.3427481142e+01    0.3273847    0.1732436  67.74  0.001538159    2.272    0.560
       103 -10.7185     14.1323    139.8925   8.4735538329e+01   4.4566441135e+01    0.2544649    0.1544644 -46.58   0.00114651    1.688    0.408
       104 -10.3259     10.5516    152.5258   8.7044264334e+01   4.1779946220e+01    0.3044581    0.1456385  40.84  0.001538071    2.163    0.538
       105 -10.3093     32.9682    136.9665   7.8894359076e+01   4.3675895064e+01    0.2035405    0.1736356 -65.68 0.0004165282    1.052    0.049
       106 -13.2945     37.5020    135.1577   7.7273389714e+01   4.3676345324e+01     0.627719    0.3117627 -70.62  0.002840548    1.884    0.469
       107 -10.2291    189.0551    139.7599   3.7396435727e+01   1.5806280270e+01    0.2503876    0.2061667 -44.93 0.0004505653    1.176    0.150
       108 -10.4582      6.4842    145.2553   8.7418327815e+01   4.3823097477e+01    0.2535236    0.1597995  28.62 0.0009381617    1.820    0.451
       109 -10.1895    235.8033    138.0252   2.8496651542e+01   7.1191337782e+00    0.2028015    0.1984966  42.26 0.0004195798    1.157    0.136
       110  -9.8911     67.2143    138.5736   6.8894533201e+01   3.9257891175e+01    0.1935295    0.1432586  14.39 0.0009523522    1.643    0.391
       111 -10.0534    239.9386    140.0776   2.8254573184e+01   6.0300172734e+00    0.2031048    0.1770316 -34.80 0.0005626886    1.023    0.023
       112  -9.4535    144.2138    136.6170   4.6878226521e+01   2.5878026482e+01    0.2149543    0.1466822  31.72 0.0002208992    1.623    0.384
       113 -10.4438     20.8616    135.3201   8.2246034019e+01   4.5153454564e+01    0.2511211     0.159931 -72.15  0.001031651    1.352    0.260
       114 -11.4688     16.5425    130.8936   8.2958135939e+01   4.6569713983e+01    0.4111887    0.2526388  36.35   0.00206192    1.800    0.444
       115 -10.1007      2.6269    135.7729   8.7531568058e+01   4.6347048560e+01    0.2530944    0.0929403 -70.56  0.001141492    2.130    0.531
       116 -10.4514    241.3500    133.8393   2.6766446177e+01   6.8734086518e+00    0.1998429    0.1827954  76.76 0.0005408219    1.285    0.222
       117 -11.6630     56.9849    132.7451   7.0939712763e+01   4.2064719813e+01    0.5028445    0.3203404  -7.37  0.001727737    2.466    0.595
       118 -11.2828     53.0704    132.9474   7.2176890509e+01   4.2497604573e+01    0.3614591     0.243032 -69.79 0.0004468714    1.430    0.301
       119 -11.7351     73.9395    128.6321   6.4924697770e+01   4.0756138067e+01    0.4245816    0.3477171 -10.72 0.0008915907    1.472    0.320
       120 -12.6048     81.5423    124.4295   6.1691653497e+01   4.0614358997e+01     0.872255    0.5322706 -54.66  0.002655649    1.571    0.363
       121 -10.0091     64.4819    131.0416   6.8317323036e+01   4.1505944598e+01    0.2203516    0.1337459 -60.27 0.0006155068    1.542    0.352
       122 -10.9299      4.7853    130.0746   8.6313746919e+01   4.7574658546e+01    0.2073141    0.1790999 -62.09 0.0004492505    1.114    0.102
       123 -10.7019      4.5485    126.1994   8.5949481072e+01   4.8514573322e+01    0.2572527    0.1398762 -50.84 0.0008158007    1.674    0.403
       124  -9.9600    217.0104    129.2749   2.9798804443e+01   1.2221352409e+01    0.1883818    0.1839473 -44.20 0.0004483395    1.062    0.059
       125 -11.2262     24.8846    127.6975   8.0010303143e+01   4.6682145281e+01    0.3277067    0.2124621 -68.39  0.001791006    1.331    0.249
       126  -9.8741     67.3203    127.3262   6.6712611843e+01   4.2032240249e+01    0.1503092     0.107007 -28.75    0.0007047    1.682    0.405
       127 -10.8270     55.2154    127.2929   7.0494764501e+01   4.3636150112e+01    0.2071911     0.172893 -12.83  0.001137185    1.402    0.287
       128 -10.0678    229.5069    124.9497   2.6788218009e+01   1.0606158026e+01    0.2157219    0.1224459 -41.96  0.001027256    1.575    0.365
       129  -9.6242    225.9628    123.2492   2.6999732607e+01   1.1587622226e+01    0.2377583    0.1782438  65.47 0.0007900944    1.571    0.363
       130 -11.9559     47.1068    124.3194   7.2513272067e+01   4.5327280701e+01    0.2794947    0.2445574  29.45 0.0002951958    1.254    0.203
       131 -11.6884      1.6777    118.5936   8.5932542429e+01   5.0486456035e+01    0.3312207    0.1770237 -62.62  0.001818575    1.483    0.326
       132  -9.5009     14.4847    124.5106   8.2756696228e+01   4.8264526326e+01    0.1726948     0.154055 -81.60 0.0005604902    1.084    0.077
       133 -11.1580     10.6352    122.3222   8.3650904150e+01   4.9055238996e+01    0.3432168    0.2385837 -61.67  0.002058639    1.202    0.168
       134 -11.0358      7.7087    118.9985   8.4128889631e+01   5.0036747586e+01    0.3783815    0.2102248   8.85  0.002006952    2.296    0.564
       135 -10.5400     30.6187    123.5821   7.7612383845e+01   4.7184656511e+01    0.3432694    0.1510321 -48.34  0.001508919    2.125    0.529
       136 -11.1182     57.0138    121.2831   6.8776081212e+01   4.4888251018e+01    0.3029085    0.2240205 -81.24 0.0003668623    1.505    0.336
       137 -11.5820     68.4632    121.5349   6.5168505375e+01   4.3289659316e+01    0.4542888    0.2588942  21.90  0.001958019    2.123    0.529
       138 -10.9066     61.2870    121.3540   6.7420049295e+01   4.4318412986e+01    0.2838697    0.1935778 -48.45 0.0006621627    1.387    0.279
       139 -11.2754     64.9390    119.9656   6.5965168873e+01   4.4164310814e+01    0.2613031    0.2093915  23.90  0.000337958    1.356    0.262
       140  -9.8616     35.0598    121.6833   7.5897135457e+01   4.7232420326e+01    0.1721309    0.1665026 -31.14 0.0003027423    1.130    0.115
       141  -9.6876     19.8298    121.8898   8.0746916805e+01   4.8500907756e+01    0.2010615     0.169986 -72.08 0.0007904111    1.043    0.042
       142 -10.6139     23.4954    119.5423   7.9245815854e+01   4.8778499241e+01    0.4084119    0.2217116 -55.19  0.001759519    1.566    0.361
       143 -10.9189    249.1867    117.2386   2.2246752181e+01   8.3388099809e+00    0.3255597    0.2039911 -19.15  0.001551996    2.326    0.570
       144 -11.7095     16.0180    115.3568   8.1015148972e+01   5.0353275911e+01    0.2855525    0.2623259 -63.87 0.0005017535    1.084    0.077
       145 -12.3664     14.0712    109.9853   8.0856930051e+01   5.1765702928e+01    0.4320645    0.3462833 -44.41 0.0004606556    1.188    0.158
       146  -9.9217     85.9916    116.2761   5.8467402416e+01   4.1847746647e+01    0.2016781     0.189447  27.23 0.0002180172    1.098    0.089
       147 -10.9093    182.0097    114.6396   3.3059834820e+01   2.2352212467e+01     0.393919    0.2669517  42.20  0.001147058    1.576    0.366
       148 -10.7070     70.7273    115.0216   6.3034980444e+01   4.4537376846e+01    0.3480718    0.2194784  31.29  0.001631886    1.674    0.403
       149 -10.3892     75.4962    112.3022   6.0874963729e+01   4.4470905881e+01    0.2667283    0.2080655  22.23 0.0007982898    1.393    0.282
       150  -9.8723    107.0570    113.9881   5.1522752687e+01   3.8592483743e+01     0.185135    0.1776226  39.49 0.0005222452    1.047    0.045
       151 -11.0391     19.9424    108.9471   7.8749959426e+01   5.1593887040e+01    0.3565589    0.2256977 -31.38  0.001653673    1.729    0.421
       152 -12.0167     32.1403    107.6892   7.4417077995e+01   5.0880745864e+01    0.4927327    0.4246203  61.93  0.002680983    1.332    0.249
       153  -9.2264    101.5094    111.0453   5.2434168015e+01   4.0319275907e+01    0.2116434    0.1479072 -49.77 0.0009737345    1.419    0.295
       154 -11.4516     55.1875    109.7214   6.7004403345e+01   4.7910940214e+01    0.3378654    0.2322296 -57.34 0.0006071395    1.345    0.256
       155 -11.2998     51.1021    103.7392   6.7101275767e+01   4.9824551466e+01    0.2870258    0.2616112  65.88 0.0004490841    1.251    0.200
       156 -10.7491      3.2382    106.2076   8.3876140337e+01   5.3308617258e+01    0.3934181    0.2219015 -69.92   0.00139611    1.466    0.318
       157 -10.2004     59.2648    106.0134   6.4812525957e+01   4.8268507832e+01     0.242678    0.1902071  59.20 0.0002989196    1.529    0.346
       158 -10.6030     62.8435    106.8593   6.3795390726e+01   4.7591033331e+01    0.2806944    0.1756376 -42.76 0.0006003394    1.557    0.358
       159 -11.6727     61.9628     99.6134   6.2397478444e+01   4.9397878834e+01    0.5884067    0.2536442 -48.00  0.002392133    2.135    0.532
       160 -10.9159     70.5036    101.7343   6.0000480842e+01   4.7693461247e+01    0.3102926    0.2398366   6.05  0.001594042    1.500    0.333
       161 -10.3341     74.9712    104.0495   5.9077579091e+01   4.6482795215e+01    0.2138222     0.203228 -41.30 0.0003272462    1.017    0.017
       162 -10.1067     75.5399    100.5332   5.8013555455e+01   4.7200530047e+01    0.2812679    0.2241434 -89.31 0.0006177002    1.642    0.391
       163 -10.0598     76.6784     97.7006   5.6910303801e+01   4.7661996767e+01    0.2422054    0.2029433   2.72 0.0005572462    1.304    0.233
       164 -10.1975    225.1611    110.8735   2.4472092732e+01   1.3959964891e+01     0.202847    0.1682196 -63.65 0.0003118202    1.194    0.163
       165 -10.3254     23.2426    100.5457   7.6187481957e+01   5.3319324175e+01     0.312024      0.17797 -44.13  0.001471418    1.595    0.373
       166 -10.8315     20.4932     98.5166   7.6788494164e+01   5.4001839098e+01    0.3613302     0.195404 -37.29  0.001827687    1.860    0.462
       167 -10.8919     16.4069     96.3928   7.7857766902e+01   5.4785645687e+01     0.388804    0.2495695 -25.12   0.00217875    1.709    0.415
       168  -9.8720    108.8797    100.8014   4.7580591776e+01   4.1183452069e+01    0.2032615    0.1782831  78.49 0.0003445732    1.317    0.241
       169 -10.0637     40.6410     99.2017   6.9782036250e+01   5.2051131102e+01    0.2114021    0.1022835 -50.82 0.0008667209    1.787    0.440
       170 -10.1615     66.8740     98.0852   6.0332528511e+01   4.9059395548e+01    0.1953694    0.1886885  85.66            0    1.153    0.133
       171 -10.0408     56.9143     96.1363   6.3320729921e+01   5.0864130527e+01     0.207822    0.1908558 -37.57 0.0002898472    1.003    0.003
       172 -11.9506     52.2145     94.0495   6.4488618590e+01   5.1929733699e+01    0.4348015    0.2175049 -54.91  0.001089696    1.835    0.455
       173 -11.8096     57.3091     90.6557   6.1825947851e+01   5.2048836692e+01    0.4108897    0.3014276 -21.57 0.0006281564    1.487    0.328
       174  -9.5188     33.9703     98.2616   7.1956970054e+01   5.2928547849e+01    0.2085485    0.1174205 -42.83 0.0009962441    1.651    0.394
       175 -10.5783    101.4639     95.1257   4.8267027080e+01   4.3860355481e+01    0.2397056    0.2057924  65.17 0.0007433196    1.324    0.245
       176  -9.8034     79.9376     93.7814   5.4790162669e+01   4.8006664170e+01     0.217143    0.1870371 -14.56 0.0004182088    1.213    0.176
       177 -10.0654    226.3147     93.1536   2.0461343698e+01   1.6804382907e+01    0.2396976    0.1882362  81.31 0.0005225827    1.381    0.276
       178  -9.4511     31.7387     92.7776   7.1627405317e+01   5.4397941556e+01    0.1608327    0.1461222  81.04 0.0004345682    1.289    0.224
       179 -10.7875     12.7201     91.1011   7.8247737413e+01   5.6240126562e+01    0.3401067    0.2001668  11.50  0.001885835    1.984    0.496
       180 -10.3788     81.3397    105.0182   5.7229751072e+01   4.5247106777e+01    0.4450631    0.2936945  85.25  0.001753503    2.784    0.641
       181 -10.8459     97.3739     89.3807   4.7932426228e+01   4.5858914426e+01    0.3854841    0.2967699   7.11  0.001775804    1.584    0.369
       182  -9.8585     35.8927     90.8898   6.9694976687e+01   5.4437533273e+01    0.2089398    0.1560692  69.64   0.00113143    1.829    0.453
       183 -10.3843    111.9345     89.6665   4.3625721629e+01   4.2915524748e+01     0.459946    0.1701011  37.00  0.001306437    3.185    0.686
       184 -10.2002    109.6830     86.2572   4.3312949367e+01   4.4069979579e+01    0.2936354    0.2389983  72.31 0.0005985995    1.499    0.333
       185 -11.7694     73.8023     89.1036   5.5608227479e+01   5.0014881437e+01    0.2329988    0.2204365 -19.25 0.0002480356    1.009    0.009
       186 -10.5225     23.5357     89.8418   7.4040160867e+01   5.5760395707e+01    0.2966927     0.251048  38.13  0.001897339    1.387    0.279
       187  -9.2047     83.0016     88.5181   5.2330101585e+01   4.8633387415e+01    0.1889203     0.124821   5.80 0.0004299173    2.185    0.542
       188 -10.4632     46.6390     86.7414   6.4742810634e+01   5.4230073403e+01    0.3872439    0.1188219 -56.90  0.001048528    3.053    0.672
       189  -8.8500     38.3044     88.6596   6.8298797798e+01   5.4701732279e+01    0.1280139    0.1015867  74.55 0.0005176698    1.678    0.404
       190 -10.1656     29.8258     85.5859   7.0784595360e+01   5.6193433268e+01    0.2193154    0.2004039  71.66 0.0007723056    1.332    0.249
       191 -10.5462     30.0642     81.9050   6.9860634076e+01   5.6987901875e+01    0.2626915    0.2034681 -44.77 0.0008627143    1.110    0.099
       192  -9.5693    184.7936     85.2186   2.5368939570e+01   2.7260902803e+01    0.1783393    0.1691886  14.08 0.0002722781    1.251    0.201
       193 -10.3918     65.2847     84.2539   5.7273802998e+01   5.2347859568e+01    0.3564965    0.2397629 -76.18  0.001612301    2.317    0.568
       194  -9.4505      8.6077     84.8439   7.8641996266e+01   5.7896472746e+01     0.173964    0.1054874 -78.87 0.0009430897    1.775    0.437
       195  -9.0613     34.3206     84.6631   6.8871412406e+01   5.5985709878e+01    0.1263115   0.09991957  71.64 0.0007049996    1.709    0.415
       196  -9.9620    116.8087     83.4057   4.0445455655e+01   4.3147032932e+01    0.2128915     0.137043  35.68 0.0003986025    1.630    0.387
       197 -10.3667     76.1720     82.0526   5.2819237156e+01   5.1134941632e+01    0.3500168    0.2190097  49.30  0.001626794    1.874    0.466
       198  -9.8956     50.7243     81.6478   6.1915154112e+01   5.4859087950e+01    0.2475141     0.152589 -48.56 0.0008936539    1.481    0.325
       199 -11.1998     51.5969     76.2936   6.0135420453e+01   5.5889136273e+01     0.686008    0.3724675   4.84  0.002830907    2.868    0.651
       200  -9.0379    110.3044     81.3468   4.1708293290e+01   4.4915682080e+01    0.1521809    0.1162972   0.94 0.0007041213    1.693    0.410
       201  -9.8314      7.8847     80.5374   7.8121782090e+01   5.8891917109e+01    0.2106247    0.1304238 -51.02 0.0004868232    1.294    0.227
       202 -12.8304     88.4131     77.2476   4.7273281567e+01   4.9996821999e+01    0.3679625     0.316269  23.59 0.0005170546    1.146    0.127
       203  -9.8319     40.9341     79.6924   6.5132116244e+01   5.6405087119e+01    0.1822471    0.1624727  11.40  0.001142831    1.182    0.154
       204  -8.7065      3.0000     78.9216   7.9696273612e+01   5.9503544141e+01    0.1984535   0.05738783 -66.74 0.0007953736    2.894    0.654
       205 -10.4967    203.3775     77.9309   2.0476611574e+01   2.4287197250e+01     0.227093    0.1927743  63.49 0.0003685463    1.207    0.172
       206 -14.2627     16.9434     67.5329   7.1737007796e+01   6.1119564749e+01    0.6825706     0.611154  77.85  0.002280645    1.463    0.317
       207 -11.1605      6.3553     68.1650   7.6260651299e+01   6.1645393160e+01    0.2190406    0.1807473 -58.61  0.000276929    1.157    0.135
       208 -11.5510      3.0350     62.7490   7.6485385349e+01   6.2949789677e+01    0.5652388    0.2995571 -42.45  0.003281743    1.514    0.339
       209 -12.1987      4.4875     50.6888   7.3009640481e+01   6.5306862376e+01    0.7962599    0.4998378 -67.80  0.004828929    1.748    0.428
       210 -10.9606      6.8555     41.3220   6.9334666649e+01   6.6959409543e+01    0.3938322    0.1872959 -31.67  0.001611237    1.858    0.462
       211 -11.7502    167.8225     73.5585   2.5599124623e+01   3.3254898257e+01    0.4091144    0.2546646 -53.56 0.0004452585    1.719    0.418
       212 -10.2496     99.5755     76.0525   4.3353839325e+01   4.8111285950e+01    0.2631069    0.2021486  57.09 0.0006841351    1.460    0.315
       213 -10.0677     73.8901     75.5998   5.1728021124e+01   5.2825310782e+01    0.3677817    0.2283515   1.85  0.001218385    2.524    0.604
       214  -9.4445     36.9494     76.5188   6.5872155330e+01   5.7501921019e+01    0.1735248    0.1251447  16.88 0.0003679288    1.472    0.321
       215 -10.5102     61.2123     72.3153   5.5356718022e+01   5.5417316100e+01    0.4482868    0.2668867 -33.79   0.00217567    1.715    0.417
       216 -12.1268     45.9012     60.5640   5.7770602676e+01   5.9757291847e+01    0.5284401    0.3310413  23.48  0.000389362    1.626    0.385
       217 -11.3162     44.9631     70.7121   6.1149661404e+01   5.7848720995e+01    0.2889192    0.2168237 -56.79 0.0002531122    1.407    0.289
       218 -11.9767     50.3241     68.1421   5.8293673476e+01   5.7720449035e+01    0.3915641    0.2657281 -23.34 0.0004955746    1.527    0.345
       219 -10.9622     50.4865     63.5726   5.6852569166e+01   5.8602237217e+01    0.3905521    0.2299679  15.10  0.001144079    1.943    0.485
       220 -10.1698      6.9519     73.4253   7.7104363986e+01   6.0491819102e+01    0.2559891    0.1485768 -12.59  0.001172764    1.930    0.482
       221  -9.5254    206.9618     73.2820   1.8850023703e+01   2.4250576710e+01    0.1835418    0.1656165 -81.44 0.0003215067    1.032    0.031
       222 -11.6814    111.1566     63.6700   3.6105321427e+01   4.7979147616e+01    0.7979997    0.5208449  21.77  0.003562195    2.032    0.508
       223 -10.7107    107.2887     72.1230   3.9833838589e+01   4.7290988775e+01    0.2787034     0.239789  78.72 0.0007227366    1.413    0.292
       224 -11.4142    102.9307     70.1445   4.0523504121e+01   4.8548206988e+01    0.4852259    0.2693824 -41.80  0.001229284    1.865    0.464
       225  -9.0924      1.4800     73.5433   7.9299336065e+01   6.0744271740e+01    0.1207866   0.09451945 -47.78  4.52988e-05    1.026    0.025
       226 -10.2980    167.5713     69.5223   2.4583681013e+01   3.3992560478e+01    0.3146776    0.2085912  77.15    0.0014451    1.745    0.427
       227  -8.8534    175.6977     70.3038   2.3268059668e+01   3.1939070291e+01    0.1473841    0.1067414 -76.31 0.0003276289    1.593    0.372
       228 -11.4793     92.0592     68.5003   4.3398606301e+01   5.0990351670e+01    0.4805571    0.3580061   0.56  0.001700072    1.648    0.393
       229  -9.3163    199.6133     68.7323   1.8891536391e+01   2.6636743888e+01    0.1880332    0.1195339 -50.60 0.0003896603    1.510    0.338
       230 -10.3086    122.9777     67.4775   3.4057407013e+01   4.4739770080e+01    0.2746023    0.2174477 -36.67 0.0008224913    1.334    0.250
       231 -12.9265     30.3152     63.4749   6.5092107298e+01   6.0859102427e+01    0.4623794    0.3823444 -29.58   0.00106925    1.024    0.023
       232  -9.7370     83.9073    248.4691   7.9433867176e+01   1.1509501500e+01     0.190503    0.1033468  40.53 0.0006608463    1.536    0.349
       233 -11.0541    147.1165     65.6266   2.7715456361e+01   3.9490493885e+01    0.2740599    0.2251898 -57.69 0.0007184779    1.296    0.228
       234  -9.3128     75.4642     67.5830   4.8713875655e+01   5.4133336784e+01    0.1386158    0.1244985   0.37 0.0001118961    1.044    0.043
       235  -9.6352    190.4599     65.7744   1.9609411027e+01   2.9211986274e+01    0.1776412    0.1375799 -26.85 0.0004573582    1.546    0.353
       236  -9.4757    138.5217     66.1994   2.9825734672e+01   4.1410081846e+01    0.1918088    0.1440298 -19.00 0.0006870114    1.644    0.392
       237 -10.0835     86.0388     65.8454   4.4530029392e+01   5.2603242789e+01    0.2168603    0.1998964 -56.26 0.0002590522    1.257    0.204
       238 -11.3610     81.7346     64.9319   4.5690731048e+01   5.3547208666e+01    0.3412705    0.2700703 -33.27 0.0002804448    1.262    0.208
       239 -10.6677     21.2800     81.8756   7.3239726321e+01   5.7717280388e+01    0.2091987    0.1693189 -18.40 0.0004129013    1.242    0.195
       240 -10.8185    155.1925     63.3428   2.5365516355e+01   3.7948093126e+01    0.3717453    0.2611389  45.53 0.0009823598    1.449    0.310
       241 -10.1191    159.2705     64.6106   2.4890205996e+01   3.6772255428e+01    0.3235839    0.2233122  40.59 0.0003996846    1.608    0.378
       242 -10.7691    159.6725     61.6810   2.4010961707e+01   3.7145540183e+01     0.547552    0.3363251  20.86  0.002061282    3.258    0.693
       243  -9.7588    119.1209     65.1059   3.4359324699e+01   4.6003065327e+01    0.2129217    0.1886399  13.13 0.0003672733    1.217    0.178
       244 -10.4923    210.0874     63.1002   1.6064823857e+01   2.5160950206e+01    0.2126417    0.2007956 -66.41 0.0004010886    1.152    0.132
       245  -9.6702    186.7879     64.3852   1.9860506947e+01   3.0287212387e+01    0.1943422    0.1243155  54.05 0.0004537037    1.565    0.361
       246  -9.1823    179.7160     64.2855   2.1018584199e+01   3.1964678240e+01    0.1418292    0.1031381 -75.50 0.0002584731    1.524    0.344
       247  -9.4156     62.6999     63.0455   5.1944186823e+01   5.7010438582e+01    0.1908875     0.158843 -27.84 0.0005545811    1.130    0.115
       248  -9.4654    193.5237     62.5232   1.8337118472e+01   2.9011633642e+01    0.1396923      0.12458 -81.98 2.237291e-05    1.009    0.009
       249 -11.0915     89.1542     53.3869   3.9407864629e+01   5.4178570914e+01    0.4946284    0.2502608 -33.84   0.00219563    2.126    0.530
       250 -10.3025     90.2561     61.0004   4.1579708341e+01   5.2680745382e+01    0.2511275     0.216335  16.13 0.0003067462    1.132    0.117
       251 -11.1900     92.6972     57.9617   3.9800069421e+01   5.2731703185e+01    0.3238361    0.2787162 -52.91  0.001135842    1.356    0.262
       252  -8.7462    202.6791     60.6738   1.6540827082e+01   2.7197195668e+01    0.1299443    0.1076083  27.46 0.0004575989    1.683    0.406
       253  -9.0701    183.2210     59.9971   1.9347431264e+01   3.1807870734e+01    0.1739637    0.1123502 -39.86 0.0005050675    1.586    0.369
       254  -9.4010    150.4650     60.5059   2.5550257750e+01   3.9525621886e+01    0.1438237    0.1339439  70.52 0.0001748611    1.002    0.002
       255 -10.8285    136.5757     58.6164   2.8054074382e+01   4.3099047611e+01    0.3423593    0.2631452  80.41  0.001738801    1.500    0.333
       256 -10.2635     57.0357     59.2679   5.2908706898e+01   5.8539718700e+01    0.2458716    0.1656478 -20.39 0.0007284037    1.584    0.369
       257 -11.7385    115.8930     55.4109   3.2202162200e+01   4.8310375873e+01    0.4054309    0.2617663  61.69  0.001918201    1.691    0.409
       258 -10.2707     79.9795     56.5086   4.3527761389e+01   5.5356820393e+01    0.4253169    0.2607825  -1.36  0.001473098    2.668    0.625
       259 -10.7834     82.4786     48.9541   4.0090234288e+01   5.6153695392e+01    0.3758338    0.2737706 -42.15 0.0009727865    1.505    0.335
       260  -9.5426     78.5282     47.5055   4.0931346583e+01   5.7105592875e+01     0.224449    0.1638555  27.16 0.0008989108    1.307    0.235
       261  -9.9117     44.4733     74.4246   6.2371488927e+01   5.7134963433e+01    0.1829352    0.1632959  16.36 0.0001103009    1.184    0.156
       262  -9.5849    176.7847     56.2056   1.9448705908e+01   3.3907907063e+01    0.1873902    0.1558352  46.45 0.0004245864    1.321    0.243
       263  -9.6163     98.0301     56.2644   3.7580488940e+01   5.1955452412e+01    0.2853961    0.1490148  29.48  0.001143667    2.444    0.591
       264  -8.8862     68.5261     56.5135   4.7623352286e+01   5.7302029707e+01    0.1326644    0.1215711   1.95 0.0001476359    1.052    0.050
       265 -11.7646    148.8992     52.6098   2.3631101888e+01   4.1110480222e+01    0.5993136    0.3666969  50.00  0.002260358    1.549    0.355
       266 -11.5394    104.9788     52.5095   3.4286374992e+01   5.1122793970e+01    0.2772805    0.2502791  61.22 0.0003509019    1.190    0.159
       267 -12.0020     39.5185     49.6944   5.6958916936e+01   6.2543930633e+01    0.4807247     0.284567 -29.43  0.001151317    1.631    0.387
       268 -11.8951     65.6687     37.0251   4.1745684232e+01   6.0939682844e+01    0.4757273    0.2876737  45.74 0.0004267123    1.743    0.426
       269 -11.0523     62.7561     49.5604   4.7414672451e+01   5.9417789477e+01     0.465472    0.1856819 -42.98  0.001209769    2.533    0.605
       270 -11.1552     62.1958     41.4257   4.4709367092e+01   6.0832267703e+01     0.429784    0.2631897 -50.78  0.002190421    2.142    0.533
       271 -10.5296    132.8403     49.9602   2.6316282474e+01   4.5291258609e+01    0.4075867    0.2664266  83.87  0.001813482    2.173    0.540
       272 -10.1515    126.7449     50.8995   2.8034522231e+01   4.6560933009e+01    0.2642804    0.2090043  71.73  0.001407907    1.355    0.262
       273  -9.9997     73.0973     49.4731   4.3538616274e+01   5.7742897378e+01    0.2949768    0.1662193 -46.93  0.001156573    2.037    0.509
       274 -12.1747     55.4051     48.9877   5.0098691568e+01   6.0612704399e+01    0.3732768    0.2669123  30.81 0.0004439989    1.374    0.272
       275  -9.5811    168.8266    250.4219   6.2040818168e+01  -1.6351848847e+00      0.18477      0.10428  25.45  0.000586515    1.684    0.406
       276  -9.7620     44.9180     38.3583   5.0631193215e+01   6.3824238941e+01    0.3231534    0.2130976 -36.81  0.000108376    1.460    0.315
       277 -11.4538     46.5290     47.4982   5.3225672539e+01   6.2078528732e+01    0.5081176    0.2163176 -34.28  0.002002631    2.472    0.595
       278 -11.1729     44.0535     43.6926   5.2941980158e+01   6.3050191047e+01    0.2879604    0.2406885 -12.94 0.0003939041    1.029    0.028
       279  -9.9207    180.6449     47.7458   1.6666076646e+01   3.4225824114e+01    0.3641611    0.1722036 -53.49  0.001078127    2.378    0.579
       280 -10.7751    141.5341     48.4296   2.3946806679e+01   4.3471836959e+01    0.3898091    0.2349175 -61.58 -5.119154e-05    2.252    0.556
       281 -10.5871    163.5924     45.0627   1.8759453259e+01   3.8674284318e+01    0.4332164    0.2099607 -40.97  0.001914879    2.129    0.530
       282  -9.9037    222.1674     46.0412   1.0773304236e+01   2.5000796173e+01    0.1727807    0.1602423 -80.23  0.001145438    1.189    0.159
       283 -11.3754    121.7216     43.2855   2.6856936177e+01   4.8807076842e+01    0.3942313    0.3188288 -56.00 0.0005104007    1.436    0.304
       284  -9.9267    116.0782     39.9867   2.7182271382e+01   5.0533422678e+01    0.3027664    0.1943356  35.09 0.0007777311    1.642    0.391
       285 -10.0900    112.1894     45.3198   2.9931927220e+01   5.0650628983e+01    0.2093824    0.1851684  -1.56 0.0004860246    1.225    0.184
       286  -9.3308    104.4235     46.4972   3.2449510956e+01   5.2156109131e+01    0.1358078    0.1261856  36.71 6.707379e-05    1.037    0.035
       287  -9.7894    236.9651     44.5527   8.8851000750e+00   2.2082910940e+01     0.205213    0.1396026 -67.56 0.0007441917    1.301    0.231
       288 -11.2853     96.4093     41.8867   3.3203341670e+01   5.4498817978e+01     0.344411    0.2733082   3.89  0.001174309    1.387    0.279
       289  -9.7336    102.2801     40.9449   3.1175992367e+01   5.3409062162e+01    0.3065737    0.1571784  36.31  0.001016209    2.066    0.516
       290 -11.0785     72.4175     43.0600   4.1497481261e+01   5.8881728793e+01    0.3104776    0.2384272  10.13 0.0004110474    1.300    0.231
       291  -9.9032    131.0049     42.4565   2.4435192049e+01   4.6784311502e+01    0.2206238    0.1821868 -32.48  0.001246882    1.340    0.254
       292 -10.4846     89.5856     41.4333   3.5130917433e+01   5.5936962974e+01    0.2758832    0.2224927  49.69 0.0005232868    1.253    0.202
       293 -12.5478     27.7003     37.6160   5.8129432734e+01   6.5942443615e+01    0.4692932    0.2684443   5.40 0.0002915976    1.906    0.475
       294 -10.8805     24.4508     34.5615   5.8582368645e+01   6.6779935151e+01    0.3737245    0.2094283  -0.02 0.0005246426    2.004    0.501
       295  -9.9524    187.0245     41.0278   1.4047427365e+01   3.3646229335e+01    0.1981835    0.1734906  89.49  0.001208329    1.013    0.013
       296 -10.8777    148.8821     39.1910   1.9785071077e+01   4.2995058365e+01     0.527008    0.2133296 -37.63  0.002163582    2.590    0.614
       297 -10.5419    108.5455     40.7605   2.9389789877e+01   5.2090460401e+01    0.3276204    0.2238419  73.06  0.001432691    1.912    0.477
       298 -11.7791     83.7678     37.2402   3.5484661637e+01   5.7665146167e+01    0.6868932    0.4219462  13.68  0.003236375    2.213    0.548
       299 -11.8267     75.3201     35.8339   3.7808043620e+01   5.9436631647e+01    0.4492749    0.3648525 -48.51  0.001705787    1.561    0.360
       300 -10.1057    233.3101     39.3066   8.1810814834e+00   2.3550423500e+01    0.2771893    0.1514117  86.59  0.001078438    1.941    0.485
       301 -11.2632    248.1005     36.2414   6.1933823956e+00   2.0948343674e+01    0.2229349    0.1703651 -75.67 0.0002992038    1.081    0.075
       302  -9.3774    164.8471     36.8436   1.6330118396e+01   3.9473286078e+01    0.1919211    0.1483249 -80.54 0.0007101297    1.329    0.248
       303 -10.8984    140.3123     35.6536   2.0408247568e+01   4.5493362400e+01    0.3423698    0.2555211  -5.37  0.001363757    1.792    0.442
       304 -10.5201     92.5348     34.8098   3.1863525018e+01   5.6266736719e+01    0.3662756    0.2177385 -19.53    0.0017986    2.030    0.507
       305 -10.1752    193.9553     35.5332   1.1787323989e+01   3.2752893589e+01    0.2127111    0.1584423 -70.91 0.0003959394    1.271    0.213
       306  -9.8329    129.1858     35.8593   2.2790341298e+01   4.8081274526e+01    0.1930736    0.1719386  68.31 0.0003180798    1.082    0.076
       307 -10.5340    110.0156     35.1700   2.7123064984e+01   5.2516353956e+01    0.3588098    0.1786223  45.30  0.001068577    1.816    0.449
       308  -9.1806    101.6970     34.2980   2.9044412959e+01   5.4429096949e+01    0.2289315    0.1835685  74.34 0.0009060965    1.515    0.340
       309  -9.3491     98.5411     26.4454   2.7140709031e+01   5.6072585155e+01    0.2084748      0.17507  45.54 0.0001438294    1.062    0.059
       310 -10.8124     98.5133     32.0043   2.9126655865e+01   5.5396530725e+01    0.3212837    0.1578315  39.32  0.001453433    1.979    0.495
       311  -9.8651    101.2378     28.9729   2.7304558369e+01   5.5196388289e+01    0.2544815    0.2314849 -30.64   0.00161374    1.245    0.197
       312  -9.8342     34.1087     33.7213   5.3717604343e+01   6.5900338335e+01    0.1640062    0.1322033  -3.64 0.0006223719    1.043    0.042
       313  -9.3663    117.3684     33.2084   2.4644088063e+01   5.1126786845e+01    0.3252613    0.1178205  44.50  0.001226716    2.691    0.628
       314 -10.3825     10.9965     24.4294   6.1640397136e+01   6.9625632990e+01    0.2753431    0.1821932 -38.28 0.0007067543    1.303    0.232
       315 -11.1694     12.1267     29.1883   6.2782251551e+01   6.8750091142e+01    0.2173625    0.1615891  -4.94 0.0003400347    1.185    0.156
       316 -10.2531    182.9301    246.5343   5.8623694824e+01  -3.1279186281e+00    0.2010507    0.1068217  34.02  0.001038459    1.614    0.380
       317 -10.8059     73.0167    244.5065   8.1300277505e+01   1.3799121345e+01    0.2689223    0.2152849  32.37  0.001086487    1.356    0.263
       318 -10.4125     15.8504     32.1477   6.1942053775e+01   6.7954180678e+01    0.2029338    0.1444266  -0.65 0.0003669616    1.281    0.220
       319 -10.2811     19.4844     30.9863   5.9714908684e+01   6.7839011117e+01    0.2059433    0.1747283 -12.06 0.0008517901    1.135    0.119
       320 -12.2452     74.6933    239.8976   8.0517855028e+01   1.4488701688e+01    0.5804043     0.464542 -60.94  0.003234576    1.460    0.315
       321  -9.8609     45.7639    244.3117   8.6787319368e+01   1.7368854016e+01    0.1972989    0.1138672  54.33 0.0005695447    1.412    0.292
       322  -9.9547      4.7775    244.0909   9.4519094487e+01   2.1905825316e+01    0.1723755     0.108406  67.44 0.0005127495    1.202    0.168
       323  -9.6549     64.9534     31.5134   3.9903840372e+01   6.1851225442e+01    0.1891346    0.1135113  39.70  0.000407389    1.549    0.354
       324 -12.3212    231.5174     26.6288   5.7739275944e+00   2.5559366669e+01    0.3653141    0.2688761  78.36 0.0009693036    1.275    0.216
       325 -10.0664     82.5650     30.2062   3.3272173204e+01   5.8843757913e+01    0.2624791    0.1705839  64.07  0.001316527    2.100    0.524
       326  -9.7155     79.8484     27.1094   3.2980002412e+01   5.9758422241e+01    0.1821065    0.1741667  33.38 0.0006872345    1.206    0.171
       327 -11.2009    198.2765     28.4336   9.5913443191e+00   3.2651861121e+01    0.3489571    0.1938972  89.59  0.001406313    1.923    0.480
       328 -10.7158    120.0337     27.0374   2.2004328949e+01   5.1266326525e+01    0.4845272    0.2062947  47.10  0.001828534    2.115    0.527
       329 -10.1894     71.6071     28.2635   3.6219367279e+01   6.1135029092e+01    0.1665034    0.1143537 -15.55 0.0004665795    1.556    0.357
       330 -11.7814    215.4951     25.9018   7.1534091624e+00   2.9092131899e+01    0.4711614    0.2276752  67.55  0.002249796    1.898    0.473
       331  -8.8640    139.3193     28.6284   1.8501855840e+01   4.6589241121e+01    0.1404277   0.09748489 -72.59 0.0007033609    1.798    0.444
       332 -10.9706    176.6221     26.3401   1.1825694394e+01   3.7962118409e+01    0.2894446    0.2073484 -61.99  0.001643704    1.409    0.290
       333 -10.1657    144.6096     26.8355   1.6989867717e+01   4.5543050917e+01    0.1758941    0.1190869 -47.02  0.000425812    1.632    0.387
       334 -10.3661    112.3942     26.3259   2.3544461092e+01   5.3072836280e+01    0.3175961    0.2194529   2.01  0.001668721    1.899    0.473
       335 -10.1993    162.9424     28.8468   1.4480610239e+01   4.0924241952e+01     0.297645    0.1983507 -15.10  0.001334484    2.100    0.524
       336  -9.2354     16.4552     26.5307   5.9593403982e+01   6.8837069269e+01    0.1157315   0.08979972 -16.78 9.104284e-05    1.003    0.003
       337 -10.9305    129.0240     24.1043   1.9142796007e+01   4.9526834985e+01    0.2140251     0.196858  28.05 0.0002848835    1.182    0.154
       338  -9.8543    127.0307     19.3030   1.8031212499e+01   5.0510673761e+01    0.2433695     0.156042 -49.12 0.0009286723    1.857    0.462
       339  -9.9212     90.4718     25.0292   2.8910262190e+01   5.7915496940e+01    0.3130732    0.1585964  45.30  0.001516449    1.706    0.414
       340 -11.1444    157.7862     22.3694   1.3520562977e+01   4.2906269653e+01    0.5165909    0.2776539 -84.67  0.001817546    2.639    0.621
       341 -10.2971    161.5374     20.4860   1.2440679338e+01   4.2219778723e+01    0.2371138    0.2012176  39.16 0.0009258619    1.373    0.272
       342  -9.6000     22.1499     24.4500   5.5899360947e+01   6.8641125255e+01    0.1661036   0.09990993  17.52  0.000801083    1.572    0.364
       343 -10.4005     61.4004     26.5086   3.9273735894e+01   6.3124387124e+01    0.2159363    0.1752029  12.73 0.0006148145    1.062    0.058
       344 -10.5578     64.0633     17.8520   3.4742384020e+01   6.3755149825e+01    0.2184575    0.1542583  36.21 0.0007896651    1.233    0.189
       345  -9.7910     54.0003     22.7509   4.0654598928e+01   6.4808038215e+01    0.2322614     0.165117  13.92 0.0003389023    1.299    0.230
       346 -10.3002     58.7373     21.6123   3.8306230784e+01   6.4197139119e+01    0.2617052    0.1793848  21.85  0.001371282    1.330    0.248
       347 -10.6990     88.9553    241.2378   7.7648577557e+01   1.2199016563e+01    0.2090127    0.1597297 -49.33  0.001117331    1.628    0.386
       348  -9.5317     55.5131     19.4719   3.8679145989e+01   6.4987887987e+01    0.1808098     0.112532 -28.27 0.0001300663    1.647    0.393
       349 -10.1585    149.9763    239.9729   6.4464255811e+01   3.0425742235e+00    0.1586924    0.1375493  31.15 0.0004669607    1.013    0.013
       350 -10.3542    195.8240    238.2711   5.4775356609e+01  -3.7406006900e+00    0.2317935     0.190223  -7.75 0.0009681653    1.165    0.142
       351 -10.1330      3.6908    238.4780   9.4451237649e+01   2.3121686460e+01    0.2060971    0.1193383 -86.17  0.001046094    1.492    0.330
       352  -9.6021    224.4305     21.7815   5.4292976215e+00   2.7652820939e+01    0.1478442    0.1169967 -27.13 0.0008990486    1.671    0.402
       353 -10.8253     35.0950    237.8570   8.8434239973e+01   1.9939322303e+01    0.2301342    0.1417474  54.41  0.001060197    1.321    0.243
       354  -9.8101     82.6370     21.9309   3.0106667994e+01   5.9843320495e+01    0.2280906    0.1499214  28.97 0.0007471961    1.467    0.318
       355 -10.2624     81.8504     17.2577   2.8540940218e+01   6.0521467915e+01    0.2971273    0.1808753 -16.56  0.001261248    1.886    0.470
       356 -11.2773     69.1649     21.4239   3.4371375463e+01   6.2431346325e+01    0.2664002    0.2026866  47.94  0.001259502    1.369    0.270
       357 -10.4796    193.3651     20.8196   8.3881465640e+00   3.4688693065e+01    0.2223724    0.1720168  67.94 0.0001676529    1.230    0.187
       358 -10.0149    121.9456     20.0587   1.9316531729e+01   5.1604111345e+01    0.3181044    0.1599903  32.90  0.001332242    2.635    0.620
       359 -10.7642     30.7984    234.0359   8.9023887143e+01   2.1213410201e+01    0.3774813    0.2317692 -85.71   0.00213973    1.503    0.334
       360  -9.8590     40.7873    237.4315   8.7271173582e+01   1.9360882687e+01    0.1466507    0.1101422  30.43 0.0003604262    1.549    0.354
       361 -10.1209     24.5020     20.0744   5.2939235763e+01   6.9062208795e+01    0.1894653    0.1310602 -27.51 0.0004296344    1.272    0.214
       362 -11.1934    133.9322     18.5146   1.6455068463e+01   4.8983183158e+01    0.3207775    0.2136355  68.91  0.001059296    1.361    0.265
       363 -11.0419    160.8541    234.0749   6.1298662159e+01   2.3603991312e+00    0.4004884    0.2794067 -37.56  0.002235485    1.614    0.381
       364 -10.0944     67.5868    236.0912   8.1649448764e+01   1.6234757993e+01    0.2472262    0.1729635  34.52  0.001454413    1.437    0.304
       365  -9.4183    119.7923     17.0537   1.8790452684e+01   5.2409846254e+01    0.1542296    0.1054646 -27.40 0.0006495341    1.690    0.408
       366 -10.2848    109.0207     16.6562   2.1041523682e+01   5.4875642950e+01    0.2346714    0.1425249  48.09  0.001004293    1.404    0.288
       367 -12.0146     34.1858     22.6753   4.9306603364e+01   6.7578590099e+01    0.2256188    0.1636061   3.56 0.0002190211    1.199    0.166
       368 -10.1486    217.0505     16.1421   4.9303300269e+00   2.9908324060e+01    0.4047969    0.1079622  60.50  0.001618684    3.383    0.704
       369  -9.3604    177.8299     16.2380   9.1324942573e+00   3.8820703690e+01    0.1629643      0.13635  55.03 0.0004612524    1.301    0.231
       370 -11.3645    182.9428    234.1693   5.6716214735e+01  -1.1308564382e+00    0.2836523    0.2644916  22.37  0.001045807    1.169    0.145
       371 -10.1909     59.7175    240.9907   8.3718850918e+01   1.6278849586e+01    0.1746918    0.1453475  67.34  0.001081936    1.053    0.050
       372 -11.0018    137.6540     15.4375   1.4849825146e+01   4.8424288533e+01    0.3119256    0.2099508  88.54 0.0006597306    1.655    0.396
       373  -9.1858     76.5719     15.7672   2.9606342772e+01   6.1705578701e+01    0.1591228    0.1422844  11.67 9.979536e-05    1.123    0.109
       374 -10.5559     54.7894    231.8174   8.3953073596e+01   1.8802361790e+01    0.2254914    0.1865798  68.82  0.001078283    1.032    0.031
       375  -9.1841     23.5318    232.5607   9.0362185727e+01   2.2315389974e+01    0.1165697   0.09340649  71.44 0.0001575262    1.058    0.054
       376  -9.5498    110.0131    250.2921   7.4213242166e+01   7.3556325955e+00    0.1857172    0.1407685  43.18 0.0006463646    1.094    0.086
       377 -10.9316     39.5966    229.2784   8.6902453602e+01   2.1198237178e+01    0.2764161    0.1492399  62.41  0.001201649    1.674    0.403
       378 -10.6444    248.5054    228.5491   4.3359446430e+01  -9.5313823867e+00    0.2383424    0.1017581 -36.83   0.00121624    2.183    0.542
       379 -10.4317    191.9821    226.4257   5.3623847369e+01  -1.2381974077e+00    0.2406935    0.1903442 -57.49   0.00140235    1.701    0.412
       380 -10.3765      4.2505    225.6457   9.3706289989e+01   2.5685124323e+01    0.2107501    0.1850029  -5.51  0.001537283    1.813    0.448
       381 -10.3339     79.5706    222.8559   7.7704881583e+01   1.7348387349e+01    0.2549888    0.1744384  17.90   0.00131022    1.964    0.491
       382 -10.2279     16.1970    222.1301   9.1163029231e+01   2.5268467113e+01    0.1661756    0.1388696  88.10  0.000510444    1.172    0.147
       383 -10.0763    125.1096    220.8080   6.7169586408e+01   1.0716899421e+01     0.354954    0.2224478  19.29  0.001643913    2.031    0.508
       384  -9.6652    211.8131    218.8302   4.8407226287e+01  -3.0146003468e+00    0.1597277    0.1541744  23.56 0.0006806547    1.317    0.241
       385 -11.6089     49.0137    218.5842   8.4022751853e+01   2.2367534436e+01    0.4759749    0.2491227  31.56  0.002408234    1.997    0.499
       386 -10.1057     38.3102    216.9738   8.6199545014e+01   2.3999749092e+01    0.1726385    0.1368622  78.53 0.0004131765    1.065    0.061
       387  -8.7204     41.2742     19.6590   4.4775521061e+01   6.7080554120e+01   0.09876125    0.0965792 -52.45 0.0002928938    1.615    0.381
       388 -11.4921      3.6999    205.3387   9.2684613981e+01   3.0081330615e+01     0.297374    0.2727121 -71.83  0.002226132    1.353    0.261
       389 -12.0423     11.3921    209.6314   9.1355680627e+01   2.8439631296e+01    0.3725257    0.3116301  89.78  0.001549177    1.152    0.132
       390 -11.5767      7.8710    215.7014   9.2445862379e+01   2.7451022415e+01    0.2782005    0.2381168  86.48  0.002041745    1.188    0.158
       391 -11.7324      5.2753    211.2061   9.2707435356e+01   2.8660132063e+01    0.4703099    0.1657571 -71.29  0.002280233    2.430    0.588
       392  -9.1816    204.6246    216.6887   4.9440426752e+01  -1.5670323725e+00    0.1398657   0.09244764   1.08 0.0007030454    1.786    0.440
       393 -10.7984     29.5287    215.0569   8.7924081595e+01   2.5405729094e+01    0.2572216    0.2155972  21.80  0.001627918    1.558    0.358
       394  -9.6657     23.8420    215.8939   8.9183683833e+01   2.5829136223e+01    0.1725125    0.1127884  68.85 0.0003922788    1.299    0.230
       395  -9.6556    110.3759    211.7989   6.9267045322e+01   1.5015932226e+01    0.1899543    0.1266255 -47.62 0.0009451153    1.701    0.412
       396 -10.0458     20.4560    212.1479   8.9629839593e+01   2.6999531102e+01    0.2445268    0.1067477  61.55  0.001180327    2.192    0.544
       397 -10.1662    217.1302    209.0220   4.5658211209e+01  -2.2100207466e+00    0.2901794    0.1584958 -32.75  0.001084675    1.805    0.446
       398  -9.3145    132.2545    209.0397   6.3773069057e+01   1.1953682841e+01    0.1722288    0.1228792 -53.18 0.0008358282    1.526    0.345
       399 -10.6541     72.6521    208.5542   7.7663916881e+01   2.1487140253e+01    0.3169486    0.2091283  17.11  0.001553402    2.094    0.522
       400 -11.0817     28.0440    205.7345   8.7520394795e+01   2.7641705899e+01      0.21992    0.1578985 -86.30 0.0008922954    1.221    0.181
       401 -12.2641     20.3334    201.5457   8.8887028083e+01   2.9378613492e+01    0.7511746    0.2479443 -57.93  0.003183838    3.100    0.677
       402  -9.9065    148.0474    205.8552   5.9633070607e+01   9.8870898037e+00    0.2694198    0.1969028  14.67  0.001341051    1.598    0.374
       403 -10.4165    175.0594    202.0405   5.2966526302e+01   5.9312770185e+00     0.255785    0.1858429  34.11 0.0004293863    1.295    0.228
       404  -9.1676    238.2552    200.9573   4.0317210296e+01  -4.0297896721e+00    0.1561529   0.09704541 -36.21 0.0004325451    1.481    0.325
       405 -10.0637    194.0347    201.7755   4.8918696365e+01   2.7425741193e+00    0.1853324    0.1064048  37.04  0.000879849    1.679    0.405
       406  -9.5799     94.5782    201.2278   7.1528022717e+01   1.9890000537e+01    0.1994172    0.1265296 -50.37 0.0009591687    1.738    0.425
       407  -9.2830    120.5731    200.2241   6.5130071250e+01   1.5845400254e+01    0.1937416    0.1337622 -43.53 0.0008381085    1.633    0.388
       408 -10.3654     41.2964    198.0362   8.3852302419e+01   2.7937877316e+01    0.3730685    0.2140594  70.76  0.001887209    1.783    0.439
       409 -10.2390    134.9016    196.3816   6.1091510351e+01   1.4193621135e+01    0.2482215    0.2028793 -45.97 0.0004911228    1.310    0.237
       410  -9.6097     57.0258    197.0841   8.0047857231e+01   2.6239328167e+01    0.2599744    0.1770513 -12.47  0.001205795    2.697    0.629
       411 -12.0926     15.6344    192.0172   8.9208994331e+01   3.2004271206e+01    0.4135476     0.337718 -70.17  0.001641332    1.258    0.205
       412 -11.9885     15.8221    182.3905   8.8404370599e+01   3.4223348244e+01    0.4827983    0.2569934  72.67  0.001878734    1.873    0.466
       413  -9.2410      1.6483    193.7060   9.2406451558e+01   3.2842786279e+01    0.1114801   0.08201868 -50.46 0.0007031549    1.681    0.405
       414  -9.8576     60.3035    191.9538   7.8668836497e+01   2.7022221361e+01    0.2536146    0.1969105  29.10  0.001170893    1.438    0.305
