#   1 NUMBER                 Running object number                                     
#   2 MAG_AUTO               Kron-like elliptical aperture magnitude                    [mag]
#   3 X_IMAGE                Object position along x                                    [pixel]
#   4 Y_IMAGE                Object position along y                                    [pixel]
#   5 X_WORLD                Barycenter position along world x axis                     [deg]
#   6 Y_WORLD                Barycenter position along world y axis                     [deg]
#   7 A_WORLD                Profile RMS along major axis (world units)                 [deg]
#   8 B_WORLD                Profile RMS along minor axis (world units)                 [deg]
#   9 THETA_WORLD            Position angle (CCW/world-x)                               [deg]
#  10 FWHM_WORLD             FWHM assuming a gaussian core                              [deg]
#  11 ELONGATION             A_IMAGE/B_IMAGE                                           
#  12 ELLIPTICITY            1 - B_IMAGE/A_IMAGE                                       
         1 -13.1319    165.6867     36.8334   7.9692460196e+01   3.8994234937e+01     1.432417    0.9433495  -5.09  0.005219361    1.866    0.464
         2 -10.1456     33.0000     11.4497   1.0747317415e+02   6.8877475173e+01    0.2574947   0.05555541 -39.79 0.0009354941    3.941    0.746
         3 -12.2833    180.1315      5.1485   6.7485116766e+01   3.8722480858e+01    0.9329098    0.6617711  69.62  0.004812442    1.307    0.235
         4 -10.6424    159.1764    235.6051   1.2677034389e+02   6.3106131048e+00    0.3014492    0.1962294  23.88  0.001024877    1.845    0.458
         5 -10.7267    140.1327    248.6542   1.3159077916e+02   7.5040304797e+00    0.2856456    0.2453192  61.80  0.001266978    1.172    0.147
         6 -19.7381     63.9468    160.0646   1.3555882761e+02   3.4738839340e+01     18.66618      3.05847 -63.90   0.05399385    5.806    0.828
         7 -10.6393    164.5167    205.6213   1.2154367197e+02   9.8424263552e+00    0.2852362    0.2215824 -46.21 0.0008293674    1.505    0.336
         8 -10.0659    120.0071    205.5142   1.3000219694e+02   1.7435402148e+01    0.1773343    0.1588255  86.09  0.000415141    1.146    0.127
         9 -11.8602    193.2188    192.9782   1.1404064952e+02   6.6151089683e+00    0.7050161    0.4482436 -53.60  0.002865087    2.176    0.540
        10 -10.8280    136.1763    197.7837   1.2579065919e+02   1.6094630723e+01     0.349126    0.2721145  62.09   0.00212366    1.246    0.197
        11  -8.8970    169.8409    195.8471   1.1895391925e+02   1.0442486787e+01     0.171643    0.1510707  78.33 0.0009354138    1.365    0.267
        12 -10.0771    180.1358    193.0858   1.1651901234e+02   8.9997281251e+00    0.2648741    0.1925567 -60.30   0.00118449    1.869    0.465
        13  -8.5584      3.2914    194.3903   1.5059966747e+02   3.4201495742e+01   0.09598583   0.06549301 -61.44 0.0007009109    1.771    0.435
        14  -9.7653    157.8560    192.9487   1.2079063050e+02   1.3094776113e+01    0.1951559    0.1759843  52.66 0.0004863027    1.069    0.064
        15 -10.8231    184.8095    229.2918   1.2142780601e+02   2.9675789228e+00    0.2098994    0.1739962 -67.20  0.001060626    1.752    0.429
        16 -10.7141    124.0435    185.5023   1.2636943213e+02   2.0408327969e+01     0.195575    0.1758023 -75.05 0.0007370707    1.167    0.143
        17 -10.7239    209.5319    180.3830   1.0867756298e+02   5.4709676828e+00    0.5988629    0.3649775   8.50  0.002727637    2.355    0.575
        18 -12.4798    126.3659    173.5436   1.2397824854e+02   2.2296400740e+01    0.9557404    0.3198636 -59.56  0.003102923    4.408    0.773
        19 -10.9629    138.7032    172.4554   1.2118813564e+02   2.0282197951e+01     0.458242    0.2886595  86.21  0.001895792    2.941    0.660
        20 -10.3037    204.1186    168.1749   1.0725086937e+02   8.3689831517e+00    0.3987547    0.2870339  42.50   0.00191225    1.317    0.241
        21 -10.1487     33.8611    168.3953   1.4292889840e+02   3.6461867316e+01    0.2138949    0.1389435 -72.24 0.0006668938    1.338    0.253
        22 -11.2353    124.3379    159.3798   1.2194893991e+02   2.5478620460e+01    0.3902772    0.2315366  61.11  0.001636987    1.997    0.499
        23 -10.1833    139.8993    217.6143   1.2786663919e+02   1.2147509305e+01    0.5153055    0.2674252 -75.33  0.001983869    4.792    0.791
        24 -11.2245    127.6769    151.2290   1.1966751089e+02   2.6531442086e+01    0.5739695    0.1183389 -47.13  0.001580074    5.032    0.801
        25 -11.7572    134.0000    143.4984   1.1667314920e+02   2.6917762208e+01    0.9460534    0.2494087 -53.30  0.002559569    5.056    0.802
        26 -10.8270    197.9735    175.8326   1.0993842362e+02   8.3561743928e+00    0.3990688    0.3039311 -41.60  0.001294164    1.466    0.318
        27 -12.3156    119.6431    129.4818   1.1704743794e+02   3.2599680650e+01     0.684756    0.4253897  68.15  0.002782375    2.319    0.569
        28 -11.7510    114.4356    119.6938   1.1612051340e+02   3.5673646937e+01     0.622902    0.2332875 -56.78  0.002029346    3.338    0.700
        29 -11.9519    126.0817    127.4760   1.1504281287e+02   3.1794732891e+01    0.5181841    0.3609174 -74.22  0.002367501    1.889    0.471
        30 -10.9689    127.6489    122.0027   1.1339633594e+02   3.2640554613e+01    0.4505675    0.1428408 -47.96  0.001455405    3.138    0.681
        31 -10.8003    194.3032    218.8580   1.1818243688e+02   2.7588506555e+00     0.250893    0.1384208  23.89  0.001252026    2.149    0.535
        32  -8.9230    205.7791    110.3835   9.3646055369e+01   1.7587135437e+01    0.2105827     0.134864  40.69 0.0007197532    1.613    0.380
        33  -9.0897     11.3272    232.4161   1.5123077972e+02   2.6695808779e+01    0.1422184   0.09142105  21.48 0.0009436223    3.087    0.676
        34  -9.5415    172.0255    117.6366   1.0217759160e+02   2.4009366550e+01    0.3499826    0.2538165  80.51  0.001522384    2.019    0.505
        35 -11.9145    154.2198     52.8047   8.7134713473e+01   3.9650834849e+01     0.513832    0.4053027  64.11  0.001244003    1.340    0.254
        36 -11.7214    195.4690    247.5068   1.2217099407e+02  -9.8195564553e-01    0.3681585    0.2806785  12.92  0.002633334    1.364    0.267
        37 -11.0567    169.5766     29.4372   7.6633186116e+01   3.8912259344e+01    0.3572713    0.3229342  21.28 0.0008606196    1.147    0.128
        38 -10.4157    127.1592    207.4538   1.2889473297e+02   1.5931993136e+01    0.2300768    0.1633565 -34.97  0.001327422    1.980    0.495
        39 -10.4451      6.9054    247.3559   1.5252568462e+02   2.4691626017e+01    0.1462605     0.103753  69.76 0.0004171018    1.124    0.110
