#   1 NUMBER                 Running object number                                     
#   2 MAG_AUTO               Kron-like elliptical aperture magnitude                    [mag]
#   3 X_IMAGE                Object position along x                                    [pixel]
#   4 Y_IMAGE                Object position along y                                    [pixel]
#   5 X_WORLD                Barycenter position along world x axis                     [deg]
#   6 Y_WORLD                Barycenter position along world y axis                     [deg]
#   7 A_WORLD                Profile RMS along major axis (world units)                 [deg]
#   8 B_WORLD                Profile RMS along minor axis (world units)                 [deg]
#   9 THETA_WORLD            Position angle (CCW/world-x)                               [deg]
#  10 FWHM_WORLD             FWHM assuming a gaussian core                              [deg]
#  11 ELONGATION             A_IMAGE/B_IMAGE                                           
#  12 ELLIPTICITY            1 - B_IMAGE/A_IMAGE                                       
         1  -9.9034    188.7657     20.8810   4.1476672033e+01   3.4995104653e+01    0.2155778    0.1548213 -45.10  0.001290967    1.330    0.248
         2  -9.9422     97.2588     13.3203   5.3286997221e+01   5.7864982178e+01    0.4422799    0.2128811  -8.27  0.001852007    2.918    0.657
         3  -9.8465     40.9178     14.0635   7.3906644730e+01   6.9590868705e+01    0.2614452    0.1639043  26.32 0.0003049446    1.405    0.288
         4  -9.3535     80.2161     12.3779   5.7450926592e+01   6.1911322675e+01    0.2130835    0.1572976 -47.71 0.0009111656    1.764    0.433
         5  -9.6006     71.1120      6.6538   5.7581629368e+01   6.4465207209e+01    0.2642417    0.1184471  64.49  0.001081835    2.574    0.612
         6  -9.1052    107.9930    236.9761   1.0695485817e+02   1.0902118815e+01    0.2589921    0.1715107  74.25   0.00130461    2.430    0.588
         7 -11.7852    237.4328    241.0532   8.1026800837e+01  -6.3852049959e+00     0.520998    0.4436632  10.51  0.003226944    1.559    0.359
         8 -11.4511    249.8189    239.7934   7.8729366682e+01  -7.5271554186e+00    0.6275422    0.2953391 -37.06  0.003533804    2.224    0.550
         9  -8.4540    214.6228    250.1683   8.6530188206e+01  -5.0126834700e+00    0.1585118   0.08698265 -20.64 0.0009353934    1.693    0.409
        10 -10.3134    159.9455    244.4982   9.6520408570e+01   2.5823174179e+00    0.3724849    0.1660197  32.85  0.001827081    1.869    0.465
        11 -11.0457    166.2262    248.8034   9.5817982931e+01   1.1013602725e+00    0.4604183    0.3420426  14.61  0.002982143    1.049    0.047
        12 -10.8318    167.6351    242.5508   9.4629470579e+01   1.8637672301e+00    0.4730136    0.2288805  35.40  0.001714257    1.856    0.461
        13  -8.1634     20.3302    250.3345   1.2706037026e+02   1.8565665554e+01   0.09979434   0.08367568 -29.89 0.0007052115    1.727    0.421
        14  -8.8726    160.8536    234.3829   9.4857951720e+01   4.0677717373e+00    0.1890211    0.1716465 -15.07 0.0005885056    1.270    0.213
        15  -9.6725    169.2514    232.5361   9.2791266856e+01   3.2135888299e+00    0.2931311    0.2292364  -1.62       0.0017    1.130    0.115
        16  -8.7936     99.9982    234.0058   1.0843292770e+02   1.2528684597e+01    0.1979973    0.1753587  26.13  0.001191674    1.059    0.055
        17 -10.5309    237.2212    231.7155   7.9553203347e+01  -5.1814225702e+00    0.2292559    0.1843345 -12.93  0.001674546    1.324    0.245
        18 -10.4216     99.2261    226.6178   1.0774320057e+02   1.4056795395e+01    0.3870766    0.3193693   9.57  0.001204021    1.248    0.199
        19  -9.5432    171.0578    225.6647   9.1333293123e+01   4.0737309906e+00    0.1965693    0.1650402 -14.90 0.0003470867    1.187    0.158
        20 -11.3015    164.5431    226.3765   9.2840349481e+01   4.8706103196e+00    0.5602621    0.3420834  16.27  0.002962604    1.533    0.348
        21 -10.1431    160.5368    227.4725   9.3877577833e+01   5.2522068519e+00    0.3455209    0.2283502  13.94  0.001481425    1.388    0.279
        22  -8.5962     72.9217    228.9570   1.1415454577e+02   1.7012136046e+01    0.2090908    0.1291803  57.42 0.0008661093    1.696    0.410
        23 -10.7859    127.7891    226.7223   1.0110278930e+02   1.0048612308e+01    0.9562021    0.5357129   0.92  0.003935678    2.939    0.660
        24 -11.2936    125.5535    221.3064   1.0085926531e+02   1.1382287867e+01    0.5193959    0.3812247   9.04  0.001240904    1.384    0.277
        25  -9.9502    132.0000    220.4067   9.9227092000e+01   1.0615777543e+01    0.3284677    0.1766451 -45.48 0.0009443203    2.053    0.513
        26 -10.1531    131.2127    214.7880   9.8574464490e+01   1.1797620036e+01    0.3468567    0.3377995  62.40  0.001739694    1.267    0.211
        27  -9.5430    114.8590    220.9351   1.0332445592e+02   1.2990621909e+01    0.2768473    0.2082421 -22.23   0.00043634    1.544    0.352
        28  -8.8944     88.6540    226.6798   1.1023675923e+02   1.5458649091e+01    0.1861748    0.1343057 -56.69 0.0006464348    1.583    0.368
        29  -9.7702     89.0000    222.9884   1.0973558982e+02   1.6154918438e+01    0.2956161    0.1626286 -54.81  0.001478316    2.030    0.507
        30  -9.6570    108.7841    223.0852   1.0504765415e+02   1.3429951618e+01    0.3217155    0.2398889  -0.46  0.001637227    1.539    0.350
        31  -9.6979     19.7109    222.9833   1.2579984252e+02   2.4024995951e+01    0.2379054    0.1642595  14.53  0.001455735    1.734    0.423
        32  -9.2849    157.4910    221.7070   9.3644851314e+01   6.6694979227e+00    0.2324945    0.1794812  22.23 0.0005356477    1.113    0.102
        33  -9.0110    148.6752    220.5936   9.5437632929e+01   8.1458543063e+00    0.2256108    0.1580791 -45.88 0.0005621268    1.635    0.388
        34  -8.6327     75.0585    219.9954   1.1273804452e+02   1.8582344380e+01     0.215825    0.1310844  52.69 0.0006849852    1.650    0.394
        35  -9.4503    191.9332    217.6295   8.5673135208e+01   2.4645713363e+00    0.2403816    0.1554596 -33.15 0.0008590749    1.531    0.347
        36 -11.0644    247.0572    248.4017   8.0547836365e+01  -8.2682596126e+00    0.4626353    0.3271112  11.30  0.002348694    1.265    0.209
        37  -9.2987     99.1535    217.1810   1.0659159901e+02   1.5955807394e+01    0.3264086    0.2252662 -84.66  0.001669374    2.032    0.508
        38  -8.4799    175.7306    216.6713   8.8870293506e+01   4.8976778867e+00     0.183901    0.1138696 -53.26 0.0009052479    2.311    0.567
        39  -9.2523    143.8998    216.8511   9.5941479817e+01   9.5266153312e+00    0.2167989    0.1913326 -28.62 0.0006527547    1.235    0.191
        40  -9.5607    185.1000    226.1987   8.8489564305e+01   2.0542929127e+00    0.3511505    0.1970301 -35.11   0.00180149    1.806    0.446
        41  -9.2228     78.1713    211.7925   1.1107501984e+02   1.9921238835e+01    0.3725675    0.2403985  11.68   0.00184797    1.857    0.461
        42  -9.1473    233.4111    211.2233   7.6741568319e+01  -1.9795758525e+00    0.1527617    0.1004746 -34.57 0.0006943399    1.539    0.350
        43  -8.8623    116.3994    211.1247   1.0157662611e+02   1.4714578003e+01    0.1753085    0.1362076 -74.88 0.0009388204    1.704    0.413
        44  -8.3173    148.6206    210.3235   9.3814290569e+01   1.0027765500e+01    0.1372658    0.1039042  56.61 0.0002250389    1.834    0.455
        45  -8.9643    202.5211    209.6498   8.2181187417e+01   2.2616117346e+00    0.2163994    0.1082316  30.73  0.001074056    1.884    0.469
        46  -9.1495    135.9628    208.7098   9.6508891167e+01   1.2257702131e+01    0.1980752    0.1563848  25.34 0.0004051413    1.116    0.104
        47 -10.0273    116.6245    226.6053   1.0366993206e+02   1.1651276669e+01    0.4774701    0.2935342  50.97  0.002316142    1.871    0.465
        48  -8.1082    193.6946    207.6443   8.3583078982e+01   3.8157689307e+00    0.1405374    0.0874861  -6.25 0.0007040845    1.718    0.418
        49  -8.9020     99.4625    206.4582   1.0509565240e+02   1.8149209128e+01    0.3019992    0.1819403  61.62  0.001130346    2.309    0.567
        50 -10.0288     11.3188    207.1657   1.2681426574e+02   2.8151803848e+01    0.3439314    0.1408406  25.47  0.001664944    2.395    0.582
        51  -8.2965     56.3686    205.6696   1.1584234069e+02   2.3970295620e+01    0.1475415   0.08430105  57.09 0.0007032691    1.822    0.451
        52  -8.1526    215.9878    203.9921   7.8597428071e+01   1.3055544303e+00    0.1545922    0.1207112  -2.37 0.0004593938    1.027    0.026
        53  -9.3459    131.0773    203.5880   9.6858064502e+01   1.4016909014e+01    0.3166142    0.2100548  71.04  0.001321949    2.934    0.659
        54 -10.1966    126.4117    197.8046   9.7058540292e+01   1.5920367364e+01    0.3817221    0.3427249  28.77  0.001498186    1.083    0.077
        55  -8.5506    140.8068    201.2345   9.4133752521e+01   1.2971463077e+01    0.2246289    0.1494854  65.37 0.0009489139    2.759    0.638
        56 -10.9224    248.7535    198.2381   7.1861028510e+01  -2.0160189221e+00    0.3927024    0.3101552   8.16  0.002774262    1.246    0.198
        57 -10.4066    177.7942    198.2007   8.5198595953e+01   7.7668865034e+00    0.3630866    0.2681479  54.50  0.001869191    2.051    0.512
        58 -11.4267    173.2170    195.0276   8.5609125784e+01   9.0437254347e+00    0.5962702    0.3972505 -41.61  0.001872732    1.578    0.366
        59  -9.5903    149.6595    199.0883   9.1676279659e+01   1.1997529747e+01    0.3943354    0.2658685  62.98  0.001694049    2.648    0.622
        60  -9.2829     89.1123    199.4214   1.0676539480e+02   2.1148917557e+01    0.3018898    0.2153905  73.32  0.001170648    1.789    0.441
        61  -9.0529    112.8477    197.7917   1.0045301867e+02   1.8020923189e+01    0.3363968    0.1924362  55.97  0.001397166    2.413    0.585
        62  -8.5337     13.6644    198.3374   1.2575570723e+02   2.9925606990e+01    0.1374438   0.07274968  58.42 0.0007051714    1.749    0.428
        63  -8.7699    131.9825    195.6834   9.5331020692e+01   1.5479532375e+01    0.2113554    0.1652544  28.36 0.0009229179    1.163    0.140
        64  -8.7935     67.2729    195.5507   1.1195226023e+02   2.4945223797e+01    0.3223134    0.1460743  54.12  0.001260689    2.664    0.625
        65  -8.9057    162.6440    194.3214   8.7833989672e+01   1.0844927285e+01    0.1346539    0.1119647  62.25 0.0007045818    1.760    0.432
        66 -10.8810    138.8177    190.1374   9.2691564690e+01   1.5518235320e+01    0.5858071    0.3816942 -21.49  0.002709502    1.843    0.457
        67  -8.7156     44.2455    194.4127   1.1782339815e+02   2.7909843600e+01    0.1891153    0.1056449  40.70 0.0004822137    1.621    0.383
        68  -8.3881     78.3358    193.6543   1.0880767775e+02   2.3936482962e+01    0.1509051   0.09822599  60.42 0.0007048993    1.772    0.436
        69  -8.6252    124.1954    192.1504   9.6671252860e+01   1.7454512864e+01    0.1956458    0.1634911  50.81  0.000406522    1.332    0.249
        70 -10.9751    180.4336    192.7899   8.3634034996e+01   8.3181956736e+00     0.598317    0.2955387 -45.72   0.00266382    2.218    0.549
        71  -9.4357    203.9098    188.3956   7.8008167600e+01   5.4926730793e+00    0.3309003    0.2132447  49.09  0.001654301    2.269    0.559
        72  -9.1759    129.7439    188.9205   9.4722489654e+01   1.7246501852e+01     0.247877    0.2125497 -83.23 0.0009707932    1.560    0.359
        73  -8.4720     87.2996    189.6221   1.0587610803e+02   2.3621246941e+01    0.1499458    0.1040245  64.87 0.0007025247    1.760    0.432
        74  -9.7742    156.2618    187.8519   8.8106535753e+01   1.3118076138e+01    0.2714384    0.2487721  50.63  0.001020162    1.358    0.264
        75  -9.5792    120.5375    186.1453   9.6578284215e+01   1.9330265876e+01    0.4368756    0.2359422 -63.63  0.001757333    2.532    0.605
        76 -10.2449     95.6565    187.2485   1.0329406750e+02   2.2950193790e+01    0.6582556    0.2630807  47.14  0.002324825    2.891    0.654
        77  -8.9580     55.7407    187.8818   1.1411870483e+02   2.8151466086e+01    0.3381922    0.1493094  58.45  0.001253898    3.045    0.672
        78  -8.7496     34.9517    188.1527   1.1965723356e+02   3.0347639410e+01    0.2369368    0.1142025  52.03  0.001074563    2.063    0.515
        79  -9.5828    198.3776    185.8060   7.8601378542e+01   6.7615794821e+00    0.3300611    0.1958301 -17.59  0.001486189    1.823    0.452
        80  -9.9869    197.4907    182.0154   7.8043243940e+01   7.5471315373e+00    0.3631695    0.2784726  41.83  0.002043045    1.571    0.364
        81 -10.1685    184.3545    185.9083   8.1495608179e+01   8.9289051275e+00    0.2922221    0.1958778 -25.62   0.00151506    1.431    0.301
        82 -10.6741    148.0841    186.5513   8.9796687445e+01   1.4724741090e+01    0.3057506    0.2592956  29.50  0.001688913    1.149    0.130
        83 -10.9725    148.7187    180.9152   8.8583561675e+01   1.5760036296e+01    0.4411297    0.3283159 -24.47  0.001216025    1.384    0.278
        84 -10.6471    149.0600    174.9160   8.7336709040e+01   1.6931325860e+01    0.3742363    0.3262776  80.96  0.001522353    1.621    0.383
        85  -9.7147    109.0661    185.7369   9.9496275259e+01   2.1244386739e+01    0.4452407    0.2643621  59.75  0.001801547    2.482    0.597
        86  -8.9005    229.6139    185.7905   7.2781568344e+01   2.2403652388e+00    0.2384309    0.1530944  56.99  0.001098334    3.535    0.717
        87 -11.0702     15.0880    183.9505   1.2446567925e+02   3.3142947338e+01    0.5088463    0.3057227 -24.96  0.002370731    2.478    0.596
        88 -10.0274    211.0331    183.4271   7.5690971077e+01   5.2548890243e+00    0.4572819    0.2729974   6.44  0.002228184    2.012    0.503
        89  -8.6785     74.6130    184.3360   1.0856106192e+02   2.6613976424e+01    0.2280897     0.155495  62.03  0.001099103    1.676    0.403
        90  -8.4765     44.7339    182.9625   1.1654840526e+02   3.0574929386e+01    0.2084814    0.1220281  48.70 0.0008950563    1.659    0.397
        91  -8.3921     27.6251    183.3085   1.2115764250e+02   3.2206739140e+01    0.1453261   0.08135591  56.99 0.0007030622    1.777    0.437
        92  -9.3787    164.5511    198.9508   8.8240973132e+01   9.6825905381e+00    0.2841765    0.1580401 -26.07  0.001268174    2.071    0.517
        93  -9.0548    182.9939    180.7422   8.0778126679e+01   1.0078181979e+01    0.2034417    0.1658382  21.95  0.001147944    1.178    0.151
        94  -8.9865    156.8206    181.1534   8.6704301392e+01   1.4344483497e+01    0.2031003    0.1562363  -8.44 0.0003737237    1.334    0.250
        95  -9.8428    138.2248    180.0118   9.0983617086e+01   1.7721781169e+01     0.219979    0.1761617 -89.00   0.00106138    1.911    0.477
        96  -9.9879      8.9765    179.9801   1.2576463948e+02   3.4563457327e+01    0.1925441    0.1702113 -86.58  0.000868328    1.086    0.079
        97  -8.7343    129.9863    177.9924   9.2686035904e+01   1.9544421911e+01    0.2331718     0.184182  68.31  0.001129845    1.746    0.427
        98  -8.7574     88.0630    176.8890   1.0375242736e+02   2.6492168408e+01    0.3019786    0.1689878  31.72  0.001320926    1.692    0.409
        99  -9.4834     77.1188    176.1613   1.0670420794e+02   2.8230831156e+01    0.4675117    0.1986385  45.69  0.001690122    2.480    0.597
       100  -8.6949     60.1039    177.2979   1.1164681501e+02   3.0178575265e+01     0.318918    0.1232569  48.95  0.001134658    2.956    0.662
       101  -8.2138    104.2817    179.6672   9.9758442597e+01   2.3371230154e+01    0.1461858      0.11313  67.09  0.000329408    1.612    0.380
       102 -10.2242    159.8592    175.5030   8.4886763023e+01   1.4949992602e+01    0.3217477     0.251824  68.72  0.001350498    2.017    0.504
       103  -9.7080    105.7751    175.3314   9.8609582618e+01   2.4134294650e+01    0.4082903    0.2747084  60.92   0.00154551    1.960    0.490
       104 -10.7355    101.0021    176.0076   1.0003105488e+02   2.4732684789e+01     0.209619    0.1986824  22.36            0    1.005    0.005
       105 -10.1973    204.7805    175.9301   7.5415005987e+01   7.4539152431e+00    0.3625626    0.2641124 -16.26  0.001506039    1.247    0.198
       106  -8.8279    193.5806    172.7232   7.6983792716e+01   9.7963151580e+00    0.2302648    0.1549296  19.32 0.0005091911    1.524    0.344
       107  -9.2193    176.9665    171.3608   8.0194795676e+01   1.2820519576e+01    0.2366199     0.208582 -65.20 0.0007954935    1.564    0.361
       108  -9.3572    134.8620    171.7953   9.0255064143e+01   2.0053535612e+01     0.264852    0.2059005 -89.03  0.001222247    2.010    0.503
       109  -9.9794    208.7716    169.2735   7.3323662404e+01   7.9586733088e+00    0.4826311    0.2805921  -7.22  0.002141317    2.344    0.573
       110  -9.4548    214.2451    167.9424   7.2041845206e+01   7.3267999990e+00    0.3105885    0.1891759 -10.23  0.001405396    1.934    0.483
       111  -9.3916    218.8799    166.0600   7.0827913200e+01   6.9229495019e+00    0.2863286    0.2164257  55.40  0.001587627    1.999    0.500
       112  -9.9534    121.9712    169.7394   9.3216217068e+01   2.2730160697e+01    0.4443692    0.3186896  67.52  0.001528342    2.052    0.513
       113  -9.7209    168.6853    169.6857   8.1686717980e+01   1.4569127370e+01     0.269161    0.2191775  81.71  0.001148411    2.054    0.513
       114  -9.5151    150.6017    169.9887   8.5978672401e+01   1.7680241401e+01    0.2646909     0.208868  57.47  0.001289758    1.641    0.390
       115  -8.9510     55.3715    169.9983   1.1205066008e+02   3.2551746567e+01    0.3273686    0.1690687  63.72  0.001272337    2.670    0.626
       116  -8.7714    144.5096    159.5233   8.5310408327e+01   2.0978498431e+01    0.2208984    0.1889575 -45.16 -1.200784e-05    1.238    0.192
       117 -10.3525    145.4503    155.3038   8.4170390711e+01   2.1708409821e+01    0.5485762    0.3452658 -66.63  0.002139285    2.605    0.616
       118  -9.8999    149.0018    164.2715   8.5195213626e+01   1.9156848236e+01    0.3297105    0.2571059  48.00  0.001070209    1.447    0.309
       119 -10.8769    151.5265    160.7246   8.3834246390e+01   1.9442299494e+01    0.4613755     0.361052 -80.19  0.002143276    2.012    0.503
       120  -9.4939    111.8835    166.7056   9.5366764606e+01   2.5133791997e+01    0.4314767    0.2487914 -65.62  0.001411274    2.293    0.564
       121 -10.1444    139.7247    165.3789   8.7735009278e+01   2.0584838900e+01    0.4537029    0.3380394  84.44   0.00169809    2.342    0.573
       122  -9.2501     99.8003    166.6277   9.8721499104e+01   2.7135217965e+01    0.4829126    0.2030892  47.37  0.001653366    2.831    0.647
       123  -9.5656     80.1539    164.3212   1.0398042827e+02   3.0696764712e+01    0.4830929    0.2645909  64.28  0.001740357    2.990    0.666
       124  -8.6140     37.9966    165.0054   1.1648281015e+02   3.5711110594e+01    0.2250628    0.1452719  60.46  0.000618174    1.645    0.392
       125 -10.7813    160.0964    164.8208   8.2652386064e+01   1.7051356713e+01    0.5794655    0.3962322 -84.73  0.002073132    3.815    0.738
       126  -8.4913    185.3288    163.3360   7.6748614292e+01   1.2887898571e+01    0.1519031     0.103106  -4.53 0.0007051969    1.727    0.421
       127  -8.4547     69.8128    163.2457   1.0685672259e+02   3.2409312970e+01    0.2557396    0.1375932  62.38 0.0009474196    2.743    0.635
       128  -9.1155      9.6825    161.5531   1.2426779982e+02   3.8989856165e+01    0.3350671     0.143775  69.19  0.001368833    2.755    0.637
       129  -9.9458    178.1325    161.2455   7.7837048025e+01   1.4539529503e+01    0.2585364     0.203357  53.87 0.0009845339    1.637    0.389
       130  -9.6809     93.0186    160.4942   9.9552446298e+01   2.9691273098e+01    0.3870133    0.2612481  64.74  0.001347385    2.001    0.500
       131  -8.8752    122.1613    163.6594   9.1977083108e+01   2.4073330700e+01    0.3305507    0.1905579   7.48  0.001152465    2.939    0.660
       132  -8.1526    205.4710    159.4695   7.1935173685e+01   1.0172621503e+01    0.1399197    0.1172487 -12.35 0.0008089074    1.036    0.035
       133  -9.4460    105.7183    158.0674   9.5428678834e+01   2.8203560531e+01    0.3571359     0.242567  57.46  0.001172318    1.844    0.458
       134 -10.0869    219.0558    155.9231   6.8733825764e+01   8.5694870979e+00    0.2581483     0.194726 -28.91  0.000374803    1.145    0.127
       135 -10.1573    157.9348    155.9136   8.1262503518e+01   1.9261244415e+01     0.416762    0.2047567 -49.80  0.001622096    2.261    0.558
       136 -10.1143    213.1013    155.1257   6.9624112245e+01   9.6635940661e+00    0.2935427    0.2659922 -24.82  0.001186118    1.169    0.145
       137  -9.8759    119.6897    155.5403   9.0997859047e+01   2.6370219047e+01    0.3694857    0.2829763  89.12  0.001413555    1.943    0.485
       138  -9.7024     82.1396    155.0186   1.0178623704e+02   3.2715208722e+01    0.3982911     0.243261  63.98  0.001581103    2.362    0.577
       139  -9.6198     49.9338    155.4442   1.1170496664e+02   3.6863401005e+01    0.3724075    0.2044268  53.70  0.001448341    2.087    0.521
       140 -10.9261    133.4014    151.7538   8.6492514530e+01   2.4727474156e+01    0.7511059    0.3918868 -52.23  0.002951573    2.096    0.523
       141  -9.3524     68.0116    153.6746   1.0586624345e+02   3.5066423352e+01    0.3551754    0.2106835  61.66  0.001145588    2.249    0.555
       142 -10.1903    167.8428    157.2960   7.9267155382e+01   1.7158602539e+01    0.3541464    0.2763557 -68.92  0.001705161    1.887    0.470
       143  -8.7292     91.0136    151.7917   9.8511770205e+01   3.2143999562e+01    0.2522732    0.1623835  56.13 0.0007072003    1.919    0.479
       144  -8.6772    205.3136    151.0202   7.0184281733e+01   1.1670159959e+01    0.2322312   0.09941447 -22.71 0.0007045775    4.253    0.765
       145 -11.0504    190.1166    149.5486   7.2810356636e+01   1.4596693119e+01    0.5671745     0.314069 -54.16  0.002275003    2.501    0.600
       146  -8.6111    182.6838    151.3430   7.4731448712e+01   1.5605118387e+01    0.1383487    0.1180888 -77.73 0.0007048388    1.713    0.416
       147  -9.7633    162.6881    150.7363   7.9010017911e+01   1.9430483051e+01    0.2835573    0.2248123 -87.95  0.001310401    2.056    0.514
       148  -9.0149     98.7868    150.9093   9.6021216956e+01   3.1090975621e+01    0.2809193     0.222241 -87.00  0.001082464    1.628    0.386
       149  -9.1844     28.4728    149.6749   1.1758761845e+02   4.0513203624e+01    0.3716617    0.1733159  68.30  0.001389766    3.053    0.672
       150  -9.5211     39.7413    148.0038   1.1385656282e+02   3.9876641753e+01    0.4151886    0.2120367  57.10  0.001691682    2.427    0.588
       151  -8.5833    220.8157    148.4113   6.6872407343e+01   9.5320146721e+00    0.1740787    0.1195724  23.23 0.0006575834    1.623    0.384
       152 -10.5002     56.5648    146.1083   1.0822211742e+02   3.8481337998e+01    0.6263115    0.3046553  57.23  0.002248588    2.976    0.664
       153 -11.4364    197.0648    142.9540   6.9994650378e+01   1.4547579990e+01    0.5644192    0.3209677 -30.38 0.0005394529    1.702    0.413
       154 -11.0963    149.4453    145.2093   8.0932215961e+01   2.3103909828e+01    0.6202676    0.4391649 -82.65  0.002084697    2.716    0.632
       155 -10.8852    149.1166    137.2740   7.9171743102e+01   2.4849643527e+01    0.6131662    0.3772886   2.54  0.002183922    2.908    0.656
       156 -10.2610    107.3920    145.2751   9.2317599585e+01   3.0972148118e+01    0.6208097    0.3880894  68.23  0.002239696    2.888    0.654
       157  -9.2298     78.0709    147.0300   1.0157174194e+02   3.5328022944e+01    0.2478161    0.1806918  67.74  0.001127682    1.726    0.421
       158  -8.7408     13.5086    146.8232   1.2188571861e+02   4.2425302009e+01    0.2131294    0.1634393  55.25  0.001229351    1.327    0.247
       159  -9.8407    175.8522    146.3288   7.5075122378e+01   1.7827793522e+01    0.2226081    0.1903848  57.93 0.0009467036    1.459    0.314
       160 -10.8629    165.7363    143.2853   7.6629498717e+01   2.0353499712e+01    0.5755233    0.2534411 -41.96   0.00219005    2.209    0.547
       161  -9.4947    138.1454    144.4167   8.3614314870e+01   2.5453779511e+01    0.3424468     0.204356 -51.24  0.001428365    1.806    0.446
       162 -10.3742    125.2777    143.0619   8.6748363211e+01   2.8212509949e+01    0.6156761    0.3934088 -78.42  0.002155661    3.180    0.685
       163  -9.6254     88.2258    143.7757   9.7779016301e+01   3.4578021001e+01    0.4064273    0.2685134 -88.73  0.001285755    2.397    0.583
       164 -10.4310    182.0924    142.4049   7.2866839113e+01   1.7407821906e+01    0.2837977    0.2431554 -23.29  0.001556391    1.074    0.069
       165  -8.9954      2.8329    142.5212   1.2475431314e+02   4.4194605514e+01    0.2594269     0.126396  62.54  0.001175003    2.272    0.560
       166 -10.2530     69.6057    140.6130   1.0306399970e+02   3.8181920531e+01    0.4668244    0.2650094  74.27  0.001577317    3.422    0.708
       167  -9.5397     23.3453    138.1405   1.1785621373e+02   4.3920802040e+01    0.5314741    0.2279418  66.02  0.001820311    3.736    0.732
       168 -10.8457    172.3036    137.4578   7.3821621779e+01   2.0235778710e+01    0.5639077    0.2650006 -49.35   0.00213283    2.414    0.586
       169  -8.3097     81.3280    139.6685   9.9114844928e+01   3.6693650544e+01     0.158982    0.1181737  67.56 0.0007051533    1.714    0.416
       170 -10.0787    138.6227    137.6677   8.1926288452e+01   2.6841471871e+01    0.3327942    0.1935956 -51.58  0.001354607    1.874    0.466
       171  -9.0252    107.2725    137.8551   9.0719244850e+01   3.2768583884e+01    0.3122307    0.2079695   2.03  0.001238478    2.146    0.534
       172  -9.7129    209.6251    136.2824   6.6216377974e+01   1.3478554527e+01    0.3307225    0.2096457 -73.24  0.001165553    4.472    0.776
       173 -10.4026    162.7819    136.1067   7.5638476374e+01   2.2376932118e+01    0.3781313    0.1966936 -50.77  0.001226552    2.198    0.545
       174  -9.7883     38.7336    135.9138   1.1247369544e+02   4.3118376501e+01    0.2845168    0.1973152  68.46  0.001001192    1.681    0.405
       175 -10.3387    179.8705    134.5193   7.1524492552e+01   1.9330912767e+01    0.2885476    0.2094396 -44.58  0.001196342    1.384    0.277
       176  -9.6050    112.9723    133.5134   8.8038035418e+01   3.2746567734e+01    0.3841532    0.2674432  63.63  0.001222947    2.012    0.503
       177 -10.4170    192.9963    131.5670   6.8217166819e+01   1.7359736680e+01    0.3663101    0.1899029 -38.08  0.001223773    1.780    0.438
       178 -10.4707    143.0946    131.7365   7.9356231998e+01   2.7235442096e+01    0.4438211    0.2759095 -62.29  0.001542727    2.313    0.568
       179 -11.3969    131.9148    129.1615   8.1656779696e+01   3.0049354507e+01    0.9826849    0.3698591 -49.48  0.003189469    2.858    0.650
       180 -10.5224     83.6266    131.9444   9.6760508832e+01   3.8272897207e+01    0.4940671    0.3537462  63.57  0.001330234    1.821    0.451
       181  -9.1546     23.3955    130.7428   1.1691753997e+02   4.5836473947e+01    0.4989646    0.1745354 -35.23  0.001527353    4.568    0.781
       182  -9.2973    205.7011    131.4027   6.5832316710e+01   1.5026579577e+01    0.2451625    0.1366662  50.52  0.001126551    2.120    0.528
       183 -11.3983    168.7547    128.3795   7.2453960097e+01   2.2720747599e+01    0.7364345      0.28115 -41.01   0.00260363    2.522    0.604
       184  -9.4163     12.8795    129.3996   1.2029352589e+02   4.6938722562e+01    0.4796521    0.2150206  69.39  0.001818419    3.157    0.683
       185  -9.8519     13.0913    121.7396   1.1932864784e+02   4.8902732787e+01    0.6944817    0.1174635 -52.43   0.00213326    4.100    0.756
       186  -8.3769    212.6637    130.3238   6.4382292787e+01   1.3957569583e+01    0.1332828    0.1052414 -65.92 0.0007051024    1.715    0.417
       187 -10.7828    152.7686    127.1994   7.5849564157e+01   2.6220132542e+01    0.7849929    0.3078507 -48.04    0.0026408    2.764    0.638
       188 -10.3082     99.2365    127.8451   9.0854580626e+01   3.6624816943e+01    0.6826327    0.4475188 -86.07  0.002180374    2.872    0.652
       189  -9.3483     98.5716    120.2359   8.9219480322e+01   3.8573915746e+01    0.3126077    0.2069287 -23.62   0.00126894    1.898    0.473
       190 -10.1494     73.1391    129.0794   9.9610767933e+01   4.0617122820e+01    0.4678623    0.2918776 -75.90  0.001912347    2.112    0.526
       191 -10.8414     59.8513    124.7048   1.0326440126e+02   4.3597972125e+01    0.6444485    0.3776703  71.93  0.002343917    3.022    0.669
       192 -10.2825    179.6611    124.9737   6.9320065830e+01   2.1180403150e+01    0.3217914    0.2582252 -61.19  0.001219157    1.513    0.339
       193 -10.5961    181.0439    120.9627   6.8077570462e+01   2.1653301965e+01    0.5314653    0.2056106 -30.86  0.001726902    3.244    0.692
       194 -10.0676    117.7516    125.2020   8.4636134544e+01   3.3758800632e+01    0.4750187    0.3381573  81.40   0.00168993    2.436    0.589
       195  -9.6455    119.1822    119.1641   8.2694450984e+01   3.4848427324e+01    0.4708945    0.2537847  16.09  0.001410013    3.749    0.733
       196 -10.6510     44.0574    122.9114   1.0850853937e+02   4.5955046624e+01    0.7639474     0.425541  77.63  0.002827277    3.029    0.670
       197  -9.4072    189.0038    124.7968   6.7418007192e+01   1.9361798536e+01    0.2225088    0.1729987  87.19   0.00107247    1.989    0.497
       198 -10.4311     28.3557    122.2847   1.1401200055e+02   4.7632666751e+01    0.8163902    0.3598346  68.65  0.002435135    4.952    0.798
       199  -9.9771    195.0417    121.7420   6.5561945802e+01   1.8734141435e+01    0.3333883    0.1868562 -50.43  0.001452574    1.998    0.500
       200  -8.8999     83.8078    122.7987   9.4645725767e+01   4.0523145081e+01      0.27039    0.1590156 -18.16  0.000837938    2.800    0.643
       201 -11.0631    158.5728    120.0973   7.2713650338e+01   2.6460117865e+01    0.6001716    0.2630434 -41.83  0.002222075    2.227    0.551
       202 -10.4175    172.3605    120.3558   6.9724877202e+01   2.3540807181e+01    0.4615539    0.2422852 -39.52  0.001921761    1.822    0.451
       203 -10.9198    142.0994    119.7715   7.6627351652e+01   2.9987715054e+01     0.638685    0.3390721 -56.41  0.001573209    2.526    0.604
       204 -10.3361    141.1672    113.1604   7.5147651424e+01   3.1569523500e+01    0.4880504    0.3018267  -2.68  0.001652073    3.183    0.686
       205 -10.0173     71.0236    119.9530   9.8351016970e+01   4.3244339845e+01    0.3787274    0.2609177 -87.48  0.001156978    2.109    0.526
       206 -10.7940    133.3859    108.3589   7.5887102386e+01   3.4241758666e+01    0.5975397    0.2979246 -42.07  0.002285244    2.004    0.501
       207 -10.7171    130.7164    118.3402   7.9251125632e+01   3.2671682340e+01    0.4961067    0.3463393 -76.28  0.001960251    2.388    0.581
       208  -9.8370      2.6880    116.6641   1.2239231378e+02   5.0787347309e+01    0.5699204    0.2298619  78.79  0.002048478    3.577    0.720
       209 -10.5328    185.9816    115.7912   6.5859299869e+01   2.1603568001e+01    0.3961477    0.1913683 -42.73  0.001630476    1.971    0.493
       210 -10.0437    192.9998    116.2920   6.4657958894e+01   2.0104425740e+01     0.197119    0.1896899   6.52 0.0008788061    1.085    0.078
       211 -10.3603    109.2727    114.0994   8.4314344073e+01   3.7974613406e+01    0.6066509    0.3931089 -77.15  0.002165864    2.921    0.658
       212 -10.0782    109.0188    107.6002   8.2647275231e+01   3.9500083579e+01    0.4117111     0.273797  -1.96  0.001256156    2.323    0.569
       213 -10.2140     79.4498    113.1226   9.3806029167e+01   4.3627764218e+01    0.5376565    0.3726022  87.59  0.001965367    2.393    0.582
       214 -10.1031    167.6790    112.6115   6.8795242191e+01   2.6000845977e+01    0.4456455    0.1355609 -38.02  0.001369734    3.289    0.696
       215 -10.0095     92.7149    112.2937   8.9099576227e+01   4.1535900352e+01    0.5435559    0.3792385 -80.40  0.001772169    2.265    0.558
       216  -9.7062     93.3546    104.3136   8.6757524329e+01   4.3292738410e+01     0.481066    0.3014642 -11.89  0.001770968    2.570    0.611
       217 -10.2991    174.8283    110.6778   6.6811670598e+01   2.4850928248e+01    0.5474237    0.2040717 -39.27  0.001937004    2.554    0.608
       218  -9.9046    159.3733    112.1850   7.0518476387e+01   2.7856767557e+01    0.3112959     0.207042 -53.18 0.0008103512    1.697    0.411
       219  -9.9299    159.4967    108.0075   6.9408042812e+01   2.8642412221e+01    0.3120778     0.192537 -25.90  0.001307338    1.871    0.465
       220 -10.4751    122.0514    112.5439   8.0134395138e+01   3.5737946220e+01    0.4024414    0.2843747 -64.44  0.001349411    1.853    0.460
       221 -10.0836     21.8337     92.3120   1.1141824585e+02   5.5847350227e+01    0.6940411    0.2524411 -34.89  0.002441842    3.263    0.694
       222 -10.7866     14.5047    109.0470   1.1714092442e+02   5.2086665514e+01    0.6778487    0.3343073 -63.13  0.003153387    1.691    0.409
       223 -10.8484     22.8569    102.7817   1.1292053664e+02   5.3115869930e+01    0.7543358    0.4009273  65.18  0.003006726    2.949    0.661
       224 -10.4706     66.5179    110.7619   9.7833402401e+01   4.6218837567e+01    0.3616435    0.2489709  59.84  0.001410123    1.940    0.485
       225 -10.3208     61.0367    106.3362   9.8803803134e+01   4.8105977667e+01     0.277842    0.2242888 -14.67  0.001290923    1.313    0.238
       226 -10.9815    189.3826    107.5500   6.3224035347e+01   2.2380863809e+01    0.5159112    0.1988792 -48.17  0.001795255    2.969    0.663
       227  -9.8909    182.7492    108.1914   6.4625284972e+01   2.3641717370e+01    0.3577787    0.1200645 -36.72  0.001199944    2.898    0.655
       228 -10.9772     45.7547    102.5030   1.0379359450e+02   5.1010216021e+01    0.8488265    0.4401586  62.69  0.002759428    4.102    0.756
       229 -10.6757    150.2621    103.2786   7.0278100481e+01   3.1584501588e+01    0.5796224    0.2588518 -50.38  0.001890773    2.678    0.627
       230 -10.9731    139.7507    102.8252   7.2724058258e+01   3.3994118859e+01    0.7407545    0.3151668 -39.29  0.002629688    2.376    0.579
       231 -10.5642    166.6935    102.3400   6.6365594980e+01   2.8146270111e+01    0.6285086    0.1964587 -37.58  0.001984793    3.180    0.685
       232  -9.3120      6.8324    103.1389   1.1924566701e+02   5.4035215798e+01    0.2025956     0.172618  77.87  0.001227204    1.270    0.213
       233  -8.9667    215.3245    102.6533   5.7752812897e+01   1.8054170972e+01    0.1387974   0.09763971 -62.85 0.0007049912    1.744    0.427
       234 -10.0362    175.6683    101.0196   6.4198900754e+01   2.6435503178e+01    0.4015564    0.1775958 -31.30  0.001471406    2.513    0.602
       235  -9.8875    128.4008    102.1526   7.5518194942e+01   3.6615534703e+01     0.279093    0.2307597  78.98  0.000944326    1.572    0.364
       236 -10.2247    129.1345     98.1144   7.4178843238e+01   3.7287265867e+01    0.4071577    0.2864651  20.65  0.001122442    1.738    0.424
       237 -10.1861    159.6263     99.2265   6.7059611355e+01   3.0284048907e+01    0.4613302    0.1384751 -40.02  0.001426986    3.226    0.690
       238 -10.4441    108.7921     98.6116   8.0191452638e+01   4.1533202695e+01    0.5863487    0.3899293  71.67  0.002025916    2.639    0.621
       239  -9.7501    108.1210     92.1714   7.8507637296e+01   4.3051941097e+01    0.5107946    0.3172292  26.10  0.002081963    1.898    0.473
       240  -9.5257     81.8263     99.4541   8.9386731994e+01   4.6509636993e+01    0.4536425    0.2347291 -64.72  0.001545581    3.003    0.667
       241 -10.4751     63.9781     96.2050   9.5119599496e+01   5.0170306020e+01     0.515988     0.342735  75.34  0.001905687    2.801    0.643
       242  -9.0539     94.9327     97.1752   8.4219748298e+01   4.4621722327e+01    0.2335967    0.2187444  80.97 0.0006442734    1.266    0.210
       243  -9.1185      8.2277     96.8454   1.1780527429e+02   5.5560490263e+01    0.2656497    0.1343313 -32.30  0.001226372    2.054    0.513
       244  -9.2481      3.2182    109.2912   1.2137873048e+02   5.2644126927e+01    0.3176221    0.1433099 -33.17  0.001390303    2.438    0.590
       245  -9.1605    164.4483     94.2328   6.4694203413e+01   3.0126902136e+01    0.2179455    0.1343681 -48.98 0.0009484768    1.711    0.415
       246 -10.2730     44.7960     92.3166   1.0179449522e+02   5.3660091758e+01    0.5033837    0.2821844   6.84  0.002111999    2.231    0.552
       247  -9.8062    176.5850     92.7205   6.1885902657e+01   2.7700811877e+01    0.2902087    0.1388227 -32.99  0.001147327    2.141    0.533
       248  -9.1497    138.5097     91.9840   6.9989216446e+01   3.6409806473e+01    0.2814926    0.2624403 -77.07  0.000782095    1.203    0.169
       249  -9.2205    138.6079     88.1932   6.8870209258e+01   3.7110636107e+01    0.3053901    0.2143192  -6.69  0.001249003    1.984    0.496
       250  -9.5426    124.3482     90.7022   7.3331977513e+01   3.9841458562e+01    0.4153329     0.274229 -62.62  0.001019406    2.118    0.528
       251  -9.9560    126.3965     84.4062   7.0890152655e+01   4.0612944540e+01    0.5567043    0.3354939  13.58  0.001899389    3.176    0.685
       252  -9.5296     96.4246     90.7414   8.1823622868e+01   4.5749140460e+01    0.4818793    0.2912603  -3.14  0.001597358    3.308    0.698
       253  -9.7866      4.4669     91.2739   1.1851062237e+02   5.7145665924e+01    0.3215749    0.1847557  71.13  0.001505403    2.311    0.567
       254  -9.9953     34.5371     89.1085   1.0533826750e+02   5.5550298166e+01    0.6095921    0.2957273 -73.63  0.002336931    2.734    0.634
       255  -9.7586     36.4695     81.5268   1.0263709052e+02   5.7200177737e+01    0.4737347    0.2382445 -17.88  0.001787013    2.886    0.654
       256  -9.9060     64.7487     87.3035   9.2338727280e+01   5.2159895046e+01    0.4006361     0.233797 -10.49  0.001469678    2.788    0.641
       257  -9.6114     86.3088     86.6579   8.4049307638e+01   4.8597081327e+01    0.3124874    0.2537955  81.52 0.0009686004    1.779    0.438
       258 -10.2719      8.3911     83.6364   1.1559620508e+02   5.8856169364e+01     0.517974    0.3325864 -45.54   0.00139706    1.326    0.246
       259 -10.0276     48.0045     84.1751   9.8331367111e+01   5.5241473216e+01    0.3968366    0.2802761  79.58  0.001333945    2.362    0.577
       260 -10.3349     49.7795     77.2924   9.5599452611e+01   5.6619684084e+01    0.5029837    0.2814225   8.73  0.001976596    2.288    0.563
       261  -9.9077    104.0933     82.3292   7.6738258668e+01   4.5935545801e+01    0.4483267     0.294885 -60.63  0.001863274    2.081    0.519
       262  -9.8286    105.2503     76.8735   7.4628482372e+01   4.6768500246e+01    0.5286201    0.2756611  27.19   0.00185783    2.710    0.631
       263  -9.9469    158.3062     82.2086   6.2684451076e+01   3.3652677377e+01    0.3764882    0.1389007 -32.31  0.001237443    3.070    0.674
       264  -9.8526     24.3989     80.8167   1.0787019881e+02   5.8491360875e+01    0.3758429    0.2566971  83.94  0.001307968    2.088    0.521
       265  -9.8906     88.1990     80.1999   8.1350010077e+01   4.9615894762e+01    0.7226578    0.2675774  28.81  0.001895881    4.778    0.791
       266  -8.8214     74.5053     80.5514   8.6486764400e+01   5.2076168609e+01    0.2600265    0.1473519 -58.98  0.001022218    2.294    0.564
       267 -10.1234    150.3793     79.1933   6.3518880157e+01   3.6017293219e+01    0.4115561      0.14757 -33.33  0.001343957    3.076    0.675
       268  -9.2351    174.6800     77.1388   5.8137865558e+01   3.0740395040e+01    0.3053714    0.1121872 -41.88  0.001103364    2.606    0.616
       269  -8.6971     61.7847     77.6204   9.0613628578e+01   5.4820501538e+01    0.3067006    0.1832006 -73.86  0.001080041    3.447    0.710
       270  -9.5727    167.3406     76.1441   5.9214846406e+01   3.2584315668e+01    0.2970758    0.1381867 -27.47  0.001103449    2.603    0.616
       271  -8.7750    119.8273     76.7427   7.0310112966e+01   4.3551155228e+01    0.2676387    0.1673018  10.50 0.0009610597    2.822    0.646
       272  -9.0162    127.8864     75.5750   6.7786490232e+01   4.1911857419e+01    0.3578131    0.1944809 -52.30  0.001162083    2.301    0.565
       273  -9.2355    128.6304     70.2321   6.5921326822e+01   4.2680579426e+01    0.3466219    0.2111708  21.33  0.001320695    2.542    0.607
       274  -9.7570    140.8205     81.1237   6.6262390621e+01   3.7905013992e+01    0.4483402    0.2044665 -31.78  0.001627275    2.476    0.596
       275  -9.2197    140.6348     73.9961   6.4180290512e+01   3.9203743241e+01    0.4229056     0.199595 -28.11  0.001538722    2.594    0.614
       276  -8.5831     13.5237     74.5086   1.1147575719e+02   6.0794697827e+01    0.2184435    0.1173084  -8.59 0.0007802784    2.114    0.527
       277  -9.4081     82.2881     72.7247   8.1005392800e+01   5.2299320909e+01      0.33455    0.2553082 -78.14   0.00101662    2.105    0.525
       278 -10.1382     26.4747     72.2767   1.0481088318e+02   6.0359449940e+01    0.7621667    0.2922012 -22.93  0.002198033    5.196    0.808
       279 -10.1669    184.2370     77.3715   5.6553355002e+01   2.8553326997e+01    0.2997866    0.1728039 -45.20  0.001037568    1.680    0.405
       280  -8.8129     95.1493     71.5486   7.6109981601e+01   4.9950378521e+01    0.3311553    0.1685851 -54.06   0.00111651    2.743    0.635
       281  -9.9931     51.4041     69.5450   9.2473421586e+01   5.8135411703e+01     0.517834    0.2518784 -63.89  0.001833004    3.342    0.701
       282  -9.6784      6.0353     68.9306   1.1387728719e+02   6.2541043705e+01    0.5604943   0.09226051 -44.38  0.001788364    4.021    0.751
       283  -8.8917     16.3559     69.9201   1.0907886285e+02   6.1705680684e+01    0.2553406    0.1832822 -87.83  0.001183288    1.807    0.447
       284  -9.6914     18.1357     62.7202   1.0636422179e+02   6.3255282083e+01    0.5656191    0.1391883 -45.55  0.001998222    3.110    0.678
       285  -8.4163    146.6978     68.3446   6.1131899282e+01   3.8711806624e+01    0.1521456    0.1138754 -70.85 0.0005585777    1.683    0.406
       286  -8.7034    106.3399     67.3053   7.1119010858e+01   4.8319996173e+01    0.1583547     0.114889  14.40 0.0003437562    1.679    0.404
       287  -9.6530     83.3679     64.8203   7.7868942840e+01   5.3642670338e+01    0.4817159    0.2813497   2.42  0.001624384    3.467    0.712
       288  -8.8566    158.7414     64.9690   5.7707860714e+01   3.6379271968e+01    0.1829649    0.1239736 -33.78 0.0004486323    1.506    0.336
       289  -9.5810     37.4430     64.3180   9.7246771606e+01   6.1067406487e+01    0.3164631    0.2244223  75.67  0.001329955    2.652    0.623
       290  -8.7281     10.1181     74.8514   1.1314587963e+02   6.0910972148e+01    0.2040442    0.1654236 -40.55 0.0003341617    1.056    0.053
       291  -8.9347    138.8178     62.7996   6.1168061238e+01   4.1489438992e+01    0.2586464    0.1530518  21.57  0.000951277    2.874    0.652
       292  -8.3983    110.2854     63.6753   6.8720597697e+01   4.8069619014e+01    0.1456004    0.1203429 -77.63 0.0003412455    1.603    0.376
       293  -8.5882     96.3388     63.3038   7.2869030267e+01   5.1233913992e+01     0.156997    0.1129511  12.67 0.0007039341    1.673    0.402
       294  -9.5821     51.8764     61.8462   8.9657762425e+01   5.9711120990e+01    0.3602996    0.1863108   3.89  0.001204084    3.689    0.729
       295  -8.4953    122.9510     61.4991   6.4545888225e+01   4.5487715638e+01    0.2257923    0.1136147  33.82 0.0008085289    2.598    0.615
       296  -9.6390     73.1853     60.0694   7.9987163076e+01   5.6505264964e+01    0.3185927    0.2377697 -52.71 0.0009320123    1.619    0.382
       297  -8.8648    170.4552     60.5219   5.4365003179e+01   3.4282030103e+01    0.1386404    0.1319266 -75.88 8.948224e-05    1.011    0.011
       298  -8.3166    164.6646     59.6880   5.5124032119e+01   3.5770324761e+01    0.1445871    0.1080873  26.64 0.0007045096    1.684    0.406
       299  -8.9278    111.2316     58.8753   6.6803856104e+01   4.8661494666e+01    0.3092761     0.179751  28.36  0.001235426    2.202    0.546
       300  -9.5174     25.8358     55.3958   1.0020962451e+02   6.4239243028e+01    0.3293013    0.1838396 -15.72  0.001471287    2.026    0.506
       301  -9.5421     39.2038     58.0248   9.4303660375e+01   6.2219014990e+01    0.2608918    0.1703488   1.22  0.001286615    1.660    0.397
       302  -9.9115      7.2134     57.5606   1.1069708178e+02   6.5132652524e+01    0.3007055    0.2793545  47.42  0.001655824    1.376    0.273
       303  -9.2219     43.9250     55.5975   9.1142594388e+01   6.2116233747e+01    0.2618251    0.1910555 -66.57 0.0009504986    1.961    0.490
       304  -9.5668    100.5079     54.4875   6.8393916553e+01   5.1826865330e+01     0.266255    0.2333111  18.97 -0.0001325051    1.114    0.102
       305  -8.9481     62.8637     55.1191   8.2343616807e+01   5.9294746591e+01    0.2024519    0.2015371 -30.21 0.0005941779    1.276    0.216
       306  -9.3258     54.4784     54.4692   8.5778513689e+01   6.0801130981e+01    0.2396917    0.1366425 -55.24 0.0009797531    2.293    0.564
       307  -8.5438      1.3974     69.7569   1.1628057719e+02   6.2547556719e+01    0.1959979   0.09128451 -56.21 0.0009224402    1.658    0.397
       308  -9.3550     30.9442     51.8416   9.6329423848e+01   6.4474493761e+01    0.2262835    0.1997743 -60.49 0.0008624108    1.406    0.289
       309  -8.8271     92.4546     51.1851   6.9714767291e+01   5.4148523905e+01    0.2007554    0.1371543 -47.54 0.0009425553    1.730    0.422
       310  -9.4567     75.7397     50.3152   7.5278124079e+01   5.7775890565e+01    0.4341549    0.1966766  29.42  0.001559446    2.811    0.644
       311  -9.3363     45.8279     49.1373   8.7779096503e+01   6.3134425415e+01    0.2942123    0.1823076  21.62  0.001085258    1.595    0.373
       312  -9.4290     22.1570     47.7020   9.9613264453e+01   6.6221803074e+01    0.4676275    0.2213524  -7.81  0.001871804    2.960    0.662
       313  -9.5701     64.1393     47.0699   7.8625538973e+01   6.0531176370e+01     0.424018    0.2324717  19.81  0.001735785    2.354    0.575
       314  -8.7337    130.4887     46.0233   5.7632430816e+01   4.6003673477e+01    0.1823674     0.122448  12.12 0.0003339234    2.134    0.531
       315  -7.7386      1.3129     46.3056   1.1105002414e+02   6.7941160457e+01     0.138164   0.07071024 -35.54 0.0003084985    1.619    0.382
       316  -8.7607     73.9934     45.1701   7.3886519575e+01   5.8981277578e+01    0.2476759    0.1470611  22.29  0.001074403    1.990    0.497
       317  -8.6143     45.1504     44.9955   8.6453991828e+01   6.4017072894e+01    0.2013331    0.1650727 -74.32 0.0008184537    2.002    0.500
       318  -8.8639     16.6741     44.7361   1.0168251707e+02   6.7316045721e+01    0.2949983    0.1688784 -74.25  0.001304857    2.913    0.657
       319  -8.6426     17.3220     39.9960   9.9617951573e+01   6.8236814510e+01    0.2267982    0.0518969 -39.39 0.0007043346    4.235    0.764
       320  -8.5861    149.9982     44.2479   5.3207646344e+01   4.1465732495e+01    0.1845558    0.1134581  62.40  0.000364704    1.536    0.349
       321  -9.2945     58.0461     42.9999   7.9574753931e+01   6.2313095516e+01    0.2035904    0.1815138  85.74   0.00113321    1.743    0.426
       322  -9.6751      4.8732     41.1262   1.0745033933e+02   6.8882139872e+01     0.506669    0.2061367 -69.78  0.002047518    3.290    0.696
       323  -9.2137      6.5530     34.2103   1.0410744307e+02   7.0217322889e+01    0.2718113     0.163409 -17.86 0.0009026089    1.514    0.340
       324  -9.2153    113.8733     41.6602   6.0023053635e+01   5.0630042068e+01    0.2254226     0.193064  13.75 0.0005132237    1.251    0.201
       325  -8.3816     81.6569     47.2069   7.1866219025e+01   5.7094351729e+01    0.1912834    0.1312555 -22.20 0.0006143592    1.571    0.363
       326  -9.3512     36.9254     41.1432   8.9065409529e+01   6.5876044930e+01    0.1931048    0.1813027  18.86  0.000717658    1.311    0.237
       327  -9.4446     84.2523     39.8736   6.8016131772e+01   5.7674997314e+01    0.2706497     0.183527  37.43 0.0004065168    1.351    0.260
       328  -9.3267    106.0088     36.9696   6.0329760765e+01   5.3132215020e+01    0.2181396    0.1932006  38.54 0.0003714037    1.032    0.031
       329  -8.5570     58.3556     37.3070   7.6984951928e+01   6.3203801630e+01    0.1476722   0.09753826   8.18  0.000704183    1.722    0.419
       330  -8.8984     26.1646     36.7508   9.3175901042e+01   6.8004228182e+01    0.2186711    0.1668521 -48.99  0.001128043    1.469    0.319
       331  -8.1684    123.5373     40.4991   5.7313765294e+01   4.8446227953e+01    0.1445292     0.129722  42.97 2.695934e-05    1.062    0.058
       332  -9.1588    222.1951     32.7039   4.1127952797e+01   2.6475921492e+01    0.2431381    0.1164181 -52.70 0.0007150224    1.895    0.472
       333  -8.2662    119.4669     33.5280   5.5796711448e+01   5.0323640279e+01    0.1403779    0.1288085  59.97 0.0008087219    1.042    0.041
       334  -9.1053     60.8306     33.0775   7.4022826081e+01   6.3408800987e+01     0.194913     0.188298  42.79 0.0009088223    1.332    0.249
       335  -8.8997     49.8103     33.0207   7.8981794108e+01   6.5364181270e+01    0.1939853    0.1621063 -66.45 0.0008721899    1.963    0.491
       336  -8.9458     12.7392     30.9560   9.8929272218e+01   7.0408384313e+01    0.2327489    0.1426323 -51.61  0.001294447    1.623    0.384
       337  -9.5962     28.2899     27.7880   8.7969147931e+01   6.9374449370e+01    0.4983519    0.1747465 -27.77  0.001489967    5.338    0.813
       338  -8.9472    149.3058     28.6556   4.8585412260e+01   4.3536303598e+01    0.1426819   0.09640538 -66.38  0.000496382    1.691    0.409
       339  -8.8298      2.7498     28.0120   1.0432091390e+02   7.1691497397e+01     0.248677    0.1100505  18.55  0.001245512    2.264    0.558
       340  -9.7505     76.9987     25.4940   6.4381280013e+01   6.1181451064e+01    0.2036655    0.1783583   1.15 0.0005887986    1.149    0.130
       341  -8.3616    118.4004     24.7474   5.2901904916e+01   5.1594669956e+01    0.1687162    0.1336006  -1.63 0.0004210086    1.480    0.324
       342  -8.4553    110.4759     24.5225   5.4554746127e+01   5.3553929835e+01    0.1395188    0.1229756  50.42  9.76044e-05    1.004    0.004
       343  -9.4347     67.2098     23.4588   6.7000492433e+01   6.3488418063e+01    0.2038733    0.1630017  27.00 0.0003378547    1.076    0.070
       344  -9.0646     63.4149     21.2228   6.7417691455e+01   6.4534000784e+01    0.1929116    0.1696654 -89.49  0.001069893    1.727    0.421
       345  -8.9678     84.9450     21.6604   6.0133863830e+01   5.9877337904e+01    0.1950215    0.1582527  47.90 0.0004878208    1.110    0.099
       346  -9.0410     58.8073     22.1976   6.9774202294e+01   6.5314333169e+01    0.1855696    0.1349184  16.42 0.0002842649    1.299    0.230
       347  -9.3316     48.3262     21.4927   7.4134753925e+01   6.7332300392e+01    0.2012957    0.1567822 -46.84 0.0007194008    1.780    0.438
       348  -9.6077     12.9709     21.3802   9.4584493682e+01   7.2160616331e+01    0.2530071    0.1897977   2.23 0.0007681724    1.169    0.145
       349  -9.2862    195.7226    248.6978   8.9885737799e+01  -2.5964057438e+00    0.2668917    0.1565063  -0.12   0.00143833    1.674    0.403
       350  -9.4422     40.9694     21.0798   7.7596469285e+01   6.8623244187e+01    0.1985293    0.1615068   6.36 0.0004010983    1.013    0.013
       351  -9.1503     73.8270     19.9944   6.2986191895e+01   6.2517798712e+01    0.2084521    0.1532671 -58.07  0.001075172    2.065    0.516
       352  -9.9201     29.6746     18.1044   8.2305498246e+01   7.0754578909e+01    0.3608455    0.2373154  24.71  0.001076276    1.366    0.268
       353 -10.6434    174.2378    244.7491   9.3586484113e+01   6.6694174045e-01    0.3439238    0.2889483  70.81  0.002088835    2.326    0.570
       354  -9.5332     50.6600     15.5268   6.9976415821e+01   6.7689192868e+01    0.2938845    0.1663951  20.65 0.0008223656    1.919    0.479
       355  -8.6966     44.2421     25.7715   7.8275227084e+01   6.7403723927e+01    0.1831041    0.1319402   6.75 0.0004250675    1.304    0.233
       356  -8.3734    107.5206    249.0015   1.0843292833e+02   8.8131204881e+00    0.1516942     0.125324 -52.54 0.0005920118    1.481    0.325
       357 -11.6461    248.3276    229.9925   7.7387272530e+01  -6.1690663891e+00    0.5478522    0.3643484   6.72  0.003816413    1.213    0.176
