#   1 NUMBER                 Running object number                                     
#   2 MAG_AUTO               Kron-like elliptical aperture magnitude                    [mag]
#   3 X_IMAGE                Object position along x                                    [pixel]
#   4 Y_IMAGE                Object position along y                                    [pixel]
#   5 X_WORLD                Barycenter position along world x axis                     [deg]
#   6 Y_WORLD                Barycenter position along world y axis                     [deg]
#   7 A_WORLD                Profile RMS along major axis (world units)                 [deg]
#   8 B_WORLD                Profile RMS along minor axis (world units)                 [deg]
#   9 THETA_WORLD            Position angle (CCW/world-x)                               [deg]
#  10 FWHM_WORLD             FWHM assuming a gaussian core                              [deg]
#  11 ELONGATION             A_IMAGE/B_IMAGE                                           
#  12 ELLIPTICITY            1 - B_IMAGE/A_IMAGE                                       
         1 -13.5572    219.1650      7.0847   3.7508350375e+01   2.9589713351e+01     1.284831     1.065224  50.98  0.005472417    1.416    0.294
         2 -14.3251    193.6772     37.3934   4.8211403046e+01   3.2209091541e+01     2.792557     1.713034  22.14   0.01159706    2.722    0.633
         3  -9.8250     80.8103     15.4485   6.4446333182e+01   6.1535585016e+01    0.2405571     0.124582  54.78  0.001132309    2.123    0.529
         4 -10.7162    189.6531     14.6964   4.2457339878e+01   3.5894915587e+01    0.2645839    0.2167954 -66.61 0.0009872222    1.185    0.156
         5 -10.7575     70.9443      2.8394   6.1793367664e+01   6.4739323841e+01    0.4999749     0.105017  40.02  0.001571062    4.761    0.790
         6 -10.3140     59.0494    230.1717   1.1930796205e+02   1.9488561503e+01    0.1718217    0.1334448  85.48 0.0003346215    1.172    0.147
         7 -11.6415    248.7491    246.1225   8.5731961237e+01  -1.1041742012e+01    0.4488901    0.3207464 -48.37  0.002796702    2.677    0.626
         8 -19.5282     16.1038    144.4048   1.2081060199e+02   4.2712874610e+01     19.11231     4.498647 -75.85   0.06532166    3.978    0.749
         9 -10.7187     50.3027    224.6637   1.2051187990e+02   2.1624667508e+01    0.1979971    0.1248764  80.74 0.0007237955    1.434    0.303
        10 -10.1970    183.8613    211.2560   9.1853798482e+01   3.4990338410e+00    0.3179356    0.1940941 -47.29  0.001640773    1.936    0.483
        11  -9.9622     56.7361    209.9700   1.1803181611e+02   2.3775276711e+01    0.2850145    0.1646853 -63.47  0.001133943    1.773    0.436
        12  -8.9209    178.3256    210.3410   9.2808250289e+01   4.5974995279e+00    0.1378043    0.0972295   4.79 0.0007051235    1.732    0.423
        13  -8.0259     76.5641    224.5280   1.1546093187e+02   1.8271855329e+01    0.1210094   0.09862537  65.43 0.0008064771    1.009    0.009
        14  99.0000     41.5971    205.9950   1.2071688979e+02   2.6405410369e+01    0.2411316    0.2042785 -22.44  0.001606967    1.931    0.482
        15  -9.1877     65.0000    223.9560   1.1765488863e+02   1.9922973206e+01    0.1628212   0.06263425 -69.18 0.0007610306    2.663    0.624
        16 -12.6586     32.6027    206.6720   1.2253836097e+02   2.7260672409e+01    0.3440795    0.1582205  56.36  0.001229705    1.909    0.476
        17  -8.2126    224.2786    206.6422   8.3264115995e+01  -2.4970816444e+00     0.111092    0.1045737 -69.73 0.0003202328    1.660    0.398
        18 -10.7556     66.1455    204.6401   1.1559515723e+02   2.3675869045e+01    0.2614412    0.1615849 -59.20  0.001032517    1.731    0.422
        19 -10.9063    193.4178    195.6976   8.7167209093e+01   4.4188511532e+00      1.05512    0.5698775 -63.64  0.003217243    6.058    0.835
        20  -9.8979     96.0384    202.2499   1.0897335811e+02   1.9925107013e+01    0.5279372    0.2812479 -40.94  0.002333989    2.835    0.647
        21 -11.1059    140.5445    201.0408   9.9160288896e+01   1.2851185695e+01    0.3670096    0.1995265 -55.98   0.00170601    2.115    0.527
        22 -12.5060     56.1723    198.0794   1.1702571170e+02   2.6343876178e+01    0.7166612    0.2764261 -52.87   0.00309019    3.121    0.680
        23  -9.8931     61.2291    188.0199   1.1488629297e+02   2.7899595618e+01    0.2071275    0.1527878  85.66 0.0004610161    1.237    0.192
        24 -12.2264     67.0163    184.4984   1.1319043233e+02   2.7928864017e+01     0.684824    0.5874721 -72.50  0.004142055    1.179    0.152
        25 -10.5826    204.0538    199.2093   8.5719912036e+01   1.9866660178e+00    0.5459027    0.1523305  33.09  0.001573352    4.989    0.800
        26  -9.9670    150.4592    196.7835   9.6325751429e+01   1.1922829352e+01    0.2512313    0.1384958 -54.59  0.001142627    2.106    0.525
        27  -9.2113     34.7164    197.1307   1.2138292970e+02   2.9036120523e+01    0.1574701    0.1173667  71.75 0.0004289868    1.098    0.089
        28  -9.5439     81.8833    194.7391   1.1111653208e+02   2.3614862201e+01    0.2285495    0.1771245 -85.56 0.0005185699    1.246    0.198
        29 -10.5053     95.6634    188.0833   1.0716018418e+02   2.2997864959e+01    0.4812547    0.3537423 -77.65   0.00208913    1.406    0.289
        30 -10.7507     99.2699    180.8254   1.0527385057e+02   2.4028450724e+01    0.3088584    0.2918238 -22.21 0.0006177746    1.291    0.225
        31  -8.7703    156.5111    189.9367   9.3827139716e+01   1.2145691169e+01    0.1941886    0.1398836 -46.35 0.0004191034    1.496    0.332
        32 -10.7173    150.3628    188.1927   9.4860512484e+01   1.3609317212e+01    0.3236253    0.2176211  52.37  0.001593638    1.541    0.351
        33 -10.6062    124.2828    186.4246   1.0039510601e+02   1.8633207137e+01    0.2442102    0.1742399 -84.75  0.001126517    1.808    0.447
        34  -9.4355    238.4860    185.5036   7.6653966515e+01  -1.6689396367e+00    0.1323976    0.1103682  -2.46 0.0008105121    1.006    0.006
        35 -10.5540    150.7452    179.3491   9.3166529519e+01   1.5308238414e+01    0.4312063    0.2929763 -75.73  0.001901752    2.250    0.556
        36 -10.5599    139.6426    172.0578   9.4329353080e+01   1.8904301928e+01    0.3904369     0.266077  53.60  0.001221962    1.538    0.350
        37 -10.9226    144.6611    179.9286   9.4643474408e+01   1.6323172619e+01    0.3368603    0.2948945 -35.32 0.0009109836    1.229    0.187
        38  -9.9920    142.4894    176.5168   9.4508550323e+01   1.7433236141e+01    0.2625611    0.2475388  39.36 0.0008443496    1.018    0.017
        39 -10.4658    188.9153    176.8114   8.4419825537e+01   8.5588502584e+00    0.7185782    0.4042471 -58.56  0.002465602    2.865    0.651
        40  -9.2068     36.6210    224.0013   1.2300341991e+02   2.3343535985e+01    0.1600456    0.1107963  67.28  0.000434013    1.126    0.112
        41  -9.9288     58.4661    176.1379   1.1415188189e+02   3.0927649445e+01     0.220904    0.1636459  55.60 0.0006184987    1.281    0.219
        42 -10.9103     43.5720    172.3988   1.1716608216e+02   3.3550120206e+01    0.5684724    0.2334764  52.56   0.00160633    2.504    0.601
        43  -8.4170     70.5380    199.9948   1.1418121595e+02   2.4071193339e+01    0.1691361    0.1147897 -71.02 0.0007002158    1.439    0.305
        44  -9.1206    240.3246    169.3039   7.3041852198e+01   5.0554836770e-01    0.1389695   0.09398788   2.25 0.0003620596    1.641    0.391
        45  -9.5842     55.3800    222.9748   1.1941683201e+02   2.1333886839e+01    0.1582377    0.1147873  70.63  0.001052463    1.131    0.116
        46 -11.4842     94.8170    151.7214   1.0154427196e+02   3.1460858334e+01    0.6560854    0.5113649 -34.34  0.003377443    1.528    0.346
        47  -9.9070    187.3462    152.2353   7.9512703996e+01   1.3500233075e+01    0.3044576    0.2561159  79.61   0.00153296    1.592    0.372
        48 -10.7677    133.8610    145.8920   9.0406594950e+01   2.5765276666e+01     1.298847    0.3201911 -54.17  0.003035039    5.870    0.830
        49  -9.2328    113.0753    150.8258   9.6678939888e+01   2.8550457005e+01    0.2380858    0.1954178  79.29 0.0007622378    1.362    0.266
        50  -9.7717    174.4995    148.6771   8.1478971282e+01   1.6855440252e+01    0.3296314    0.2474054 -79.18  0.001415741    2.017    0.504
        51  -9.1034    109.0072    147.1066   9.6983276310e+01   3.0145098005e+01     0.218686     0.203285  84.82 0.0002659276    1.071    0.067
        52  -9.6604     87.2199    143.6647   1.0206004001e+02   3.4598286385e+01    0.3165056    0.1942798  69.35  0.001334271    2.258    0.557
        53 -10.5837    106.9126    138.0283   9.5663765807e+01   3.2659954324e+01    0.4964817    0.3425143 -34.24  0.002163944    1.707    0.414
        54 -11.6274     94.7681    137.7088   9.8869257281e+01   3.4820866864e+01    0.2789544    0.2481266 -43.37 0.0005016998    1.165    0.142
        55  -9.9967    136.0064    130.7359   8.6403937374e+01   2.8749906901e+01    0.6571255    0.1560531 -48.73  0.001707101    4.333    0.769
        56 -10.5012    105.8599    130.6837   9.4353923631e+01   3.4589619935e+01    0.3902891    0.3200293 -64.43  0.001173857    1.220    0.180
        57 -10.0984    114.4304    128.9438   9.1632740843e+01   3.3423958177e+01    0.3573459    0.2817202 -25.12 0.0007729988    1.492    0.330
        58  -9.0178    160.3200    127.6515   7.9713596029e+01   2.4249434783e+01    0.1608503    0.1261399 -83.05 0.0005565196    1.737    0.424
        59 -10.7175    119.8346    123.8067   8.8961319921e+01   3.3580580867e+01    0.5997341    0.2880826 -36.21  0.002105586    2.593    0.614
        60 -10.4030    101.9545    124.8862   9.4126243039e+01   3.6661332914e+01    0.3144886    0.2556916 -18.48 0.0007679143    1.493    0.330
        61  -9.2754    135.0000    120.3834   8.4112843757e+01   3.1279649121e+01    0.3439378    0.0878443 -45.95 0.0009224714    3.836    0.739
        62  -9.4847    109.8866    118.1794   9.0316839391e+01   3.6795555525e+01    0.2486374    0.2089453 -51.20 0.0003524548    1.143    0.125
        63 -10.0621    231.2682    113.7608   6.2171299067e+01   1.1430676433e+01    0.2872701    0.2431909 -33.72 0.0007743778    1.064    0.060
        64  -9.0801    167.4514    112.2984   7.4138027495e+01   2.5845693217e+01    0.3353496    0.2333704 -88.05  0.001296517    2.443    0.591
        65  -9.9109    134.5587    105.8578   8.0400830798e+01   3.4572697725e+01    0.4917192    0.1505301 -45.64  0.001450157    3.228    0.690
        66 -11.2104    118.5168    110.4013   8.5938511733e+01   3.6910598005e+01    0.6963688    0.4694902  71.48  0.002814174    2.263    0.558
        67  -9.4613    205.5413    110.0751   6.5745511340e+01   1.7606651357e+01     0.282087    0.2297803  49.80 0.0007221077    1.304    0.233
        68  -9.6657     72.0845    250.1329   1.1852295289e+02   1.4193970343e+01    0.1395892    0.1046626  81.52 0.0004132734    1.254    0.203
        69  -9.3767     61.4270    219.9085   1.1799110043e+02   2.1176939839e+01    0.1400944   0.09941159 -56.10    0.0004648    1.720    0.419
        70  -8.3324    155.3110     82.2672   6.8491221372e+01   3.4611458360e+01    0.1545523      0.12118  17.06 0.0002721207    1.542    0.351
        71  -9.9262     48.7643    218.3093   1.2030599968e+02   2.3060089049e+01    0.2690053    0.1570344  68.60  0.001601424    1.535    0.349
        72  -8.4709    184.3585     77.3022   6.0985673116e+01   2.8448536004e+01    0.1581023    0.1182186  21.04 0.0007038008    1.717    0.418
        73  -9.0330     67.5219     71.0961   9.0679162169e+01   5.4532149839e+01    0.1937979     0.178391 -15.32 0.0004095098    1.073    0.068
        74 -10.0019     72.3454    245.3559   1.1809467206e+02   1.4993208869e+01    0.2770224    0.1407161  65.75  0.001400328    1.990    0.497
        75 -12.8810    178.0619     51.9280   5.4818863381e+01   3.4090339438e+01    0.9144134    0.7604707  18.14 0.0009032767    1.428    0.300
        76  -7.8540     84.2797    245.7316   1.1595691473e+02   1.3324038571e+01    0.1153526   0.07006153  62.48 0.0006887642    1.488    0.328
        77  -9.8345    168.1116    232.9251   9.8385737522e+01   2.6670360129e+00    0.2587829    0.1689505  44.28   0.00090103    1.379    0.275
        78  -9.7662     56.3177    217.7829   1.1880209590e+02   2.2243811846e+01    0.2505509    0.1271877  78.90  0.001257078    2.217    0.549
        79 -10.4733    249.6839    229.5347   8.2821887344e+01  -9.2636309040e+00    0.1963113   0.09548444 -30.48  0.001085507    2.025    0.506
