#   1 NUMBER                 Running object number                                     
#   2 MAG_AUTO               Kron-like elliptical aperture magnitude                    [mag]
#   3 X_IMAGE                Object position along x                                    [pixel]
#   4 Y_IMAGE                Object position along y                                    [pixel]
#   5 X_WORLD                Barycenter position along world x axis                     [deg]
#   6 Y_WORLD                Barycenter position along world y axis                     [deg]
#   7 A_WORLD                Profile RMS along major axis (world units)                 [deg]
#   8 B_WORLD                Profile RMS along minor axis (world units)                 [deg]
#   9 THETA_WORLD            Position angle (CCW/world-x)                               [deg]
#  10 FWHM_WORLD             FWHM assuming a gaussian core                              [deg]
#  11 ELONGATION             A_IMAGE/B_IMAGE                                           
#  12 ELLIPTICITY            1 - B_IMAGE/A_IMAGE                                       
         1 -13.9887     70.4529    147.6382   4.9603622041e+01   3.5875195604e+01     3.666471     1.827532  87.45  0.002363482    4.290    0.767
         2 -13.3920    213.9239     56.1370   3.5711325501e+02   2.6661452720e+01     1.100302    0.9151155 -25.07  0.003805151    1.439    0.305
         3 -13.6213    227.5312     47.2589   3.5402404625e+02   2.5359288173e+01    0.8270255    0.8153495  59.42  0.002987623    1.435    0.303
         4  -9.7532    187.3880     10.7602   3.4864932037e+02   3.7559995991e+01    0.1541938    0.1105867 -23.81 0.0005633523    1.667    0.400
         5  -9.6858    227.3670      9.6005   3.4614376634e+02   2.9781556074e+01    0.1954081     0.155572 -61.36  0.000713746    1.131    0.116
         6 -10.1292    148.0333      8.0024   3.5104935824e+02   4.6724060579e+01    0.1612392    0.1323068 -78.21 0.0006724082    1.020    0.019
         7 -11.0419    190.7839      3.6905   3.4671007631e+02   3.7564365565e+01    0.6306801    0.2190757 -71.05  0.002658883    3.136    0.681
         8  -9.6381    108.9946      5.5136   3.5486049276e+02   5.6496673934e+01    0.1967206   0.09538736 -77.86   0.00080998    2.540    0.606
         9  -9.8797      2.4447      3.1702   4.0945886605e+01   7.9226174273e+01    0.2305857    0.1028513 -44.88  0.001154787    2.168    0.539
        10  -9.8386     53.9804    237.9873   6.4182750934e+01   1.6619286334e+01    0.3096779    0.1974442  29.65  0.001100261    1.302    0.232
        11  -9.5483     74.9938    248.6513   6.0171529617e+01   1.2346088089e+01    0.3153702    0.1400268 -54.08  0.001595027    2.635    0.620
        12 -13.1144     67.0139    189.5563   5.6457538924e+01   2.5754903734e+01     2.830268     1.545932  59.23   0.00541792    2.146    0.534
        13 -12.7341     53.7099    218.5587   6.2782242982e+01   2.0682811728e+01     1.634065    0.8689557 -67.51  0.001176021    2.064    0.515
        14 -15.2673     12.1263    155.8335   6.9785125781e+01   4.0213832760e+01     12.22642     3.975904  86.25   0.03890432    3.747    0.733
        15 -14.1712      5.0764    232.7517   7.5339502712e+01   2.2291006315e+01    0.9801378    0.8779353 -74.09  0.004953517    1.361    0.265
        16 -15.1054      5.1345    214.9972   7.4743958158e+01   2.6111883142e+01     2.471673     1.005942  22.64   0.01155285    2.265    0.559
        17 -10.0509     59.0536    232.2513   6.2558749227e+01   1.7229996181e+01    0.5352562    0.1758172 -60.96  0.002280256    3.233    0.691
        18 -11.4865     54.8451    231.6417   6.3518387313e+01   1.7805428216e+01    0.2900058    0.2109025 -85.53 0.0006597505    1.574    0.365
        19 -12.0854    106.9666    228.8486   5.0959588353e+01   1.2368749168e+01    0.4641173    0.3873487  40.97  0.002996477    1.201    0.167
        20 -12.8704    128.3649    230.1415   4.6339718096e+01   9.5601505430e+00     1.020746    0.4290431  28.63  0.004840261    2.048    0.512
        21 -10.0193     72.8035    233.1114   5.9363101305e+01   1.5541467721e+01    0.2428581    0.2073893  78.36 0.0007809665    1.329    0.247
        22 -11.3409     97.6932    225.5000   5.2729283529e+01   1.4128146800e+01     0.548523    0.5036851  69.87  0.003646804    1.264    0.209
        23 -10.3049     90.4360    225.6916   5.4462522653e+01   1.4963575032e+01    0.3394328    0.2215148  31.06 0.0007825497    1.302    0.232
        24 -11.3310     84.1126    221.8982   5.5579182758e+01   1.6481948517e+01    0.8116577    0.3626063  31.11  0.003765731    1.866    0.464
        25  -9.9042     47.1188    229.2452   6.5204313690e+01   1.9112087093e+01    0.2127963    0.1612198  65.45  0.001021142    1.310    0.237
        26 -14.7872     25.5506    179.3038   6.7348729001e+01   3.2898994862e+01      3.30543     2.275441  24.34  0.009968651    1.449    0.310
        27  -8.3467     63.5441    236.8983   6.1859584005e+01   1.5815780756e+01    0.1503874    0.1229874 -70.83 0.0004332476    1.436    0.303
        28  -9.1237     72.5966    225.1941   5.8696241007e+01   1.7159524084e+01    0.2129208     0.146167  36.45 0.0005072206    1.233    0.189
        29  -9.6810    174.7748    223.3722   3.5924080812e+01   5.2267206832e+00    0.2029213    0.1325148  11.50  0.000699121    1.413    0.292
        30 -10.3916    164.2862    221.6518   3.7711432770e+01   6.7139976554e+00    0.1788701    0.1508243 -33.00 0.0006957505    1.274    0.215
        31  -8.9827     32.6769    221.9869   6.8265768007e+01   2.2111354045e+01     0.168749    0.1451912  75.12 0.0003955117    1.176    0.150
        32 -14.7140     10.1580    206.4766   7.3148142337e+01   2.7638907400e+01      1.26905    0.8165615  34.36  0.005529297    1.349    0.259
        33  -8.5818    131.9922    211.7028   4.3089099985e+01   1.2460531667e+01    0.1744769    0.1474874  13.75 0.0002574292    1.050    0.048
        34  -9.4005     95.6574    209.5927   5.1365601940e+01   1.7596189694e+01    0.2448394    0.1709603 -67.82  0.001322708    1.678    0.404
        35 -10.9273    103.7969    202.2824   4.8421307697e+01   1.8068556131e+01    0.4281209    0.2959029 -40.30  0.001495095    1.585    0.369
        36  -9.5119    210.9165    198.9640   2.5718974772e+01   4.8424667492e+00    0.1923182    0.1420731  -5.16 0.0005207681    1.201    0.167
        37 -11.4473    119.7059    188.7268   4.2551542425e+01   1.8728405278e+01     1.110957    0.3483375  22.87  0.002770845    6.469    0.845
        38 -11.6828    102.0339    193.5341   4.7662156422e+01   2.0190128949e+01    0.4309286     0.369604  29.51  0.002504399    1.079    0.073
        39 -12.1517    107.6909    191.3565   4.5920698528e+01   1.9875906640e+01     1.000513    0.4108717 -43.59  0.003890959    2.770    0.639
        40  -9.3937    192.2107    193.5973   2.8054586726e+01   7.8922379878e+00    0.2246754    0.1464313 -70.11  0.000949889    4.294    0.767
        41 -11.3322     96.4976    195.5942   4.9357658677e+01   2.0495662153e+01    0.4712497    0.3072405  35.84  0.001661813    1.400    0.286
        42  -8.9357     77.9936    184.4423   5.2795554847e+01   2.5556020631e+01    0.2118239    0.1894126 -69.99 0.0005131412    1.183    0.155
        43  -8.7507     70.7646    183.7041   5.4713131473e+01   2.6685245971e+01     0.190416    0.1520743  67.16 0.0006392379    1.309    0.236
        44 -11.0024    113.7474    194.9109   4.4940000163e+01   1.8266017573e+01      0.38251    0.2692581 -22.27  0.001961382    1.688    0.408
        45  -8.2329    148.6427    172.2640   3.3024066869e+01   1.7808830236e+01    0.1307233    0.1068096  64.76 0.0003374142    1.629    0.386
        46 -10.3651    176.3526    168.8749   2.6676305300e+01   1.4284453385e+01    0.3841432    0.1248121 -47.75  0.001435754    3.092    0.677
        47 -11.5254     79.5703    144.9427   4.6253749397e+01   3.5205469441e+01     0.774323    0.6651022 -29.78  0.001609071    1.305    0.234
        48  -8.7209    151.3152    248.6587   4.3872255439e+01   3.9369256944e+00     0.106963   0.08347241  46.05  0.000432946    1.706    0.414
        49  -8.3763     60.2383    164.9144   5.5384288282e+01   3.2762237393e+01     0.189366    0.1231582 -72.58 0.0008702169    1.589    0.371
        50 -11.3637     61.2564    156.8623   5.3956461673e+01   3.4730062884e+01    0.4377893    0.3840894 -52.71 0.0009713505    1.198    0.165
        51 -11.1996     39.9084    151.5415   6.0186339677e+01   3.8762112193e+01    0.4371095    0.2668621 -78.91            0    1.648    0.393
        52 -11.4940     55.8530    160.6706   5.6181942945e+01   3.4428239656e+01    0.5173316    0.3326712 -29.51  0.002251643    2.090    0.522
        53  -8.6366    112.7185    150.7787   3.7728389858e+01   2.8331075949e+01    0.1942648    0.1689239  75.67  0.000454439    1.305    0.234
        54  -9.4016    134.7125    148.9124   3.1762917713e+01   2.4974515315e+01    0.2937431    0.2382303 -74.52  0.001471544    1.486    0.327
        55 -10.0133    133.6133    143.8280   3.0982230632e+01   2.6278565026e+01    0.8397538    0.2433289 -57.27   0.00191665    6.823    0.853
        56 -10.5063    238.3914    146.1886   1.2502307914e+01   9.4404762087e+00    0.2678729   0.08615335 -41.22  0.001223397    2.448    0.592
        57 -10.2698    108.9722    145.4171   3.7687522918e+01   3.0238254325e+01    0.2705007    0.2664482  47.44 0.0005916262    1.017    0.017
        58  -8.8229     27.9503    144.3262   6.3430383942e+01   4.1973950114e+01    0.1992714    0.1821995  37.22 0.0004954392    1.123    0.110
        59 -11.9843     34.1150    139.5214   6.0703684026e+01   4.2676769446e+01    0.7606283    0.3327874  60.00  0.002048864    2.899    0.655
        60 -10.1511     96.4817    133.7728   3.8878050231e+01   3.5243141138e+01    0.5472701    0.3770733  -3.74  0.002230664    2.291    0.563
        61  -8.3629    152.2575    133.9482   2.4590579331e+01   2.5024507392e+01    0.1745163     0.116614 -46.99 0.0003087748    1.410    0.291
        62 -12.8651      2.3849    243.3195   7.6245342329e+01   2.0367302954e+01    0.5795199    0.3342793  84.05 0.0009962657    1.757    0.431
        63 -11.4772     83.0660    131.8306   4.2626735865e+01   3.8025490850e+01    0.2947322    0.2810116 -63.80  0.000407543    1.048    0.046
        64  -9.7731    105.7904    130.4397   3.5434571377e+01   3.4394596147e+01     0.357347    0.2999136 -66.04  0.001026091    1.223    0.182
        65  -9.1403    107.7412    126.2057   3.3929990493e+01   3.5050090895e+01    0.2927907    0.2432365  -3.11 0.0009174553    1.497    0.332
        66  -9.6698     34.1836    129.1390   5.9304475675e+01   4.5544670149e+01    0.5965235    0.2088346  56.98  0.001621481    4.682    0.786
        67 -10.3926    180.6983    167.1161   2.5524488307e+01   1.3965476063e+01    0.3751867    0.1895297 -51.17  0.001254714    2.178    0.541
        68  -8.1534    112.2562    129.3402   3.3372316037e+01   3.3466743942e+01    0.1518813    0.1172004 -23.65 0.0006955171    1.580    0.367
        69 -11.6749     44.3002    134.0617   5.6308376075e+01   4.3036819087e+01    0.7224044      0.46077 -63.97  0.002900188    1.506    0.336
        70  -8.3514    219.3001    126.6441   1.1368266237e+01   1.5085950421e+01    0.1232756   0.08456107 -58.84 0.0007037034    1.705    0.414
        71 -10.5223     36.1603    124.9227   5.7946223297e+01   4.6501207073e+01    0.3082933    0.2517172  56.20 0.0004148356    1.221    0.181
        72 -14.1384     37.9200    172.5506   6.3079552130e+01   3.3400124048e+01     4.741675     2.164488  63.45    0.0181017    2.618    0.618
        73  -9.5402     48.8621    122.9589   5.2815972289e+01   4.5518096596e+01    0.2322167    0.1973571 -41.04 0.0003456764    1.258    0.205
        74 -10.6644     94.4629    121.2271   3.6727057041e+01   3.8714094258e+01    0.3544429    0.2876828  14.03 0.0008650007    1.473    0.321
        75  -9.0924    114.7812    121.2676   3.0820507392e+01   3.4877075503e+01    0.2070349    0.1805663  -5.67 0.0006907436    1.364    0.267
        76  -8.0465     76.2916    120.6625   4.2505075600e+01   4.2041241768e+01    0.1613316     0.118618  74.15 0.0007024792    1.643    0.391
        77  -9.7637    105.1208    116.3077   3.2359900645e+01   3.7904709612e+01    0.2763394    0.2165932 -64.73 0.0007041879    1.324    0.245
        78 -11.1895    244.2336    114.6866   5.9520019243e+00   1.3290646871e+01    0.3340519    0.1887527 -57.81  0.001878636    2.164    0.538
        79 -11.0647     24.0494    104.8555   5.9762372854e+01   5.3299739270e+01    0.3473485    0.3448785 -56.62 0.0008454655    1.065    0.061
        80 -10.3504     12.6302    101.7699   6.4336227618e+01   5.5088937647e+01     0.276406     0.232682 -36.75 0.0005124994    1.243    0.195
        81  -9.2368     33.4755    101.4943   5.5077852338e+01   5.3263310285e+01    0.1494368    0.1392979 -52.70 0.0001288512    1.067    0.063
        82 -10.1771     56.6921     91.0777   4.2772040775e+01   5.2895813176e+01    0.4190141    0.2314569  23.72  0.001660269    2.131    0.531
        83  -8.2469    164.2877     89.2986   1.1632300765e+01   3.1341260778e+01    0.1307679    0.1112426  -2.18  0.000345032    1.555    0.357
        84 -10.0705     53.6958     87.2492   4.3011300921e+01   5.4337698882e+01    0.2735304    0.1897078 -64.47 0.0008395726    1.473    0.321
        85  -9.4936    248.3218     87.3431   3.0955958633e-01   1.6578656244e+01     0.107338   0.08077179 -14.33  0.000705025    1.727    0.421
        86  -9.1535     38.9819     86.7857   4.9437300944e+01   5.6542683481e+01    0.2338088    0.1916671  64.26 0.0008100513    1.337    0.252
        87 -10.0747    240.6116     83.1512   2.2118026216e-01   1.8334367383e+01    0.1685869   0.09135576 -31.42 0.0005661399    1.709    0.415
        88 -12.9747     58.3616    144.4887   5.3041181505e+01   3.8405945278e+01    0.8285256     0.695512 -21.79   0.00083215    1.403    0.287
        89  -9.0458     59.0086     78.5081   3.8240141490e+01   5.5630803306e+01    0.2177509    0.1196923  57.00 0.0008094147    2.448    0.592
        90  -8.5101     83.0000     71.9172   2.6835211965e+01   5.2547422135e+01    0.2464452    0.0856974 -47.01 0.0007966727    2.903    0.655
        91 -12.4274    203.8968     62.2120   3.5949643810e+02   2.7709549238e+01     0.614926    0.5458654  24.73   0.00111852    1.601    0.375
        92 -10.0989    125.2203    243.9473   4.8667350540e+01   7.5646669820e+00    0.2010717    0.1078485 -51.03  0.001057518    2.138    0.532
        93  -9.1142     91.1758     66.8209   2.2387762259e+01   5.1849320491e+01    0.2236302    0.1953276  87.59   0.00055709    1.215    0.177
        94  -9.8428     30.1920     50.8456   4.3303026706e+01   6.6472777770e+01    0.2352772    0.2087761  39.57 0.0003193292    1.185    0.156
        95  -9.0990    110.7230    167.1367   4.1270996398e+01   2.4853288456e+01     0.208583    0.1944485  87.75 0.0005283575    1.176    0.150
        96  -8.3955    152.4732     48.5010   2.5525284912e+00   4.0687528695e+01    0.1435257    0.1172124 -68.80 0.0003405032    1.110    0.099
        97 -10.9663      7.9839     41.5277   5.4529324144e+01   7.0931253058e+01    0.3109667    0.2366345 -73.81 0.0008296054    1.437    0.304
        98 -11.3715      3.6028     41.9001   5.7818993027e+01   7.1151962818e+01    0.4259554    0.3426687 -56.37  0.001644929    1.169    0.145
        99  -9.7871     86.9091     62.5839   2.2303797651e+01   5.3628726373e+01    0.4155255    0.2782097  88.90  0.001694458    2.371    0.578
       100 -10.4031     18.4949     36.0326   4.4977087949e+01   7.1148206970e+01    0.2036413    0.1254512 -54.00 0.0008297197    1.609    0.378
       101  -8.7871     93.5371     34.5065   9.6283895297e+00   5.6915395466e+01    0.1407521     0.130489  74.36 0.0001906803    1.008    0.008
       102 -10.2207      8.0393     33.5197   5.1690902706e+01   7.2726754906e+01    0.2852176    0.1043889  27.50  0.001193751    2.585    0.613
       103  -9.7664     64.6562     63.9046   3.1044042072e+01   5.7947762606e+01    0.2050835     0.189456 -59.48 0.0005241781    1.108    0.097
       104  -9.2138     21.6546     27.6968   3.8897637079e+01   7.2453205082e+01    0.1371475   0.09462122 -11.45 0.0007040133    1.687    0.407
       105 -10.4515      9.8750     27.1154   4.7590637891e+01   7.3927520064e+01    0.3338981    0.1162687  31.73  0.001378939    2.728    0.633
       106  -9.3721    101.6096    246.7612   5.4077169423e+01   9.7491907804e+00    0.2012494    0.1100257 -51.96  0.001117276    2.117    0.528
       107 -10.7891      2.3215     23.2388   5.2292503734e+01   7.5385566393e+01    0.3025829      0.18323 -63.08   0.00118188    1.722    0.419
       108  -9.5587     60.7914     21.3179   1.4144771049e+01   6.6353960495e+01    0.2513745    0.2138445  61.76 0.0007502251    1.148    0.129
       109  -9.9360     19.6677     21.3466   3.6995961806e+01   7.3916373104e+01      0.32757    0.1747829  50.36  0.001460404    2.665    0.625
       110  -9.2153    189.5039     14.9784   3.4954226843e+02   3.6660276790e+01    0.1797822    0.1044405 -36.36 0.0006542791    1.572    0.364
       111 -11.6352     42.9396    245.0191   6.7188055821e+01   1.6364032989e+01    0.2161107    0.1799644  79.52 0.0007483353    1.310    0.236
       112 -13.6459     12.9484    245.0254   7.3958002139e+01   1.9147168529e+01     1.209108     1.169232 -63.88   0.00701588    1.349    0.259
       113  -8.4257    198.2610    240.9560   3.4147666022e+01   2.0606296954e-01    0.1261492   0.08152901 -32.80 0.0004402879    1.465    0.317
       114 -10.1861    103.7016    238.6999   5.2784763191e+01   1.0941645317e+01    0.2755539    0.2076147 -52.72  0.001242953    1.551    0.355
       115  -9.2107    109.4754    239.4808   5.1583107645e+01   1.0134359149e+01    0.1235803    0.1027139  17.70 0.0008096794    1.030    0.029
