#   1 NUMBER                 Running object number                                     
#   2 MAG_AUTO               Kron-like elliptical aperture magnitude                    [mag]
#   3 X_IMAGE                Object position along x                                    [pixel]
#   4 Y_IMAGE                Object position along y                                    [pixel]
#   5 X_WORLD                Barycenter position along world x axis                     [deg]
#   6 Y_WORLD                Barycenter position along world y axis                     [deg]
#   7 A_WORLD                Profile RMS along major axis (world units)                 [deg]
#   8 B_WORLD                Profile RMS along minor axis (world units)                 [deg]
#   9 THETA_WORLD            Position angle (CCW/world-x)                               [deg]
#  10 FWHM_WORLD             FWHM assuming a gaussian core                              [deg]
#  11 ELONGATION             A_IMAGE/B_IMAGE                                           
#  12 ELLIPTICITY            1 - B_IMAGE/A_IMAGE                                       
         1 -16.5217     43.6608    134.2406   1.3166089076e+02   4.3387817072e+01     8.753542     3.911932  29.44   0.04002238    2.694    0.629
         2 -12.0117    168.9587     38.3237   7.3444947325e+01   3.8284086867e+01     1.021525    0.6432545  51.06  0.005052941    1.517    0.341
         3 -11.0146    183.9319      7.0801   6.2945123274e+01   3.8136891164e+01    0.8469285    0.6310728  75.11  0.005120973    1.139    0.122
         4  -8.2967     23.3175      3.6419   1.0111761149e+02   7.0058550986e+01   0.09059837   0.08195204 -26.59 0.0002867626    1.756    0.430
         5  -9.0757     15.0016      1.8192   1.0402639610e+02   7.1129674997e+01    0.1743541   0.09217996   2.25 0.0007240666    1.958    0.489
         6  -7.8481     71.3508      1.7419   8.2619345950e+01   6.3310676729e+01   0.09921473   0.09157696  76.79 0.0001918759    1.605    0.377
         7  -9.6408     91.4849    208.6851   1.3140869419e+02   1.9439510667e+01    0.1328812    0.1092077  64.53 0.0007793938    1.078    0.073
         8 -15.4401    189.6628    222.7302   1.1327832755e+02  -8.2195389274e-01     4.870336     3.738572 -40.33   0.02807134    1.436    0.303
         9  99.0000    121.4197    243.5588   1.2988444946e+02   7.5386516788e+00    0.3788912     0.278818   5.61  0.001955756    2.544    0.607
        10  99.0000    126.6989    238.7570   1.2824880835e+02   7.5257280100e+00     0.277994    0.2417985  -8.19   0.00117605    1.655    0.396
        11 -12.5471    122.4618    248.8032   1.3033218409e+02   6.4260353180e+00    0.4298999    0.2525748  44.98  0.002376613    1.433    0.302
        12 -11.9846    126.5198    246.4386   1.2926986353e+02   6.1689482553e+00    0.1704328    0.1519822  79.97 0.0001062373    1.155    0.134
        13 -11.4053    116.3941    232.4840   1.2945395482e+02   1.0452262058e+01    0.1835655    0.1514404  66.70 -8.430696e-06    1.071    0.066
        14 -11.9391    121.4973    238.9596   1.2928825308e+02   8.3692508627e+00    0.3135874    0.2362808  73.92  0.001716492    1.345    0.256
        15 -12.7108    120.2907    232.9989   1.2875060560e+02   9.6941681330e+00    0.5170438    0.3039203  85.77  0.002321619    2.660    0.624
        16 -11.1651    108.0272    244.9419   1.3259916039e+02   9.4864490929e+00    0.4694347    0.3685295 -43.21   0.00290844    1.764    0.433
        17  99.0000    113.9160    246.0000   1.3161044529e+02   8.3353317672e+00    0.4470043    0.3324607 -87.05  0.002750095    1.456    0.313
        18  99.0000    114.7037    214.6484   1.2736749080e+02   1.4304452779e+01     1.333254    0.9042439  77.72   0.00681545    1.697    0.411
        19 -14.4798     59.3923    190.3418   1.3589918029e+02   2.8268717045e+01     1.145546    0.8099396 -37.26  0.006146954    2.140    0.533
        20 -15.1122     42.2084    193.6034   1.3989492334e+02   2.9708378681e+01     1.198008    0.8628569 -48.20  0.007187097    1.794    0.443
        21 -14.5410    106.1828    229.5318   1.3109783921e+02   1.2729903885e+01    0.9078234    0.7157316 -46.27  0.005428196    1.633    0.387
        22 -14.8817     47.6402    201.6397   1.3962641273e+02   2.7257436641e+01    0.8179348    0.5505655 -39.20   0.00442176    2.430    0.589
        23 -15.6569     32.2483    210.1776   1.4344344211e+02   2.7249821228e+01    0.9855741    0.6617498 -76.01  0.006376971    1.296    0.229
        24 -18.7498     62.3231    234.2726   1.4001115752e+02   1.8441278831e+01     5.076756     3.294546  58.16   0.03157708    1.285    0.222
        25 -16.0929     88.6492    219.4671   1.3335636092e+02   1.7596298234e+01     1.493348    0.8950034  83.95  0.007471733    1.944    0.486
        26 -10.3169    129.0220    205.3146   1.2291460397e+02   1.3703531448e+01    0.2993642    0.1763452 -56.97  0.001411425    1.803    0.445
        27 -10.3131      4.8220    206.7397   1.4821756263e+02   3.0829029286e+01   0.09585845   0.06374469 -72.72 0.0002842723    1.371    0.271
        28 -11.4008    109.2182    203.6394   1.2692490938e+02   1.7584852623e+01    0.2907815    0.2297545 -16.59  0.001414604    2.046    0.511
        29  -9.5759     91.6029    205.3403   1.3093741229e+02   2.0147654338e+01    0.1360067    0.1081725  71.07 0.0002422283    1.126    0.112
        30  -9.1222     10.1849    205.1870   1.4714112949e+02   3.0642558876e+01   0.08712145     0.067176 -78.03 0.0002715274    1.262    0.207
        31 -12.8089    118.0631    201.3244   1.2465337859e+02   1.6532873441e+01    0.3816602    0.2581553  66.42  0.001127084    1.587    0.370
        32 -12.7893    114.9658    197.9774   1.2480353530e+02   1.7811635194e+01    0.3383312    0.2613128  53.25  0.001039423    1.206    0.171
        33 -12.4100     98.2443    201.6249   1.2899951156e+02   1.9880679991e+01    0.2363077    0.1979713  77.22 0.0005835267    1.073    0.068
        34  -8.7269      8.7708    201.4622   1.4712716557e+02   3.1566031309e+01    0.2943495    0.1894937  27.06  0.001885559    2.235    0.553
        35 -10.3236      1.3685    200.5884   1.4841692869e+02   3.2434026077e+01     0.203812   0.07997726 -87.61 0.0007042215    2.238    0.553
        36 -11.9007    100.9342    194.5533   1.2736973493e+02   2.1001680254e+01    0.4330855    0.3028262  26.67   0.00172373    1.878    0.468
        37 -10.2742      5.7431    197.3457   1.4738402199e+02   3.2724087395e+01    0.1102985   0.08730408  85.56 0.0008037825    1.127    0.113
        38 -10.0111     68.1952    192.3145   1.3424366650e+02   2.6605093861e+01    0.1192795   0.09129763 -61.52 0.0001801291    1.338    0.253
        39  -9.3551    108.4366    188.5998   1.2475454690e+02   2.1051517949e+01    0.3220772     0.149445 -55.92   0.00133301    2.148    0.534
        40  -5.4542     82.9138    190.1554   1.3072189079e+02   2.4915158477e+01    0.3344233    0.1421382  39.09  0.001310547    2.403    0.584
        41 -10.4970     17.0373    186.9982   1.4436990715e+02   3.3904449342e+01    0.1345466    0.1091783  87.33 0.0009448216    1.106    0.096
        42 -12.6324     20.4943    183.0355   1.4330780755e+02   3.4446101009e+01    0.3196888    0.1633417 -76.22  0.001771387    1.578    0.366
        43  -9.5333      6.0428    186.2083   1.4647279673e+02   3.5097146587e+01    0.1122689   0.07983257 -84.47 0.0007601166    1.069    0.065
        44 -11.6981      2.1187    183.9700   1.4705943638e+02   3.5923642812e+01    0.1660795    0.1420534  83.35 0.0007355837    1.231    0.187
        45 -10.4853      4.7557    181.3063   1.4632920881e+02   3.6279965907e+01    0.1471153    0.1098927 -84.63 0.0002036399    1.060    0.056
        46 -10.6591    124.9012    231.9621   1.2769736290e+02   9.1033922211e+00    0.1476205     0.128298  71.73 0.0009146789    1.085    0.078
        47  -8.3590    152.0541    181.2366   1.1355484294e+02   1.4410168621e+01    0.2209225    0.1858762  30.12 0.0009938014    1.271    0.213
        48  -9.5725     92.8902    181.8518   1.2721950733e+02   2.5239379780e+01    0.0973991   0.08124693 -60.80 0.0005178812    1.216    0.178
        49 -10.9990     84.3208    180.9590   1.2905253096e+02   2.6819464705e+01    0.1943355    0.1726652  76.89 0.0003215469    1.056    0.053
        50 -12.6319     41.6624    174.4989   1.3786308993e+02   3.4129895766e+01    0.2946505    0.1961997 -74.64 0.0004214012    1.258    0.205
        51  -9.6996     71.2992    177.0395   1.3146825566e+02   2.9693562825e+01    0.1752656    0.1437835 -82.52 0.0003089402    1.069    0.064
        52 -10.4596     33.3840    176.1577   1.3987845517e+02   3.4671689718e+01    0.1686679    0.1462594 -77.07 0.0003679314    1.183    0.155
        53 -11.3581     61.4796    173.3586   1.3321133828e+02   3.1925605049e+01    0.2519147    0.2033245  44.20 0.0002893316    1.366    0.268
        54  -8.6812     24.8288    172.7375   1.4136523845e+02   3.6341959878e+01    0.1085618   0.07116064 -63.58 0.0001792256    1.376    0.274
        55 -11.1339     40.6938    167.8015   1.3725927514e+02   3.5798659296e+01     0.331001    0.1839178  60.05  0.001204696    1.950    0.487
        56  -7.7108    155.5351    168.4847   1.1019217610e+02   1.6467683544e+01    0.1501845    0.1479608  58.83 0.0001882935    1.028    0.028
        57  -8.9135     77.4648    167.8717   1.2861949566e+02   3.0954302550e+01    0.2539251    0.1617151  50.34  0.001265663    1.601    0.375
        58  -8.2089     72.9987    166.7993   1.2952113782e+02   3.1868981148e+01    0.2383444    0.1742298  74.62  0.001145901    1.421    0.296
        59  -8.1563     52.9838    168.0125   1.3444461370e+02   3.4286913258e+01    0.1439026    0.1148245 -78.56 0.0008555382    1.059    0.056
        60  -9.6008     21.4126    168.0589   1.4161350164e+02   3.7742498414e+01    0.1691504    0.1410948  85.57 0.0006152132    1.113    0.102
        61 -10.7412    113.9290    237.3335   1.3055413254e+02   9.9400037163e+00    0.1600592     0.126699  52.73 0.0002802098    1.096    0.088
        62 -11.6412     51.4893    161.5070   1.3388809386e+02   3.6009997898e+01     0.242878    0.2058569 -80.12 9.494489e-05    1.023    0.022
        63 -11.2131    246.2599    144.1269   8.6691480717e+01   2.4588835012e+00    0.6466712    0.4695041  35.92  0.003421738    1.556    0.358
        64  -8.9022    226.5719    140.4430   8.9258268900e+01   7.0551544420e+00    0.2613215    0.2473304 -44.24  0.000537318    1.046    0.044
        65  -8.8081    196.7904    107.0670   8.6799394736e+01   2.0098198692e+01    0.2473211    0.2168358  62.18 0.0004928163    1.168    0.144
        66 -12.0284    247.6152    128.7792   8.3100338277e+01   4.9220976450e+00     1.276859    0.8680479 -42.46  0.006579987    1.311    0.237
        67 -10.8609    245.1140    122.1480   8.2020619943e+01   6.6014610179e+00    0.5743398    0.3222005  40.77  0.001813615    2.170    0.539
        68  -8.1420    183.4769     77.2197   8.1563044521e+01   2.8799103126e+01    0.2084607    0.1361925 -50.98 0.0003943439    1.572    0.364
        69  -8.6382    239.1119     66.2090   7.0254640307e+01   1.7398545669e+01    0.2296705    0.1786672 -47.38 0.0005047569    1.188    0.158
        70  -7.7111    124.9530     63.0012   9.0142004579e+01   4.5124580553e+01    0.1697551    0.1629941   0.94 0.0003280105    1.034    0.033
        71  -7.8548    126.5036     59.0260   8.8496205270e+01   4.5421174082e+01    0.1978784    0.1412241 -31.66 6.161933e-05    1.449    0.310
        72 -11.7442    157.5904     54.2581   8.0113957287e+01   3.8862223239e+01    0.7473103    0.4908046  59.87  0.002973227    1.453    0.312
        73 -12.3079    125.9277    226.0811   1.2668011195e+02   1.0056635042e+01    0.3574524    0.2473984  19.87  0.001770281    2.156    0.536
        74 -10.4224    172.3869     31.4037   7.0961198439e+01   3.8306285644e+01    0.4239996    0.3475602  18.05  0.001140849    1.538    0.350
        75  -8.9187    149.8133     31.6385   7.4881643084e+01   4.3767586037e+01    0.1823862    0.1710247  26.68 0.0003164591    1.137    0.120
        76  -8.9858    231.1753     17.5842   6.0420204415e+01   2.5906966110e+01    0.2425416    0.1825377 -58.93 0.0007283667    1.198    0.165
        77 -11.5117    125.0599    219.4831   1.2591415481e+02   1.1510912863e+01    0.1924445     0.180417 -81.69   0.00112129    1.151    0.131
        78  -9.1044    160.0485    126.5249   9.9503899813e+01   2.4711483904e+01    0.2494636    0.2000895  73.23 0.0006721843    1.432    0.302
        79  -9.8723    139.0633    219.1537   1.2296971492e+02   9.0719338677e+00    0.1590013    0.1403829  63.34            0    1.057    0.054
        80 -12.2799     56.5785    160.2717   1.3248239971e+02   3.5666856540e+01     0.477731     0.352984  89.40  0.001135557    1.304    0.233
        81  -9.3533    133.3176    219.0991   1.2415012919e+02   1.0118571744e+01    0.1709884    0.1576542  36.03 0.0007550534    1.186    0.157
