#   1 NUMBER                 Running object number                                     
#   2 MAG_AUTO               Kron-like elliptical aperture magnitude                    [mag]
#   3 X_IMAGE                Object position along x                                    [pixel]
#   4 Y_IMAGE                Object position along y                                    [pixel]
#   5 X_WORLD                Barycenter position along world x axis                     [deg]
#   6 Y_WORLD                Barycenter position along world y axis                     [deg]
#   7 A_WORLD                Profile RMS along major axis (world units)                 [deg]
#   8 B_WORLD                Profile RMS along minor axis (world units)                 [deg]
#   9 THETA_WORLD            Position angle (CCW/world-x)                               [deg]
#  10 FWHM_WORLD             FWHM assuming a gaussian core                              [deg]
#  11 ELONGATION             A_IMAGE/B_IMAGE                                           
#  12 ELLIPTICITY            1 - B_IMAGE/A_IMAGE                                       
         1 -17.1688    166.7552     70.5797   7.0116730111e+01   3.3540271379e+01     6.898419     3.010073  47.16   0.02525923    2.302    0.566
         2 -16.1211    200.0641     93.1130   7.0181355440e+01   2.2105314126e+01     2.811291     1.400598 -26.06   0.01086415    2.071    0.517
         3 -19.5321    183.1884    132.3792   8.2744168297e+01   1.9560589055e+01     8.691566      6.79011  29.64   0.04823981    1.200    0.166
         4 -11.8607    201.9751     23.7644   5.0121693477e+01   3.0936861921e+01    0.3101552    0.1895782 -28.51  0.000332917    1.533    0.348
         5 -10.9123    222.8390     21.6573   4.7435222503e+01   2.5996169360e+01    0.2056758    0.1605703  47.23 0.0005528238    1.432    0.302
         6 -11.3138     12.1646     15.5180   1.0915828047e+02   7.3834088716e+01    0.3992338    0.1619184 -63.37  0.001876334    2.076    0.518
         7 -10.4397     23.5135     11.5661   9.9367239135e+01   7.3757435404e+01    0.1265477    0.1059269 -36.17 6.687925e-05    1.014    0.014
         8 -12.7647    238.2661      4.4097   4.1627495594e+01   2.4074053140e+01    0.4873042     0.229135 -32.48  0.002346094    1.755    0.430
         9 -12.5101    248.4038      5.4468   4.1276772440e+01   2.1727032028e+01    0.5560051    0.2386104 -14.29  0.002398117    2.580    0.612
        10 -10.4287    178.2205      5.8147   4.6972904393e+01   3.9055686220e+01    0.3033728    0.1354711 -38.84  0.001209558    2.096    0.523
        11  -9.6302    139.9851      5.0207   5.1673635844e+01   4.9699653234e+01    0.1706089    0.1692675  -8.13 0.0003096394    1.049    0.047
        12 -11.2460    202.0155      3.9264   4.4112536092e+01   3.2920936906e+01    0.2130275    0.1952649 -63.60 0.0004429971    1.019    0.018
        13 -12.3252    238.7487     17.4935   4.4999923582e+01   2.2722000001e+01    0.5043943    0.1651582 -30.13  0.002040213    2.391    0.582
        14 -11.3258     40.1397      2.7730   8.3081240277e+01   7.3295300767e+01    0.2649781    0.2117827  41.73 0.0009786661    1.443    0.307
        15 -10.5564     62.8998      6.8999   7.3771508496e+01   6.8627776452e+01    0.2026737    0.1824373  -1.39 0.0003034275    1.004    0.004
        16 -10.2938     85.6551      2.1339   6.2373660946e+01   6.4249883730e+01    0.2000995    0.1704712  -4.36 0.0009319164    1.152    0.132
        17 -10.9638    126.1182    205.0810   1.0660747167e+02   1.7834772441e+01     0.297491    0.1939782  75.21  0.001529345    2.334    0.572
        18 -10.3850    234.3190    250.3217   9.3436228550e+01  -2.2701200707e+00    0.1038438   0.05399135  15.52 0.0007043785    1.668    0.401
        19 -11.5998    201.9576    249.4138   9.8324028138e+01   1.8129775947e+00    0.1930784    0.1286834  27.62 0.0004151231    1.030    0.030
        20 -12.6022    192.8837    249.5853   9.9801467759e+01   2.9624431389e+00    0.4255681    0.1523262  39.26  0.001290091    2.048    0.512
        21 -12.0913    245.4321    236.1781   8.9919992435e+01  -2.4787319341e+00    0.2294413    0.1528267 -15.72  0.000956671    1.585    0.369
        22 -11.7249    182.9867    237.6032   1.0002719206e+02   5.4790370799e+00    0.4065921    0.1542548  33.64  0.002218368    1.998    0.500
        23 -11.0681    102.9324    236.5379   1.1411685483e+02   1.6417426337e+01    0.2583704    0.1381982  62.65  0.001567642    2.186    0.542
        24 -11.9554    232.5633    236.0226   9.1835681981e+01  -8.8071586984e-01    0.2581603    0.1546086  19.07 0.0009499788    1.242    0.195
        25 -12.4338    193.5392    235.6517   9.8020989309e+01   4.2526040416e+00    0.2654629    0.2125944  18.76  0.002150739    1.172    0.147
        26 -10.3521    118.9206    235.0216   1.1106490247e+02   1.4531259169e+01    0.1706181    0.1255831  39.47 0.0006771221    1.047    0.045
        27 -12.3624    174.9535    231.3988   1.0065456554e+02   7.2625066696e+00    0.3419344     0.291182  16.34  0.002732428    1.224    0.183
        28 -12.4369    181.5381    222.0311   9.8332525043e+01   7.3994717884e+00     0.496218    0.1850622  35.10 0.0009280416    2.084    0.520
        29 -13.6030    168.2229    223.8905   1.0092103150e+02   9.0895227705e+00     0.845066     0.211773  39.42  0.003596367    2.977    0.664
        30 -11.7240    175.3344    224.2230   9.9702093546e+01   8.0326926617e+00    0.2115304    0.1585288  22.02   0.00075537    1.142    0.125
        31 -10.6114    227.9234    232.2258   9.2036482387e+01   3.8026457135e-02    0.1497163    0.1073615  26.64 0.0003493887    1.195    0.163
        32 -11.3823    214.7560    230.4166   9.3871827841e+01   1.9235475656e+00    0.2009111    0.1302989  46.12  0.001368701    1.895    0.472
        33 -12.2910    141.2218    229.1315   1.0640579299e+02   1.2263506231e+01    0.3984964     0.167958  46.94  0.002141238    2.073    0.518
        34 -10.6792     81.8524    230.1329   1.1752740102e+02   2.0000819684e+01    0.1801744    0.1223108  38.45 0.0002598094    1.215    0.177
        35 -10.5174     69.3283    230.1686   1.1986486315e+02   2.1500302299e+01    0.1735892      0.11382  36.49 0.0003942152    1.320    0.243
        36 -12.1185    237.0781    220.4620   8.8962832579e+01  -9.3656670955e-02     0.535979    0.4464706 -86.58  0.002850142    4.725    0.788
        37 -11.4502    244.4979    226.0121   8.8636639907e+01  -1.5249736645e+00    0.2724986    0.1501988  14.68 0.0008983847    1.520    0.342
        38 -12.1585    244.8822    221.8607   8.7979485968e+01  -1.2188465308e+00    0.3937589    0.2208098   6.75  0.001584335    1.650    0.394
        39 -11.7944    197.1202    226.5610   9.6255282681e+01   4.7041301584e+00    0.2652149    0.1521151  33.42 0.0004341066    1.290    0.225
        40 -12.3308    202.9838    225.7034   9.5161266333e+01   3.9827565822e+00    0.2963398    0.2074078  20.16 0.0006640557    1.114    0.102
        41 -12.2322    205.6942    222.6428   9.4295047770e+01   3.9228955041e+00    0.2776268    0.1985009 -24.82  0.002054892    1.655    0.396
        42 -10.3717    219.0708    226.1164   9.2593655119e+01   1.7584282149e+00    0.1951842    0.1093459  34.42 0.0009760595    1.382    0.277
        43 -11.8847    197.6897    221.7639   9.5516871355e+01   5.1336245674e+00     0.464565    0.1707422  28.86  0.001574969    2.709    0.631
        44 -12.8016    131.2040    220.6412   1.0735681341e+02   1.4819187745e+01    0.4218612      0.31258  46.49  0.002698725    1.148    0.129
        45 -10.4966    216.6880    222.0277   9.2406959929e+01   2.4747538713e+00     0.169306    0.1161219  32.88 0.0004204799    1.249    0.200
        46 -13.2998    123.9025    215.6873   1.0822248956e+02   1.6566498016e+01    0.5782517    0.4586822  35.80   0.00419314    1.104    0.094
        47 -11.7215    128.7861    211.4139   1.0680586592e+02   1.6491936213e+01    0.2238887     0.196395  61.72 0.0006240366    1.263    0.208
        48 -10.6195    230.6226    220.0791   8.9909328077e+01   7.8904226190e-01    0.1940372    0.1230142  39.46 0.0008588525    1.595    0.373
        49 -10.1653    108.3756    219.7785   1.1163250530e+02   1.8122538490e+01    0.1283285     0.105517 -46.09 0.0009442018    1.660    0.398
        50 -11.1972    173.0320    247.3977   1.0282424202e+02   5.7805682432e+00    0.1619528    0.1376346  19.04 0.0002491346    1.263    0.208
        51 -15.7038    225.4416    179.7268   8.4328560747e+01   5.6763743352e+00     1.853099     1.459919 -17.10   0.01289237    1.320    0.243
        52 -15.7801    231.7600    166.4342   8.0912658628e+01   6.2012388868e+00     1.411013     1.193348  43.42  0.009641374    1.510    0.338
        53 -10.6410    132.9938    246.6458   1.0961433083e+02   1.1173054268e+01    0.1575473    0.1144847  46.96 0.0005766996    1.207    0.172
        54 -16.3412    143.8027    142.8373   9.3338011379e+01   2.5469016106e+01     2.161107     1.706093  65.55   0.01173429    1.468    0.319
        55 -16.0348    229.7159    123.6273   7.2570662017e+01   1.1793452209e+01     1.511647     1.300729 -15.35  0.009575276    1.124    0.111
        56 -17.3296    190.6482    169.7298   8.8668553373e+01   1.2610135800e+01     2.065405     1.740329  12.29   0.01141904    1.075    0.070
        57 -16.6992    171.9418    154.4498   8.9504508748e+01   1.8206988975e+01     2.014618    0.9351126  31.34  0.008135253    2.398    0.583
        58 -16.7794    212.7221    142.0726   7.9329881447e+01   1.2486548097e+01     1.908327     1.211401 -27.66  0.009280336    1.566    0.362
        59  -9.9712     69.5027    247.4977   1.2085431578e+02   1.8933374503e+01     0.103693   0.07055358  48.12 -0.000159448    1.004    0.004
        60 -12.9655     91.8638    163.1308   1.0895161148e+02   3.0362143628e+01    0.4054885     0.322102 -83.49   0.00249669    1.347    0.257
        61 -10.4598     49.0574    165.4902   1.1951786330e+02   3.5488089468e+01     0.174222    0.1022502  38.76 0.0003916597    1.513    0.339
        62 -10.4789     43.3297    165.0618   1.2085550077e+02   3.6209281050e+01    0.1671705    0.1261788  77.60 0.0004191944    1.159    0.137
        63 -12.0134     42.0073    159.1957   1.2072292073e+02   3.7574479060e+01    0.4701667     0.179056 -88.61   0.00199968    3.138    0.681
        64 -11.2933     65.1465    163.0349   1.1540469868e+02   3.4065341295e+01    0.2277584    0.1715421  82.56 0.0004870748    1.272    0.214
        65 -11.1880     98.5294    160.7175   1.0703077527e+02   2.9834106088e+01    0.2292365    0.1835294  44.27 0.0005206689    1.111    0.100
        66 -11.7936     94.4071    214.2896   1.1385829587e+02   2.0847596604e+01    0.3154618    0.1697966  35.46   0.00103583    1.540    0.351
        67 -12.6936    226.3880    210.2084   8.9120938203e+01   2.3088711655e+00    0.3043198    0.1798669  17.57 0.0003479162    1.451    0.311
        68 -12.2260     79.3427    157.3154   1.1127289351e+02   3.3353597125e+01    0.3605239     0.205029  88.09  0.001730408    2.274    0.560
        69 -11.2897     15.9391    156.1927   1.2689686858e+02   4.0688085411e+01    0.1905581    0.1344383  80.34 0.0002873456    1.176    0.150
        70 -11.6956     82.6525    152.1761   1.0978931311e+02   3.3955622686e+01    0.3433204    0.2002229  36.80 0.0005835752    1.600    0.375
        71 -10.3997     76.6086    201.2599   1.1634423172e+02   2.5333526211e+01    0.1928554    0.1069414 -80.45  0.001124457    2.159    0.537
        72 -11.3648     45.9106    200.7207   1.2265405440e+02   2.9059044606e+01    0.2705861    0.2240495 -33.56  0.001527424    1.945    0.486
        73 -10.8387     86.9156    147.4230   1.0805057381e+02   3.4331855375e+01    0.2206373    0.1736522  86.72 0.0008002312    1.311    0.237
        74 -12.1039     81.5326    144.4884   1.0903074538e+02   3.5755541551e+01    0.3372986    0.3115702 -24.17 0.0005511448    1.387    0.279
        75 -11.9443     56.3016    146.6843   1.1593141928e+02   3.8641876714e+01    0.2922592    0.2120814 -54.39  0.001188935    1.603    0.376
        76 -11.2086     30.3228    213.9680   1.2639617246e+02   2.8368572788e+01    0.1733567    0.1223276  41.35 0.0003089198    1.266    0.210
        77 -10.1095     14.4531    140.8991   1.2647277205e+02   4.4093295334e+01      0.17081   0.09764249 -85.96 0.0003928215    1.522    0.343
        78 -11.9854    101.1093    136.0665   1.0257265124e+02   3.4502458818e+01     0.336327    0.2364855  60.80  0.001739988    1.466    0.318
        79 -12.2446     71.1277    138.1572   1.1092964922e+02   3.8616963521e+01    0.3832665    0.2218197  55.77  0.001690037    1.684    0.406
        80 -11.1612     80.3285    137.3777   1.0832423795e+02   3.7483078547e+01    0.2173018    0.1947438 -80.51 0.0002830683    1.133    0.117
        81 -10.3180     47.8437    133.5038   1.1679321570e+02   4.2578452383e+01    0.1825955    0.1182387  35.40  0.001002696    1.538    0.350
        82 -11.4552     77.9439    131.8632   1.0814449263e+02   3.9059291218e+01    0.2203068    0.1926653 -53.20  0.000269657    1.289    0.224
        83 -11.3441     75.5159    128.4534   1.0829784187e+02   4.0181339915e+01     0.267204    0.1708487  57.27   0.00135324    1.553    0.356
        84 -12.2049     87.5498    127.9412   1.0483541466e+02   3.8479974014e+01    0.3672468    0.2915997  -8.14  0.001925937    1.839    0.456
        85 -12.3685     94.0682    124.3872   1.0238829029e+02   3.8217772109e+01    0.4805529    0.3331705  85.09 0.0008705997    1.797    0.444
        86 -10.6562     63.6799    126.9461   1.1145752795e+02   4.2156857372e+01    0.1860443     0.157773  88.27 0.0004215625    1.090    0.083
        87 -11.0537     81.1849    125.0757   1.0614062292e+02   4.0109166332e+01    0.1927349      0.18082 -47.28 0.0002918861    1.229    0.186
        88 -10.9494     63.5493    122.4996   1.1085090126e+02   4.3203540401e+01    0.1998007    0.1332724  19.54 0.0001240158    1.923    0.480
        89 -10.4447     29.9905    121.9441   1.2075277696e+02   4.7073049623e+01    0.1834516    0.1556293  82.40  0.001208602    1.033    0.032
        90 -10.6306     34.0699    197.9709   1.2493498849e+02   3.0798247630e+01    0.1641551    0.1179236  58.58 0.0003071253    1.025    0.025
        91 -11.4890     71.0324    117.4950   1.0783384651e+02   4.3346182972e+01    0.2285541    0.1768259 -58.65 0.0003266874    1.318    0.241
        92 -11.0437      9.8148    116.9834   1.2634689470e+02   4.9829783579e+01    0.1979112    0.1680552  44.49 0.0002638104    1.266    0.210
        93 -11.4687      6.0013    114.5207   1.2733169708e+02   5.0647638633e+01    0.2321034     0.144102 -87.42 0.0008144333    1.334    0.250
        94 -10.7884     39.6701    116.1879   1.1721662255e+02   4.7490264128e+01    0.2574664     0.150274  -8.44  0.001092225    3.470    0.712
        95  -9.9882     78.2188    196.8278   1.1562885480e+02   2.5903993637e+01    0.1391468    0.1267085  36.17 0.0002895466    1.293    0.226
        96 -10.8481     95.9062    196.0144   1.1181641995e+02   2.3668093825e+01    0.1734765     0.140679  48.63 0.0002706487    1.033    0.032
        97  -9.8881     56.5215    113.4948   1.1162877404e+02   4.6221940712e+01    0.1341918    0.1193812  82.93 -5.386781e-05    1.005    0.005
        98 -10.9726     33.2191    108.9780   1.1839615799e+02   4.9842716171e+01    0.1965258    0.1713987  62.13 0.0003667961    1.121    0.108
        99 -10.9699     85.1364    106.6842   1.0152680031e+02   4.3711928476e+01    0.3656417    0.1859132 -52.28 0.0008017758    1.967    0.492
       100 -10.7451    241.4358    104.8339   6.6592505713e+01   1.1979861307e+01    0.3057266     0.134574 -26.98  0.001375873    2.041    0.510
       101 -12.8687    118.4388    191.4970   1.0655965038e+02   2.1155927029e+01    0.4533899    0.4376789 -76.67  0.002183253    1.259    0.205
       102 -12.9996    111.1407    184.8709   1.0730236547e+02   2.3392663834e+01     0.552696     0.380227 -89.98  0.003178996    1.945    0.486
       103 -10.4540     85.3313    100.8111   1.0020750471e+02   4.5042288526e+01    0.2267469    0.1758433 -83.58 0.0007086877    1.404    0.288
       104 -11.4180    217.1858    201.5189   8.9288697538e+01   4.5123222065e+00     0.311725    0.1576218  27.62    0.0011645    1.682    0.405
       105 -10.0781     71.6996    193.0829   1.1669374020e+02   2.7408249621e+01    0.1510337     0.127551  63.18 0.0002122361    1.107    0.096
       106 -12.1475     72.7672     98.0858   1.0364824927e+02   4.7673387594e+01    0.4015415    0.2903791 -70.77  0.000735389    1.369    0.270
       107 -10.6196     76.0113     94.0215   1.0169715722e+02   4.8140118492e+01    0.3841141    0.1671782  49.29  0.001034582    2.555    0.609
       108 -10.4432    244.9881    191.1651   8.3175611190e+01   1.5974276939e+00    0.1879429    0.1325195  -3.45  0.000610352    1.219    0.180
       109 -11.0746     60.8297     97.4963   1.0750453615e+02   4.9505695419e+01    0.2405656    0.1788765 -71.64 0.0005512125    1.269    0.212
       110 -12.5890    218.8851    208.8374   9.0129347834e+01   3.4977210033e+00    0.5943899    0.3134503   7.93  0.002657089    2.402    0.584
       111 -10.3273    227.1717     94.8299   6.6278308829e+01   1.6064216509e+01    0.2088567    0.1767382   0.59 0.0003282671    1.110    0.099
       112 -12.4472    227.2436     90.5532   6.5220128296e+01   1.6614319858e+01     0.365533    0.2887227  63.97   0.00205404    1.523    0.343
       113 -11.1359    105.5103     93.0493   9.2155610028e+01   4.3147191977e+01    0.2222421    0.2020118  52.50 0.0005301899    1.086    0.079
       114 -11.6019     92.2134     92.9301   9.6197443339e+01   4.5670491992e+01    0.2506084     0.211415  35.46            0    1.246    0.198
       115 -11.5561     98.6609     91.3017   9.3776185203e+01   4.4852737275e+01    0.2790645     0.241221 -89.81 0.0007985822    1.247    0.198
       116 -11.3464     87.5247     89.2234   9.6770310763e+01   4.7353294357e+01    0.3464172    0.2601076  -0.65  0.001611066    1.990    0.498
       117 -10.9161     66.0127     89.6765   1.0412857093e+02   5.0674692462e+01     0.372901    0.1838725  39.49  0.001602171    2.045    0.511
       118 -10.4579     79.1456     88.6118   9.9388373078e+01   4.8914615838e+01    0.2894633    0.1728347 -42.69 0.0007221528    1.847    0.459
       119 -10.9598    239.8375    189.4478   8.3684179512e+01   2.4974138278e+00    0.2536369    0.1608915  21.50 0.0009387976    1.267    0.211
       120 -11.1693    239.7790     83.0510   6.1657147973e+01   1.5012295681e+01    0.4092341    0.1951995 -25.72  0.001508416    1.878    0.468
       121 -11.7810    231.0974     85.2841   6.3371232335e+01   1.6503676069e+01    0.2459865    0.2344621  40.84  0.001542625    1.178    0.151
       122 -10.1834      8.9780     81.4845   1.2381855868e+02   5.8317616979e+01    0.1552743     0.121893  25.45 0.0003772503    1.497    0.332
       123 -10.8950     26.9881     79.2947   1.1662652928e+02   5.7619792748e+01    0.2353193    0.1579871 -63.43 0.0006219943    1.312    0.238
       124 -12.4804    222.8770     77.0715   6.2442809673e+01   1.9323930764e+01    0.3511437    0.2854179 -50.88  0.000721877    1.357    0.263
       125 -10.3068     46.8428    195.0957   1.2212324265e+02   2.9975054858e+01    0.1546004    0.1399575  69.51 0.0004171311    1.261    0.207
       126  -9.6194    230.8079     74.2894   6.0649492320e+01   1.7974012968e+01    0.1889804    0.1647861 -70.80 0.0002604049    1.387    0.279
       127 -12.1318     87.6135     72.5781   9.2156957817e+01   5.1134177194e+01     0.358255    0.2934926 -64.20 6.964464e-05    1.248    0.199
       128 -11.2514     99.9548     71.6841   8.7780328787e+01   4.8931252823e+01    0.2648547    0.2134602 -56.21 0.0002899677    1.257    0.204
       129 -10.5303    248.6101    185.3109   8.1637226408e+01   1.6659324558e+00    0.2909495   0.09530957  33.47   0.00135549    2.774    0.639
       130 -11.8175     53.1992     68.5246   1.0392635113e+02   5.7512847529e+01    0.4194804    0.2530703 -64.34  0.001288596    1.557    0.358
       131 -10.2299     43.9343     68.9616   1.0782198659e+02   5.8521244422e+01    0.1611422     0.146369 -69.15 0.0004228651    1.019    0.018
       132 -11.2803    243.2219     65.9406   5.7012644389e+01   1.6392890951e+01    0.4580123    0.2755988 -76.29  0.002019181    2.903    0.655
       133 -10.1219    235.9181     71.8693   5.9379262386e+01   1.7195590615e+01    0.1894964    0.1650552   5.51  0.001133544    1.147    0.128
       134  -9.8653     96.4654    185.4456   1.1056920178e+02   2.5453280987e+01    0.1238506     0.100056  50.09 9.038288e-05    1.004    0.004
       135 -10.4864     29.6373     62.7439   1.1256030774e+02   6.1457559095e+01    0.1859501     0.112002 -78.47  0.000940124    1.595    0.373
       136 -11.5593    129.9322     62.0037   7.5838908902e+01   4.4149727364e+01    0.2435671    0.2199064  50.48 0.0003005698    1.103    0.094
       137 -11.4088     18.5438     58.1636   1.1666463515e+02   6.3426839853e+01      0.28034    0.1983312  87.00 0.0004944812    1.398    0.284
       138 -10.6909      9.9388     59.3826   1.2078635960e+02   6.3640291090e+01    0.2735548    0.1148131 -57.70  0.001313263    1.962    0.490
       139 -12.2395    138.3630     58.0058   7.2353979645e+01   4.2791099551e+01    0.3894613     0.302077  -0.80  0.000875121    1.598    0.374
       140 -13.9045    125.5766     52.5339   7.3665212224e+01   4.6930977612e+01     0.927257    0.5924617  67.45  0.001452654    1.874    0.466
       141 -10.9541     34.6244     58.1010   1.0928668708e+02   6.2127863211e+01    0.2701524    0.1885131 -48.03 0.0005534915    1.352    0.260
       142  -9.9127     17.4354    184.5226   1.2780682016e+02   3.4886429175e+01    0.1094119   0.08164526  63.00 3.141402e-05    1.023    0.022
       143 -10.3881    235.9666     57.0000   5.5577824284e+01   1.8997396079e+01    0.1875514    0.1496709  29.65  0.001061195    1.390    0.280
       144 -10.6425     45.0132     57.7809   1.0453782612e+02   6.1091902700e+01    0.2199845    0.1758786 -64.02 0.0004251297    1.137    0.121
       145 -10.3194      1.4237     57.8330   1.2443122721e+02   6.4396865983e+01    0.1817909   0.09852849 -79.43 0.0006231857    1.498    0.333
       146  -9.9003    241.2124     56.2932   5.4810217050e+01   1.7954431688e+01    0.1884798    0.1345488 -45.68  0.001031076    1.381    0.276
       147 -10.0171    225.9722     56.0077   5.6495119829e+01   2.1331155320e+01     0.213789     0.156981  12.41 0.0008609953    1.596    0.373
       148 -11.8206    112.3073     55.3489   7.8414348044e+01   4.9578830481e+01    0.4697193    0.2725509  62.06  0.001304464    2.092    0.522
       149 -12.4215    249.3781     52.9577   5.3113272294e+01   1.6627126947e+01    0.2576389    0.2012183 -36.42 0.0004044019    1.145    0.126
       150 -12.1513      6.6375     68.1354   1.2333700248e+02   6.1678822022e+01    0.2874031    0.2033428 -54.26 0.0001045307    1.359    0.264
       151 -12.0202    141.0132     48.7249   6.8480432511e+01   4.3682967522e+01    0.4390524    0.2642773 -25.14  0.001528363    1.804    0.446
       152 -11.7699    141.0000     45.0030   6.7141814449e+01   4.4282747875e+01    0.3225279    0.2353468 -20.63   0.00127038    1.478    0.323
       153 -12.6523    242.3970     48.4575   5.2688754794e+01   1.8606040057e+01    0.2942427    0.2522348  23.14 0.0006693967    1.294    0.227
       154 -10.3177     29.7547     49.8839   1.0953121865e+02   6.4557558291e+01    0.2169445    0.1406549  80.31   0.00108709    1.960    0.490
       155 -12.3828    212.0499    208.5969   9.1223338341e+01   4.4980300722e+00    0.2943933    0.2397803 -36.76  0.002166672    1.752    0.429
       156 -11.1178    230.3983     47.4037   5.3687511382e+01   2.1367545734e+01    0.2910505    0.2104917 -58.17 0.0009427787    1.507    0.337
       157 -12.3758    124.7846     42.8684   7.0258124034e+01   4.8789914102e+01    0.6078377    0.2194902 -38.71   0.00112118    2.686    0.628
       158 -10.9221    186.1774     43.8922   5.8388856698e+01   3.2572214208e+01    0.2285982    0.1924152 -58.44 0.0003380121    1.236    0.191
       159 -10.4131     51.6450    179.7331   1.2003293316e+02   3.2340155526e+01    0.1011139   0.09090084  -6.66 0.0006989471    1.630    0.387
       160 -10.4149     49.8661    193.0175   1.2135235815e+02   3.0021962455e+01    0.1918202    0.1399252 -82.85  0.001346584    1.440    0.306
       161  -9.9508     37.2656     42.4849   1.0364373330e+02   6.5559178760e+01     0.160148    0.1254635  44.64 0.0003417038    1.460    0.315
       162 -11.9636    117.4253     40.3523   7.1232268627e+01   5.1046782279e+01    0.5903007    0.2704748  38.54  0.001813536    2.730    0.634
       163 -10.1428    105.2482     41.6005   7.5281556333e+01   5.3760744761e+01    0.2152708    0.1388141  41.19 0.0007938961    1.611    0.379
       164 -11.0934     93.6946     40.9742   7.8783602535e+01   5.6483801856e+01    0.2091378    0.1865284 -35.56 0.0003124331    1.096    0.088
       165 -11.5708    191.6567     40.1258   5.6419104044e+01   3.1649080271e+01    0.2313127    0.2011487 -87.46 0.0003399935    1.222    0.182
       166 -11.8336    133.4083     39.4951   6.6835064317e+01   4.7121676884e+01    0.3277203    0.2625253  29.79   0.00115017    1.358    0.264
       167 -11.2146    165.6009     38.3686   5.9913192570e+01   3.8736367797e+01    0.3470895    0.2682597  74.36 0.0005144884    1.358    0.263
       168 -10.9205     55.4552     38.9547   9.3445208477e+01   6.4000973342e+01    0.1987531    0.1868831  22.24 0.0003288492    1.144    0.126
       169 -10.5858     16.9665    176.5407   1.2758348827e+02   3.6469309967e+01    0.1499011   0.09246521  37.23 7.582481e-06    1.482    0.325
       170 -10.4148    155.8836     37.7117   6.1439968793e+01   4.1429189144e+01    0.2781594    0.2128709 -12.19  0.001311287    1.438    0.305
       171 -11.8701    213.3150    217.4551   9.2308562935e+01   3.3958381591e+00    0.3405957    0.1583121  23.52   0.00187318    2.086    0.521
       172 -10.1641    223.9853     36.5520   5.1442898858e+01   2.4100088438e+01    0.1932285    0.1374306  72.82 0.0004302869    1.541    0.351
       173 -12.2273     85.6876     33.2353   7.8286881481e+01   5.9625469056e+01    0.3017566    0.2561347 -29.32 0.0002305297    1.147    0.128
       174 -12.4977    198.9894     32.7998   5.3207420929e+01   3.0669028344e+01     0.374449    0.3044777  57.80  0.000761556    1.272    0.214
       175 -11.5992    188.0382     32.9666   5.4679342760e+01   3.3480791586e+01    0.2632744    0.2235665 -47.99 0.0003488701    1.153    0.132
       176 -12.1476    133.0435     33.0576   6.4420030605e+01   4.8186619956e+01    0.3205825    0.2863556  34.80  0.000331514    1.139    0.122
       177 -12.7223    214.4841     31.5370   5.1046945989e+01   2.6943965456e+01    0.3484524    0.2809512  74.85 7.814313e-05    1.317    0.241
       178 -12.0131    141.0737     31.7939   6.2183233607e+01   4.6231430591e+01    0.3937825    0.2610357   2.17  0.001639468    2.007    0.502
       179 -11.2880     68.4837     31.1853   8.4209253532e+01   6.3415829651e+01    0.2760606     0.203153  41.04  0.001431175    1.429    0.300
       180 -10.7999    117.5906     30.2552   6.7039088347e+01   5.2611146969e+01    0.2799588    0.1921094  71.98 0.0008539557    1.683    0.406
       181 -11.4362    125.7097     28.8479   6.4426211190e+01   5.0721906028e+01    0.3045734    0.1897022 -34.12  0.001328294    1.597    0.374
       182 -10.7822     28.8576     28.3353   1.0327390016e+02   6.9637252525e+01    0.2386862    0.1574973 -51.38 0.0002438162    1.286    0.223
       183  -9.9095      6.7026     28.7143   1.1679272320e+02   7.1125710865e+01    0.1266385   0.07286336 -44.80 0.0001870991    1.549    0.354
       184 -12.1286    216.6428     25.9412   4.9227026109e+01   2.7037017930e+01    0.3476362    0.2360466 -48.21 0.0004075586    1.405    0.288
       185 -11.9757    214.0968     19.7212   4.7694231326e+01   2.8322644684e+01    0.2874711     0.249632   0.38  0.000349514    1.263    0.208
       186 -10.7478    189.8495     27.1581   5.2600769371e+01   3.3696472711e+01    0.2044288    0.1678881  37.51 0.0004758194    1.327    0.247
       187 -10.6816     71.1536     26.8321   8.1017791897e+01   6.3728674762e+01    0.1943712    0.1609392  -2.39 0.0002588409    1.301    0.231
       188 -11.0773    209.6316     25.1965   4.9727632658e+01   2.8846802823e+01    0.3372609    0.2005718  82.06  0.001104256    1.886    0.470
       189 -11.7071    156.0356    245.1407   1.0546859971e+02   8.2906868838e+00    0.2551273    0.1603877  22.43   0.00117676    1.520    0.342
       190 -10.5513     62.8167     24.2115   8.3403925007e+01   6.5757895829e+01    0.1914798    0.1566668  -3.38 0.0004217351    1.314    0.239
       191 -11.1011    175.2362     22.3316   5.2940524143e+01   3.8149390679e+01    0.2604109     0.234485 -64.24 0.0003607282    1.106    0.096
       192 -11.1809     56.9905    216.9917   1.2140352009e+02   2.5025568670e+01    0.1970568    0.1562365  64.13 0.0008618144    1.144    0.126
       193 -12.4607    244.2305    243.6337   9.1100552696e+01  -2.9251038088e+00    0.2764646    0.1536083  25.03  0.001410296    1.236    0.191
       194 -10.0769     70.6750     19.9604   7.7766929765e+01   6.5026935059e+01    0.1963359    0.1708892 -26.10 0.0003439575    1.088    0.081
       195 -11.0976    229.0973     18.8929   4.6135675954e+01   2.4799110847e+01    0.3135343    0.1075469 -44.07  0.001200539    2.612    0.617
       196 -10.7604     16.0554     18.9588   1.0776774104e+02   7.2808183555e+01    0.1894652    0.1597972 -52.45 0.0004462294    1.040    0.039
       197 -10.3084     20.5175     18.5106   1.0459622534e+02   7.2558608591e+01     0.127067     0.106057 -45.36 -2.918138e-05    1.001    0.001
       198 -10.8014    121.7511    243.5983   1.1132140226e+02   1.3028605216e+01    0.1960595    0.0977192  42.82  0.001030603    1.430    0.301
       199 -11.1580     60.3286    215.3351   1.2065181458e+02   2.4917280011e+01      0.20253    0.1987099  58.03  0.001594176    1.436    0.304
       200 -11.2257     49.1010     16.6798   8.6302627857e+01   6.9459351683e+01    0.2466165    0.1717594 -36.84 0.0003455816    1.308    0.236
       201 -10.5535     52.9831     15.6802   8.3712503359e+01   6.9011168083e+01    0.2525538    0.1794229  35.78 0.0006388882    1.483    0.326
       202  -9.6856     62.0069     15.9843   7.9465006500e+01   6.7364012417e+01     0.163974    0.1475499 -16.09 0.0003186159    1.017    0.017
       203 -10.6646     13.2584    216.7333   1.2970089788e+02   2.9508007701e+01    0.1195996    0.1049072  60.72  0.001050057    1.345    0.256
       204  -9.7322      1.7460     15.0194   1.1648803052e+02   7.4472262350e+01    0.1536812   0.08554821 -68.69 0.0003346015    1.478    0.324
       205 -10.2126     38.1301    165.8808   1.2215402390e+02   3.6590905646e+01    0.1857517     0.124359  61.74 0.0003823356    1.222    0.182
       206  -9.6763     64.4862     11.4939   7.5796288436e+01   6.7620955628e+01    0.1381114    0.1259444  -6.62 0.0001624479    1.009    0.009
       207 -10.5110    201.7169    243.0002   9.7589616505e+01   2.4432624497e+00    0.1423087    0.1027402  20.91 0.0003719989    1.085    0.079
       208 -10.4471     81.8063    242.8929   1.1840053363e+02   1.8146071579e+01    0.1463643    0.1099571  42.41 0.0003059038    1.144    0.126
       209  -9.6601     21.5414    243.4241   1.2897448179e+02   2.4528975237e+01   0.09738261   0.06427619  52.78 8.534728e-05    1.024    0.024
       210 -11.5500     12.5015    203.3297   1.2945899044e+02   3.1876327456e+01    0.3166865    0.1093904  67.46  0.001727379    2.437    0.590
       211 -11.5075    189.4797    241.5916   9.9419369621e+01   4.1939484039e+00    0.1993632    0.1291426  26.07 0.0007664372    1.141    0.124
       212  -9.6783      2.5401    242.4765   1.3213508977e+02   2.6370823380e+01   0.09402585   0.06244918  54.89 8.848991e-05    1.051    0.049
       213 -10.5410    207.9647    241.5021   9.6399979238e+01   1.7715651368e+00    0.1635045   0.07451012  34.66 0.0006940581    1.574    0.365
       214 -10.9444    110.7109    240.9808   1.1307070306e+02   1.4807139969e+01    0.2761716   0.09637371  43.65 0.0009036734    2.021    0.505
       215  -9.7499     61.5118    240.9510   1.2190996742e+02   2.0778699297e+01    0.1247086   0.09142487  86.67 0.0004623248    1.522    0.343
       216 -10.8574    214.4169    240.2460   9.5214502417e+01   1.0534320188e+00    0.1088919   0.09348365 -10.69 0.0003083583    1.528    0.345
       217 -12.6471    126.8627    237.5202   1.0985495873e+02   1.3137883476e+01    0.2210521    0.1808174  57.95 0.0003949743    1.320    0.243
