#   1 NUMBER                 Running object number                                     
#   2 MAG_AUTO               Kron-like elliptical aperture magnitude                    [mag]
#   3 X_IMAGE                Object position along x                                    [pixel]
#   4 Y_IMAGE                Object position along y                                    [pixel]
#   5 X_WORLD                Barycenter position along world x axis                     [deg]
#   6 Y_WORLD                Barycenter position along world y axis                     [deg]
#   7 A_WORLD                Profile RMS along major axis (world units)                 [deg]
#   8 B_WORLD                Profile RMS along minor axis (world units)                 [deg]
#   9 THETA_WORLD            Position angle (CCW/world-x)                               [deg]
#  10 FWHM_WORLD             FWHM assuming a gaussian core                              [deg]
#  11 ELONGATION             A_IMAGE/B_IMAGE                                           
#  12 ELLIPTICITY            1 - B_IMAGE/A_IMAGE                                       
         1  -8.3443    146.1741     14.3251   6.3428169226e+01   4.5970271245e+01    0.1735427    0.1596906  37.24 0.0002879651    1.248    0.199
         2  -8.7381     80.3740     12.8829   7.6596177548e+01   5.9995221609e+01    0.2305341    0.1595326 -34.47 0.0009602516    1.745    0.427
         3  -8.9904     50.7402     12.2291   8.5625732752e+01   6.5151280223e+01    0.2842281    0.2196922 -61.32  0.001701971    2.722    0.633
         4  -8.4530    163.0597     11.9453   6.0411746783e+01   4.2377875759e+01    0.3005613    0.1357091  45.72  0.001392309    2.577    0.612
         5  -8.2187    151.0791     12.6947   6.2262706139e+01   4.5016977408e+01     0.173283    0.1347578  66.79  0.000444223    1.074    0.069
         6  -7.7282     95.6952      9.6966   7.1611697045e+01   5.7284157966e+01     0.124271   0.07493231  33.29 0.0002295468    1.598    0.374
         7  -8.5640     15.8937     10.9463   9.9382539268e+01   6.9823270566e+01    0.1582632    0.1145996  -2.90 0.0003242123    1.014    0.014
         8  -9.2292     14.2224      3.6455   9.6942744080e+01   7.0824407180e+01    0.3790997    0.1726673 -19.13  0.002199057    2.242    0.554
         9  -7.9029     18.3600      2.8043   9.4644795329e+01   7.0456823085e+01    0.1502453    0.0945342   4.95 0.0003402888    1.311    0.237
        10  -7.3941    179.3183      5.3298   5.6902107242e+01   3.9358315050e+01    0.1174401   0.08072526  47.88 0.0002943866    1.686    0.407
        11  -7.4813    126.2999      5.7066   6.4252608996e+01   5.1150859322e+01    0.1147595   0.08578979 -80.65 0.0002470524    1.568    0.362
        12  -8.4451     60.0217      2.8161   7.8709959228e+01   6.4493065346e+01    0.1567169    0.1294639  40.63 0.0003383382    1.239    0.193
        13  -8.4522     38.7180      1.5970   8.5576946219e+01   6.7940932717e+01    0.2961509    0.1148756  45.50  0.001458235    2.487    0.598
        14  -7.2947     67.6805      1.7217   7.5978238974e+01   6.3249674366e+01    0.1187197   0.06713323  29.94 0.0002214026    1.578    0.366
        15  -8.0753    178.9132    235.0034   1.0827956051e+02  -2.0677909696e+00    0.2158956    0.1534003  -0.21 0.0006664323    1.723    0.420
        16  -8.6514    250.7164    243.6428   9.5919958274e+01  -1.3889086555e+01    0.1851397    0.0853654 -20.28 0.0008375732    2.719    0.632
        17 -10.0826    249.0365    249.9931   9.7299495107e+01  -1.4583914050e+01     0.451585    0.2488526  43.10    0.0024777    2.453    0.592
        18  -8.7184    226.0389    250.4771   1.0157040971e+02  -1.1698945168e+01    0.1769703    0.1067016  28.63 0.0006291943    1.537    0.349
        19  -8.0462    213.2985    250.6648   1.0401956391e+02  -9.9642889758e+00    0.1089148    0.1005137  68.05 0.0005017754    1.653    0.395
        20  -8.0031    187.7123    250.6662   1.0905491278e+02  -6.1824932236e+00    0.1299033   0.09169914  -2.67 0.0002958791    1.626    0.385
        21  -7.6878    152.6977    250.6606   1.1623005536e+02  -6.2955677142e-01     0.130925   0.09922396  -2.06 0.0007038141    1.671    0.402
        22  -7.6543    148.3020    250.3246   1.1709630745e+02   1.4569449419e-01    0.1295903   0.09994286  -0.86 0.0005020775    1.637    0.389
        23  -7.6679    204.4908    234.4654   1.0298487605e+02  -6.0417011054e+00    0.1338262    0.1114893   1.03 -2.607543e-05    1.097    0.088
        24 -10.2586    188.7718    232.7500   1.0585895005e+02  -3.2651571390e+00    0.5161032    0.2647354 -45.14  0.002420971    2.053    0.513
        25  -7.8220     85.0242    232.4590   1.2818066292e+02   1.3971169803e+01    0.1734152    0.1211638   8.14 0.0006809075    2.488    0.598
        26  -7.2238    146.3171    242.2870   1.1632204965e+02   1.9766211719e+00    0.1315775    0.1025492   3.13 0.0004625053    1.590    0.371
        27  -7.3751     18.3078    237.3189   1.4217099256e+02   2.1691909685e+01    0.1068389   0.08524646 -56.42 0.0003246138    1.637    0.389
        28  -7.9245    108.8840    227.3356   1.2227857086e+02   1.1295900493e+01    0.2006433    0.1249716  28.70 0.0009383525    1.819    0.450
        29  -7.5996    167.7138    224.7171   1.0889651456e+02   1.7545692283e+00    0.1355326    0.1050078  -2.08 0.0002573009    1.523    0.344
        30  -7.6835    242.5190    219.9925   9.3190877622e+01  -9.2061680696e+00    0.1679635   0.09271303 -18.23 0.0003861927    2.146    0.534
        31  -7.4715    194.7256    218.2729   1.0206825723e+02  -1.5952099659e+00    0.1217164    0.1094744  76.75 0.0002262027    1.486    0.327
        32  -7.5594    141.4372    218.5236   1.1362174576e+02   7.6138727551e+00    0.1405812    0.1343672  29.53 0.0001266146    1.047    0.045
        33  -7.4124     98.4987    218.4458   1.2335277934e+02   1.4975535000e+01    0.1392108    0.1285523  67.38 0.0001991497    1.041    0.039
        34  -7.6101    171.2573    217.3104   1.0683538410e+02   2.6019648827e+00    0.1375687    0.1062263 -10.10 0.0001963903    1.524    0.344
        35  -7.8634    150.9084    216.3623   1.1113583344e+02   6.3919477062e+00     0.198486    0.1296648  27.14 0.0003583359    1.657    0.396
        36  -8.0489      8.5419    220.5009   1.4282060515e+02   2.6376973114e+01    0.1224007    0.0914041  81.93 0.0003566709    1.025    0.024
        37  -7.6983    204.5248    215.5156   9.9574852560e+01  -2.6991643856e+00    0.1377242    0.1205601  -5.25 0.0001928396    1.052    0.049
        38  -7.6874    144.3372    215.2736   1.1242192068e+02   7.7923603176e+00    0.1422294    0.1123765   0.89 0.0003284062    1.605    0.377
        39  -7.6761    112.2955    213.2954   1.1942507649e+02   1.3847933985e+01    0.1358213    0.1142681 -14.70 0.0002729076    1.563    0.360
        40  -7.5041     92.6811    212.6425   1.2386000366e+02   1.7248134236e+01    0.1400241    0.1108992 -26.17 0.0007044837    1.758    0.431
        41  -7.8575    186.6643    210.7079   1.0234693257e+02   1.2194924904e+00    0.1441752    0.1061159  -1.53 0.0007024464    1.640    0.390
        42  -7.5739    170.5035    210.4761   1.0576301205e+02   4.1138742567e+00    0.1436786    0.1334037   4.79  1.20924e-05    1.058    0.055
        43  -7.9662    108.0605    209.4582   1.1981234876e+02   1.5447909404e+01    0.2054899    0.1313173  11.01 0.0008080084    2.772    0.639
        44  -7.7561     77.5436    209.4062   1.2690643815e+02   2.0361227449e+01    0.1398683    0.1223257  75.31 0.0001284313    1.025    0.025
        45  -7.8452    147.0116    208.3300   1.1060929059e+02   8.8078862451e+00     0.196706    0.1802375  35.25  0.000342809    1.061    0.057
        46  -7.6139    163.2805    207.2873   1.0676535687e+02   6.0747010755e+00      0.14113    0.1117359  -6.40 0.0004343394    1.521    0.343
        47  -7.8120    124.1229    206.1209   1.1551298646e+02   1.3422949536e+01    0.1908549     0.158977  68.71            0    1.258    0.205
        48  -8.6605     11.6182    205.7792   1.4106776351e+02   2.9401839126e+01    0.1843071   0.09449408 -88.37 0.0009515252    1.736    0.424
        49  -7.9768     88.3272    204.2722   1.2366724962e+02   1.9914059061e+01    0.1335012    0.1137666 -18.50 0.0002712062    1.582    0.368
        50  -7.8160    134.5270    200.0164   1.1201309290e+02   1.2938203036e+01    0.2057729    0.1319679 -82.58 -6.69669e-05    2.449    0.592
        51  -8.2762    250.5111    198.0908   8.7726972025e+01  -6.6922160946e+00    0.2521966    0.1063329 -36.18  0.001128252    2.105    0.525
        52  -8.3175    230.5343    197.8458   9.1217822912e+01  -3.6540377927e+00    0.2532334    0.1619257  16.92 0.0006130694    1.923    0.480
        53  -8.2407    151.0925    198.1826   1.0782786327e+02   1.0284444904e+01    0.2257087    0.1997655  -4.26 0.0005253105    1.264    0.209
        54  -7.7014    203.4618    194.5478   9.5783938975e+01   1.4585368763e+00    0.1423584    0.1280865 -13.45 0.0001348287    1.050    0.048
        55  -7.7229    237.4886    191.9975   8.8831569523e+01  -3.6888508354e+00    0.1884817    0.1018938 -22.33 0.0007296624    2.370    0.578
        56  -7.4802    191.5227    189.4790   9.7225743029e+01   4.6100039513e+00    0.1439865    0.1366907 -19.59 6.132525e-05    1.015    0.015
        57  -8.0507    223.7081    188.6939   9.0698528824e+01  -8.7162709446e-01    0.2057904    0.1183179  54.20 0.0003732769    2.450    0.592
        58  -8.1085    173.0681    187.9523   1.0088433553e+02   8.3772118272e+00    0.2348875     0.179029  -8.73 0.0005688051    1.656    0.396
        59  -8.6699    230.0778    184.6812   8.8732980494e+01  -1.1729547738e+00    0.2138222    0.1714701 -44.83  0.000332198    1.217    0.178
        60  -7.4060    238.4511    184.5058   8.7203935309e+01  -2.4889772346e+00    0.1363673     0.114038 -23.29 0.0004144936    1.074    0.069
        61  -8.0451    250.0461    182.3116   8.4793186519e+01  -3.8891228521e+00    0.1722738    0.1518053  -9.91 0.0003924037    1.130    0.115
        62  -7.7517     97.3400    182.2881   1.1794279898e+02   2.3790487140e+01    0.1466162    0.1187893 -18.58  0.000353138    1.641    0.391
        63  -8.3814    183.0000    179.9861   9.7104385881e+01   8.1895869410e+00    0.2448577   0.08239992 -46.08 0.0005073217    2.881    0.653
        64  -7.2719    189.6998    176.3253   9.4925786985e+01   7.6830783944e+00     0.146111    0.1186309 -84.08 0.0002306021    1.634    0.388
        65  -7.8891    176.9919    176.5097   9.7686973988e+01   1.0098591823e+01    0.2069482    0.1330312  14.89 0.0006550223    2.398    0.583
        66 -10.7108    101.0064    175.9939   1.1588547829e+02   2.4723292412e+01    0.2144954    0.2021556 -87.33            0    1.005    0.005
        67  -7.5510    119.6714    163.0018   1.0853656911e+02   2.4538582420e+01    0.2637609    0.1098386 -35.99 0.0007050645    4.323    0.769
        68  -7.6251     65.2983    141.6727   1.1910909613e+02   3.8975935862e+01    0.1464951    0.1093617  79.58  0.000702738    1.635    0.388
        69  -7.6540    131.6989    139.3457   1.0019673086e+02   2.7850308673e+01    0.1626034    0.1248524 -89.43  0.000703829    1.683    0.406
        70  -7.9572    231.6656    128.6904   7.6979698246e+01   9.2022118501e+00    0.1344493    0.1089572  -6.88 0.0003278514    1.676    0.403
        71  -8.8633    201.4057    108.7940   7.7679114102e+01   1.9192661234e+01      0.21492    0.1348878 -32.85 0.0009564114    1.801    0.445
        72  -8.1266    133.7239    108.2220   9.1938840743e+01   3.4401333176e+01    0.3039567    0.1867892 -58.81  0.001247724    1.912    0.477
        73  -8.1310    241.9869    105.5077   7.0644438164e+01   1.1479167815e+01    0.1675246    0.1154121  29.40 0.0008093867    2.448    0.591
        74 -10.0378      5.0624     94.4331   1.2886567956e+02   5.6089386602e+01    0.3374237    0.2693884 -68.40  0.002264725    1.228    0.186
        75  -8.9581     22.8037     91.7115   1.2217702981e+02   5.5414488170e+01    0.2165044    0.1749572 -61.59 0.0002545583    1.232    0.188
        76  -7.5152    177.3267     91.3471   7.7935793891e+01   2.7874704137e+01    0.1464044    0.1189309  12.32 0.0007049832    1.751    0.429
        77  -7.8811    197.3123     87.3459   7.3425755550e+01   2.4054905399e+01    0.1368571    0.1156756  10.85 0.0007046399    1.711    0.415
        78  -7.9117    158.6539     81.0038   7.9000492854e+01   3.4050393655e+01    0.2340939    0.1279474 -16.53 0.0003802928    4.541    0.780
        79  -9.3363      2.9791     81.0542   1.2693136839e+02   5.9055477133e+01    0.1853433    0.1434837 -44.38 0.0004692519    1.010    0.010
        80  -8.3423    184.3247     77.4971   7.3278028036e+01   2.8711325580e+01    0.2371426    0.1280758 -40.53 0.0007487977    1.861    0.463
        81  -7.9648    195.0142     59.7479   6.7371929543e+01   2.9106435745e+01    0.2244207    0.1495605  15.01 0.0008946808    3.630    0.724
        82  -7.6861      1.4524     59.4771   1.2249485089e+02   6.3410299777e+01    0.1152714   0.08823927 -36.41  2.30422e-05    1.018    0.018
        83  -8.1891     66.1871     58.1795   9.7102087365e+01   5.6724647955e+01    0.1882985    0.1536688  -0.78 0.0004157554    1.139    0.122
        84  -9.5578     33.2982     57.5014   1.0907826931e+02   6.1170778835e+01    0.2275478    0.1734302 -20.65  0.000283495    1.107    0.097
        85  -7.4675    105.3043     56.2652   8.4465354006e+01   4.9907066462e+01    0.1348624   0.09865125  20.94 0.0002127705    1.526    0.345
        86  -9.0273     94.9142     52.6698   8.6206380341e+01   5.2512971631e+01    0.2234104    0.1887178 -37.94 0.0005541159    1.302    0.232
        87  -8.3305     44.1871     51.8432   1.0299083277e+02   6.0863917741e+01    0.1706585    0.1535565  -1.61 0.0003564311    1.181    0.153
        88  -8.9065     95.6710     45.9380   8.3792358241e+01   5.3316419933e+01    0.2610507    0.1839132  51.28  0.001063212    1.396    0.284
        89  -7.8390     74.0083     45.7234   9.0261688539e+01   5.7344256925e+01    0.1725206    0.1447246  21.15 0.0003456041    1.058    0.055
        90  -7.7619     54.5105     44.0054   9.6396182556e+01   6.0680251920e+01    0.1720004    0.1123217 -33.57 0.0004141488    1.501    0.334
        91  -8.4250      9.6845     42.6885   1.1416483878e+02   6.5841550508e+01    0.1203027   0.06611954 -23.36 0.0003021828    1.637    0.389
        92  -8.3439     77.1990     40.0290   8.7261285474e+01   5.7567166998e+01    0.1914024    0.1478086  14.86 0.0004727209    1.226    0.184
        93  -7.9717     41.5121     39.9416   9.9874320947e+01   6.3044714537e+01    0.1636232    0.1044967 -31.79 -0.0001432714    1.455    0.313
        94  -8.5154     21.2014     40.1502   1.0832023230e+02   6.5270494824e+01    0.1706024    0.1225774 -15.37 0.0003827305    1.137    0.121
        95  -8.6894     73.1453     36.7199   8.7379081157e+01   5.8708101337e+01    0.2325022    0.1363706 -43.68  0.001220982    2.127    0.530
        96  -8.6824     94.3099     34.3958   8.0324758247e+01   5.5058664870e+01    0.4210444    0.2085048  24.26  0.001375029    3.181    0.686
        97  -7.5987    124.7467     34.6772   7.3112117934e+01   4.8625966335e+01    0.1264697   0.09310653  26.79 0.0003261093    1.541    0.351
        98  -9.3118     14.9650     34.1968   1.0895252359e+02   6.6762379893e+01    0.1879586    0.1414318  22.96  0.001234228    1.496    0.332
        99  -8.6249      6.2333     34.0049   1.1282212385e+02   6.7500642004e+01    0.1375313   0.07533518 -42.55 0.0004111182    1.558    0.358
       100  -8.1783      2.6948     34.3114   1.1454410608e+02   6.7704800886e+01   0.08802946   0.08668239   7.08 0.0002604889    1.615    0.381
       101  -9.0091     21.9403     32.2142   1.0515618539e+02   6.6400481438e+01    0.1521746    0.1158225  -7.36            0    1.035    0.034
       102  -8.2404      8.6438     30.6959   1.1055924396e+02   6.7824048206e+01     0.118621   0.06462988 -17.14 0.0007039903    1.716    0.417
       103  -8.0749    162.5244     27.9793   6.4492796553e+01   4.0815207489e+01    0.1617051    0.1103589  15.32 0.0008088956    2.443    0.591
       104  -8.6276      8.9716     27.5188   1.0925275922e+02   6.8270240436e+01    0.2612416   0.09672835  18.51  0.000943111    2.866    0.651
       105  -8.4309    155.8183     24.7935   6.4696310361e+01   4.2708884775e+01    0.2152552    0.1149197  34.48 0.0009479735    2.838    0.648
       106  -7.9900     91.1610     25.1197   7.8011969984e+01   5.6723303971e+01    0.1569629    0.1367734  59.58 0.0004251969    1.275    0.216
       107  -7.9174    172.3120     24.6761   6.2277581159e+01   3.8943013480e+01    0.1317031   0.08588693 -74.08 0.0007039778    1.657    0.397
       108  -8.6191      3.5352     24.0261   1.1051388006e+02   6.9207921455e+01    0.1793981    0.1270007  52.74 0.0008476692    3.472    0.712
       109  -8.2449    137.4890     22.0665   6.6980414628e+01   4.7164554807e+01    0.1888569    0.1450791  61.39 0.0003504231    1.107    0.097
       110  -8.7381     84.8828     21.6532   7.8500861880e+01   5.8298257078e+01    0.1951004    0.1680635 -14.12  0.000521436    1.269    0.212
       111  -8.2775     64.5117     21.5304   8.4583621348e+01   6.1971402669e+01    0.1200224   0.09706848  20.41   0.00016568    1.002    0.002
       112  -8.8819     19.4135     19.3880   1.0130062631e+02   6.8416844782e+01    0.2707887    0.1460179 -23.54  0.001123695    1.663    0.399
       113  -8.2834    161.6503     19.0044   6.2356740569e+01   4.1990872838e+01    0.1637853    0.1528882  82.23 0.0006106501    1.141    0.124
       114  -7.7812     27.7579     17.9533   9.7037086170e+01   6.7667843264e+01     0.131591   0.08018322 -26.13 0.0003007911    1.503    0.335
       115  -7.4881     95.7282     17.6281   7.4288104367e+01   5.6568178595e+01    0.1264023   0.08040755  25.44 0.0006999369    1.678    0.404
       116  -9.1385     74.9673     16.6792   7.9518483010e+01   6.0638787603e+01     0.168896    0.1294126  38.48 0.0004064602    1.113    0.101
       117  -9.3236    202.7838    249.0719   1.0579950791e+02  -8.1930146210e+00    0.2439861    0.1478896   8.57 0.0008953393    2.025    0.506
       118  -7.8812    189.4731     14.5020   5.7830394245e+01   3.6174417569e+01    0.1232202   0.09921131  88.19 0.0001483659    1.002    0.002
       119  -9.1023    180.5417    249.5048   1.1031811958e+02  -4.8771884548e+00    0.1968642    0.1131955  25.71 0.0007220252    1.739    0.425
       120  -7.9376     17.6499    247.3061   1.4298220888e+02   1.9666925477e+01    0.1279165   0.06482657  65.71 0.0007042307    1.706    0.414
       121  -8.4468      9.3095    247.2987   1.4446791260e+02   2.0572322721e+01   0.09928137   0.08203919 -62.37 0.0007010165    1.598    0.374
       122  -9.1225    164.8596    245.9338   1.1298048007e+02  -1.7513414443e+00    0.1959556    0.1655635   6.77  0.000368134    1.219    0.179
       123  -8.3598    171.4809    245.4728   1.1153441472e+02  -2.7399487715e+00    0.1333397    0.1158186  15.54 0.0008086528    1.074    0.069
       124  -7.5453    136.6067    245.7423   1.1889062987e+02   2.9217007169e+00    0.1336614    0.1003154  10.08 0.0004944624    1.696    0.411
       125 -10.5039      2.7129    243.3693   1.4539083181e+02   2.2063089424e+01    0.3162214       0.2025  81.49  0.002125211    1.194    0.162
       126  -7.3251     72.2619    242.6448   1.3202241714e+02   1.3670148016e+01    0.1345875   0.08484938  72.45 0.0005013261    1.621    0.383
       127  -8.7697    156.4440    245.9704   1.1474350068e+02  -3.8518494722e-01    0.1824911    0.1316738 -47.39 0.0005220255    1.541    0.351
       128  -9.4536    192.9826    248.5060   1.0764898211e+02  -6.6314814621e+00    0.2394585    0.1894462 -32.98 0.0006728949    1.323    0.244
       129  -7.9667    190.5066    244.4587   1.0748139827e+02  -5.5760493770e+00    0.1301673    0.1133427  13.03 4.753509e-05    1.003    0.003
       130  -8.5251    159.6511    235.6289   1.1244230022e+02   1.0176557782e+00    0.2644811     0.193443   3.63  0.001357626    1.729    0.422
