#   1 NUMBER                 Running object number                                     
#   2 MAG_AUTO               Kron-like elliptical aperture magnitude                    [mag]
#   3 X_IMAGE                Object position along x                                    [pixel]
#   4 Y_IMAGE                Object position along y                                    [pixel]
#   5 X_WORLD                Barycenter position along world x axis                     [deg]
#   6 Y_WORLD                Barycenter position along world y axis                     [deg]
#   7 A_WORLD                Profile RMS along major axis (world units)                 [deg]
#   8 B_WORLD                Profile RMS along minor axis (world units)                 [deg]
#   9 THETA_WORLD            Position angle (CCW/world-x)                               [deg]
#  10 FWHM_WORLD             FWHM assuming a gaussian core                              [deg]
#  11 ELONGATION             A_IMAGE/B_IMAGE                                           
#  12 ELLIPTICITY            1 - B_IMAGE/A_IMAGE                                       
         1  -9.7213     85.7612     28.6037   6.3854304134e+01   5.9011962171e+01    0.7139499    0.3687805  19.99  0.002803049    3.033    0.670
         2 -11.1922     88.0273     16.3448   5.8107527884e+01   5.9998785703e+01    0.4703372    0.4250328 -81.33  0.001431954    1.498    0.332
         3  -9.4633     91.7082     12.5912   5.5494763138e+01   5.9607390071e+01    0.3077937    0.1859467  38.67  0.001632687    1.470    0.320
         4 -10.2887    192.9119     24.6310   4.0833294175e+01   3.4009305356e+01    0.4723094      0.35779  29.65  0.002593193    1.806    0.446
         5 -10.5405     15.9800      9.3648   8.5568008780e+01   7.2203375790e+01    0.5964358    0.3347498   8.14  0.002080316    1.757    0.431
         6 -10.1070     16.3464     19.1275   8.9851333973e+01   7.0668739838e+01    0.5398999    0.2806892 -48.35  0.002334477    1.942    0.485
         7 -10.2078     51.3092     17.8051   7.1990209236e+01   6.6579091259e+01     0.659832    0.3354405 -37.09   0.00343004    2.079    0.519
         8  -9.7006     44.6377     17.9704   7.5018197347e+01   6.7554165825e+01    0.4687518    0.2673331  20.38  0.001935957    1.761    0.432
         9 -10.8583     33.1269     13.1666   7.8222884953e+01   6.9761366931e+01    0.4625358    0.3134943 -10.06  0.001863138    1.298    0.230
        10 -10.0858     41.2556     13.0815   7.4243779118e+01   6.8684603056e+01    0.7595084    0.3890637   8.00  0.003440315    2.875    0.652
        11 -10.0920     26.3088     10.5324   8.0444363936e+01   7.0946930797e+01     0.437774    0.3266082  49.88  0.001958148    2.390    0.582
        12  -9.0959     20.0253     17.5352   8.7140310713e+01   7.0582277662e+01    0.2455554    0.1930756  12.31 0.0007074816    1.289    0.224
        13  -8.0412    142.2887     21.9671   4.7546461767e+01   4.6835982645e+01     0.860462     0.491511 -66.39  0.002019313    2.576    0.612
        14 -10.8131    141.1607     13.0593   4.4881766238e+01   4.8028932919e+01    0.3488056    0.3221465  -4.14 0.0007047282    1.252    0.201
        15 -10.2778    134.9724     17.7713   4.7522906859e+01   4.9077006815e+01    0.7047845    0.4388212  37.89   0.00353169    1.702    0.412
        16  -9.5206    218.8151     26.0079   3.8333408088e+01   2.7747831072e+01    0.3434046    0.2417905 -80.66  0.001057163    1.317    0.241
        17  -9.8751    209.9850     17.3494   3.7191449151e+01   3.0793702929e+01    0.5386872    0.3673357 -61.25  0.002658258    1.348    0.258
        18 -10.4708    204.6937     12.3517   3.6523763441e+01   3.2578505175e+01    0.4612968    0.2483576 -51.44  0.001780639    1.761    0.432
        19  -8.8044    209.3625     11.0835   3.5783651184e+01   3.1626653142e+01    0.3157098    0.1648185 -45.99  0.000963307    1.779    0.438
        20  -8.8433    192.4849     13.4865   3.8051210373e+01   3.5357102479e+01    0.3209581    0.2025287  49.58  0.001543967    1.770    0.435
        21  -9.8381    196.7202     18.2711   3.8789266586e+01   3.3820207554e+01    0.5505931    0.2449745 -65.66  0.002180145    2.970    0.663
        22  -9.0550    195.3345     14.3041   3.7950359812e+01   3.4586238180e+01     0.207464    0.2033901  72.99 0.0008409967    1.240    0.194
        23  -9.2951     71.3362     19.0757   6.4716727869e+01   6.2993137216e+01    0.4803737    0.2948798  -4.27  0.001631654    1.893    0.472
        24 -12.0583     65.7601      6.1225   6.0790476131e+01   6.5442588900e+01    0.8082216    0.2713885  44.26  0.003529819    2.469    0.595
        25  -9.9252     78.4567      2.6397   5.5045560240e+01   6.3293126380e+01    0.3477111    0.1805907  49.64 0.0002186966    1.613    0.380
        26  -9.2833     61.0008     12.6014   6.5602850133e+01   6.5612944074e+01    0.3868051    0.2809474   1.11  0.002383919    1.298    0.230
        27  -9.6863     66.7758     14.0438   6.4104536818e+01   6.4418382443e+01    0.4203064    0.2534688 -17.70  0.001305764    1.716    0.417
        28  -8.9934    152.0160     18.1232   4.4682603227e+01   4.4835326534e+01    0.3576857    0.1935348 -18.59     0.001646    2.323    0.569
        29  -9.1400    157.2061     15.6679   4.3138591852e+01   4.3799357710e+01    0.4278529    0.3407568  52.83  0.002498829    1.213    0.176
        30 -12.1055    113.1518     12.5593   5.0144060071e+01   5.4807502032e+01     0.435719    0.3026581 -17.83 0.0003966342    1.628    0.386
        31  -9.9864    113.0601      3.8898   4.6955558542e+01   5.5596839952e+01    0.5939029    0.2915575  54.54  0.002917007    1.651    0.394
        32  -8.7425    240.0533      8.2622   3.2676323729e+01   2.5127312599e+01    0.2957312    0.2350129  85.65  0.001176066    1.201    0.167
        33  -9.3049    233.0538      5.6309   3.2636828427e+01   2.6906171871e+01     0.421738    0.1956804 -65.78  0.002108121    2.104    0.525
        34  -8.9792    237.0965      5.0642   3.2230324892e+01   2.6100593520e+01    0.2482509    0.1600808 -66.64 0.0005220482    1.299    0.230
        35  -9.2915    234.4655      1.4146   3.1662712691e+01   2.7046844132e+01    0.2067887    0.1296589  86.88 7.986854e-05    1.398    0.284
        36  -9.2775    236.4874     15.5343   3.4453333013e+01   2.5071150611e+01    0.3062677    0.2173092 -61.31  0.001936879    1.179    0.152
        37  -9.5262    238.8799     12.9437   3.3726812465e+01   2.4854881395e+01    0.3916446     0.191993 -67.60  0.001874223    2.006    0.502
        38 -11.5601    101.3578     13.7020   5.3379486338e+01   5.7387076776e+01    0.4382542     0.298683   8.84  0.000271894    1.690    0.408
        39  -9.9851    100.2909      9.7092   5.2072979850e+01   5.8006588260e+01    0.2286305     0.193119  23.76 0.0002090568    1.141    0.123
        40  -8.4985    228.9592     11.8924   3.4278252527e+01   2.7115643340e+01    0.2076689    0.1472419 -44.43  0.001290716    1.348    0.258
        41  -9.2621    121.9989     11.1779   4.7776331648e+01   5.2853425993e+01    0.4558564    0.2516777  44.17  0.001472027    1.674    0.403
        42  -9.0960    128.1307      9.8077   4.6114818834e+01   5.1509386018e+01    0.2394756    0.1704767  68.91 0.0007924494    1.288    0.223
        43  -8.6638      1.4722      3.5166   9.1482155409e+01   7.4277336194e+01    0.1783378    0.1309798 -24.49 0.0006319225    1.099    0.090
        44 -10.2253      6.4212      8.5597   9.0816210529e+01   7.3147339429e+01    0.6655637    0.2247066 -42.96  0.003403881    2.383    0.580
        45  -9.4713      5.2140      3.3738   8.9049014231e+01   7.4018203197e+01    0.3541948    0.1976424  36.87  0.001031606    2.623    0.619
        46  -8.5209     80.2133     11.5506   5.8443658909e+01   6.2101917361e+01    0.2174806    0.1720653 -13.12 0.0008603453    1.314    0.239
        47  -8.2715    181.8488      3.6077   3.6664884733e+01   3.8912012973e+01    0.2841797    0.1646731 -38.14  0.001019188    1.789    0.441
        48 -10.5237    184.4047      8.8460   3.7746651601e+01   3.7786272590e+01    0.4550774    0.2453247  67.54 0.0008061135    1.613    0.380
        49 -11.0492    186.3323      3.7781   3.6241835010e+01   3.7813898576e+01     0.331011    0.2416867 -31.96  0.001038775    1.542    0.352
        50  -8.6120    171.2436     11.1323   3.9908694138e+01   4.0778643309e+01    0.2323439     0.172285  41.32  0.001169963    1.542    0.352
        51  -8.8771    134.3248     10.3043   4.5161443379e+01   4.9962361455e+01    0.2454779    0.1749881  48.10  0.001006722    1.286    0.223
        52  -8.1620     84.8172     10.0056   5.6380354710e+01   6.1313557450e+01    0.2284979    0.1543259 -27.51  0.001303937    1.630    0.387
        53  -8.0943     87.0499      7.0000   5.4456862662e+01   6.1128811156e+01    0.2085305     0.145391  35.76  0.001215971    1.240    0.194
        54  -8.8338    250.1985      7.9868   3.1923212216e+01   2.3052792784e+01    0.1981763    0.1300606 -51.91 0.0006699389    1.268    0.211
        55 -10.3490     32.4439      6.2665   7.5098892266e+01   7.0749968417e+01    0.2572586    0.2156475   2.03 0.0006692656    1.197    0.164
        56  -9.1073    223.6876      5.4792   3.3309235243e+01   2.8971624711e+01    0.3860712    0.1731634 -52.60  0.001747007    1.998    0.499
        57  -8.1851    223.9879      1.2315   3.2370089987e+01   2.9344256379e+01     0.175086    0.1080035  78.03 0.0004287208    1.444    0.307
        58  -9.6329    149.9598      2.8381   4.0334308731e+01   4.6790138510e+01    0.4763348    0.2715326  24.91  0.002239052    2.522    0.604
        59  -8.7759    144.8378      5.8377   4.2003710064e+01   4.7789872670e+01    0.2817551    0.1543638 -85.52 0.0006954938    2.361    0.576
        60  -9.4328    138.4692      6.1722   4.3108711101e+01   4.9321245689e+01    0.2261705    0.1908565  59.05 0.0002378152    1.049    0.047
        61  -8.5498    168.8371      5.3145   3.8596047151e+01   4.1927555168e+01    0.1931848    0.1796748  79.03 0.0004621239    1.117    0.105
        62  -9.8945     94.2144      5.0686   5.1732727558e+01   5.9760962830e+01    0.4789234    0.2484904  64.05  0.002327453    1.956    0.489
        63  -9.2895    242.9710      3.7125   3.1555043078e+01   2.5007685326e+01     0.398988    0.1396995 -50.55  0.001900479    2.347    0.574
        64  -8.3317    195.6097      5.0686   3.5643426136e+01   3.5471748047e+01    0.2897798     0.163227  78.07  0.000858854    1.563    0.360
        65  -9.8533    202.3943      3.0076   3.4520867799e+01   3.4077468933e+01    0.3466641    0.1845905  70.72 0.0003414022    1.647    0.393
        66  -8.3004    121.0986      3.6720   4.5296644134e+01   5.3722911066e+01    0.1878738    0.1411306  57.28 0.0004292388    1.121    0.108
        67  -9.0386     14.6376      3.2641   8.3263727357e+01   7.3194771334e+01    0.2315519    0.1439113  -4.09  0.001010139    1.422    0.297
        68  -8.2760     37.9566      3.0263   7.0699940535e+01   7.0374607470e+01    0.1482817    0.1425516 -18.68 0.0008652331    1.618    0.382
        69  -7.9205     34.0674      1.5217   7.1782971787e+01   7.1094964873e+01    0.1992095    0.1008149  39.45 0.0008676505    1.961    0.490
        70  -9.5965     51.9563     25.5032   7.5201342480e+01   6.5422730353e+01    0.5528328     0.259277 -39.20  0.002698654    2.187    0.543
        71  -8.6468    248.3326      1.8626   3.0843691934e+01   2.4098062428e+01      0.17954    0.1238166 -76.96  0.000170694    1.180    0.152
        72  -8.8869    218.1319      3.1831   3.3242082436e+01   3.0450521069e+01    0.1990584    0.1639805 -77.64 0.0004734976    1.034    0.033
        73  -7.7337    130.4796      2.4757   4.3212593636e+01   5.1572876725e+01    0.1309881    0.1123791  65.66 0.0004630263    1.033    0.032
        74  -7.3353    230.2955      1.2821   3.1925379245e+01   2.7958786162e+01    0.1059715   0.08668032  55.76 0.0006957094    1.539    0.350
        75  -7.6507    144.0252      1.0000   4.0615310605e+01   4.8398013643e+01    0.2143665   0.06425139  68.63 0.0006020482    2.826    0.646
        76  -7.7055    146.2829     82.6838   6.5599030718e+01   3.6720987949e+01    0.1541794    0.1216085 -76.44 0.0002577338    1.580    0.367
        77  -7.9474    110.6738    249.8326   1.0718163904e+02   8.0716705437e+00    0.1574177    0.1114221 -81.33  0.000942186    1.768    0.434
        78  -8.7587    124.9468     82.1817   7.0931908465e+01   4.1760030009e+01    0.2668921    0.1776166  21.70  0.001096152    2.024    0.506
        79  -8.1100     69.2538     82.4080   8.8750008000e+01   5.2342051027e+01    0.1926616    0.1324154  43.31 0.0009460651    1.623    0.384
        80  -7.8734     37.4568     82.4562   1.0060715974e+02   5.6280558395e+01    0.1324039     0.115164 -45.64 0.0001334611    1.025    0.025
        81  -8.8479     11.3580     82.3477   1.1051511410e+02   5.8332920179e+01    0.3444171    0.1727136  -5.45  0.001686037    2.660    0.624
        82  -7.8887    216.0000     79.9874   5.1523396385e+01   2.0646255321e+01     0.237156   0.07586679 -36.49 0.0008021484    2.940    0.660
        83  -9.1496    174.3893     78.9394   5.8407126558e+01   3.0613797595e+01    0.2696179    0.2661754   1.57 0.0005608565    1.088    0.081
        84  -7.9467     48.9934     79.5885   9.5469771580e+01   5.5683439425e+01     0.191918     0.131621  23.43 0.0009760578    1.585    0.369
        85  -9.1593    147.3071     72.9570   6.2479923288e+01   3.8258247267e+01    0.3513987    0.2505839 -33.26  0.001025826    1.471    0.320
        86  -8.9044     72.9779     76.4813   8.5650924607e+01   5.3041520789e+01    0.5561988    0.3162748  63.32   0.00187506    4.223    0.763
        87  -8.6172     72.4080     73.2057   8.4842666118e+01   5.3817005411e+01    0.3250669    0.2001143 -57.63  0.001320826    1.911    0.477
        88  -9.2748     31.5923     77.1697   1.0159611333e+02   5.8023174726e+01    0.3553874     0.197071   3.33  0.001410812    2.336    0.572
        89  -8.6016    107.4893     77.4737   7.4509905456e+01   4.6467357805e+01    0.2191373    0.1435317 -51.59  0.000301151    1.687    0.407
        90  -9.1354    107.1372     74.3137   7.3616256703e+01   4.7159662706e+01    0.3464899    0.2087252  27.61  0.001252186    2.029    0.507
        91  -8.1470     86.2960     76.2121   8.0914566437e+01   5.0841367852e+01     0.207115    0.1800664  16.80  0.000998561    1.155    0.134
        92  -9.3663    218.0350     74.2416   4.9842355797e+01   2.1119883856e+01    0.4615191     0.248604  73.96  0.001966469    2.345    0.574
        93  -7.5571     50.2820     75.2835   9.3787399122e+01   5.6477645668e+01    0.1363976   0.09347936 -25.48 0.0002227384    1.517    0.341
        94  -9.7837     19.2178     73.8616   1.0573054246e+02   5.9747351134e+01    0.6017747    0.3017858  40.95  0.002958512    2.585    0.613
        95  -8.2509    232.6618     74.2951   4.7860914972e+01   1.7911791215e+01    0.1418168    0.0947228 -67.78 0.0003228968    1.652    0.395
        96  -8.6530    189.0764     73.4778   5.4216915512e+01   2.7993894535e+01    0.2183794    0.2066159 -24.08 0.0004877228    1.158    0.136
        97  -8.6617    191.6503     69.7872   5.2806202272e+01   2.7981779370e+01    0.2425707    0.1836589  48.89   0.00053805    1.397    0.284
        98  -8.1696    169.5310     74.4632   5.8128161672e+01   3.2576943917e+01    0.1490771    0.1448283  83.44 9.825635e-05    1.012    0.012
        99 -11.2869    129.2521     70.6447   6.6215749170e+01   4.2954542020e+01    0.4653688    0.3448392  28.81 0.0004822144    1.504    0.335
       100 -10.0272    139.0676     69.1403   6.3275765839e+01   4.0910440118e+01    0.6468899    0.4417525  27.24  0.002848135    1.822    0.451
       101 -10.2541    113.5962     70.4743   7.0469734587e+01   4.6511085532e+01    0.5659869    0.4774467  88.71  0.001785042    1.530    0.346
       102  -7.8684     64.1930     73.6506   8.8006420920e+01   5.4974995053e+01    0.1847804    0.1265589  15.56 0.0004836296    1.646    0.392
       103  -8.9393    243.5830     71.7893   4.5939531499e+01   1.6014148391e+01    0.3067383    0.1589897  44.38  0.001209944    2.643    0.622
       104  -9.2429    160.3533     71.2514   5.9094190683e+01   3.5378004802e+01    0.4155425    0.2847995  77.11  0.001103058    1.788    0.441
       105  -7.9953     80.3366     71.8020   8.1568167474e+01   5.2788928755e+01    0.1926888    0.1726329  32.86 0.0005702178    1.164    0.141
       106  -9.0318     59.5978     71.0422   8.8947041165e+01   5.6175940127e+01    0.3227173    0.2058461 -46.99  0.001452523    1.456    0.313
       107 -10.3520     37.5867     71.0097   9.7619431189e+01   5.8814087843e+01    0.5223038    0.2505926 -38.23  0.000409377    1.990    0.497
       108 -10.0557     16.3885     65.5826   1.0496942639e+02   6.1759467907e+01    0.5527871    0.2589717 -19.69  0.001215325    2.749    0.636
       109 -10.4068     48.9340     65.3703   9.1392137752e+01   5.8748371389e+01    0.4575319    0.2813853  20.36 0.0007328011    1.768    0.435
       110 -10.0690     25.4966     59.6397   9.9528714876e+01   6.2345447825e+01    0.5202693    0.4263404  50.39  0.003292857    1.649    0.394
       111  -8.9570     28.6572     54.0706   9.6500499308e+01   6.3214803003e+01    0.3295577     0.154427 -35.13 0.0007120105    2.014    0.504
       112 -10.3232     39.6050     60.9525   9.3877086749e+01   6.0730633457e+01    0.5876943    0.4174504 -87.44  0.002914954    2.548    0.608
       113 -10.1283     34.5639     59.7804   9.5660436470e+01   6.1491746566e+01    0.3101001    0.2663593 -36.97 0.0005766664    1.076    0.070
       114  -9.6982     28.8891     71.5690   1.0128624442e+02   5.9502244448e+01    0.2241609    0.1792738 -48.43 0.0003047422    1.076    0.070
       115  -8.2660    152.2348     71.0908   6.0804091527e+01   3.7390621365e+01    0.2254069    0.2037103  23.23   0.00118137    1.203    0.169
       116  -8.4883     86.0303     71.0000   7.9339348851e+01   5.1941158592e+01     0.311864    0.1100569  44.59  0.001068555    3.022    0.669
       117  -8.9570    211.7857     69.9969   4.9714642228e+01   2.3211637467e+01    0.2406973    0.1986663  84.25 0.0003777363    1.235    0.190
       118  -8.4818     92.8158     59.5688   7.3215824527e+01   5.2814542945e+01    0.2759617    0.2334186 -76.02  0.000621015    1.632    0.387
       119  -8.4210     89.7720     57.1928   7.3389625268e+01   5.3829776662e+01    0.2213836    0.1764754  38.55 0.0003311354    1.235    0.190
       120 -10.9780    100.6110     62.7518   7.1817088191e+01   5.0675627159e+01    0.6601512    0.5235806 -44.34  0.003448069    1.338    0.253
       121  -9.1103    204.1967     68.7350   5.0531796369e+01   2.5171364060e+01    0.2595238     0.222671 -67.26 0.0004266768    1.116    0.104
       122  -8.7785    168.8819     68.2709   5.6510893048e+01   3.3784890591e+01    0.2430846    0.2146273 -41.23 0.0006670797    1.155    0.134
       123  -7.9573     51.8767     69.7914   9.1565025348e+01   5.7459221586e+01    0.1641056    0.1070692  22.42 0.0006378438    1.644    0.392
       124  -8.7694    221.7873     67.8529   4.7798548879e+01   2.1283740946e+01    0.1910836    0.1468221 -68.19 0.0004783235    1.291    0.225
       125 -10.2392    149.1912     66.9909   6.0258126251e+01   3.8836144878e+01    0.3434111    0.2716796  43.03 0.0003433045    1.269    0.212
       126  -9.5953    144.3002     64.2723   6.0539919276e+01   4.0484152544e+01    0.3315254    0.2881013 -86.41 0.0007143691    1.287    0.223
       127  -9.4768    173.1534     66.6940   5.5248316182e+01   3.2993088747e+01    0.2729649    0.2313971 -43.25  0.000309263    1.190    0.159
       128  -8.7797      3.3293     66.8358   1.1067161949e+02   6.2221931731e+01    0.4642294    0.1623936 -55.74  0.002240193    1.995    0.499
       129  -8.4160      1.3137     62.1118   1.1054400608e+02   6.3337221760e+01    0.2493334    0.1023808 -68.55  0.001202268    2.190    0.543
       130  -8.7329     89.6386     65.4520   7.6282707298e+01   5.2346295242e+01    0.2481969     0.133315 -40.35  0.001070414    1.847    0.459
       131  -8.5695    228.1508     64.7865   4.6251881589e+01   2.0345933586e+01    0.1706378    0.1615814  -2.83 0.0003960759    1.313    0.238
       132  -9.2460    208.6994     64.5340   4.8815393691e+01   2.4778204356e+01    0.2616252    0.2530356   9.47 0.0009886543    1.236    0.191
       133  -8.4850     66.9354     64.5778   8.4090638684e+01   5.6422486612e+01    0.2024304    0.1681922 -36.36 0.0003181554    1.142    0.124
       134  -8.1663    201.7604     64.0207   4.9709496939e+01   2.6485326893e+01    0.1966564    0.1789381 -52.98   0.00050818    1.075    0.070
       135  -9.5616    134.6999     59.0702   6.1171564443e+01   4.3657785504e+01    0.5187497     0.288442 -55.66  0.001743393    2.462    0.594
       136 -10.0816     95.3193     66.2205   7.4670165520e+01   5.1103648435e+01    0.4521019    0.3302295 -10.10  0.001471843    1.637    0.389
       137  -8.1659     74.6147     64.2151   8.1119280092e+01   5.5262187021e+01    0.1990987    0.1230777 -33.31 0.0003923034    1.610    0.379
       138  -9.8189    235.1072     61.8939   4.4741415519e+01   1.9272526276e+01    0.2956536    0.2631418  28.25   0.00126574    1.485    0.326
       139  -8.1884    160.9225     62.6504   5.6472047012e+01   3.6670393130e+01    0.2087477    0.1878366  63.93 0.0005285182    1.070    0.065
       140  -9.0139     82.1576     61.6121   7.7536700431e+01   5.4449571973e+01    0.4769275    0.2649335  20.75  0.001923851    2.503    0.601
       141 -10.1380    243.8403     58.8634   4.3077044768e+01   1.7875244915e+01     0.277166    0.2413152 -38.49 0.0005809081    1.218    0.179
       142  -7.9316    121.6341     61.1931   6.5194074409e+01   4.6366494436e+01    0.2017414    0.1405694 -22.54 0.0006429538    1.629    0.386
       143  -7.9435     59.9464     61.5054   8.5761155500e+01   5.8068220790e+01    0.1958495    0.1305936  28.98 0.0006063401    1.543    0.352
       144  -8.7497    186.0753     60.4758   5.1260913221e+01   3.0809546372e+01    0.4099984    0.1300776  57.86  0.001273585    2.966    0.663
       145  -8.6560    249.1314     59.0125   4.2540974426e+01   1.6768356750e+01    0.1975189    0.1647438 -59.70 0.0004885641    1.008    0.008
       146  -9.4234    175.4381     57.0291   5.2128564402e+01   3.3955507431e+01    0.4851463    0.3157647 -18.67  0.001712959    1.999    0.500
       147  -8.2409    173.3083     53.6606   5.1555810556e+01   3.4991053745e+01    0.2261434    0.1650817 -61.30 0.0005297703    1.478    0.324
       148  -9.4221    157.8643     57.6680   5.5618122015e+01   3.8218382250e+01    0.5171595    0.3331055  89.53  0.002153049    2.225    0.550
       149  -8.3182      5.3429     58.5166   1.0803046369e+02   6.3917127758e+01    0.2088048   0.09581313 -46.41 0.0006562019    1.659    0.397
       150  -7.5633    229.2802     58.7029   4.4710427519e+01   2.1003698655e+01    0.1372153   0.09013658 -64.35  0.000196892    1.538    0.350
       151 -10.3460     63.3989     56.1807   8.2586530578e+01   5.8584220654e+01    0.3864657    0.3191656  83.33  0.001029498    1.983    0.496
       152  -9.1494    235.2752     56.8513   4.3587871908e+01   1.9973103906e+01    0.2721728    0.1859705 -64.33 0.0009552779    1.415    0.293
       153 -10.2196    191.8864     55.7774   4.9083893404e+01   3.0107869475e+01     0.671273     0.419935 -72.98  0.002100092    2.007    0.502
       154  -9.0435    184.7895     51.1965   4.8968511027e+01   3.2515063842e+01    0.3424549    0.2927513 -13.03  0.001664655    1.419    0.295
       155 -10.4345    192.8319     49.0363   4.7172941008e+01   3.0860284256e+01    0.5510508    0.3505682 -70.00  0.002582588    1.828    0.453
       156  -9.5975    197.7318     48.5800   4.6352600801e+01   2.9740794399e+01     0.395139    0.2416154 -80.07  0.001471076    2.027    0.507
       157  -8.1588    224.2854     56.6135   4.4833662867e+01   2.2413359900e+01    0.1805554    0.1205334  57.39  0.000816149    1.600    0.375
       158  -9.6257    213.1154     48.2631   4.4233823392e+01   2.6150323521e+01    0.4149309    0.3411665  35.28  0.002359818    1.576    0.365
       159  -9.2648    207.1871     48.1435   4.4962215997e+01   2.7551705379e+01    0.2624287    0.2391944  65.30 0.0004230272    1.182    0.154
       160 -10.4298    208.4807     55.0482   4.6497862662e+01   2.6256919523e+01    0.2741557    0.2363416  79.65 0.0003351542    1.129    0.114
       161  -9.4351    204.8775     51.8735   4.6198497258e+01   2.7565839664e+01    0.2826101       0.2502   9.46 0.0004875314    1.475    0.322
       162  -7.3941    166.0000     55.9908   5.3545073490e+01   3.6456322429e+01    0.2417924   0.08377564 -33.66   0.00081161    3.006    0.667
       163  -8.0042    120.9946     56.5121   6.3811535600e+01   4.7292494375e+01    0.3028485    0.1316683  46.55  0.001151774    2.178    0.541
       164  -9.6310    124.9558     54.0828   6.1967250319e+01   4.6764437800e+01    0.5648205    0.2821299  49.82 0.0004764738    1.872    0.466
       165  -9.7833    112.8820     54.7142   6.5421168206e+01   4.9422365651e+01    0.4271166    0.3521863  46.67  0.001855623    1.167    0.143
       166  -7.6862     15.3168     56.6856   1.0318982007e+02   6.3722940949e+01    0.1099489   0.09336019  73.45 0.0003949468    1.647    0.393
       167  -9.2186    142.3552     54.0530   5.7798040717e+01   4.2601121139e+01    0.3605123    0.2180525  51.71 0.0005654518    1.550    0.355
       168  -8.1067    221.1516     54.2046   4.4654165699e+01   2.3466048926e+01    0.1908655    0.1390891 -66.41 0.0003788977    1.328    0.247
       169  -8.5988     56.5573     52.9671   8.4175952201e+01   6.0190121052e+01    0.3399559    0.1942986 -64.12  0.000915621    3.410    0.707
       170  -9.9981      9.7119     52.5367   1.0461435099e+02   6.4932682808e+01    0.2817663    0.2563763 -70.36 0.0007344061    1.325    0.245
       171  -8.6144    149.2322     58.9180   5.7797355210e+01   4.0153384739e+01    0.2901295    0.1896323  61.87 0.0009390793    1.526    0.345
       172  -9.0320     93.4297     49.6374   6.9477069750e+01   5.4387500290e+01    0.5145846    0.2927691 -45.46  0.002134585    1.998    0.499
       173  -9.2589     84.0070     51.0163   7.3123144509e+01   5.5996214697e+01    0.2927433    0.2497622  43.72 0.0008499276    1.252    0.201
       174  -9.2420     79.9378     50.0579   7.4193360207e+01   5.6911730101e+01    0.3564385    0.2654505   1.73  0.001804887    1.468    0.319
       175  -9.8095    244.5273     50.0212   4.1087274014e+01   1.8983967243e+01    0.3134459    0.2571626  52.97  0.001301154    1.495    0.331
       176  -8.8720    228.6028     49.7095   4.2729508455e+01   2.2442398679e+01    0.2969876    0.1703393 -27.42  0.001432369    2.025    0.506
       177  -9.2665    222.2104     49.8230   4.3496894275e+01   2.3852131131e+01    0.3036477    0.2278302 -61.57  0.001556805    1.222    0.182
       178  -8.6567    225.9002     46.4657   4.2291315565e+01   2.3493015129e+01    0.2537359    0.1705492  45.22  0.001316962    1.902    0.474
       179  -8.0459    221.0358     45.1002   4.2529221502e+01   2.4774105266e+01     0.271841    0.1439256  44.13  0.001193283    2.633    0.620
       180  -9.8712    223.6878     40.0895   4.1068634735e+01   2.4852526692e+01    0.3792574    0.2228961 -40.47   0.00150008    1.582    0.368
       181 -10.1049    120.2533     50.5407   6.1990761761e+01   4.8411002087e+01    0.2485413    0.2414407  21.54 0.0002966434    1.047    0.045
       182  -9.7821     72.4501     49.8351   7.6833150115e+01   5.8270904158e+01    0.4720405    0.4016134 -25.81   0.00199093    1.137    0.120
       183  -8.2130     15.0187     50.1182   1.0151579233e+02   6.5092659029e+01    0.2117721    0.1568665  89.85  0.001103763    2.089    0.521
       184  -8.1190    159.7776     49.8637   5.2921997946e+01   3.8920110409e+01    0.1978203    0.1593514  89.81 0.0002635494    1.336    0.251
       185  -9.2643    237.5391     48.4454   4.1468211270e+01   2.0676726588e+01    0.2334959    0.1944471 -74.32  0.001339729    1.077    0.072
       186  -9.9432    173.8815     45.0535   4.9031527907e+01   3.6087138255e+01    0.3971578    0.2830867 -18.20  0.001969035    1.738    0.425
       187  -7.8608    168.5241     49.4773   5.1205577251e+01   3.6795166575e+01    0.1446592    0.1342466  84.60 0.0001115496    1.018    0.017
       188  -8.5215    109.9597     47.2866   6.3651579114e+01   5.1244224167e+01     0.434522    0.1041014  47.84   0.00130182    3.725    0.732
       189  -9.2695     88.2411     46.5504   7.0034605753e+01   5.5917678752e+01    0.2722855    0.2109237  22.90 0.0008111778    1.262    0.207
       190  -9.3576     40.6508     45.5921   8.8301356598e+01   6.3614750959e+01     0.352643    0.2950107 -75.09  0.001558019    1.841    0.457
       191  -8.8521     20.5539     47.2227   9.8072629904e+01   6.5265331446e+01    0.1957334    0.1516896   1.61 0.0002783721    1.312    0.238
       192 -10.0421    233.7993     45.1831   4.1139227505e+01   2.1930964004e+01    0.4245092    0.2442316 -65.14  0.002136455    1.801    0.445
       193  -9.0580    232.6805     41.6915   4.0477580717e+01   2.2646544807e+01    0.3056546    0.1555854  74.66  0.001260608    2.053    0.513
       194  -9.4162    163.1861     42.0531   4.9987839540e+01   3.9168303259e+01    0.2780103    0.2289615  51.27 0.0003515971    1.199    0.166
       195  -9.2540    155.9041     44.1289   5.1935993216e+01   4.0702165832e+01    0.2773684    0.2527091 -68.05  0.000364634    1.134    0.118
       196  -9.1892    152.8310     40.8552   5.1521073910e+01   4.1915800399e+01    0.3369518    0.2723644 -63.75  0.001239946    1.352    0.260
       197  -9.7088    128.5628     41.5599   5.6878282804e+01   4.7769044209e+01    0.7017514    0.2620436  59.92  0.002072228    2.755    0.637
       198  -9.0219    140.5206     39.4638   5.3537098341e+01   4.5151235984e+01    0.6395428    0.3165056  52.95  0.002744484    1.819    0.450
       199  -8.9840    135.3468     44.6670   5.6352877327e+01   4.5698119476e+01    0.3658765    0.2276646 -58.75  0.001399901    2.156    0.536
       200  -8.4607    138.9942     43.7824   5.5258207572e+01   4.4934203926e+01      0.25222    0.1909073  50.37 0.0003344939    1.230    0.187
       201  -8.6260    119.9855     46.0381   6.0516549616e+01   4.9151972855e+01    0.2208839     0.205653  42.11 0.0006052895    1.022    0.021
       202  -9.1707     29.4884     44.9950   9.3172678942e+01   6.4915247655e+01    0.2705197    0.1521641 -47.75 0.0006889087    1.575    0.365
       203 -10.2987     33.5496     43.8841   9.0906133188e+01   6.4716786499e+01    0.5713979    0.3934906  25.88  0.002537603    1.551    0.355
       204  -8.2029     55.2484     44.7665   8.1701384281e+01   6.1859780529e+01    0.1912907    0.1653544 -52.78 0.0008194489    1.470    0.320
       205  -8.7181    185.2878     40.8616   4.6107988172e+01   3.3834443829e+01    0.2338074    0.1607239 -57.62  0.000852278    1.491    0.329
       206  -8.3449    102.8347     34.2453   6.0899037260e+01   5.4679262330e+01    0.2343288    0.1628378   4.49 0.0007246367    1.746    0.427
       207  -9.7097     96.8245     42.7126   6.5851827160e+01   5.4770650603e+01    0.3662696    0.2726564   0.33 0.0008884029    1.519    0.342
       208  -9.8041     99.3834     37.2656   6.3035660077e+01   5.5015856242e+01    0.5317191    0.2452805 -40.22  0.002207432    2.397    0.583
       209  -9.6615      2.4472     41.5378   1.0506595425e+02   6.7541328828e+01     0.520682    0.2178407 -65.88  0.002533804    2.509    0.601
       210  -9.9333      4.9007     33.7906   1.0151125354e+02   6.8908635439e+01    0.4328097    0.1999119 -53.33  0.001993023    1.761    0.432
       211  -8.3601    164.4560     46.2301   5.0987568945e+01   3.8273461000e+01    0.2570607    0.1835205 -65.95  0.001118935    1.602    0.376
       212  -7.4790    199.3089     43.6719   4.4882025376e+01   3.0044586058e+01    0.1470967   0.09522546 -67.16 0.0002622695    1.660    0.398
       213  -7.5020    106.6374     43.2782   6.3154644300e+01   5.2579040066e+01    0.1375897    0.1128341 -89.39 0.0007010841    1.670    0.401
       214  -9.7101    250.3048     40.8701   3.8588880411e+01   1.9032808737e+01     0.252108    0.2083871 -59.01 0.0004860393    1.053    0.051
       215 -10.1558    248.4554     37.5189   3.8056280136e+01   1.9852194975e+01    0.4230899    0.2304783 -51.59  0.002171027    1.560    0.359
       216  -8.9191    147.4042     41.9385   5.2915907499e+01   4.3117639779e+01    0.3644726    0.1724945  48.07  0.001056926    2.035    0.509
       217  -7.7606     85.4805     42.4621   6.9413402440e+01   5.7098386556e+01    0.1409378    0.1212799  12.45 0.0003612721    1.070    0.066
       218  -8.5774     89.9674     40.5200   6.7188127994e+01   5.6505167949e+01    0.3905579     0.143693  42.27    0.0014824    2.583    0.613
       219  -8.7438     67.7312     41.9722   7.5624003433e+01   6.0388744857e+01    0.2456987    0.1842602  35.21 0.0006529692    1.327    0.246
       220 -10.1023     51.7537     37.4308   8.0312392088e+01   6.3606458842e+01    0.2686152    0.2123784 -18.40 0.0002186713    1.115    0.104
       221  -8.0914     56.1567     36.3733   7.8024142065e+01   6.3133564534e+01    0.1928628    0.1198547  33.05  0.001034501    1.577    0.366
       222  -9.7144     69.8545     34.0532   7.1642053586e+01   6.1255875203e+01    0.6847597    0.4148954   7.55  0.003211788    2.188    0.543
       223  -9.2151     67.4242     28.5058   7.0244498515e+01   6.2477554004e+01    0.4596369    0.2976293   9.09  0.002398942    1.746    0.427
       224  -9.3632     61.6028     38.1469   7.6514227717e+01   6.2005705425e+01    0.4088834    0.3914556 -89.14  0.002563499    1.522    0.343
       225  -8.6570     59.1972     33.2427   7.5482503213e+01   6.3154697711e+01    0.2384829    0.1740002  16.39 0.0006026827    1.292    0.226
       226  -7.5394    242.6306     41.2825   3.9394976851e+01   2.0568992637e+01    0.1360889   0.08051968 -67.84  0.000701563    1.696    0.410
       227  -8.4845    170.5858     40.9311   4.8404916495e+01   3.7471237756e+01    0.3465595    0.1857965  60.41  0.001553042    1.716    0.417
       228  -8.3564     79.3312     41.3362   7.1099542984e+01   5.8441238912e+01    0.2071637    0.1282919  27.73  0.001008917    1.664    0.399
       229  -9.7240     18.7867     40.1518   9.6622357399e+01   6.6770087716e+01    0.7454278    0.4152972   1.36  0.004117671    1.998    0.499
       230  -8.6504     12.7008     35.9574   9.8233499687e+01   6.8010994271e+01     0.224191    0.1479235 -41.71  0.000752635    1.212    0.175
       231  -9.6222     20.3272     31.9101   9.2913582792e+01   6.8155053029e+01    0.3149029    0.2879901  35.83  0.001364865    1.544    0.352
       232  -8.9951     23.9878     31.0041   9.0712570273e+01   6.7983657361e+01    0.2737859     0.188391 -57.46  0.001202273    1.868    0.465
       233  -9.6974     13.5374     30.8750   9.6024439515e+01   6.8884893924e+01    0.3093389    0.1953609   2.62 0.0008944009    1.587    0.370
       234 -10.1476      8.6116     26.5510   9.7052883881e+01   7.0006234144e+01    0.3713787    0.2909401 -34.63  0.001286413    1.119    0.106
       235  -8.2811    106.5371     39.9270   6.1962886602e+01   5.3084257894e+01    0.1905407    0.1379032 -28.36 0.0003980052    1.457    0.314
       236  -9.4261    216.0556     38.5056   4.1546888360e+01   2.6798592552e+01    0.3738422    0.3131258 -27.66  0.001703998    1.394    0.283
       237  -9.6597    212.0559     37.5090   4.1767934478e+01   2.7854992195e+01      0.64397    0.4245979  21.94  0.002940119    2.826    0.646
       238  -9.1128    119.7804     38.9033   5.8088193237e+01   5.0211113411e+01    0.2314544    0.1838378  52.35 0.0003618298    1.170    0.145
       239  -9.4302    112.4690     36.4345   5.9080173800e+01   5.2232206017e+01    0.5724478    0.3422234  52.96    0.0021829    1.547    0.354
       240  -8.4176    241.3272     37.0248   3.8605122749e+01   2.1404784692e+01    0.1863568    0.1421022 -55.45  0.001157676    1.117    0.105
       241  -8.1147    232.3741     36.8713   3.9436638905e+01   2.3350558818e+01    0.1798482    0.1495095 -51.72 0.0005572946    1.137    0.121
       242  -9.5801    235.6155     35.1506   3.8740932424e+01   2.2869394707e+01    0.4535615    0.2185161 -75.83  0.001953186    2.734    0.634
       243  -9.1033    192.3547     36.5999   4.3993579026e+01   3.2666945250e+01    0.4255327    0.1840944  53.28  0.001772453    2.327    0.570
       244 -10.4143    124.5609     35.1163   5.5614481373e+01   4.9586665071e+01    0.4246321    0.2707189 -34.18  0.001347139    1.684    0.406
       245  -9.6660    152.8072     33.8535   4.9375259697e+01   4.2831748270e+01    0.5189303    0.3015725  56.64  0.001697393    1.550    0.355
       246  -9.3846     92.6445     35.3119   6.4332365324e+01   5.6707113319e+01    0.4364483     0.260652  40.37  0.002149422    1.547    0.354
       247  -8.4238    165.7832     35.1379   4.7524553023e+01   3.9427402248e+01     0.207162    0.1738392 -79.81 0.0005002622    1.204    0.170
       248  -8.7735     33.6800     34.3914   8.7288766517e+01   6.6405647992e+01    0.2681664    0.2511321  32.10  0.001867691    1.468    0.319
       249  -8.6010    139.0980     34.1124   5.2095501577e+01   4.6196083376e+01    0.2095412     0.191462  80.11 0.0005218077    1.109    0.099
       250  -9.3120    211.8706     31.9040   4.0446025579e+01   2.8618001999e+01    0.2833816    0.1738917 -50.56 0.0006845589    1.517    0.341
       251  -9.9310    134.1506     32.2900   5.2522513059e+01   4.7634269078e+01    0.2529091    0.2320177  62.99 0.0003038249    1.044    0.042
       252  -8.7551    130.4978     27.3156   5.1620139459e+01   4.9119911946e+01    0.3303076    0.1871279 -52.82 0.0007357167    2.305    0.566
       253  -9.0812     39.9720     32.5105   8.3569639739e+01   6.5985629187e+01    0.2802214    0.1983044  17.57 0.0007929826    1.355    0.262
       254  -9.3346    239.9274     31.0240   3.7449020178e+01   2.2471021511e+01    0.1890061    0.1536328 -78.46            0    1.080    0.074
       255 -10.1467    224.3967     27.7277   3.8175924953e+01   2.6276434197e+01    0.4058461    0.2276848 -29.86  0.001374636    1.967    0.492
       256  -9.3255    157.3635     28.9217   4.7081829873e+01   4.2296464856e+01    0.5423617    0.2530196  71.00  0.002223093    2.205    0.546
       257  -9.1195    105.2150     25.9420   5.7106597857e+01   5.5195646039e+01    0.2409153    0.1832193 -18.25  0.000376351    1.420    0.296
       258  -9.4733    103.6830     21.0409   5.5635550245e+01   5.6099533532e+01    0.3262306      0.27077 -11.58  0.001230415    1.290    0.225
       259  -8.2740     96.5298     29.9225   6.1062829849e+01   5.6607668936e+01    0.1905887     0.132446 -24.14 0.0005518018    1.523    0.343
       260  -8.1001     72.3037    247.6877   1.1456157183e+02   1.3918829976e+01    0.1258028   0.07202114  62.18 0.0002585344    1.614    0.380
       261  -8.5056    215.1664    244.4482   8.5803023863e+01  -6.9047726646e+00     0.293084   0.09325424  42.90  0.001145288    3.618    0.724
       262  -9.7372    248.1587    241.2326   7.9355252446e+01  -1.0894504949e+01    0.3532918    0.1893981 -36.15  0.002094177    2.016    0.504
       263  -8.8768    234.6704    242.9243   8.2000786901e+01  -9.3671288065e+00    0.2102249    0.1325791  15.63  0.001309984    1.353    0.261
       264  -7.9821    168.3772     23.2254   4.3693830044e+01   4.0207916576e+01    0.1638616    0.1243609 -49.19 0.0003844613    1.370    0.270
       265  -9.4244    175.4368     27.6834   4.3932082872e+01   3.7937170255e+01    0.5004724    0.2060545 -50.89  0.001682117    2.826    0.646
       266  -8.9641    167.4792     28.5089   4.5339694902e+01   3.9819394441e+01    0.2334125    0.2230789 -86.94  0.001284419    1.085    0.078
       267  -8.9479    170.4931     26.4982   4.4314308896e+01   3.9305490395e+01    0.2496252    0.1989991  56.92 1.630906e-05    1.214    0.176
       268  -9.7275    123.7793     27.0493   5.2987133226e+01   5.0765706331e+01    0.2967384     0.226342 -24.28 0.0005839858    1.446    0.308
       269  -8.6338     48.0617     26.7054   7.7430047322e+01   6.5818518007e+01    0.2245501    0.1644161  10.21 0.0004690324    1.245    0.197
       270  -8.5148    227.6065    242.2360   8.3161186863e+01  -8.3336089894e+00    0.1640876   0.09712791 -20.02 0.0009558238    1.705    0.413
       271  -8.3892    195.2108    242.4167   8.9276693405e+01  -3.7268313321e+00      0.24653    0.1016352  32.94  0.001143471    2.092    0.522
       272  -9.8523    171.7718    233.5588   9.2575841017e+01   1.2570231427e+00    0.4115838    0.3603768  45.02  0.002658695    1.249    0.200
       273  -7.9836     10.8545    235.1536   1.2528720042e+02   2.3524463324e+01    0.1331466    0.1173857  74.12 0.0005573686    1.308    0.236
       274  -7.9816      4.9655    234.7471   1.2632037272e+02   2.4172908859e+01    0.1321267   0.07965141  41.03 0.0008880761    1.576    0.365
       275  -8.2443    219.4983    228.5095   8.2386936467e+01  -5.3306118725e+00     0.126149     0.100681   8.31  0.000151962    1.010    0.010
       276  -9.1846    227.0076    216.5004   7.8908411319e+01  -4.7035476428e+00    0.2149581     0.161149 -18.90 0.0003827602    1.232    0.188
       277  -9.7694     24.7296     17.8764   8.4777537739e+01   7.0053975981e+01    0.2531164    0.1878064  15.91 0.0006734665    1.304    0.233
       278  -8.9810    247.0179    215.9952   7.5230757753e+01  -7.4770687352e+00     0.151007    0.1183541  -0.75 0.0007929894    1.008    0.007
       279  -8.9776     37.9793     26.3429   8.1906184673e+01   6.7223213722e+01    0.2855998    0.1565586 -34.29 0.0009153145    1.653    0.395
       280  -9.4876    234.3926     25.9833   3.6860123639e+01   2.4286139513e+01    0.2377487    0.1772531 -80.50 0.0003673956    1.186    0.157
       281  -8.5176    239.6679    215.6830   7.6467409263e+01  -6.4140170040e+00    0.1302636   0.08102823   0.84 0.0006376519    1.688    0.408
       282  -9.9899    137.0000     25.6000   4.9725446043e+01   4.7732833451e+01    0.3076707    0.2344166 -58.70 0.0002861232    1.523    0.343
       283  -8.5423    136.8223     21.1054   4.8278079669e+01   4.8273957169e+01    0.2635496    0.1611714  49.80 -0.000430966    1.481    0.325
       284  -8.1322    234.4996    210.0416   7.6379435633e+01  -4.8625227809e+00    0.1807209    0.1114585 -30.46 0.0009280079    1.531    0.347
       285  -7.8256     64.6639    202.7076   1.1188604014e+02   2.4129818804e+01    0.1194897    0.1024701 -26.84 0.0005269787    1.641    0.391
       286  -9.2988    129.5265     19.0000   4.8988610342e+01   5.0274242283e+01    0.3523422    0.2580817  66.93  0.001284651    1.274    0.215
       287  -8.2625    114.9234     27.4258   5.5190366305e+01   5.2805366579e+01    0.2098655    0.1219499  54.46 0.0004961606    1.539    0.350
       288  -9.3869     62.7517     26.0464   7.0994176320e+01   6.3620463617e+01    0.2872109    0.1936588  13.86  0.001305371    1.501    0.334
       289  -8.4092     30.3353     27.1447   8.5967044824e+01   6.7988956371e+01    0.2691993    0.1309741  36.81  0.001128977    2.401    0.584
       290  -8.2858     52.2325    198.9807   1.1431581933e+02   2.6562531889e+01    0.1712328   0.09802362 -74.12  0.000888303    1.667    0.400
       291  -8.8737    215.4524     23.4393   3.8074691343e+01   2.8825378763e+01    0.3031792    0.2467931 -20.24  0.001369312    1.562    0.360
       292  -8.3345    209.4879     26.2594   3.9356333979e+01   2.9869705496e+01    0.2404587    0.1625415   6.09  0.001145297    2.706    0.631
       293  -8.2109     29.5818    198.7335   1.1931365833e+02   2.9208232573e+01    0.1718017   0.09848072  87.49 0.0007238276    1.600    0.375
       294  -8.0724    245.5106    197.4714   7.2104657901e+01  -4.6256594757e+00     0.127373     0.103182  -6.06 0.0008099027    1.003    0.003
       295  -7.8617    224.5249    153.5025   6.7003724552e+01   5.9814039562e+00    0.1404597    0.1251873 -17.72 4.984723e-05    1.006    0.006
       296  -8.7870     82.2471     23.9787   6.3094557072e+01   6.0299056831e+01    0.3800285    0.2081542 -42.13   0.00181991    2.245    0.555
       297  -9.0264     78.2204     25.4324   6.5049069419e+01   6.0904103969e+01    0.2588223    0.2233527  52.91  0.001589076    1.352    0.260
       298  -9.1312     78.2523     22.0174   6.3594494774e+01   6.1323410880e+01    0.2860518    0.2718029  -8.13  0.001445463    1.229    0.186
       299  -8.6505     22.4542     23.5368   8.8463806677e+01   6.9389342885e+01    0.2972969    0.1370501 -50.49  0.001246087    2.396    0.583
       300 -10.7293    157.5950     22.9204   4.5243481295e+01   4.2929194917e+01    0.4544011    0.2152916  61.00 0.0004921081    1.828    0.453
       301  -7.9108     41.9761     25.0013   7.9441562631e+01   6.6914126214e+01    0.1538395    0.1186382 -19.43 0.0009827496    1.137    0.121
       302  -8.5784    246.1430     23.2569   3.5292873041e+01   2.2121791055e+01    0.1634518    0.1412081 -80.03 0.0003034086    1.140    0.123
       303  -7.9788     96.4512     23.4818   5.8558023045e+01   5.7411956683e+01    0.1334005     0.119235  33.07 0.0008080357    1.041    0.039
       304  -8.1291    113.7911     22.3532   5.3609935115e+01   5.3650217990e+01    0.1949396    0.1065841  48.61 0.0003975762    1.595    0.373
       305  -8.3048    232.1695     20.6722   3.5905767239e+01   2.5407794986e+01    0.1639467    0.1394197 -81.12 0.0004136433    1.086    0.079
       306  -8.5742    172.0208    152.9882   7.7541160590e+01   1.6422545375e+01    0.2518804    0.1895107  -0.54  0.001144782    1.708    0.415
       307  -7.8077      5.9516    141.4591   1.2006348463e+02   4.4634743744e+01    0.1679792   0.07644883  52.18 0.0008068567    2.383    0.580
       308  -7.7665    210.2943    137.6856   6.6142734750e+01   1.1588430280e+01    0.1417283    0.1143619 -70.75 0.0005090829    1.599    0.375
       309  -8.6831     13.5812    133.1030   1.1711637554e+02   4.6113116003e+01     0.188828    0.1607396  65.31  0.000580928    1.233    0.189
       310  -9.8208     66.0521    131.4761   1.0134260810e+02   4.1104974851e+01     0.470991    0.3033862  -1.92  0.000810897    2.528    0.604
       311  -8.4912     25.4955    128.4675   1.1308797628e+02   4.6312832048e+01    0.1314612    0.1105234 -68.94 0.0001092721    1.036    0.034
       312  -7.6639    113.3046    126.6959   8.6334808061e+01   3.4408261451e+01    0.1561511    0.1231809  81.22 0.0004574251    1.599    0.374
       313  -9.5676     63.9209     18.1514   6.7038360618e+01   6.4446315985e+01    0.3798068    0.2358408  31.02  0.002029759    1.455    0.313
       314  -8.3844     29.5174    124.4951   1.1131592276e+02   4.6941954706e+01    0.1326763    0.1134903 -75.12  0.000420034    1.032    0.031
       315  -9.0315    248.1983     18.2723   3.4116266194e+01   2.2289943230e+01    0.4512336    0.2075182 -88.38  0.002191354    2.417    0.586
       316  -7.7599    224.3085     19.2875   3.6292286374e+01   2.7306000001e+01    0.1144021   0.09368526  47.24  0.000238785    1.574    0.365
       317  -7.8069     17.1586    124.3611   1.1503073256e+02   4.7974702266e+01    0.1567128    0.1096921  43.47 0.0009120691    1.599    0.375
       318  -9.3481    170.3619     17.6964   4.1852262046e+01   4.0321254213e+01    0.5200438    0.1616408  59.12  0.001851448    2.642    0.621
       319  -9.8756     69.3739    122.8536   9.8623303088e+01   4.2785501444e+01    0.2369985    0.2332843  38.85 0.0002681993    1.094    0.086
       320  -9.7884    121.6952     17.6300   5.0124167695e+01   5.2295491044e+01    0.2350017    0.2079604  70.78 0.0002066867    1.141    0.124
       321  -8.7915    185.6594     17.3132   3.9806732974e+01   3.6598987813e+01    0.2290816    0.1501007 -85.26  0.001201623    1.522    0.343
       322  -7.6217    236.1766    117.3575   5.7109874893e+01   1.0088299695e+01    0.1684862    0.1316259  70.65 0.0002374189    1.592    0.372
       323  -8.9051     12.0131    115.0505   1.1539276952e+02   5.0584798261e+01    0.1908135    0.1569831 -76.55 0.0004749137    1.058    0.055
       324  -9.3859     15.4951    112.1360   1.1390232013e+02   5.1054105158e+01    0.2317465    0.1914116  89.13  0.000676588    1.200    0.167
       325  -8.6321      6.5870    112.8343   1.1679291419e+02   5.1451001647e+01    0.1847501    0.1498628  30.51   0.00121736    1.485    0.327
       326  -8.1587    104.9055    111.8478   8.5107088775e+01   3.9517360924e+01    0.2318751    0.2093588  -4.07 0.0006800404    1.208    0.172
       327  -9.4073     26.0169    112.0250   1.1050576299e+02   5.0291246690e+01    0.1919439    0.1635152 -65.87  0.001202541    1.010    0.010
       328  -7.6570     65.3214    110.7121   9.7315937438e+01   4.6328025994e+01    0.1418285    0.1098642  72.41 0.0002936619    1.601    0.375
       329  -7.9364    180.5081    106.4449   6.4484288204e+01   2.4050606303e+01    0.1514452    0.1485241 -55.60  0.000259514    1.007    0.007
       330  -8.9649     19.1078    105.1203   1.1167613121e+02   5.2488401260e+01    0.1989828    0.1425154 -50.25 0.0003418476    1.239    0.193
       331  -8.7740    218.5006    103.0222   5.6638609432e+01   1.6181131876e+01    0.2261803    0.1887875  55.10  0.001109336    1.294    0.227
       332  -7.8578     78.5497     15.5820   6.0728594957e+01   6.2008560417e+01    0.1313207     0.106589  25.34 0.0001560222    1.051    0.049
       333  -7.5224    216.3218     14.2445   3.5876424853e+01   2.9682524165e+01    0.1163153   0.08877805  54.35 0.0001859426    1.526    0.345
       334  -9.3674    119.7807    102.9439   7.8392207145e+01   3.8545300745e+01    0.3920968    0.2232728  50.24 0.0007582413    1.866    0.464
       335  -8.2499     25.7347    103.5632   1.0918938012e+02   5.2359460311e+01    0.1610887     0.120061  40.02 0.0004526053    1.553    0.356
       336  -9.1236     10.4895    101.5071   1.1399785137e+02   5.3916866623e+01    0.2070206    0.0986191  35.42   0.00103284    2.427    0.588
       337  -8.1461     56.1724    100.2015   9.8009276625e+01   5.0057347949e+01    0.1843352     0.160853  68.86 0.0002797741    1.342    0.255
       338  -9.5891    203.4516     97.3591   5.7814012946e+01   2.0493167544e+01    0.4293732    0.2152404 -54.46  0.001634283    2.408    0.585
       339  -8.0667    130.7310     98.0173   7.3988080027e+01   3.7236259952e+01    0.2205026    0.2012521 -43.38 0.0005734247    1.099    0.090
       340  -7.6856    184.5009     96.4709   6.1103002022e+01   2.5019790393e+01    0.1511422    0.1454646 -64.74 4.715406e-05    1.017    0.016
       341  -9.1003     72.4103     95.2825   9.1189277827e+01   4.8966643664e+01     0.326188    0.2507755 -39.51  0.001035685    1.239    0.193
       342  -9.2657    165.0408     94.5973   6.4649297315e+01   2.9974320328e+01    0.3150279    0.2872566 -56.79 0.0005981757    1.107    0.097
       343 -10.1133    210.3656     91.1030   5.5105850916e+01   2.0037726367e+01    0.3017076    0.2379144  87.73  0.000705186    1.462    0.316
       344  -8.5332    174.5111     92.8347   6.2154341103e+01   2.8058359603e+01    0.2450342    0.2130584  26.35 0.0007172625    1.293    0.226
       345  -7.9722    145.5091     92.6155   6.8647604074e+01   3.4973385697e+01    0.1545289     0.148561  37.88 0.0007987658    1.042    0.040
       346  -9.4336    136.0027     90.3071   7.0389827904e+01   3.7635584283e+01    0.4911115    0.3050306  26.12  0.001441988    2.217    0.549
       347  -9.3894     19.9342     91.3042   1.0901807851e+02   5.5706359424e+01    0.3200432    0.2068272 -42.67  0.001149684    1.405    0.288
       348 -11.4339    189.2245     88.1794   5.8046358718e+01   2.5421350779e+01    0.3800343    0.3017143 -76.22            0    1.437    0.304
       349 -10.2460    199.5640     76.5827   5.3252929864e+01   2.4983497498e+01    0.5277848    0.3275591  46.68  0.001552765    1.768    0.434
       350 -11.2791    195.6555     82.0638   5.5314295873e+01   2.4976558808e+01    0.3615789    0.3053409 -56.15 0.0001847347    1.151    0.131
       351  -9.1132     55.5960     89.8221   9.5694389195e+01   5.2561169968e+01    0.4461385    0.3334849  66.76   0.00228189    1.847    0.459
       352  -8.2117     99.4905     90.5284   8.0937656456e+01   4.5360681685e+01    0.1512681    0.1437849 -12.25 0.0001810012    1.029    0.028
       353  -8.1453     38.4818     89.9506   1.0197166718e+02   5.4453636352e+01    0.1970522    0.1167889 -58.09 -6.665516e-05    1.471    0.320
       354  -8.5678     27.5340     88.6944   1.0573172135e+02   5.5734879971e+01    0.2457367    0.1808391  57.61  0.001394829    1.735    0.424
       355  -8.6029      5.2067     88.4210   1.1381568512e+02   5.7272410121e+01    0.1526447    0.1096734  35.72 0.0009089909    1.698    0.411
       356  -8.6762    240.0137     86.5087   4.9656922166e+01   1.4448531323e+01    0.1839147    0.1339041  63.49 0.0005343563    1.527    0.345
       357  -8.5530     38.2809     94.9521   1.0314250444e+02   5.3299455192e+01    0.2641287    0.1530211 -47.15 0.0009589463    1.518    0.341
       358  -7.8677    102.9326     86.2326   7.8595067777e+01   4.5604777928e+01    0.1967697    0.1252083  42.96 0.0006496592    1.589    0.371
       359  -8.1445      1.2947     85.9454   1.1482945398e+02   5.8030334055e+01    0.1939323   0.08253735  85.77 0.0007032127    4.196    0.762
       360  -8.9410    235.6968     83.2943   4.9508875376e+01   1.5851139118e+01    0.3007249    0.1888201 -47.41  0.001536345    1.425    0.298
       361  -8.4745    230.8980     84.4841   5.0435473828e+01   1.6666774717e+01    0.3248608    0.1303871  55.65  0.001313922    2.664    0.625
       362 -10.7563    188.8624     82.1273   5.6531984584e+01   2.6573385738e+01    0.3512492    0.2725189  51.09 0.0003200136    1.326    0.246
       363  -8.4583     33.6870     85.9934   1.0285856866e+02   5.5827272142e+01    0.2042146    0.1427021  18.67 0.0007631746    1.620    0.383
       364  -8.5015     87.5024     83.4627   8.2733558720e+01   4.9106915013e+01    0.2633635    0.2128698 -15.07 0.0007830057    1.339    0.253
       365  -8.1462     86.2805     80.6758   8.2301253970e+01   4.9915857322e+01    0.2232968    0.2049694 -65.37 0.0004019793    1.240    0.194
       366  -9.4788     64.0286     82.5037   9.0666408290e+01   5.3084885140e+01    0.3303014     0.282261  81.33 0.0008480868    1.543    0.352
       367  -7.7563    154.5196     83.4823   6.3901722917e+01   3.4602208978e+01    0.1525758    0.1499699  76.13 5.909536e-06    1.006    0.006
       368  -8.4755    135.7310     82.9956   6.8313234218e+01   3.9140808391e+01    0.2745709    0.2036443 -54.55 0.0005956176    1.484    0.326
