#   1 NUMBER                 Running object number                                     
#   2 MAG_AUTO               Kron-like elliptical aperture magnitude                    [mag]
#   3 X_IMAGE                Object position along x                                    [pixel]
#   4 Y_IMAGE                Object position along y                                    [pixel]
#   5 X_WORLD                Barycenter position along world x axis                     [deg]
#   6 Y_WORLD                Barycenter position along world y axis                     [deg]
#   7 A_WORLD                Profile RMS along major axis (world units)                 [deg]
#   8 B_WORLD                Profile RMS along minor axis (world units)                 [deg]
#   9 THETA_WORLD            Position angle (CCW/world-x)                               [deg]
#  10 FWHM_WORLD             FWHM assuming a gaussian core                              [deg]
#  11 ELONGATION             A_IMAGE/B_IMAGE                                           
#  12 ELLIPTICITY            1 - B_IMAGE/A_IMAGE                                       
         1 -16.3879    178.5960     78.9382   7.8847387163e+01   2.9525933527e+01      12.7296     7.461501  89.58   0.01462518    3.994    0.750
         2 -15.9910    166.3974     57.7155   7.5238484350e+01   3.6054559462e+01     8.052299     3.965927 -62.20   0.02188014    5.020    0.801
         3 -14.5283    203.6914     47.9167   6.5690368118e+01   2.8061551361e+01     1.231217     1.099255  59.16  0.006841329    1.091    0.083
         4 -15.4073    216.5886     37.9379   6.1150546896e+01   2.6162757953e+01     4.130471     1.609961 -54.96   0.01326259    3.846    0.740
         5 -13.6905    203.2584     36.7527   6.2740951722e+01   2.9692721457e+01     1.319981    0.7826797 -55.27   0.00589002    1.916    0.478
         6 -16.7143    242.8633     92.1211   7.0837813445e+01   1.1707503351e+01     11.28202     3.322787 -31.65   0.03484107    3.675    0.728
         7 -13.7936    245.9182     34.0044   5.6549064909e+01   1.9520938309e+01     1.181273    0.5944894  87.80  0.004876455    2.622    0.619
         8 -16.5470    243.3236      6.3947   5.0502340566e+01   2.3433300644e+01     2.302218     1.192146  66.21  0.008174547    1.776    0.437
         9 -11.6352    134.0618      6.5582   6.5437701862e+01   5.0267981479e+01     0.405407    0.2729347 -13.01  0.001576458    1.641    0.391
        10 -12.6618     58.0869      4.2575   8.5027789155e+01   6.5051161963e+01    0.4777748    0.3129379 -15.09  0.003083103    1.338    0.252
        11 -12.3635     64.5741      3.5218   8.2477281741e+01   6.4164329859e+01    0.3812408    0.2851078   7.86  0.002586658    1.104    0.094
        12 -11.5580    105.7101      3.4947   7.0589524186e+01   5.6744377933e+01    0.3764003    0.2151912 -36.36  0.001967872    2.047    0.512
        13 -11.4443     91.7724      4.9343   7.4773571166e+01   5.9352937369e+01    0.3148832    0.1585725  -9.15  0.001334513    2.312    0.567
        14  -9.4841    139.3241      3.7013   6.3452227413e+01   4.9301365805e+01    0.1278746    0.1007197 -72.76 0.0003398156    1.629    0.386
        15 -16.0397    216.4122      2.5946   5.2247067058e+01   3.0325333579e+01      9.22606          nan  61.99   0.01514624   14.986    0.933
        16 -10.7461    152.5772    119.7066   9.5405103881e+01   2.7879558553e+01    0.2967503    0.1483135 -39.00  0.001137676    2.128    0.530
        17 -12.3913    167.3062    112.8397   9.0346750874e+01   2.5927880325e+01    0.5081103    0.3851225 -60.17  0.001163024    1.501    0.334
        18 -10.6194    135.0000    113.0241   9.7946553766e+01   3.3026150343e+01    0.4478812    0.1881313 -45.75  0.001641686    2.368    0.578
        19 -11.9264    134.6884    106.2439   9.6316225655e+01   3.4493798191e+01     0.629855    0.3421602 -43.73  0.002631607    1.830    0.453
        20 -14.8868     18.6187    206.6162   1.3702491456e+02   3.0385855518e+01    0.9045491    0.6024607  79.70  0.003913437    1.099    0.090
        21 -12.2825    156.5126    101.3887   8.9826161487e+01   3.0665337483e+01     0.492323    0.3524523 -71.21  0.002139407    1.902    0.474
        22 -10.8187    140.8450    102.4647   9.3826874280e+01   3.3950790783e+01    0.2932845    0.2387135   0.71 0.0008582041    1.536    0.349
        23  -9.3650    111.6856    103.6879   1.0152037895e+02   3.9572455648e+01    0.1438774    0.1134611  -9.65 0.0004216006    1.636    0.389
        24 -10.9774    192.4826    194.5161   1.0268064294e+02   5.2575920566e+00    0.9252072    0.4445289 -63.33  0.002240821    9.292    0.892
        25 -10.7809    123.7156    100.9933   9.7718288027e+01   3.7819919769e+01    0.3054064      0.18931  18.50  0.001176791    2.705    0.630
        26 -11.9142    246.4196    163.7187   8.6535120899e+01  -4.9584618687e-01    0.5013493     0.288432   2.60  0.001996484    2.965    0.663
        27  -9.2707    202.3616    196.2612   1.0110702622e+02   3.0536569553e+00     0.138946   0.09562515  21.59 0.0005533065    1.633    0.388
        28 -11.4037    146.3168     97.3680   9.1149668669e+01   3.3763023213e+01    0.3313174    0.2938059   8.47 0.0006488838    1.256    0.204
        29 -15.2821     49.4742    181.6832   1.2942936503e+02   3.1907286025e+01     1.893568     1.529261 -14.95   0.00189715    2.319    0.569
        30 -10.8349    133.2208     94.5264   9.3590287228e+01   3.7174590241e+01    0.2871284    0.2487868 -71.76 0.0002467667    1.308    0.236
        31 -11.6767    218.0898    181.6536   9.5353133001e+01   2.2750984634e+00    0.2525151    0.2052549  31.76  0.001209205    1.114    0.102
        32 -11.7364    139.7926     86.4466   8.9720309558e+01   3.7329819082e+01      0.34695    0.3113336 -54.72 0.0008744221    1.169    0.145
        33 -13.5702    187.6180     62.0533   7.2350678305e+01   3.0047236143e+01     1.163807     0.609512  28.74  0.003867052    3.400    0.706
        34 -11.0988    219.8457     78.4114   7.1107844366e+01   1.9362891980e+01    0.6567213    0.3636079  72.79  0.002444969    2.359    0.576
        35 -12.0415    209.7343     82.3659   7.3854054596e+01   2.1199646294e+01    0.6186175    0.3840539  29.20  0.002507034    2.235    0.553
        36 -11.6606    215.4893     80.6665   7.2416751474e+01   2.0063412901e+01    0.4569963    0.2751451  62.23  0.001878031    1.730    0.422
        37 -12.9832    153.3110     78.1995   8.4137223375e+01   3.5777987477e+01    0.4385692     0.307676 -35.06  0.001096928    1.456    0.313
        38  -9.5988     88.5533     79.0367   1.0139414338e+02   4.8614884762e+01    0.1923561    0.1168157 -67.60 0.0008080131    2.599    0.615
        39 -12.5151    215.2659     68.4327   6.9281722567e+01   2.2079828075e+01    0.7401399    0.5671169 -84.36  0.001336182    1.516    0.340
        40 -11.6956    210.8132     64.8154   6.9060202805e+01   2.3754319927e+01    0.4693213    0.3203247 -81.79  0.001593245    1.923    0.480
        41 -10.1366      2.2198    159.3501   1.3646314609e+02   4.1049797493e+01    0.2249149    0.1119283 -87.13  0.001394997    1.637    0.389
        42 -10.7829    133.6597    145.7026   1.0564623378e+02   2.6395909771e+01    0.6895367    0.1424507 -53.95  0.001478016    7.740    0.871
        43 -10.3350    130.5708     66.1912   8.6047485804e+01   4.3050518158e+01    0.2657685    0.2119178  46.08 0.0009058649    1.247    0.198
        44 -13.6694    247.1105     44.9587   5.8974240571e+01   1.7782396199e+01    0.8019403    0.4686933 -48.19  0.003917263    1.629    0.386
        45  -9.7258    202.2060    248.2176   1.0958042118e+02  -4.1995362003e+00    0.1508377     0.120269  52.15 0.0003237994    1.301    0.231
        46 -11.2043    176.2219     46.4029   6.9966130739e+01   3.5274722598e+01    0.5404503    0.3624525  -0.53  0.002369769    2.103    0.525
        47 -11.9674     69.4971    145.4997   1.2055849413e+02   3.7088970413e+01    0.3933039    0.2822035 -85.26  0.001383609    1.372    0.271
        48 -10.3225    186.8914     39.9648   6.6217226228e+01   3.3448058055e+01    0.3107859    0.2507649  68.53  0.001192576    1.187    0.157
        49 -10.5286    165.1428     38.8220   6.9788175427e+01   3.9105911301e+01    0.2059703     0.191881  50.54  0.000382223    1.004    0.004
        50 -10.0784    189.8738     36.2155   6.4663505515e+01   3.3181546388e+01     0.206846    0.1843821 -87.05 0.0005579532    1.133    0.118
        51  -9.5383    177.7228     24.1162   6.3154061146e+01   3.7772564151e+01    0.1777205    0.1719107 -35.43 0.0004545505    1.129    0.114
        52 -11.3836    219.5762     20.8430   5.6415855547e+01   2.7549214840e+01     0.346881    0.2155373 -61.70 0.0008014631    1.734    0.423
        53 -11.3302    192.1686     22.0813   6.0356112585e+01   3.4330807204e+01    0.2112047    0.1896374  68.61 0.0002866424    1.022    0.021
        54 -10.7016     81.4982     22.9087   8.4916236835e+01   5.9141036903e+01    0.1830434    0.1133084 -26.84  0.000535716    1.529    0.346
        55  -9.7847     39.6444     18.6720   9.7895130635e+01   6.5539963466e+01     0.122041   0.07223076 -10.62 0.0007045409    1.778    0.438
        56 -12.0238     66.6504    144.3223   1.2103518065e+02   3.7720703408e+01    0.5061179    0.2771866 -78.97  0.002444764    2.058    0.514
        57 -14.7276     57.8380    173.0447   1.2681911049e+02   3.2676767830e+01      1.36184     1.005621 -28.64  0.002657395    2.394    0.582
        58 -11.8542      5.9009    170.5533   1.3664974720e+02   3.8516946544e+01    0.2470387    0.1721986  37.19  0.001466146    1.792    0.442
        59 -11.9178    182.7831    134.6046   9.2281805696e+01   1.8129475213e+01    0.3314063    0.1461081  52.30  0.001194722    2.325    0.570
        60 -10.8073     42.4842     10.4833   9.3476791027e+01   6.6344071851e+01    0.1142038   0.08807077 -10.13 8.635728e-06    1.019    0.018
        61  -9.4862    166.0078    134.4766   9.5872341724e+01   2.1918376891e+01    0.2208497    0.1458629  46.00 0.0003487951    1.470    0.320
        62 -10.6550    135.7581    129.5426   1.0167327604e+02   2.9397512551e+01    0.4338399    0.1198235 -49.54  0.001274825    3.788    0.736
        63 -10.9279    135.2255    121.8713   1.0002877374e+02   3.1126017450e+01    0.5741262     0.184932 -50.58  0.001790598    3.366    0.703
        64 -11.8471    160.7072    128.3533   9.5624302160e+01   2.4325134641e+01    0.4286303    0.3616481 -64.58  0.002174218    1.291    0.225
        65 -12.6100    191.7774    133.4817   9.0148017102e+01   1.6299404258e+01    0.3831985    0.2934944  21.52  0.001818369    1.534    0.348
