#   1 NUMBER                 Running object number                                     
#   2 MAG_AUTO               Kron-like elliptical aperture magnitude                    [mag]
#   3 X_IMAGE                Object position along x                                    [pixel]
#   4 Y_IMAGE                Object position along y                                    [pixel]
#   5 X_WORLD                Barycenter position along world x axis                     [deg]
#   6 Y_WORLD                Barycenter position along world y axis                     [deg]
#   7 A_WORLD                Profile RMS along major axis (world units)                 [deg]
#   8 B_WORLD                Profile RMS along minor axis (world units)                 [deg]
#   9 THETA_WORLD            Position angle (CCW/world-x)                               [deg]
#  10 FWHM_WORLD             FWHM assuming a gaussian core                              [deg]
#  11 ELONGATION             A_IMAGE/B_IMAGE                                           
#  12 ELLIPTICITY            1 - B_IMAGE/A_IMAGE                                       
         1 -10.5612    236.2119     16.8669   3.4429077686e+01   2.5236620582e+01     0.337356    0.2035795 -41.10  0.001422446    1.314    0.239
         2 -10.2413     30.7625     23.5960   8.4483637546e+01   7.1360656233e+01    0.5024465    0.3024451 -36.49  0.002376248    1.548    0.354
         3 -11.7352    111.8913     19.5802   5.0232911314e+01   5.5240650895e+01    0.5465047    0.4613421  67.44  0.002364643    1.164    0.141
         4 -10.9306     56.8156     13.8759   6.4767087210e+01   6.8707735282e+01    0.5928031    0.3468713  25.64  0.001608937    2.100    0.524
         5 -11.1211    149.9036     18.4187   4.3058166103e+01   4.5526195198e+01    0.3216496    0.2959719  88.03 0.0005322314    1.044    0.043
         6 -10.3480    154.9112     16.3614   4.1660840053e+01   4.4453358092e+01    0.5256696    0.2713754 -14.28  0.002188977    2.359    0.576
         7 -10.4844    157.2591      9.1274   3.8885928738e+01   4.4587652896e+01    0.6032788    0.3490594  19.97  0.002554275    2.631    0.620
         8 -10.7358    101.8245     16.1314   5.1008146396e+01   5.8185133797e+01    0.5101776    0.3448404  21.03  0.001535859    1.804    0.446
         9 -10.1702     86.9057     16.4078   5.5139088064e+01   6.1784233080e+01    0.4761976    0.2324802 -37.14  0.001486177    2.072    0.517
        10  -9.4272     23.5229      2.4701   7.6330453350e+01   7.6104029612e+01    0.3443969     0.142441  32.10  0.001550331    2.609    0.617
        11 -10.1131     22.7996     15.6300   8.5461317173e+01   7.3889143555e+01    0.4412315    0.3449111  63.76  0.002528681    2.005    0.501
        12 -10.9667      4.9455      3.5830   9.2777488706e+01   7.7977853115e+01    0.6535126    0.3975705 -12.25  0.002779139    1.763    0.433
        13 -10.3372     17.9813      3.7108   8.1505568693e+01   7.6627710595e+01     0.375344    0.3119126  53.56  0.002121632    1.740    0.425
        14  -9.9235     19.0117     10.9911   8.5501318060e+01   7.5203245333e+01    0.2574688    0.1983228 -10.27 0.0007236286    1.254    0.203
        15 -11.4404     14.8237      7.5423   8.6643873627e+01   7.6305172622e+01    0.5371614    0.3850706  46.88  0.001974771    1.920    0.479
        16 -10.5329     10.5035     15.1139   9.4428497525e+01   7.5228687708e+01    0.3259915     0.320038  46.40  0.001895194    1.293    0.226
        17 -10.7662    186.2429     13.4401   3.7308622237e+01   3.6862366306e+01    0.2997088    0.2395145  70.28 0.0009337828    1.292    0.226
        18 -11.4751    181.4167     13.0644   3.7645332050e+01   3.8085050012e+01    0.8647482    0.3527597  47.61   0.00332056    3.113    0.679
        19 -12.1837    122.2877     11.3156   4.4659415294e+01   5.3480874955e+01    0.6255397    0.3455174  63.71 0.0005039868    1.685    0.407
        20 -11.4418    127.2403      4.8902   4.1214784046e+01   5.2807124654e+01    0.3986024    0.2789852  57.57 0.0003785244    1.361    0.265
        21 -10.0647    216.4571      7.8857   3.3455433705e+01   3.0378536335e+01    0.3163838    0.1839245 -41.83  0.001171798    1.416    0.294
        22 -10.6285    210.3586      9.6891   3.4333592421e+01   3.1565689077e+01     0.432528     0.253965 -49.72  0.001745366    1.455    0.313
        23 -10.4127    212.6249      5.6213   3.3112419455e+01   3.1456243657e+01    0.4305234    0.1937838 -22.56  0.001993174    2.230    0.552
        24 -11.0707     46.9927      9.7787   6.6943145589e+01   7.1171713953e+01     0.442459     0.318908   0.74  0.001318887    1.521    0.342
        25  -9.0189     33.9897     11.1872   7.5248689709e+01   7.3157409932e+01    0.2912934    0.1593679 -45.40    0.0014435    1.897    0.473
        26  -9.4651    250.3447      9.4860   3.1912194873e+01   2.3174349251e+01    0.2068206   0.09251137 -28.51 0.0008405059    1.884    0.469
        27  -9.6031     92.6831     10.1323   5.0387127375e+01   6.1120245010e+01    0.3682478    0.1777967  67.56  0.001220526    2.170    0.539
        28  -9.8721     85.8219      9.1470   5.1712639227e+01   6.2890468726e+01    0.2771381    0.1924728  81.34 0.0009378641    1.743    0.426
        29  -9.7908     24.9656      7.2957   7.8709999294e+01   7.5115498039e+01    0.2480075    0.1967811 -30.79 0.0006858772    1.144    0.126
        30  -9.2399    102.6670      7.3881   4.6714664486e+01   5.8913979779e+01     0.301113    0.1712923  32.57   0.00132567    2.054    0.513
        31 -10.2805    106.9984      4.6275   4.4543002313e+01   5.8074374251e+01    0.4526221    0.2525212 -47.21  0.001476778    1.986    0.496
        32  -8.8806    102.0703      1.5280   4.4048150690e+01   5.9605656141e+01    0.1995365    0.1703565  60.86 0.0006248359    1.095    0.087
        33  -9.1815     65.1351      5.3480   5.6193524073e+01   6.8063569287e+01     0.215561    0.1730726   2.83  0.000639801    1.252    0.201
        34 -10.6499     90.2372      3.5267   4.7631606143e+01   6.2386262950e+01    0.3971446    0.3135444 -89.31  0.001548508    1.439    0.305
        35  -9.9864     85.3023      1.3853   4.7719764041e+01   6.3789498573e+01    0.3483486    0.1590781  74.44 0.0006018281    2.619    0.618
        36 -10.5759     38.6640      4.9938   6.8252066350e+01   7.3342957055e+01    0.3092428    0.1753196  44.94 0.0009576909    1.817    0.450
        37  -9.2209     42.0469      1.4720   6.3863289906e+01   7.3209007736e+01    0.1727059    0.1490865  22.19 4.622904e-05    1.080    0.074
        38  -9.7222     53.5036      2.1012   5.8774783456e+01   7.0896893945e+01    0.3732129     0.158075  48.72  0.001647043    2.187    0.543
        39  -8.9661     34.3533      1.9595   6.8628510518e+01   7.4504808015e+01    0.1749686    0.1401405 -14.40 0.0004039352    1.136    0.119
        40  -8.6808     30.1779      2.1470   7.1430158253e+01   7.5159402399e+01    0.1601984    0.1452195 -37.23  0.001052447    1.316    0.240
        41  -9.8151     78.6800      7.0234   5.2641961833e+01   6.4811028324e+01    0.3895285    0.2876595   9.98  0.002076225    1.481    0.325
        42  -9.0716    228.9391      1.4854   3.1135374819e+01   2.8294768417e+01    0.1674676    0.1118495  89.91 0.0005812575    1.518    0.341
        43  -8.4518     69.5274      2.4320   5.2888457448e+01   6.7398386639e+01    0.1334467    0.1212312  29.40  0.000290622    1.008    0.008
        44  -8.0711    137.6492      1.3100   3.8390044210e+01   5.0398606286e+01    0.1509736   0.09319214 -61.25 0.0007044582    1.717    0.418
        45  -9.0123     64.7545      1.3540   5.3861954692e+01   6.8577546593e+01    0.1886972    0.1101819  48.81 0.0009379017    1.575    0.365
        46  -8.9991      1.7354    116.0163   1.1892092700e+02   5.0974504943e+01    0.1919611    0.1438807 -68.08 0.0003496565    1.251    0.200
        47  -9.9836      2.1450    111.9849   1.1849936355e+02   5.1973287901e+01    0.2334056     0.175372  72.37 0.0005056903    1.191    0.161
        48  -9.9477     45.5152    113.1072   1.0359980128e+02   4.8017437485e+01    0.3071992    0.2205782   9.83  0.001549827    1.781    0.439
        49  -9.6154     32.0943    113.1973   1.0827501877e+02   4.9408858175e+01    0.1958061    0.1709254 -54.74 0.0002941996    1.204    0.169
        50 -10.1304     50.1848    111.5723   1.0172262004e+02   4.7861002304e+01     0.267639    0.2002161  77.09 0.0006239497    1.400    0.286
        51  -8.2087    108.4699    111.5878   8.2998978853e+01   3.8507464447e+01    0.1484849    0.1468926 -20.73 7.832923e-05    1.058    0.055
        52 -10.8880     20.4096    109.4351   1.1190608382e+02   5.1406438466e+01    0.4356397    0.2338633  41.21   0.00111456    1.883    0.469
        53  -9.2078     34.7567    108.0326   1.0659327138e+02   5.0491367787e+01    0.3860455    0.1127029 -72.36 0.0009054815    3.307    0.698
        54  -8.4273    100.2824    109.3208   8.4845165072e+01   4.0591055221e+01    0.1506723    0.1196799 -19.59 0.0006995944    1.589    0.371
        55 -10.3053      6.5597    108.3496   1.1668658598e+02   5.2646516692e+01    0.3091712    0.2367345  68.48  0.000907127    1.220    0.180
        56  -8.9522     42.5812    108.4791   1.0386664632e+02   4.9549927809e+01    0.1412825    0.1255349 -78.67 0.0002395008    1.018    0.018
        57 -10.4231     61.0524    106.7438   9.7025801350e+01   4.7684825593e+01    0.2501658    0.1961335 -57.50  0.000235769    1.213    0.176
        58 -10.7833     79.8885    103.5607   8.9892841559e+01   4.5602154807e+01     0.368683    0.3164312 -13.02   0.00153542    1.417    0.294
        59  -9.2156     16.9148    104.0771   1.1254042392e+02   5.3061642218e+01    0.2130252    0.1384944 -44.85 0.0007967823    1.668    0.401
        60  -9.5242      8.0298    103.4575   1.1571700670e+02   5.3814887656e+01    0.2119587    0.1508323 -80.76 0.0007545652    1.183    0.155
        61  -9.1188    248.9798    103.6727   5.3432436799e+01   1.1940693580e+01    0.1915269    0.0818255  32.31 0.0007049705    4.425    0.774
        62  -9.2208    108.3386    103.1433   8.0889962004e+01   4.0478193103e+01    0.2733263    0.2065961  27.73 0.0006115715    1.516    0.340
        63 -10.2014     45.1724    101.8066   1.0175432927e+02   5.0988064801e+01    0.3113082    0.2215072  57.60 0.0005493007    1.501    0.334
        64  -9.1930     11.8764    101.8389   1.1414311597e+02   5.3990536363e+01    0.2056441    0.1590573 -65.82 0.0006532623    1.181    0.153
        65  -8.7045     94.5188    101.4936   8.4645038890e+01   4.3521635763e+01     0.151502    0.1463542 -64.65 -5.984661e-05    1.015    0.015
        66  -9.3639     53.3231    100.3397   9.8471962212e+01   5.0366485949e+01    0.2793614     0.210446 -41.26 0.0006213356    1.432    0.302
        67 -10.1837     53.4220     97.4771   9.7837044784e+01   5.1089796191e+01    0.2871439    0.2644038   4.89  0.001207223    1.253    0.202
        68  -8.8477     38.3167     99.2751   1.0385284838e+02   5.2406966806e+01    0.1390584    0.1004596 -37.71 0.0005740669    1.567    0.362
        69 -10.0575     69.1719     96.5233   9.1884911367e+01   4.9081037457e+01    0.3355799    0.2483389 -64.82 0.0006380354    1.306    0.234
        70 -10.4611     16.2591     95.3178   1.1171358309e+02   5.5383374543e+01    0.3262903    0.2263798  59.24  0.000478621    1.490    0.329
        71  -9.9452     79.1183     94.5359   8.7902750824e+01   4.7951752398e+01    0.3622874    0.2777442   1.78  0.001476558    1.783    0.439
        72 -10.0071     35.1925     94.9813   1.0428652718e+02   5.3847506733e+01    0.3269722    0.1815983 -38.68   0.00144506    2.142    0.533
        73  -9.9763    116.6009     93.6259   7.5910163302e+01   4.0918499140e+01     0.273375    0.2468753 -86.00 0.0007542262    1.198    0.165
        74  -8.9377    131.8520     93.6114   7.1821931233e+01   3.7621438281e+01    0.2117324    0.1465212  60.99 0.0005023991    1.651    0.394
        75  -9.0396    109.1399     92.8776   7.7842504363e+01   4.2644179841e+01    0.2319103    0.2080666 -84.30 0.0004153254    1.202    0.168
        76 -10.3526     87.4074     89.6598   8.3763269623e+01   4.7652579751e+01    0.6319335     0.368481 -77.14   0.00193334    3.045    0.672
        77  -8.4095     73.5017     92.5676   8.9355154077e+01   4.9374353164e+01     0.148199    0.1412594 -67.09 0.0002729043    1.011    0.011
        78  -9.3137    125.9447     91.5335   7.2759234895e+01   3.9354157184e+01    0.2343735    0.1530389  46.32  0.001022964    1.570    0.363
        79  -8.9871     94.0247     90.7471   8.1895126225e+01   4.6149047378e+01    0.2122349    0.1986924  49.21 0.0005712768    1.100    0.091
        80 -10.6720     56.8939     89.3802   9.4691048519e+01   5.2688847091e+01    0.2999363    0.2444038 -56.91  0.001014274    1.141    0.123
        81 -10.0064     34.8954     89.8832   1.0346323542e+02   5.5201967579e+01    0.2955819    0.2152767   8.70  0.001281795    1.689    0.408
        82  -8.9007    139.7701     89.0478   6.8547183703e+01   3.6780768480e+01    0.2200154    0.1901195 -47.73 0.0006976615    1.129    0.114
        83  -9.6844    109.4174     88.2573   7.6418962383e+01   4.3613821124e+01    0.2889052    0.1464734 -42.67 0.0009155454    1.962    0.490
        84 -10.1298    102.4480     87.4289   7.8275517657e+01   4.5240716071e+01    0.4234942    0.1428316 -43.50  0.001320956    3.013    0.668
        85 -10.0778     47.7978     89.1156   9.8166014171e+01   5.3950264337e+01    0.2257989     0.204527 -21.24 0.0002454179    1.245    0.197
        86 -10.8371    121.0078     87.0882   7.2780014789e+01   4.1375517764e+01    0.6041272    0.3887003  35.32  0.002211982    1.775    0.437
        87  -8.9721    126.7308     87.3521   7.1325728634e+01   4.0054952218e+01    0.2366953    0.2094039 -70.61 0.0004097178    1.208    0.172
        88  -9.8721     28.6878     85.8157   1.0523481560e+02   5.6852796673e+01    0.3730527    0.2309715  69.58  0.001578499    1.916    0.478
        89 -10.1629    131.3793     86.6669   6.9921025572e+01   3.9154804676e+01    0.2691395    0.2527306 -12.74 0.0004611597    1.131    0.116
        90  -8.0429     16.0000     86.9578   1.1067615699e+02   5.7571532855e+01    0.2304547   0.06692123 -73.59 0.0008038589    2.952    0.661
        91  -9.2912     81.9804     84.9213   8.4266662178e+01   4.9767643804e+01     0.275454    0.2124495 -62.35 0.0003154157    1.308    0.235
        92  -9.6512     80.0288     80.9880   8.3797163868e+01   5.1049601689e+01    0.2226702    0.2112533 -60.28 0.0003136244    1.014    0.014
        93 -10.4523     76.1029     83.3283   8.5896331088e+01   5.1186388455e+01    0.4116956    0.3259436 -80.40 0.0004834809    1.449    0.310
        94 -10.2439     71.5130     83.1304   8.7521706486e+01   5.2011676412e+01    0.3294643    0.2595754 -84.52  0.001622596    1.478    0.323
        95  -9.7609     39.1114     84.9125   1.0074303195e+02   5.6042125464e+01    0.2706458    0.1953671 -39.24  0.000889123    1.475    0.322
        96  -8.7541    139.3267     83.2943   6.6954669130e+01   3.8016544163e+01     0.154315    0.1224061  10.72 0.0007021459    1.625    0.385
        97 -10.4928     54.9947     80.7951   9.3272455121e+01   5.5112105842e+01    0.3801875    0.2652325 -52.99   0.00168753    1.322    0.243
        98  -8.2911     33.2971     83.6641   1.0289680369e+02   5.6970684777e+01    0.1435917   0.09981284  71.32 0.0007030992    1.651    0.394
        99 -11.0653    114.6065     80.9550   7.2693893107e+01   4.4077404764e+01    0.4674151     0.334014  36.13  0.001132995    1.538    0.350
       100  -9.8287    108.9248     80.5459   7.4217517227e+01   4.5399288588e+01    0.2831229    0.2268666  25.40 0.0009513136    1.451    0.311
       101 -10.8987    104.4771     78.7055   7.4976901874e+01   4.6746472193e+01    0.4093918    0.3171609 -55.54 0.0009375355    1.310    0.237
       102 -10.7985    107.6456     75.7031   7.3053890611e+01   4.6708102328e+01    0.5691187    0.3600899  -9.27  0.001959104    3.241    0.691
       103  -9.2431    103.7986     72.7822   7.3260980022e+01   4.8158106638e+01    0.3446333    0.2117754  50.88 0.0002877237    1.703    0.413
       104 -10.6534     97.0557     80.8691   7.7985221237e+01   4.7809992164e+01    0.2724368     0.255199 -52.66 0.0002879843    1.033    0.032
       105 -10.9648     98.5947     75.8715   7.5906529476e+01   4.8598248393e+01    0.5602202    0.4593559 -88.08  0.001219872    1.486    0.327
       106 -12.1548     97.2850     69.3783   7.4166758480e+01   5.0268979742e+01    0.4686008    0.3398285 -43.52   0.00049285    1.340    0.254
       107 -10.9524    101.2737     67.6962   7.2320413517e+01   4.9767423860e+01     0.426739    0.2851447 -54.53  0.000641546    1.591    0.372
       108  -8.7415     22.4364     80.4878   1.0691348615e+02   5.8765517728e+01    0.1371645    0.1180605 -69.71 8.198217e-05    1.011    0.011
       109  -9.8407      7.0360     80.0210   1.1349929976e+02   5.9913620120e+01    0.3469768    0.1808194 -74.32 0.0008188212    1.596    0.374
       110  -9.6981      4.6186     75.2388   1.1393421684e+02   6.1262924937e+01    0.2953416    0.1804151 -61.09  0.001078428    1.384    0.277
       111  -9.3784      2.0658     73.2036   1.1481779613e+02   6.1900659859e+01    0.2009204    0.1858986 -20.01 0.0005065553    1.265    0.209
       112  -9.4840    155.0355     79.0694   6.2170259463e+01   3.5155806668e+01    0.2243053     0.218076 -25.79 0.0003087557    1.046    0.044
       113 -11.4331     76.3083     75.2303   8.3384316770e+01   5.3066067313e+01    0.6865978    0.3459761  31.64  0.001974545    2.358    0.576
       114 -10.2619     63.9204     70.5243   8.6693338608e+01   5.6275218413e+01    0.5090514    0.2839454  40.17  0.002004448    1.892    0.471
       115 -10.0295     49.5159     76.6619   9.4429264453e+01   5.6884825385e+01    0.3002269     0.249275  -8.07 0.0007452427    1.426    0.299
       116 -10.2021     56.0802     74.0839   9.0976846915e+01   5.6616190823e+01    0.5073006    0.3272544  -4.52  0.001734734    2.518    0.603
       117  -9.2849     59.4451     66.5082   8.7254759363e+01   5.7930705469e+01    0.2553934    0.2367618 -46.55 0.0007880983    1.012    0.012
       118  -9.3996     61.9869     64.0000   8.5360428599e+01   5.8113025114e+01    0.2435289    0.2127605  22.19  0.000449867    1.240    0.193
       119 -10.1052     45.7691     72.4866   9.4907068092e+01   5.8405914233e+01    0.3270735    0.2503117 -59.64 0.0007907845    1.190    0.160
       120 -10.2439    152.1297     72.9179   6.0924735889e+01   3.6948649859e+01    0.2851826     0.209574 -30.21  0.001349177    1.378    0.274
       121  -9.6437    142.9810     68.5317   6.1529404592e+01   3.9926558809e+01    0.2778196    0.2126076  38.86 0.0004390207    1.437    0.304
       122 -11.2354    136.9735     69.6490   6.3262473466e+01   4.1164518511e+01    0.4088982    0.3832295 -68.33 0.0005200909    1.079    0.074
       123  -8.2420     30.6738     72.3305   1.0159335096e+02   6.0127324922e+01    0.1426237    0.0999787  69.07 0.0007050913    1.707    0.414
       124  -8.3660     39.4721     71.5022   9.7423208597e+01   5.9407860556e+01    0.1413079    0.1271606 -60.08 -1.076937e-05    1.004    0.004
       125  -9.3188     17.6338     70.7743   1.0727348278e+02   6.1622743047e+01    0.2566736     0.173197 -43.81 0.0007294326    1.450    0.310
       126  -8.3792    166.6794     70.3480   5.7277110838e+01   3.3924744309e+01    0.1596855    0.1105983 -64.75 0.0007049022    1.737    0.424
       127  -8.5433     76.8131     70.2286   8.1584390287e+01   5.4127347235e+01    0.2075163    0.1725268 -17.65 0.0007717813    1.386    0.278
       128  -9.9620    119.4138     68.9594   6.7466178217e+01   4.5435531130e+01    0.3826901    0.2247109  45.24  0.001081396    1.767    0.434
       129  -9.3455     89.4147     67.2328   7.6047828988e+01   5.2357981440e+01    0.3543113    0.2607919  86.27  0.001435456    1.984    0.496
       130 -10.5531    153.9159     67.1311   5.8765691770e+01   3.7531502122e+01    0.2984078    0.2497377 -76.74  0.001121769    1.326    0.246
       131 -12.2764    150.1160     57.0492   5.6304089398e+01   4.0149368246e+01    0.7089006    0.4631728 -67.50  0.003026315    1.975    0.494
       132  -9.4374     67.0478     63.1513   8.2985463335e+01   5.7464445825e+01    0.4066007    0.2787435   6.60  0.001268435    2.159    0.537
       133  -9.8286     70.8459     66.3083   8.2554420022e+01   5.6088739706e+01     0.296483    0.2337121 -42.61 0.0003146011    1.219    0.180
       134  -9.4670     73.3223     63.6734   8.0678374697e+01   5.6239337722e+01    0.4762121    0.2910743  79.81  0.001523023    4.202    0.762
       135 -10.2890    111.1627     65.2303   6.8493489382e+01   4.8063752902e+01    0.4240664    0.2689471 -32.34  0.001069991    1.680    0.405
       136  -8.4222    108.3041     62.6992   6.8433149227e+01   4.9211149355e+01    0.2603061    0.1376673 -49.55 0.0002759038    1.999    0.500
       137  -8.9881     49.0823     65.3062   9.1365541927e+01   5.9728058155e+01    0.1935507    0.1848061 -56.68 0.0009358596    1.046    0.044
       138  -9.3235      3.5371     64.5614   1.1293245727e+02   6.4026483182e+01    0.2567844    0.1783688  75.86 0.0007643753    1.507    0.336
       139 -10.7430      3.8698     59.5450   1.1196707160e+02   6.5272159193e+01    0.3051585    0.2216911 -65.96 0.0002750032    1.137    0.120
       140 -11.4222      7.8748     56.6164   1.0936154704e+02   6.5804248336e+01       0.2449    0.1928616 -54.34 0.0002492627    1.111    0.100
       141  -8.9015    203.3999     63.8492   4.9642778249e+01   2.6463965701e+01    0.2074943    0.1271868 -20.05 0.0009590208    1.793    0.442
       142  -8.9542    187.1277     63.8920   5.1969573968e+01   3.0144457450e+01     0.220045    0.1778822 -64.37 0.0007869338    1.294    0.227
       143 -10.3934     90.4278     61.6678   7.3722236080e+01   5.3324920670e+01    0.4934395    0.3407497  80.00  0.002039704    2.309    0.567
       144 -11.1537     95.7373     57.4313   7.0386241258e+01   5.3048639947e+01    0.5948414     0.452941 -33.23  0.002901605    1.332    0.249
       145 -10.4183     43.3341     62.9481   9.3258601693e+01   6.1049971947e+01    0.3709518    0.3115425  71.19  0.001424515    1.397    0.284
       146  -9.7497     32.9601     63.6796   9.8367293293e+01   6.2064795112e+01    0.3199496    0.2562436 -26.28  0.001796329    1.345    0.257
       147  -9.2759     17.1965     63.2080   1.0595732411e+02   6.3569556411e+01    0.2372222    0.1457098  51.20  0.001191304    1.927    0.481
       148  -8.4603    172.5503     62.4792   5.3892742041e+01   3.3800644619e+01    0.1472547    0.1373144 -46.45 0.0001235087    1.007    0.007
       149  -8.4910    218.8484     61.6240   4.7130969311e+01   2.3444237411e+01    0.1677986    0.1262853  89.77  0.000433903    1.583    0.368
       150  -9.5527    121.9990     59.8603   6.3649712969e+01   4.6548275609e+01     0.371323    0.2276548  25.37  0.001401757    2.548    0.608
       151 -10.7124     59.2885     58.0243   8.4431440882e+01   5.9913406358e+01    0.5670809    0.3888829  11.77  0.002626601    1.949    0.487
       152  -9.4951     34.7323     57.7466   9.5807311991e+01   6.3323969471e+01    0.2226706    0.1721465 -59.42  0.000415278    1.173    0.148
       153  -9.6532    200.0628     55.9481   4.7941197564e+01   2.8337088265e+01    0.3070853     0.206864  12.31  0.001398741    2.284    0.562
       154 -10.2552    205.4536     51.6405   4.6098485762e+01   2.7715961612e+01    0.5441617    0.4547948 -86.46  0.003165039    1.286    0.222
       155  -8.8189    127.4981     64.4357   6.3832827081e+01   4.4392943293e+01    0.1526245    0.1474342 -67.34 8.137483e-05    1.030    0.029
       156  -9.8880    160.1864     56.7793   5.4306375577e+01   3.7704630579e+01    0.2790038    0.2399698 -20.51  0.000443563    1.229    0.186
       157  -9.8681    162.6606     52.8489   5.2623792668e+01   3.7702977806e+01    0.3979003    0.2454531 -29.34  0.001787645    1.618    0.382
       158  -9.2453     68.7566     55.6432   7.9563384925e+01   5.8824140376e+01    0.4392437    0.1648522 -52.41  0.001501018    2.848    0.649
       159  -8.6408     71.5961     54.5008   7.7980557238e+01   5.8548575151e+01    0.1958682    0.1424906  52.82 6.360853e-05    1.542    0.351
       160  -9.0207    222.8106     56.4329   4.5367609936e+01   2.3314112722e+01    0.2980518    0.1256524  61.89  0.001304281    2.638    0.621
       161  -9.4589    112.3248     55.8925   6.4815339862e+01   4.9570715264e+01    0.2552482    0.2107921  72.66 0.0006653818    1.343    0.256
       162  -9.3931     26.5425     56.4679   9.9574520677e+01   6.4470432848e+01    0.2673736    0.1304362  25.74  0.001147138    2.247    0.555
       163 -10.9383     81.1562     53.2760   7.3833409039e+01   5.6946646410e+01    0.5966902     0.356243 -33.37  0.002581006    1.795    0.443
       164  -9.9262    173.9785     53.2668   5.0887049789e+01   3.4863283407e+01    0.3625513    0.2090856 -31.31  0.001613253    1.659    0.397
       165  -9.2169     43.8325     52.6257   8.9632976575e+01   6.3422790709e+01    0.2232293    0.1777082  39.12  0.000859401    1.381    0.276
       166  -9.7022     28.3819     41.4675   9.3757165108e+01   6.7830793631e+01    0.3031273    0.2385453 -81.75            0    1.532    0.347
       167  -8.6800     29.5843     52.1946   9.6732792887e+01   6.5204342897e+01    0.1996448    0.1067569 -50.09  0.000765776    1.624    0.384
       168 -10.5014     26.6676     48.2608   9.7053283008e+01   6.6430098145e+01    0.4462969    0.2546413  21.01  0.002098634    1.975    0.494
       169 -10.1590    126.5876     50.3330   5.9095412828e+01   4.7095500906e+01    0.3140203    0.2514312  30.14 0.0002405647    1.427    0.299
       170 -10.7288    106.3043     50.4271   6.4461663821e+01   5.1974108816e+01    0.3941909    0.3091163  86.52 0.0008672586    1.601    0.376
       171  -9.4935    111.8093     49.6759   6.2622520011e+01   5.0804676373e+01    0.3398716    0.2847742  22.70  0.001714419    1.355    0.262
       172  -9.8050     17.4257     50.5177   1.0280074922e+02   6.6690021445e+01    0.3402184    0.2185818  -7.90  0.001298907    1.886    0.470
       173  -9.4300    212.6168     49.8020   4.4781467047e+01   2.6373683870e+01    0.2492359    0.1926056  89.55  0.001412983    1.441    0.306
       174  -8.6431    135.3228     54.3045   5.8494054269e+01   4.4270752887e+01    0.1540638    0.1186319  20.91 0.0002542593    1.638    0.390
       175 -10.4862     55.9681     42.1992   7.9694921469e+01   6.3873799064e+01    0.4103708    0.3183199   3.44  0.001082212    1.520    0.342
       176  -9.3483     55.4293     49.7888   8.3067015053e+01   6.2357834589e+01    0.2556509    0.1839131 -29.46 0.0007941356    1.477    0.323
       177 -10.1936     59.0856     47.7860   8.0610873828e+01   6.2187266047e+01    0.3522001    0.2943077 -23.76  0.001924994    1.219    0.179
       178  -9.7583     42.6604     45.4891   8.7567232481e+01   6.5193535853e+01    0.3118095    0.1897627 -52.62 0.0009851942    1.521    0.342
       179  -9.5698     49.2105     49.5439   8.5889731341e+01   6.3365799763e+01    0.2588113    0.1964772 -28.81 0.0006218433    1.365    0.267
       180  -9.8232     45.9914     47.2372   8.6571058504e+01   6.4342787170e+01    0.2340392    0.1958241  40.98 0.0001978077    1.321    0.243
       181 -10.9065      5.7957     48.2787   1.0877633519e+02   6.7967585569e+01    0.2723712     0.172655 -47.78 0.0002479885    1.379    0.275
       182  -9.0275     10.8787     47.8941   1.0579375782e+02   6.7776530551e+01    0.2216149     0.144578  50.40 0.0007306105    1.870    0.465
       183  -9.4451     89.0113     48.0630   6.8957152286e+01   5.6315333137e+01    0.2162235    0.2109454 -30.69 0.0003911603    1.017    0.016
       184 -10.2995     84.6438     47.3650   7.0189662550e+01   5.7382878637e+01    0.4081115    0.2887626 -33.14  0.001962226    1.424    0.298
       185  -8.7019    233.1925     48.1954   4.2269872391e+01   2.2238759391e+01    0.1826003    0.1240707 -50.94 0.0003860957    1.321    0.243
       186 -11.2445    142.1629     46.1426   5.4200576684e+01   4.3864044131e+01    0.6682908    0.4091971  52.99  0.002906325    1.647    0.393
       187  -9.9284    143.6729     42.6921   5.2697973786e+01   4.3999248909e+01     0.303527    0.2575141  78.22 0.0008941682    1.209    0.173
       188 -10.0689    153.3650     46.6769   5.2258864596e+01   4.0954810430e+01    0.4679273    0.2183973  44.82  0.001653459    2.507    0.601
       189  -9.5046     34.2416     46.4091   9.2320338475e+01   6.6049975991e+01    0.2352137    0.1902255  61.01  0.001297483    1.546    0.353
       190 -11.1393    108.7936     43.3527   6.0975808816e+01   5.2602755722e+01    0.2840257    0.2737011  87.80  0.000250516    1.069    0.065
       191  -9.2790     69.7336     43.8415   7.4388407730e+01   6.1071726205e+01     0.303502    0.2106019  -4.05  0.001208293    2.079    0.519
       192  -9.4288     20.0511     43.8633   9.9377248722e+01   6.8071235156e+01    0.2697482    0.1841497 -89.12  0.001090168    1.857    0.461
       193 -10.4204    167.2620     43.2713   4.8832131034e+01   3.7958286447e+01    0.3914841    0.2630869  66.04  0.001359916    1.529    0.346
       194  -9.3217    163.4046     42.4563   4.9174454105e+01   3.9037643592e+01    0.2491044      0.21041 -64.45 8.052017e-05    1.174    0.148
       195  -8.7486     10.7638     43.1932   1.0464527793e+02   6.8916011882e+01    0.1803424    0.1222184 -44.45 0.0003023392    1.306    0.234
       196  -8.5091    118.2880     42.3444   5.8104817855e+01   5.0447781900e+01    0.1529602    0.1166724  16.48 0.0001510744    1.650    0.394
       197  -9.0452    116.0284     51.0000   6.1989786174e+01   4.9561620883e+01    0.2294554    0.2168115 -74.22 0.0004161798    1.090    0.083
       198  -9.9605     35.8131     39.8502   8.8957266690e+01   6.7331684686e+01    0.4278797    0.2066892 -52.78  0.001237931    1.872    0.466
       199 -10.2754     33.5455     35.1922   8.8286229357e+01   6.8623394987e+01    0.4076307     0.214046 -39.91  0.000486386    1.811    0.448
       200  -8.8598    219.1961     41.5858   4.1952055120e+01   2.5994416183e+01    0.1736206    0.1204523  56.39 0.0009533585    1.657    0.397
       201  -9.0078    151.6783     41.3098   5.0751324060e+01   4.2163897417e+01    0.2608366    0.1785822  83.86 0.0007453471    1.670    0.401
       202 -10.0919     62.8809     40.8449   7.5978670090e+01   6.2938270126e+01    0.3592408    0.1982003  44.16  0.001169063    1.909    0.476
       203 -10.2682    112.1995     38.8442   5.8256456792e+01   5.2499424042e+01    0.4243631    0.2901709 -60.85  0.001720251    1.781    0.439
       204  -9.1691    106.8276     35.0820   5.8118344587e+01   5.4393710479e+01    0.2076113    0.1935404 -72.62 0.0002527306    1.134    0.118
       205 -10.1697     48.7090     37.8773   8.1304049828e+01   6.5932281979e+01    0.4154199    0.2778995 -74.69  0.001833765    2.516    0.603
       206  -8.8877      2.7328     39.4228   1.0857214772e+02   7.0251232115e+01    0.2120194    0.1177519  19.01  0.001124922    2.057    0.514
       207  -8.7873    182.1461     38.1567   4.5153347272e+01   3.4974812225e+01    0.1973513    0.1708291 -39.21 0.0003589652    1.092    0.084
       208  -9.6671    184.0181     35.4486   4.4107226100e+01   3.4867436212e+01    0.3203605    0.1742378 -40.44  0.001468719    1.644    0.392
       209  -9.0988    162.2293     37.7425   4.7825706221e+01   3.9981581482e+01    0.2666219    0.1677475 -34.86 0.0007685744    1.505    0.336
       210  -9.2347    133.5055     38.4726   5.3196955226e+01   4.7206025242e+01    0.3008496     0.145171  62.01  0.001183438    2.076    0.518
       211 -10.4127     80.2091     25.5717   6.1885830078e+01   6.2065329550e+01    0.5585407    0.4012261  89.72  0.002590259    2.132    0.531
       212 -10.5367     82.8605     35.8480   6.5830145923e+01   5.9836932104e+01    0.4485439     0.300868 -52.45  0.002098986    1.711    0.416
       213 -11.0613     79.0130     31.3437   6.5109563994e+01   6.1423247911e+01    0.4010772    0.3793324 -26.35  0.001225017    1.056    0.053
       214  -9.0632    225.9967     37.7682   4.0344313907e+01   2.5008970318e+01    0.1569701    0.1072611  75.27  0.000605385    1.637    0.389
       215  -9.7911    127.5822     36.5028   5.3702526379e+01   4.8999154470e+01    0.2887297    0.2733736  30.33 0.0009357386    1.114    0.103
       216  -9.2154     69.8508     36.8613   7.1227220857e+01   6.2369157112e+01    0.2277526    0.1940642   5.02 0.0009072263    1.256    0.204
       217  -8.9407    170.3430     35.4846   4.5910106308e+01   3.8238683966e+01    0.2490002    0.1273995 -30.37  0.001060843    1.861    0.463
       218  -9.6674     62.7279     36.3500   7.4002145730e+01   6.3830088200e+01     0.241029    0.1772113  28.66 0.0007109993    1.456    0.313
       219  -9.1607    215.9364     35.0253   4.0560067830e+01   2.7509296436e+01    0.1983305     0.178013 -53.38 0.0004877803    1.059    0.056
       220  -8.5186    191.6559     34.6898   4.2978840633e+01   3.3123754559e+01     0.219987    0.1663888  51.86 0.0007163751    1.485    0.327
       221  -9.6282    194.2223     32.9963   4.2204679897e+01   3.2723201209e+01    0.2021522     0.163666 -37.94  0.001144147    1.135    0.119
       222  -8.7729    107.2519    247.0243   1.0388078964e+02   1.1623232426e+01    0.1159708   0.09720425 -64.19 0.0004387331    1.538    0.350
       223 -10.5983    237.3938     26.2377   3.6597506062e+01   2.3980000701e+01    0.2962355    0.2133388 -43.99 0.0006768569    1.116    0.104
       224 -10.9172    239.4790     22.6263   3.5590923306e+01   2.3954487959e+01    0.3443666    0.2103261 -45.01 0.0006390187    1.306    0.234
       225  -8.7487     86.3883     34.1905   6.3863036474e+01   5.9332723919e+01    0.2026054    0.1311512 -44.34 0.0008684971    1.598    0.374
       226  -8.0652     98.7143     33.7252   5.9799702479e+01   5.6556352106e+01    0.1442234     0.111157  21.41 0.0001788932    1.509    0.337
       227  -9.8753    114.8494     32.0285   5.4818250444e+01   5.2858048248e+01    0.2575949     0.236245  13.59 0.0003599659    1.166    0.142
       228 -10.0175    110.5524     29.2853   5.4715114664e+01   5.4318934945e+01    0.3199262    0.3054811 -72.45  0.001500051    1.079    0.073
       229  -8.0207     37.5970     32.2934   8.4676329697e+01   6.8703705959e+01    0.1318089    0.1056837  71.29 0.0006993324    1.812    0.448
       230  -8.9530    221.3087     31.0286   3.9044335206e+01   2.6810753323e+01    0.1801484    0.1439983 -40.08  0.000281878    1.082    0.076
       231  -9.4196    151.8867     30.1678   4.6886484700e+01   4.3614500510e+01    0.4433487    0.2103364  35.74    0.0015287    3.342    0.701
       232  -8.6492    143.5423     31.4175   4.8713283634e+01   4.5603827324e+01    0.1429884    0.1390011  82.33            0    1.040    0.038
       233  -9.0992     60.3672     31.8386   7.2894855984e+01   6.5101131319e+01     0.395217    0.1516341  41.20   0.00149339    2.716    0.632
       234  -9.0852     64.8642     30.0822   7.0057764991e+01   6.4555191870e+01    0.2073982    0.1919223 -62.34  0.001200972    1.254    0.202
       235  -9.7872     43.0497     29.1111   8.0118071451e+01   6.8550202148e+01    0.2728391     0.174562 -41.71 0.0004521729    1.449    0.310
       236 -11.1216     48.2737     28.3285   7.6959601615e+01   6.7868994309e+01    0.4575499     0.294615  43.56 0.0005892657    1.686    0.407
       237  -9.5171     55.4746     26.0042   7.2193493591e+01   6.7036342908e+01    0.2767064    0.1680463 -22.60  0.001275556    1.918    0.479
       238  -9.4578     29.5236     30.5037   8.8595944191e+01   7.0106398213e+01    0.2715515    0.1190116 -53.05 0.0008765807    2.086    0.521
       239  -8.7705     21.4459     30.5434   9.3678348102e+01   7.0971817302e+01    0.1806477    0.1046645 -47.42 0.0001144574    1.477    0.323
       240  -9.5537     21.4996     26.9242   9.2078960847e+01   7.1746325372e+01     0.365354    0.1631318 -44.81  0.001435125    1.941    0.485
       241  -8.9976    197.9187     29.9849   4.0957280806e+01   3.2215420287e+01    0.2059357    0.1597554  26.97  0.001112094    1.683    0.406
       242  -9.3642    124.8498     30.2518   5.1856301379e+01   5.0570141695e+01    0.2174206    0.1967082 -78.41 0.0006543623    1.136    0.120
       243  -9.7705    216.2267     28.2984   3.8775531451e+01   2.8238703302e+01    0.2656834    0.2070394   8.23 0.0004938653    1.707    0.414
       244 -10.4539    182.4215     27.1045   4.1791164160e+01   3.6281889942e+01    0.5760639    0.3176319  42.06  0.001840048    2.342    0.573
       245  -9.9240     15.5931     28.3713   9.6651704893e+01   7.1979973074e+01    0.3852311    0.2197257 -25.69   0.00194487    1.933    0.483
       246  -9.9890    206.7087     25.9572   3.8994191983e+01   3.0648333109e+01    0.2738387    0.2254602 -17.57 0.0008808921    1.329    0.247
       247  -8.7812     67.1222     27.0481   6.7584102975e+01   6.4618433359e+01    0.2068799    0.1715621 -76.11 0.0008222287    1.635    0.388
       248 -10.8382    227.0580     22.9093   3.6533341064e+01   2.6498313506e+01    0.3729677    0.3295898  49.76  0.002457328    1.406    0.289
       249  -9.6898    222.6617     20.7722   3.6321442471e+01   2.7675482533e+01     0.256971    0.2028391 -43.83 0.0008031456    1.067    0.063
       250  -9.9688    120.6199     25.9616   5.1029664649e+01   5.2218934176e+01    0.4072252    0.2237658  57.90  0.001490694    1.735    0.424
       251 -12.1826     75.7177    219.0403   1.0780929758e+02   2.0185435911e+01    0.7861443    0.5653796  47.73  0.004983011    1.131    0.116
       252  -9.3308     29.2753     18.3174   8.2584910036e+01   7.2570437061e+01    0.2081725    0.1605141 -21.28 0.0004652054    1.222    0.182
       253  -9.1735     30.3342     15.6472   8.0349929709e+01   7.2919681441e+01    0.2108413    0.1530119 -59.40 0.0007666399    1.770    0.435
       254  -9.8294    179.2990     22.8946   4.0861593012e+01   3.7541480579e+01    0.2634584     0.238253 -17.19 0.0008173264    1.218    0.179
       255 -10.2516    164.6120     21.8972   4.2285800558e+01   4.1348532960e+01    0.3827022    0.2415867  50.19  0.001073584    1.713    0.416
       256 -10.1101    141.3688     21.5455   4.5473178404e+01   4.7390050989e+01    0.3794346    0.3164603  24.23   0.00137247    1.385    0.278
       257 -11.5493     69.3704    217.4983   1.0903833969e+02   2.1240534790e+01     0.503602    0.3098027  52.67   0.00167595    1.394    0.282
       258  -9.8802     51.2389     21.8658   7.2018657600e+01   6.8508892641e+01    0.3659624    0.2351062 -26.91  0.001829136    1.584    0.369
       259  -8.6992     54.6810     18.6365   6.8531252702e+01   6.8404184146e+01    0.2244004    0.1720139  10.74 0.0006467713    1.409    0.290
       260  -8.9074     91.2924    214.6123   1.0405768596e+02   1.9022372359e+01    0.1709295    0.1033705  27.24 0.0008076297    1.604    0.376
       261  -9.3263      8.3493     22.9715   9.9603034241e+01   7.3719352583e+01    0.2212509      0.17454  28.32  0.001058583    1.472    0.321
       262 -10.0247      2.4027     21.6419   1.0356011929e+02   7.4372741143e+01    0.2976891    0.2401083  38.36  0.001597384    1.521    0.342
       263  -8.9510    218.2060     21.7999   3.6924077660e+01   2.8535061444e+01    0.1562876    0.1500787  33.24 0.0005058178    1.291    0.225
       264  -8.4600     92.2422     22.3768   5.6501664667e+01   5.9740818729e+01    0.1451985    0.1065517  13.12 0.0006933401    1.630    0.387
       265  -9.5022    205.9441     21.0909   3.7738738985e+01   3.1371326922e+01    0.1957193    0.1626193 -54.63 0.0002847218    1.041    0.039
       266  -9.5047      1.4073    184.9860   1.2231145759e+02   3.4720161725e+01    0.2816926   0.09634154 -84.84  0.001318782    2.648    0.622
       267 -10.8327      6.8362    168.7505   1.2037814042e+02   3.7882169390e+01    0.3029831    0.1484195  51.49  0.001169554    1.688    0.407
       268 -10.6394      7.0265    163.8341   1.2010220655e+02   3.8991862919e+01    0.2221221    0.1668688  26.07 0.0007114136    1.499    0.333
       269  -9.1594     69.1370     19.2708   6.2687987267e+01   6.5403412881e+01     0.229539    0.1769586 -18.36  0.000640802    1.312    0.238
       270  -9.8466    119.4020     18.6357   4.8254529693e+01   5.3429767710e+01    0.2815435    0.2342156  38.56 0.0006760117    1.252    0.201
       271  -9.1991     26.2657    157.9972   1.1466527393e+02   3.8731954556e+01    0.1768591    0.1421396  80.06 0.0002854886    1.068    0.064
       272 -11.4727      9.0604    155.0664   1.1912191608e+02   4.0884163108e+01    0.4299615    0.2411123 -64.77  0.001243874    1.783    0.439
       273 -10.2842     25.5391    152.7193   1.1445418219e+02   4.0063761065e+01    0.3592975    0.1528938  57.42 0.0008386213    2.285    0.562
       274 -11.0178      2.9990    152.7775   1.2063381951e+02   4.1868243581e+01    0.3619304    0.2661048 -44.92  0.001668854    1.734    0.423
       275  -9.7632     20.6608    153.6945   1.1587860482e+02   4.0265200402e+01     0.122854   0.09141862 -45.00 0.0007040983    1.678    0.404
       276  -8.7513     32.1832    147.2023   1.1209527599e+02   4.0776128150e+01    0.1815469    0.1297841  65.69 0.0003360045    1.271    0.214
       277 -10.3334     11.7747    145.0837   1.1777847379e+02   4.3073156338e+01    0.2164529    0.1780944  59.35 0.0003105002    1.123    0.110
       278 -10.9695      4.2676    141.7925   1.1972187041e+02   4.4414305473e+01    0.5059755    0.3007936 -28.71  0.002599155    2.537    0.606
       279 -10.0260     39.2802     16.0337   7.5077570605e+01   7.1518213526e+01    0.2734705    0.1826965  30.95  0.000985885    1.536    0.349
       280 -10.2272     21.4486    141.9479   1.1475345835e+02   4.3058598842e+01    0.2257482      0.17885  43.36 0.0003569509    1.264    0.209
       281 -10.4504     28.9713    138.5547   1.1221378513e+02   4.3226856290e+01    0.3456375    0.2569983 -53.84 0.0009227839    1.465    0.318
       282 -10.0074     15.5247    140.8945   1.1640747135e+02   4.3807508141e+01    0.1948077    0.1110056 -83.02 0.0006852658    1.540    0.351
       283 -12.7640    231.0301    125.6514   6.0638599979e+01   1.1875311260e+01    0.7314489    0.5342066 -62.53  0.004019675    2.084    0.520
       284 -12.2318    221.0274    115.8601   5.9964920456e+01   1.5068457173e+01     1.478192    0.7657595 -25.82  0.006913323    1.880    0.468
       285  -9.0993     78.0866     12.8552   5.6020311232e+01   6.4278598688e+01    0.1940468    0.1839177 -65.98 0.0003745758    1.197    0.165
       286 -12.8308    227.9277    136.3356   6.3382296263e+01   1.0841926114e+01     1.146525    0.6300733  48.13  0.005946733    2.146    0.534
       287 -11.7657    215.1577    132.8446   6.4656180755e+01   1.3519626728e+01    0.9442977    0.6763568 -53.36  0.005139585    1.779    0.438
       288  -8.8361     19.5053    136.5176   1.1488113889e+02   4.4571034233e+01    0.1316778    0.1110366  81.56 0.0008104067    1.004    0.004
       289 -10.8285     16.2707    133.8248   1.1564045431e+02   4.5504638084e+01    0.5279198    0.2085407 -81.27  0.002268287    2.274    0.560
       290  -9.4559      1.3799    133.7944   1.2012280213e+02   4.6557674797e+01    0.1756632   0.09682376 -72.71 0.0004227234    1.601    0.375
       291  -9.2038     30.4665    133.0796   1.1120067365e+02   4.4462187676e+01    0.1974985    0.1192742 -78.76 0.0004048998    1.498    0.332
       292  -8.9496     36.1604    142.3679   1.1045399188e+02   4.1571770967e+01    0.1850154    0.1091841  41.95 0.0002423303    1.604    0.377
       293  -8.8898     80.3000    129.0416   9.5156055041e+01   3.9228303065e+01     0.196429    0.1781702 -73.75 0.0003301858    1.068    0.064
       294 -11.7478    238.1965     32.4944   3.8039554160e+01   2.3109848311e+01     0.621979    0.3653921 -65.06  0.003385097    1.779    0.438
       295 -10.0458     12.0771    128.8372   1.1653869641e+02   4.7072258019e+01    0.2220886    0.1660114 -72.01  0.001323098    1.238    0.192
       296 -10.7923     28.5558    124.7903   1.1090245975e+02   4.6750061788e+01    0.4173475     0.294945 -52.81  0.001353716    1.487    0.327
       297  -9.6059     23.6766    125.1618   1.1252336086e+02   4.7088125055e+01    0.2541741    0.1744452  54.95 0.0005509236    1.404    0.288
       298 -10.0860     48.3057    125.1495   1.0453430000e+02   4.4591733945e+01    0.3613415     0.298485 -51.04  0.001494447    1.292    0.226
       299  -8.4843     38.6638    124.7101   1.0760354513e+02   4.5776469875e+01    0.1363509    0.1000528 -38.77 0.0003837148    1.636    0.389
       300 -10.4056      8.5126    123.1336   1.1722800719e+02   4.8758031078e+01    0.3227894    0.1585177 -57.32  0.001564133    1.997    0.499
       301  -9.2004     93.9335    122.8164   8.9829496351e+01   3.8509140534e+01    0.2122296    0.1972149 -31.06 0.0005476379    1.181    0.153
       302  -8.7921     73.5290    122.0198   9.5914733239e+01   4.2005451222e+01    0.2095944    0.1390313 -64.42 0.0009864395    1.462    0.316
       303  -9.4030     14.5716    122.1496   1.1518882111e+02   4.8582286517e+01    0.2254252    0.1418315 -21.13  0.001127905    2.286    0.563
       304  -9.1616    144.1382     14.2044   4.2350938952e+01   4.7480606674e+01    0.2088982    0.1826543  41.07  0.000505683    1.239    0.193
       305  -9.2551     61.9228    120.0578   9.9275667323e+01   4.4165304955e+01    0.2109924     0.194063 -81.98 0.0003298827    1.020    0.020
       306  -9.0180     69.9620    118.3266   9.6342348523e+01   4.3464067725e+01    0.2028156    0.1849068  49.08 0.0005558615    1.121    0.108
       307  -9.9198     57.8237    117.7905   1.0022247108e+02   4.5292765076e+01    0.2410076    0.2212554 -71.16 0.0005999221    1.064    0.060
       308  -8.9559     98.5524    117.3152   8.7249853000e+01   3.9011512656e+01     0.226865    0.1831223   7.47 0.0004560577    1.581    0.367
       309 -10.1874     25.6491    116.3061   1.1089147168e+02   4.9192841634e+01     0.335867    0.1865886  38.74  0.001547793    1.806    0.446
       310  -9.7691     38.9518    115.1967   1.0618668175e+02   4.8199795302e+01    0.3893881     0.200276  58.71  0.001662451    2.227    0.551
       311 -10.3165     11.2819    114.9998   1.1564411555e+02   5.0641091932e+01    0.2517698    0.2060094 -52.23  0.000727475    1.323    0.244
