#   1 NUMBER                 Running object number                                     
#   2 MAG_AUTO               Kron-like elliptical aperture magnitude                    [mag]
#   3 X_IMAGE                Object position along x                                    [pixel]
#   4 Y_IMAGE                Object position along y                                    [pixel]
#   5 X_WORLD                Barycenter position along world x axis                     [deg]
#   6 Y_WORLD                Barycenter position along world y axis                     [deg]
#   7 A_WORLD                Profile RMS along major axis (world units)                 [deg]
#   8 B_WORLD                Profile RMS along minor axis (world units)                 [deg]
#   9 THETA_WORLD            Position angle (CCW/world-x)                               [deg]
#  10 FWHM_WORLD             FWHM assuming a gaussian core                              [deg]
#  11 ELONGATION             A_IMAGE/B_IMAGE                                           
#  12 ELLIPTICITY            1 - B_IMAGE/A_IMAGE                                       
         1 -13.4863    221.1170      7.4126   3.5957434701e+01   2.8953020985e+01     1.320356     1.076255  40.89  0.005406999    1.537    0.349
         2 -14.3137    194.8964     38.2168   4.6891320062e+01   3.1687224292e+01     2.943101     1.753934  23.40   0.01216609    2.714    0.631
         3 -10.1179    189.7126     14.8848   4.0569511632e+01   3.5667588468e+01    0.2384043    0.2193255 -56.11 0.0008086852    1.035    0.034
         4 -10.5255     52.1346     12.3559   7.1330778837e+01   6.9927746412e+01    0.2743302    0.1118953  38.41  0.001100825    2.603    0.616
         5 -11.0073    193.4680      4.3052   3.7106043658e+01   3.5784762527e+01    0.2740595    0.2436364 -70.17  0.001685639    1.032    0.031
         6 -10.2541     40.0423    223.8784   1.1848760823e+02   2.4078817828e+01    0.1772884    0.1061024  52.49  0.000540333    1.263    0.208
         7 -19.5187     13.5821    144.5536   1.2029894814e+02   4.3108727994e+01     18.60678     4.532588 -83.67   0.06457118    4.028    0.752
         8  99.0000     57.7375    219.7458   1.1462955774e+02   2.2895860998e+01    0.4150422    0.1773295  48.84  0.002137387    1.834    0.455
         9  -8.6362     80.9876    220.4636   1.0985009192e+02   1.9997328434e+01    0.1749772   0.09323818  36.06 0.0004109317    1.506    0.336
        10  -8.9905     48.5822    217.4729   1.1638674225e+02   2.4325230059e+01    0.2077083    0.1440584  14.75  0.001246827    1.907    0.476
        11  -9.4995     72.1199    249.6213   1.1372377827e+02   1.6301454114e+01    0.1490286    0.1107561  80.47 0.0006182084    1.507    0.336
        12 -10.1773    184.0237    212.2538   8.8209389806e+01   7.0036627875e+00    0.1714046    0.1322515  22.20  0.001170392    1.040    0.039
        13  -9.0596    174.6749    211.3280   8.9818547100e+01   8.4609593728e+00    0.1108907   0.08850518  55.14 0.0007049891    1.698    0.411
        14  -8.8398     56.5599    209.4643   1.1417547285e+02   2.4917778504e+01    0.2838753    0.1592672 -86.36  0.001647775    1.982    0.495
        15  -8.5061     58.7906    206.2737   1.1346024187e+02   2.5264097210e+01    0.1328145   0.08218254  39.85 0.0007974688    1.323    0.244
        16 -10.2927     28.8670    209.7245   1.2009366730e+02   2.7806954484e+01    0.1572897    0.1043422  51.35 0.0003788807    1.144    0.126
        17  -8.5623     42.7460    209.1020   1.1711861016e+02   2.6510485632e+01    0.1625293     0.107108  58.84 0.0002429405    1.231    0.188
        18 -10.2212    189.3046    208.0053   8.6605310865e+01   6.8189986576e+00    0.1680084    0.1391305   8.90  0.001180673    1.077    0.072
        19 -11.0882     65.4291    205.2339   1.1192434144e+02   2.4676918473e+01    0.3686494    0.1870097 -86.32  0.001230667    2.431    0.589
        20  -8.4987    223.7358    206.6654   8.0409108144e+01   2.2500998498e+00    0.1147531   0.07060899   2.05 0.0002266703    1.583    0.368
        21 -11.0217    193.0763    195.3334   8.3918400324e+01   7.9842697598e+00     1.009201    0.5130976 -54.84  0.004178513    4.418    0.774
        22  -9.0320     96.4838    202.0473   1.0476237923e+02   2.1265197174e+01    0.1982081    0.1195307 -58.79 0.0009731128    1.929    0.482
        23 -10.7616     30.2155    205.3432   1.1959615631e+02   2.8513075832e+01    0.3062969   0.09569512  43.40  0.001056951    2.216    0.549
        24 -12.6371     54.1085    198.1333   1.1389190237e+02   2.7384097070e+01    0.5035607     0.278183 -49.52  0.002701449    2.475    0.596
        25 -11.0044    203.6110    199.3972   8.2678893958e+01   5.9066572720e+00    0.2654442    0.1675966   6.75  0.001393178    1.649    0.394
        26  -8.4152     69.4402    199.4096   1.1054136566e+02   2.5306311972e+01    0.1244723   0.09606671  53.39 0.0007995939    1.070    0.065
        27  -9.5794     38.3541    199.1570   1.1748424641e+02   2.8900448028e+01    0.1497193    0.1080643  62.06 0.0002227757    1.128    0.113
        28 -11.9066    133.9893    196.4841   9.5891073243e+01   1.6806708113e+01    0.4065905    0.2802744 -72.18  0.002252978    2.117    0.528
        29  -9.2808     81.7735    194.5081   1.0727435926e+02   2.4680966209e+01    0.2490992    0.1779013  70.99  0.001494979    1.457    0.314
        30 -11.3000    127.1590    191.5150   9.6678610371e+01   1.8715288765e+01    0.2471271    0.2322566  23.21  0.001659329    1.108    0.098
        31  -9.0031     93.6197    205.6675   1.0577469868e+02   2.0992483990e+01    0.2049666    0.1605452 -25.88 0.0007836285    1.794    0.443
        32 -11.1550    149.2866    187.8326   9.1364673289e+01   1.5901582166e+01    0.3340783    0.3036918  82.89  0.001208072    1.419    0.295
        33 -11.3421     61.2096    187.5888   1.1139387634e+02   2.8677255607e+01    0.6564161    0.4610597  30.50  0.002595851    1.418    0.295
        34 -11.9264     67.5160    182.4624   1.0940963116e+02   2.8961340337e+01    0.6150001    0.4206178  53.10  0.002944656    1.270    0.213
        35 -10.2417     72.0527    244.8566   1.1343218920e+02   1.7044778871e+01    0.2530147    0.1369122  59.09  0.001254833    1.744    0.427
        36  -9.5149     93.5728    186.1664   1.0361488616e+02   2.4704567516e+01    0.2491692    0.1696184  58.35 0.0006517606    1.455    0.313
        37 -10.9465     62.0801    249.8161   1.1561277007e+02   1.7396551236e+01    0.3507363    0.1361231  58.71 0.0009730621    2.614    0.617
        38 -11.1114     74.4777    189.1152   1.0841758434e+02   2.6706156220e+01    0.3811101    0.1953783  59.68   0.00153533    2.079    0.519
        39 -11.1451     98.9949    181.4484   1.0175136937e+02   2.4860809011e+01    0.3898414      0.30827   1.36  0.001590759    1.671    0.402
        40 -11.2591    143.9001    178.3677   9.1019303584e+01   1.8408106797e+01    0.3554154     0.293687 -42.12  0.001363185    1.349    0.259
        41 -10.2393    188.9856    177.3680   8.1620602699e+01   1.1197768145e+01    0.3732815     0.357887 -82.60       0.0025    1.501    0.334
        42 -10.6293    126.8620    176.8761   9.4597072921e+01   2.1452074737e+01     0.207915    0.1767292  10.69  0.001149178    1.278    0.217
        43 -12.0004     49.1898    249.8459   1.1800636933e+02   1.8780542634e+01    0.1724887    0.1277128  53.01 0.0004808963    1.070    0.065
        44  -9.7067    240.3430    175.3198   7.2402024568e+01   3.7142330500e+00    0.1247447   0.07516217   4.80 0.0007049725    1.722    0.419
        45  -9.9155     55.8208    174.5926   1.1151959620e+02   3.2068996150e+01    0.3098145    0.1686608  50.61  0.001619839    1.610    0.379
        46  -9.6923     84.0601    173.7150   1.0439288727e+02   2.8597499480e+01    0.1797023    0.1531868  45.18 0.0003556201    1.070    0.065
        47 -10.1327     46.1856    173.0941   1.1379192197e+02   3.3498681979e+01    0.3433822     0.257265  19.14  0.001055058    1.596    0.373
        48  -9.4949    149.3776    176.9467   8.9594858744e+01   1.7758367731e+01    0.2128578    0.1658089  44.72  0.000417041    1.251    0.201
        49 -10.7097    138.5450    170.5747   9.0922150970e+01   2.0715034932e+01    0.3831726    0.2473551  35.32  0.001288283    1.409    0.290
        50 -10.2795    241.0260    169.7515   7.1278457489e+01   4.2969963236e+00    0.2030239     0.144706  58.77  0.001161788    2.590    0.614
        51  -9.1635    230.3376    166.6622   7.2385250951e+01   6.2470279038e+00    0.1072454   0.09760319 -57.87 0.0007051257    1.755    0.430
        52  -8.5692     76.2370    223.3383   1.1106622640e+02   2.0084847442e+01   0.09626568   0.08643285 -17.55 0.0002901391    1.546    0.353
        53  -9.4952    187.6065    162.6675   7.9167169693e+01   1.3686398695e+01    0.2561991    0.2008975 -64.11  0.001265557    1.961    0.490
        54 -10.7817    133.9715    146.2573   8.7574870275e+01   2.6254812044e+01     1.154623    0.3189156 -55.11  0.003047288    5.763    0.826
        55 -11.7500     94.3540    151.2921   9.8589891433e+01   3.1952889313e+01     0.643454    0.5614719 -27.72  0.003685579    1.382    0.276
        56  -9.7300    187.0860    151.3097   7.7026083839e+01   1.5597007268e+01    0.1905542    0.1671093  21.58 0.0007336136    1.076    0.071
        57  -9.3363    112.9284    150.6806   9.3641333797e+01   2.9048572650e+01    0.2012699     0.175196  47.31 0.0005788899    1.076    0.071
        58  -9.5950    174.6009    149.1999   7.9087061555e+01   1.8206338215e+01    0.2553621    0.1859735  38.52 0.0007367107    1.322    0.244
        59  -9.3875     86.2006    143.3080   9.9521104757e+01   3.5030796061e+01    0.3426493    0.1243149  49.07  0.001183561    3.054    0.673
        60 -10.8592    106.2233    137.7717   9.3036457201e+01   3.3026768961e+01    0.4992684    0.3436785 -30.74   0.00233035    1.901    0.474
        61 -10.5351    105.9647    130.7451   9.1731074039e+01   3.4656255443e+01    0.3883536    0.3210287 -65.31  0.001121566    1.257    0.205
        62 -11.6701     94.2227    137.5717   9.6301280055e+01   3.5088213582e+01    0.2808548    0.2684599  16.02 0.0004818998    1.158    0.137
        63 -10.6942    135.9487    129.0038   8.3486714708e+01   2.9422448834e+01    0.8612725    0.1552435 -48.64  0.002041309    6.165    0.838
        64 -10.5103    114.1150    129.0809   8.9159362137e+01   3.3560519352e+01    0.3385805    0.3020132  -7.95 0.0009370623    1.298    0.230
        65  -8.3358     99.0624    130.5167   9.3616173196e+01   3.5908229154e+01    0.2032454    0.1385154  40.68 0.0004025977    1.421    0.296
        66 -10.3785    101.4807    124.8554   9.1786254962e+01   3.6795917912e+01    0.2782226     0.244374 -22.16 0.0006065248    1.331    0.249
        67 -11.0232    120.2664    123.0073   8.6183354374e+01   3.3746005685e+01     0.492069    0.3627438 -18.43  0.002016798    1.833    0.454
        68  -9.7502    134.9181    119.9315   8.1667515019e+01   3.1515836299e+01    0.3184621    0.1862764 -42.77  0.001026613    1.750    0.429
        69  -9.3560    109.5273    118.2808   8.8070350394e+01   3.6840083668e+01    0.2414181    0.2183781  55.72 0.0002716693    1.095    0.086
        70 -10.1451    231.3468    113.7731   6.1300463613e+01   1.3308044704e+01    0.2779209    0.2299593 -15.26 0.0007194946    1.057    0.054
        71  -9.1363    167.6755    112.6582   7.2295228080e+01   2.6127162122e+01    0.2902345    0.2151766 -78.42  0.001312131    2.067    0.516
        72 -11.5891    117.9101    109.6194   8.3667844566e+01   3.7161116014e+01    0.7941573    0.5406343  71.13   0.00327874    2.058    0.514
        73  -9.6320    205.5091    110.3335   6.4558357466e+01   1.8711728636e+01    0.2831429    0.2253494  26.62 0.0009784405    1.326    0.246
        74 -10.0451    134.5743    104.8384   7.8006298667e+01   3.4741206979e+01    0.5618027    0.1470966 -45.20  0.001590607    3.837    0.739
        75  -9.5246     64.4134     99.7207   9.8222511136e+01   4.8871386242e+01    0.2732198    0.1643273  44.95  0.001246086    1.712    0.416
        76  -9.8317     54.1982    221.7051   1.1548595396e+02   2.2943757224e+01    0.2722326    0.1093442  45.65  0.001156349    1.841    0.457
        77 -11.6581     52.5064     90.6521   1.0063748910e+02   5.2755130390e+01    0.4932477    0.2258759 -55.33  0.001743571    1.973    0.493
        78  -8.5995    155.7869     82.4084   6.6711152680e+01   3.4366856479e+01    0.2125599    0.1409042  41.17 0.0003952194    1.607    0.378
        79  -9.1244    184.1975     77.0826   5.9642082427e+01   2.8624720504e+01    0.2275588    0.1985248   6.42 0.0007808636    1.267    0.211
        80 -10.0163     65.5602     70.5058   9.0324087552e+01   5.5861415626e+01    0.3740248     0.212575  49.10    0.0016084    2.013    0.503
        81 -10.8255    248.4393    244.0615   8.2082213271e+01  -4.5022509469e+00    0.2980418    0.1277802  -8.88  0.001599067    3.138    0.681
        82 -12.7245    179.4749     52.3381   5.3230170097e+01   3.3550048064e+01    0.8274307    0.7497836   4.45  0.000906579    1.228    0.186
        83  -9.6539    168.1053    232.7844   9.3942745371e+01   6.5054504251e+00    0.2021864    0.1403923  30.64 0.0008561877    1.126    0.112
        84  -8.8863     44.4416    230.0847   1.1792835979e+02   2.2531520034e+01    0.1378895    0.0866574  72.88  0.000932793    1.508    0.337
        85 -10.0317     79.9305     15.0417   6.1201434167e+01   6.3799840133e+01    0.3137588    0.2053354  65.04  0.001117634    1.744    0.427
        86  -9.4504     58.7116    229.1329   1.1503543015e+02   2.1140275857e+01    0.1448593    0.1101785  57.77 0.0003614014    1.102    0.093
