#   1 NUMBER                 Running object number                                     
#   2 MAG_AUTO               Kron-like elliptical aperture magnitude                    [mag]
#   3 X_IMAGE                Object position along x                                    [pixel]
#   4 Y_IMAGE                Object position along y                                    [pixel]
#   5 X_WORLD                Barycenter position along world x axis                     [deg]
#   6 Y_WORLD                Barycenter position along world y axis                     [deg]
#   7 A_WORLD                Profile RMS along major axis (world units)                 [deg]
#   8 B_WORLD                Profile RMS along minor axis (world units)                 [deg]
#   9 THETA_WORLD            Position angle (CCW/world-x)                               [deg]
#  10 FWHM_WORLD             FWHM assuming a gaussian core                              [deg]
#  11 ELONGATION             A_IMAGE/B_IMAGE                                           
#  12 ELLIPTICITY            1 - B_IMAGE/A_IMAGE                                       
         1 -13.4225      6.1293     11.7299   1.1960701157e+02   7.2665614393e+01     1.959262    0.5962794 -44.28   0.00982598    2.328    0.570
         2 -13.9494    202.9745     11.6525   6.4385166790e+01   3.3063634666e+01     1.782408     1.132047  43.03  0.008772436    1.870    0.465
         3 -13.2850    190.5266     29.3634   7.0949292844e+01   3.4237920153e+01     1.351756     1.122571  65.60  0.007368251    1.170    0.145
         4 -11.3218    107.5071    248.4731   1.3496732071e+02   1.1420709654e+01    0.2912422    0.1723804  61.06  0.001640329    1.487    0.327
         5 -11.0325    248.0469    249.9126   1.1126776919e+02  -1.0156429902e+01    0.4122106    0.1147401  41.01  0.001903182    3.025    0.669
         6 -11.0597    125.8016    250.0276   1.3195772956e+02   8.4324291604e+00    0.3254986    0.1336386  39.57   0.00165672    2.095    0.523
         7 -11.5697     98.0396    249.2656   1.3666451889e+02   1.2676087372e+01     0.348201    0.2179162  45.70  0.001613251    1.315    0.240
         8 -11.3827     81.4021    248.6195   1.3943330239e+02   1.5118433092e+01    0.2893053    0.1846798  79.34  0.001937417    1.500    0.333
         9 -11.1712     47.3532    248.4965   1.4503595676e+02   1.9524551966e+01    0.3736611    0.2442309  51.79  0.002047656    1.272    0.214
        10 -14.2513     32.4151    247.0358   1.4733157974e+02   2.1508193456e+01     8.062248     2.037179  32.74   0.01865635   17.058    0.941
        11 -15.4179     33.8057    186.5594   1.4317855880e+02   3.2788432043e+01      10.0312     3.790452  73.46   0.04107414    3.537    0.717
        12 -14.9332      7.0094    210.0016   1.4963621972e+02   3.0816961387e+01     3.992236    0.7270507 -72.37   0.01719618    4.111    0.757
        13  -9.6309    198.6643    246.3185   1.1887676100e+02  -2.4981661383e+00    0.1086213   0.08262286  59.58 0.0007048942    1.700    0.412
        14 -11.3365     19.2963    229.8789   1.4856278999e+02   2.5919633172e+01    0.2542984    0.2353554  45.63  0.002011815    1.702    0.413
        15 -10.8343    151.2808    229.1714   1.2496000609e+02   7.5501310280e+00    0.3466608    0.1336637  45.33  0.001597461    2.119    0.528
        16  -9.9245     32.8465    228.3634   1.4623213993e+02   2.4726697877e+01    0.1868991    0.1339918  80.17 0.0005500828    1.118    0.105
        17 -10.9312     34.6035    224.2273   1.4568431579e+02   2.5284991475e+01    0.3384507    0.1864894  65.11  0.001332665    1.398    0.285
        18  -9.7859    228.8846    228.2459   1.1103059804e+02  -5.0385947663e+00    0.2545872    0.1495666 -51.20  0.001328946    3.064    0.674
        19 -10.6527    249.5639    244.2110   1.1016051876e+02  -9.8029938433e+00    0.2393767   0.09866342 -26.98  0.001307041    2.685    0.628
        20 -13.2735      6.1326    244.2847   1.5125965858e+02   2.4744117083e+01     1.153904    0.7402762 -86.95  0.009386118    1.402    0.287
        21 -14.0594     48.5533    223.6197   1.4321560506e+02   2.3759989026e+01     1.000878    0.6184352 -88.81   0.00645444    1.436    0.304
        22  -9.5184     94.6658    216.7786   1.3412353598e+02   1.8754768974e+01    0.2391199    0.1432788  69.97 0.0009138333    1.695    0.410
        23  -8.9845    152.7038    212.9839   1.2245984944e+02   9.9122917124e+00    0.1652193    0.1509733  54.77 0.0003149651    1.085    0.078
        24 -10.8913     31.9213    206.9141   1.4504182281e+02   2.8875099320e+01    0.3958055    0.1357604  56.92   0.00125724    2.510    0.602
        25 -10.6329     24.4236    203.3539   1.4617820257e+02   3.0378272705e+01    0.3542123    0.1636311  41.11  0.002105409    2.041    0.510
        26 -10.2343    193.7428    196.1756   1.1188522525e+02   5.2760435508e+00    0.6835947    0.3363298 -61.75  0.001968924    7.156    0.860
        27 -11.4164     67.1807    197.2966   1.3747141823e+02   2.6489636232e+01    0.3205744    0.2332166 -49.52  0.001423844    1.876    0.467
        28 -11.5927     72.4447    189.7434   1.3560032364e+02   2.7323023893e+01     0.259159    0.2206793 -63.23 0.0007655002    1.389    0.280
        29 -10.9866     27.0229    240.0079   1.4782584728e+02   2.3307517576e+01     0.220064    0.1183178  68.21  0.001531312    1.376    0.273
        30 -10.8082     81.5366    177.2474   1.3215944832e+02   2.8669243032e+01    0.2446287     0.205467 -85.08  0.000387228    1.106    0.096
        31 -13.1491     68.8813    175.0069   1.3465554186e+02   3.0961137293e+01    0.4706711    0.2766276 -47.12  0.001694145    2.262    0.558
        32 -11.8933     88.3771    167.8454   1.2933596428e+02   2.9685334123e+01    0.6812309    0.4942798  63.56  0.003827158    1.299    0.230
        33  -9.9722    186.0074    238.9727   1.2004260414e+02   4.3278404055e-01    0.1423695    0.1193748  32.65  0.000455085    1.060    0.057
        34 -12.0293     57.8267    131.1972   1.3121954726e+02   4.2420657023e+01     1.227447    0.4401421 -77.35     0.003455    5.544    0.820
        35  -9.9062    100.5915    151.6455   1.2386778350e+02   3.1327423334e+01    0.2694991    0.2568303 -88.93  0.000845703    1.115    0.103
        36  -9.0443    103.4650    147.5200   1.2242804162e+02   3.1769053634e+01    0.2697968    0.1825604 -33.48  0.001128184    2.091    0.522
        37 -12.7499     67.1759    144.0707   1.3083856786e+02   3.8187461753e+01     1.036345    0.5844361  82.13  0.003682684    2.319    0.569
        38  -8.4274    192.0326    144.2485   1.0179577247e+02   1.4535188320e+01    0.1791484    0.1227261  45.40 0.0003276753    1.440    0.305
        39  -8.6677    242.2969    138.6775   9.1455700101e+01   5.0921921789e+00    0.1324905    0.1059326 -60.44 0.0003012155    1.621    0.383
        40  -9.7008    111.1512    136.9492   1.1847043495e+02   3.2798943456e+01    0.3474394    0.2491128 -18.16  0.001272783    2.315    0.568
        41 -10.4491     98.6484    134.2657   1.2109375201e+02   3.5634735422e+01    0.2715819    0.2311054 -32.83 0.0007078424    1.426    0.299
        42 -12.6255     42.2486    231.5204   1.4483584124e+02   2.3075449777e+01    0.2949598    0.2265494 -73.96 0.0007611921    1.521    0.342
        43  -9.4352    107.9264    123.8894   1.1649501382e+02   3.6371541151e+01    0.2077714    0.1976862 -78.52 0.0003206143    1.033    0.032
        44 -10.7836    168.2247    113.3510   9.9290893833e+01   2.5835373216e+01    0.3655787    0.3002929 -75.70 0.0008259047    1.428    0.300
        45  -9.0196    203.4722    111.5192   9.1727160862e+01   1.7958181710e+01    0.1502513    0.1441567 -13.95 6.872003e-05    1.040    0.038
        46 -12.0453     89.1877    151.2234   1.2655560036e+02   3.3292795986e+01    0.2714674    0.2438509 -55.54 0.0005549262    1.240    0.194
        47 -11.5040    140.0850    249.9243   1.2946836141e+02   6.2444440150e+00    0.4213414    0.1613033  46.30  0.002115609    2.020    0.505
        48  -9.8313    163.1838    249.1742   1.2536644410e+02   2.7208867267e+00    0.1623949    0.1195489  57.29  0.001090946    1.360    0.265
