#   1 NUMBER                 Running object number                                     
#   2 MAG_AUTO               Kron-like elliptical aperture magnitude                    [mag]
#   3 X_IMAGE                Object position along x                                    [pixel]
#   4 Y_IMAGE                Object position along y                                    [pixel]
#   5 X_WORLD                Barycenter position along world x axis                     [deg]
#   6 Y_WORLD                Barycenter position along world y axis                     [deg]
#   7 A_WORLD                Profile RMS along major axis (world units)                 [deg]
#   8 B_WORLD                Profile RMS along minor axis (world units)                 [deg]
#   9 THETA_WORLD            Position angle (CCW/world-x)                               [deg]
#  10 FWHM_WORLD             FWHM assuming a gaussian core                              [deg]
#  11 ELONGATION             A_IMAGE/B_IMAGE                                           
#  12 ELLIPTICITY            1 - B_IMAGE/A_IMAGE                                       
         1  -8.2072     80.4897     12.4820   7.5771504614e+01   6.2802550387e+01    0.2780794    0.1919189 -46.66  0.001007056    1.699    0.412
         2  -7.3986    107.6824      1.2891   6.2818744492e+01   5.8286408565e+01     0.133305    0.1044941 -57.73 0.0002069398    1.595    0.373
         3  -8.2020    200.3570    247.6985   1.0524232729e+02   1.0107348718e+00    0.2106402   0.09761822 -29.83  0.001260189    3.074    0.675
         4 -11.1175    235.1357    248.5965   1.0016363009e+02  -4.0408314158e+00      0.32252    0.1967728  30.21 0.0003486755    1.179    0.152
         5 -10.2772    244.1797    248.3314   9.8816442249e+01  -5.2645504243e+00    0.5418742    0.1978447  43.99  0.003086379    2.264    0.558
         6  -7.8552    150.5052    250.0423   1.1320870586e+02   8.0584761258e+00    0.1224919    0.1050445 -60.73  0.001032169    1.589    0.371
         7  -8.5722    132.9950    249.5609   1.1589599566e+02   1.0627980927e+01    0.2683706    0.1778267  33.71  0.001944368    1.568    0.362
         8  -8.3062    139.6846    247.0994   1.1461377974e+02   9.9767520083e+00    0.1404065    0.1145473  50.72  0.001149956    1.128    0.114
         9  -9.2751     12.9374    246.3990   1.3387372425e+02   2.5636148073e+01    0.1826034   0.08172765  73.27  0.001367013    1.688    0.407
        10  -8.1493    210.7146    248.3480   1.0375387434e+02  -5.5575263072e-01    0.0919222   0.07315284  57.15  0.000702003    1.653    0.395
        11  -9.4173      3.7150    245.3274   1.3514167752e+02   2.6659861792e+01    0.1725692   0.09573319  39.28  0.001396318    1.897    0.473
        12  -9.4003    145.8377    238.5199   1.1276715917e+02   1.0149513673e+01    0.2200046    0.1787853  51.78 0.0009086535    1.101    0.092
        13  -8.9724    140.5293    237.9618   1.1356682683e+02   1.1007498355e+01    0.2613821    0.2148409  49.84  0.002091856    1.111    0.100
        14  -9.7586     89.6731    231.6459   1.2128381016e+02   1.9082247479e+01    0.4750526    0.2155766  64.27   0.00270089    2.297    0.565
        15 -10.8804    244.9992    241.6118   9.7782850842e+01  -4.8334074270e+00    0.5960922    0.2886105  21.80  0.003643927    2.053    0.513
        16  -8.5355    175.8967    242.4911   1.0841238057e+02   5.1800253102e+00    0.2262121    0.1443084  33.88  0.001061625    1.333    0.250
        17  -8.3309    154.9038    237.3395   1.1117702354e+02   8.9412815301e+00    0.2273023   0.07334285  48.14  0.001092807    2.486    0.598
        18  -8.5764    232.0356    234.0366   9.8645036547e+01  -2.3335136114e+00    0.1648953    0.1164343  26.28            0    1.059    0.056
        19 -10.0231     88.5921    238.9849   1.2202555032e+02   1.8146058668e+01    0.2900422    0.1890911  66.50  0.001294486    1.272    0.214
        20  -7.9486    188.4007    233.2339   1.0530780477e+02   4.3134541069e+00    0.1548689    0.1393235 -48.81  0.001061755    1.533    0.348
        21  -7.5009    220.5027    238.9091   1.0105500210e+02  -1.0974130725e+00    0.1287326   0.09945931 -14.58 0.0006464682    1.521    0.342
        22  -8.9223    114.3986    231.1435   1.1717246955e+02   1.5742060065e+01    0.3474239    0.2028907  39.08  0.002271633    1.583    0.368
        23  -9.6377    107.3203    218.6603   1.1717453967e+02   1.8609939852e+01    0.2864984    0.1434484  59.91  0.001642214    1.902    0.474
        24  -8.8391    106.7572    230.9890   1.1842077690e+02   1.6845668178e+01    0.1582267    0.1453524 -76.92 0.0005226043    1.426    0.299
        25 -10.5725    107.3206    224.7519   1.1775613369e+02   1.7685835539e+01    0.5750607    0.3206147  51.12  0.003745941    1.373    0.272
        26  -7.5800    161.9092    221.7879   1.0820357519e+02   9.8349299914e+00    0.1423307    0.1036962  44.09   0.00036873    1.070    0.065
        27 -10.1847    154.6698    223.6474   1.0964561599e+02   1.0729442797e+01    0.6192291    0.4761774  48.38  0.004518914    1.038    0.036
        28  -9.1496    151.9937    229.0318   1.1072089189e+02   1.0437389197e+01    0.2371332    0.1751779  66.24 0.0008259173    1.465    0.317
        29 -10.3848    148.2194    227.6553   1.1119058433e+02   1.1197708600e+01     0.670949    0.3356006 -39.42  0.003783081    3.029    0.670
        30  -9.1692     93.3000    238.4432   1.2123247381e+02   1.7603624598e+01    0.2561751    0.1637551  50.51  0.001657639    1.175    0.149
        31  -9.5033    139.7249    228.4411   1.1269236045e+02   1.2387342622e+01    0.4070359    0.1990643  38.17  0.001702738    1.828    0.453
        32  -8.3942     84.7510    221.6174   1.2129130164e+02   2.1275012678e+01    0.3440494    0.1863172  30.26  0.001923129    2.705    0.630
        33  -7.3075    217.7435    221.7033   9.9082220639e+01   1.0127738603e+00     0.107148   0.07004417  18.63 0.0001561571    1.498    0.333
        34  -9.5108    127.8142    217.3851   1.1350394439e+02   1.5763467709e+01    0.3130068    0.1808007  83.24  0.001625365    2.947    0.661
        35  -7.8715    149.2684    239.9775   1.1236869927e+02   9.4569583573e+00    0.1451851    0.1049071  58.23 0.0005421986    1.280    0.219
        36  -9.7756    120.1938    217.0129   1.1478276574e+02   1.6969913937e+01    0.2358374    0.1878885  87.49  0.001734701    1.356    0.263
        37  -7.9416    243.6855    217.3364   9.4425361970e+01  -2.5114396453e+00   0.09334035   0.08512938  54.61 0.0003549118    1.693    0.409
        38  -7.7918    159.9867    216.2451   1.0783142273e+02   1.0876074180e+01    0.1628069    0.1225455  42.80 0.0005415025    1.068    0.064
        39  -9.9190     55.1235    215.1152   1.2581073329e+02   2.6053011448e+01    0.2498135    0.2387169  12.35   0.00210497    1.804    0.446
        40 -10.2993     52.6903    210.8977   1.2594034090e+02   2.7046272031e+01    0.4007131    0.3159441  16.31  0.002861148    2.334    0.572
        41  -7.4742    110.6283    215.7232   1.1631001482e+02   1.8583277507e+01      0.10269   0.08206638  25.98 0.0007007236    1.688    0.408
        42  -7.7066     91.9726    211.3897   1.1915334164e+02   2.1934627652e+01    0.1985419    0.1289628  37.80  0.001036684    1.624    0.384
        43 -11.2238     67.0844    204.7290   1.2297599968e+02   2.6352889627e+01    0.4977449    0.2865377 -69.46  0.003299201    1.814    0.449
        44 -10.4542    110.2211    206.5748   1.1542606795e+02   2.0091285414e+01    0.3780606    0.2859466  25.23   0.00247613    1.822    0.451
        45  -9.1760    128.7228    206.9915   1.1215703227e+02   1.7195206608e+01    0.2244736    0.1329984  60.35 0.0009547443    1.648    0.393
        46 -10.7051    117.6194    201.3512   1.1350102888e+02   1.9817562827e+01    0.5093192    0.2678206  61.93  0.000241402    2.037    0.509
        47  -7.9746    151.1334    204.3727   1.0782859096e+02   1.3986950682e+01      0.26307    0.1622015 -74.38  0.001395603    2.700    0.630
        48  -8.6293     92.3466    204.3614   1.1841714879e+02   2.3046771603e+01    0.2602232     0.172281  22.36  0.001140899    2.619    0.618
        49  -9.9852     54.8967    203.7568   1.2505751972e+02   2.8012122131e+01    0.2472513    0.2112462 -88.48  0.002007064    1.336    0.251
        50  -9.2762     98.2766    203.1681   1.1722442937e+02   2.2403267802e+01    0.2049255     0.188302  47.79  0.000825884    1.346    0.257
        51  -9.8439    129.1297    201.7233   1.1144777478e+02   1.7955588288e+01    0.2434171    0.2094738 -61.86  0.001054223    1.383    0.277
        52  -8.9864    126.6258    198.7011   1.1153212300e+02   1.8836751254e+01    0.2414994    0.1862432  34.82  0.001589453    1.397    0.284
        53  -8.7574    138.9793    199.2588   1.0934229481e+02   1.6755296667e+01    0.1712438    0.1328066  51.23 0.0005547022    1.061    0.057
        54  -9.8015    107.9536    198.0043   1.1489451455e+02   2.1845726531e+01    0.2765546    0.1750155  29.34  0.001571463    2.102    0.524
        55 -10.1625    109.8701    193.3301   1.1399758313e+02   2.2348969991e+01    0.3774741    0.1708481  37.83  0.001867783    2.247    0.555
        56  -9.8606    100.3561    196.4247   1.1612897179e+02   2.3245209849e+01    0.3618141     0.176868  61.31  0.001331774    2.127    0.530
        57  -8.8806     94.3559    198.3443   1.1744502668e+02   2.3785352309e+01    0.1534639    0.1422001  -4.03   0.00111611    1.693    0.409
        58  -9.8930     84.6255    196.0727   1.1901665268e+02   2.5547989023e+01    0.3012246     0.172168  46.22   0.00172283    1.500    0.334
        59  -8.9620     79.8670    202.1792   1.2046621930e+02   2.5131630817e+01    0.2358376    0.1148656  39.83  0.001342097    1.950    0.487
        60  -8.1460     76.7587    191.0821   1.2000178703e+02   2.7506761905e+01    0.2916497    0.1242525  58.84   0.00121873    2.286    0.563
        61  -9.9125    115.5880    189.0953   1.1239948708e+02   2.2188946906e+01    0.2848468    0.2028801  55.54  0.001807557    1.184    0.156
        62  -7.0538     56.0000    188.9803   1.2371584341e+02   3.0527263317e+01     0.167544   0.05564144 -71.06 0.0008010705    2.933    0.659
        63  -9.1546     62.7790    183.5004   1.2195425772e+02   3.0715037775e+01    0.3016086     0.176452  82.95  0.001840199    1.651    0.394
        64  -6.9009    223.5265    194.4960   9.3900430801e+01   3.0500299886e+00    0.1215225    0.0953275  23.37 0.0001414383    1.051    0.049
        65  -8.8436     51.2268    183.5822   1.2417454429e+02   3.2097741548e+01    0.1426261    0.1014202  34.80 0.0004840201    1.724    0.420
        66  -8.9697    114.6535    180.2132   1.1143259774e+02   2.3898013223e+01    0.2482479    0.1507748 -33.50  0.001186068    3.072    0.675
        67  -8.4938    249.6584    173.3102   8.5966687381e+01   1.0539121112e+00    0.1647844    0.1522154 -66.79  0.001115964    1.741    0.426
        68  -8.5404    241.2524    171.1312   8.6866233264e+01   2.7350469830e+00    0.2252608    0.1657013  41.62 0.0006212672    1.337    0.252
        69  -9.3313     90.9107    168.1281   1.1464984626e+02   2.9823506208e+01    0.2268994    0.1614794  43.19  0.001385963    1.405    0.288
        70  -7.6102    241.3648    167.2689   8.6109272190e+01   3.1684424351e+00    0.1312821   0.08101498  19.84   0.00069951    1.655    0.396
        71  -8.4921    242.1720    161.6786   8.4890051398e+01   3.6917798001e+00    0.1909707    0.1557234 -24.34 0.0002877234    1.300    0.231
        72  -8.9028    210.1097    159.4207   8.9772649942e+01   9.9149368658e+00    0.2408924    0.2118919  36.91 0.0003842687    1.111    0.100
        73  -7.6844     95.9909    150.6992   1.1114143048e+02   3.2521588925e+01    0.1693654    0.1483764  72.21 0.0003105913    1.039    0.037
        74  -8.0271    229.1980    141.9124   8.2911873581e+01   8.6346734774e+00    0.1858125    0.1799033   6.76 0.0006143335    1.193    0.162
        75  -7.8250    248.3134    104.6810   7.1430930874e+01   9.7961515704e+00    0.1343206    0.1029882 -55.03 0.0004588931    1.649    0.394
        76  -9.0540    227.3293     86.6854   7.0034244966e+01   1.6839918020e+01    0.2697179    0.2284419  18.67 0.0004229995    1.224    0.183
        77  -7.6742    184.6176     77.8861   7.4812275905e+01   2.8416013557e+01    0.2185517     0.132686 -44.10  0.000445226    1.678    0.404
        78  -7.2296    110.5766     69.7184   8.9264287451e+01   4.7031450609e+01    0.1506745    0.1140688   7.81 0.0006954909    1.836    0.455
        79  -7.0742    170.6944     68.2591   7.4621237341e+01   3.3455338496e+01    0.1499296    0.1193746 -72.87  0.000193345    1.519    0.341
        80  -7.1786     34.5358     66.4891   1.1252384839e+02   5.9042082640e+01    0.1253565    0.1009361 -62.35 0.0001054341    1.006    0.006
        81  -7.3871    144.0026     57.9709   7.6975674286e+01   4.1763119171e+01    0.1809288    0.1725925 -28.72            0    1.021    0.020
        82  -8.9288    127.0168     54.0903   7.9703455323e+01   4.6426834610e+01    0.2373531    0.2066355 -37.85 0.0002917562    1.108    0.098
        83  -8.1796     94.9642     52.6995   8.8090437374e+01   5.3403712109e+01    0.2384086    0.1895111 -42.72  0.000654196    1.165    0.142
        84  -9.0857    222.4259     37.8881   5.7266068676e+01   2.4609322374e+01    0.3528189    0.2546289 -34.47  0.001262579    1.287    0.223
        85  -7.5013     92.0184     36.7487   8.2941791365e+01   5.6853623209e+01    0.1687295    0.1208866  46.37 0.0003348349    1.509    0.337
        86  -7.9980     77.4663     29.9437   8.4853890787e+01   6.0700805075e+01    0.1936943    0.1073572 -55.52 0.0008092279    2.577    0.612
        87  -7.1837     79.6862     23.2836   8.1154639173e+01   6.1382698758e+01     0.125698    0.1052891 -64.08 0.0002644419    1.577    0.366
        88  -7.3529      3.3422     23.7094   1.1405881319e+02   7.0463922571e+01    0.1016884    0.0800909  81.87 0.0006975953    1.651    0.394
        89  -9.0526     84.7453     21.4796   7.8668160530e+01   6.0705669078e+01    0.2530791     0.219125 -26.30 0.0005523335    1.090    0.083
        90  -7.3938     30.4198     22.4679   1.0059970914e+02   6.8599179057e+01    0.1215109   0.09560455 -40.30 4.489204e-05    1.017    0.017
        91  -7.3945    168.5230     21.5728   5.9509812712e+01   4.0709485332e+01    0.1455806    0.1438072  67.43 6.105255e-05    1.012    0.012
        92  -9.2672     75.1510     17.9479   8.0216995557e+01   6.3022284943e+01    0.2883068     0.204467 -35.19 0.0004918712    1.315    0.239
        93  -8.7305    221.5027    248.4866   1.0215771419e+02  -2.1144225782e+00    0.1769582   0.09964713 -28.90  0.001237326    2.258    0.557
        94  -6.8917    133.3401     12.3335   6.2200704590e+01   5.0922506444e+01    0.1594282    0.1009709  29.19 0.0007051445    1.750    0.429
