#   1 NUMBER                 Running object number                                     
#   2 MAG_AUTO               Kron-like elliptical aperture magnitude                    [mag]
#   3 X_IMAGE                Object position along x                                    [pixel]
#   4 Y_IMAGE                Object position along y                                    [pixel]
#   5 X_WORLD                Barycenter position along world x axis                     [deg]
#   6 Y_WORLD                Barycenter position along world y axis                     [deg]
#   7 A_WORLD                Profile RMS along major axis (world units)                 [deg]
#   8 B_WORLD                Profile RMS along minor axis (world units)                 [deg]
#   9 THETA_WORLD            Position angle (CCW/world-x)                               [deg]
#  10 FWHM_WORLD             FWHM assuming a gaussian core                              [deg]
#  11 ELONGATION             A_IMAGE/B_IMAGE                                           
#  12 ELLIPTICITY            1 - B_IMAGE/A_IMAGE                                       
         1  -9.1154     74.0094     19.3407   9.0853098061e+01   6.1289024170e+01    0.2910829    0.1751299 -43.15  0.001164673    2.205    0.546
         2  -8.6324    232.4933     13.4624   6.0327877954e+01   2.6062734069e+01    0.2411663    0.1203309 -33.77  0.001205934    2.155    0.536
         3  -7.8571     17.1664     14.2065   1.1078016757e+02   6.9309881363e+01    0.1316942    0.1116433 -20.91 0.0005132108    1.348    0.258
         4  -8.4642     55.7893     10.1544   9.3255812684e+01   6.5211043658e+01    0.1612668    0.1409114  -0.38  0.000602628    1.243    0.195
         5  -7.9497     47.7710     10.0547   9.6181039015e+01   6.6370286986e+01    0.1340435    0.1286665  23.86 0.0008867187    1.605    0.377
         6  -8.1201     28.1106     10.1517   1.0422334989e+02   6.8771120097e+01    0.1355509    0.1130711 -13.91 0.0005507308    1.298    0.230
         7  -8.3711     90.9257      9.0173   8.1807142226e+01   5.9270888730e+01    0.1735441    0.1494628 -68.35 0.0005994525    1.720    0.419
         8  -7.6156    101.1951      8.3557   7.8925913717e+01   5.7285050032e+01    0.1626591    0.1086333  62.42  0.000393381    1.581    0.368
         9  -7.5223      5.6612      8.3235   1.1368867797e+02   7.1048329830e+01   0.08450054    0.0802189 -18.92 0.0003831327    1.721    0.419
        10  -8.5825     33.3310      5.3556   9.9872847173e+01   6.8750927390e+01    0.2299398    0.1618458 -51.88  0.001377789    2.943    0.660
        11  -8.4516     79.0222      3.6300   8.2992052780e+01   6.1989921817e+01    0.2062116    0.1532028 -35.71  0.001122568    1.688    0.407
        12  -7.6363     44.6464      3.2855   9.4384015367e+01   6.7526726510e+01   0.09184134   0.08906958  14.78  0.000532083    1.666    0.400
        13  -8.3706     62.2127      1.5856   8.7338077573e+01   6.5062230972e+01    0.1573382    0.1266851  40.46 0.0004286921    1.349    0.259
        14  -9.0244    120.3154    245.5406   1.3112667104e+02   7.5829142248e+00    0.3687409    0.2163626  78.29  0.001593285    2.376    0.579
        15  -9.5491    233.2571    246.8466   1.1005670713e+02  -1.1535075838e+01    0.4857449    0.2703094 -29.90  0.002479515    1.937    0.484
        16  -9.3701    210.9180    246.6366   1.1409592997e+02  -7.9936211885e+00    0.3484927    0.2323903 -62.15    0.0018165    2.795    0.642
        17  -7.9526    199.3578    250.3129   1.1681876202e+02  -6.6155289834e+00    0.1288195   0.08530461  14.69 0.0007043539    1.743    0.426
        18  -8.2596    191.5818    249.7969   1.1819169940e+02  -5.2508467991e+00    0.1478466    0.1210726 -60.87 0.0006961591    1.678    0.404
        19  -8.4978     94.0366    249.7821   1.3645952354e+02   1.1034288464e+01    0.2646189    0.1351115  69.38  0.001254451    2.262    0.558
        20  -7.8999     67.5699    245.2638   1.4076401382e+02   1.5775038147e+01    0.2069593    0.1030454 -77.38  0.001124927    2.060    0.514
        21  -8.6395    202.0733    243.6596   1.1526923155e+02  -6.1166167156e+00    0.2379485    0.1788873 -60.44 0.0009720123    1.976    0.494
        22  -8.5111    139.7913    244.9956   1.2735495907e+02   4.3856077941e+00    0.2006882    0.1343321  79.79  0.001061355    1.998    0.500
        23  -8.1264     50.5069    244.5181   1.4366430691e+02   1.8223357501e+01    0.2482744   0.08573902 -88.33 0.0008106199    5.872    0.830
        24  -8.7801    168.9999    243.4917   1.2153763031e+02  -4.2847011299e-01    0.2097366    0.1768275 -83.58  0.000589646    1.529    0.346
        25  -8.6891     77.8869    243.2002   1.3873432429e+02   1.4684202373e+01    0.3070744    0.1527299  77.76  0.001465577    2.522    0.604
        26  -7.8027     58.3223    244.6417   1.4232840980e+02   1.7165010501e+01    0.1286658   0.06707715  69.89 5.126366e-05    1.769    0.435
        27  -9.1612    194.0828    239.6828   1.1614704439e+02  -4.1766533727e+00    0.2678711    0.2181644  81.26 0.0007909068    1.837    0.456
        28  -9.7954    160.4872    240.7000   1.2277388457e+02   1.5153382920e+00    0.3849141    0.2543019 -83.98  0.001490831    2.614    0.617
        29  -8.0178    153.3475    242.1438   1.2436135109e+02   2.5233492015e+00    0.1650787    0.1195641 -70.26 0.0006414147    1.773    0.436
        30  -8.1998     88.3738    241.8332   1.3668452420e+02   1.3373340746e+01    0.2060108    0.1098966 -72.79 0.0006202698    2.023    0.506
        31  -9.5281    241.6657    238.4307   1.0713299965e+02  -1.1719292156e+01    0.5157979    0.2304907 -17.22  0.002025215    3.999    0.750
        32  -8.4413    214.1348    241.1290   1.1260535860e+02  -7.7492313204e+00    0.1943486    0.1511887  11.90 0.0009998642    1.221    0.181
        33  -8.4951    146.3977    239.7030   1.2536866347e+02   4.1542072804e+00    0.2044515    0.1265071 -61.61 0.0005448784    1.990    0.497
        34  -9.0069    135.9510    239.2690   1.2733961698e+02   6.0471184613e+00    0.3423781    0.1759918  60.71  0.001549662    2.295    0.564
        35  -9.3484    231.0732    237.1057   1.0881314745e+02  -9.9109534758e+00     0.320473     0.256739 -50.40  0.001144585    1.771    0.435
        36  -9.3043    235.8060    231.1340   1.0691920614e+02  -9.8374775394e+00    0.3906135    0.2404263  -9.28  0.001328388    1.935    0.483
        37  -8.4650    129.4846    239.1529   1.2857823948e+02   7.1805305201e+00     0.248462    0.1406931  68.05  0.001162162    2.280    0.561
        38  -7.8823     40.6583    238.8629   1.4491701176e+02   2.0553245869e+01    0.1643377   0.08402748 -89.34 0.0009405171    1.800    0.444
        39  -8.0880    208.8730    238.3257   1.1312653130e+02  -6.4789916639e+00    0.1595515    0.1529654  11.70 0.0005263892    1.218    0.179
        40  -7.2488     13.3074    238.3244   1.4940476229e+02   2.3795965789e+01   0.09329787   0.07437213 -68.38 0.0005159059    1.648    0.393
        41  -7.8598    189.6265    237.2456   1.1661134207e+02  -3.0340954324e+00     0.161336     0.120424 -26.99  0.000771243    1.568    0.362
        42  -8.3694     58.8162    237.3100   1.4162362175e+02   1.8504930192e+01    0.2464097   0.07283875  46.93  0.001092772    2.693    0.629
        43  -8.0233     25.3498    236.5686   1.4733352212e+02   2.2809997391e+01    0.2168639   0.07643456  89.95 0.0009443282    3.345    0.701
        44  -8.7561    217.3190    235.7044   1.1110786547e+02  -7.5013257696e+00     0.233028    0.1693244  49.62 0.0007649808    1.557    0.358
        45  -9.5705    213.8568    232.0330   1.1113282325e+02  -6.3921219159e+00    0.3440979    0.2681111 -72.08  0.001485112    2.225    0.551
        46  -9.2595    203.3085    234.2554   1.1350480828e+02  -4.9357932958e+00    0.4042723    0.2339707 -43.43  0.001280159    2.010    0.503
        47  -9.6440    175.9203    233.6416   1.1870040628e+02  -4.5112128443e-02    0.4632753     0.258568 -61.12  0.002127557    2.756    0.637
        48  -8.3351    170.3993    235.7377   1.2010526556e+02   5.8971191371e-01    0.2145558    0.1288213 -54.35 0.0007548751    2.068    0.516
        49  -7.7303    152.7173    235.3433   1.2351565247e+02   3.7988172300e+00    0.1299528   0.09509177  72.56 0.0003248355    1.637    0.389
        50  -9.3591    108.9359    234.5685   1.3198641923e+02   1.1487627698e+01    0.4339663    0.2058309  56.36  0.002032247    2.027    0.507
        51  -8.2550     99.7802    234.6578   1.3376087083e+02   1.2957266216e+01    0.2383144    0.1409727  80.25  0.001206123    2.026    0.506
        52  -8.8643     78.8547    234.5779   1.3771170947e+02   1.6199564623e+01    0.2339903    0.1517619  88.71 0.0009544417    1.503    0.335
        53  -9.5896      8.6134    234.3684   1.4992889486e+02   2.5039784029e+01    0.2033226    0.1112191 -85.56  0.001364939    1.438    0.305
        54  -8.8507     68.2808    232.4053   1.3946078973e+02   1.8158287939e+01    0.3931015    0.1734917  68.83  0.001731058    2.787    0.641
        55  -8.5148    194.3642    232.6053   1.1494645505e+02  -3.1355501648e+00    0.2174015     0.203372 -63.37 0.0007208613    1.350    0.259
        56  -9.1099    141.5491    231.0841   1.2511372163e+02   6.5405704908e+00    0.6203241    0.2538773  60.01  0.001957402    4.609    0.783
        57  -8.1733    132.9610    232.9934   1.2708166594e+02   7.7016989164e+00    0.2140792    0.1421576  70.66  0.001119517    1.731    0.422
        58  -8.4133     92.7125    232.5160   1.3487337671e+02   1.4491568781e+01    0.2873164    0.1506082  76.17  0.001303187    2.539    0.606
        59  -9.4263    186.6622    230.7812   1.1614211741e+02  -1.4882834590e+00    0.3561682    0.2630892 -85.62  0.001826565    2.323    0.570
        60  -9.3873    183.1866    240.4607   1.1835438338e+02  -2.4163278107e+00    0.4171588    0.2668567  66.25  0.001886962    2.431    0.589
        61  -8.8054      1.7487    231.0287   1.5084012118e+02   2.6366596922e+01     0.229209    0.1019912  85.51  0.001065182    1.836    0.455
        62  -8.9133    151.3442    229.0126   1.2285802885e+02   5.1650643618e+00       0.3287    0.2029807  87.69   0.00131653    3.143    0.682
        63  -9.4068    148.8403    224.7227   1.2271788447e+02   6.3992676842e+00    0.4733623    0.3021113  82.30  0.001434266    2.577    0.612
        64  -8.1611    229.9096    228.9658   1.0761433098e+02  -8.5939637087e+00    0.1704347    0.1572491  82.67 0.0007041162    1.659    0.397
        65  -8.7696    162.2372    227.8497   1.2050287094e+02   3.4028529422e+00    0.2402796     0.187053  73.49 0.0007955216    1.541    0.351
        66  -8.7952    127.6626    227.1407   1.2733660917e+02   9.7237458323e+00     0.265381    0.1957141  81.12 0.0007905142    1.508    0.337
        67  -7.8525    119.9682    227.6836   1.2894877806e+02   1.0952078482e+01    0.2245048    0.1233984  80.59 0.0008861788    3.228    0.690
        68  -8.3235    223.5355    226.6981   1.0839418407e+02  -7.2230630301e+00    0.3314488    0.1726183 -23.74  0.001351937    2.407    0.584
        69  -9.2702    225.5872    221.2079   1.0703353830e+02  -6.7518802753e+00     0.286768    0.2021144 -13.87 0.0009188035    1.522    0.343
        70  -9.0279    205.9818    226.1575   1.1162112323e+02  -4.1552338302e+00    0.2730809     0.183648 -52.55 0.0008477123    1.955    0.488
        71  -8.0154     49.6076    226.8276   1.4237775432e+02   2.1798839855e+01    0.2560235    0.1132637  80.23  0.001146238    2.820    0.645
        72  -8.2003    122.7886    234.0921   1.2922848363e+02   9.2536963930e+00    0.2047524    0.1522692  70.89  0.000680699    1.325    0.245
        73  -8.3519    200.1703    226.0062   1.1271566362e+02  -3.1137974698e+00    0.2118223    0.1526422 -49.30 0.0008696768    1.687    0.407
        74  -8.8176    104.7572    223.6204   1.3146270131e+02   1.4313635863e+01    0.3428978     0.205697  84.32   0.00166113    2.119    0.528
        75  -8.6964     93.9136    224.0535   1.3366966106e+02   1.5982586105e+01    0.3606945     0.181861  67.21  0.001608974    2.398    0.583
        76  -7.9574     38.4284    224.9287   1.4423598464e+02   2.3576648982e+01    0.1702336   0.07563852  80.95 0.0008057687    2.495    0.599
        77  -8.8220    216.4995    223.2115   1.0909955065e+02  -5.5161972515e+00    0.2818238    0.2046165 -48.43 0.0009477086    1.717    0.418
        78  -8.6489    180.5902    224.1383   1.1624447843e+02   7.0559198607e-01    0.2210262    0.1666377  51.86 0.0006316261    1.312    0.238
        79  -8.7214    173.1964    223.3954   1.1759805109e+02   2.1840538282e+00    0.2865724    0.2172227  89.56 0.0008855217    1.929    0.482
        80  -8.5186    114.1306    223.9548   1.2962635746e+02   1.2676517780e+01    0.2264422    0.1487869 -73.98  0.000810414    1.693    0.409
        81  -9.3434    192.5383    221.5069   1.1343373122e+02  -1.0210413292e+00      0.33493    0.2604645 -89.79  0.001207316    2.045    0.511
        82  -8.3498    140.6709    223.1459   1.2413888318e+02   8.1720930281e+00    0.2028206    0.1583022  88.05 0.0008382659    1.482    0.325
        83  -9.2146    239.1691    221.7957   1.0464366468e+02  -9.0597637155e+00    0.2259505    0.2149216  54.33 0.0009528336    1.464    0.317
        84  -9.2276      7.2456    221.6470   1.4940528146e+02   2.7656026481e+01    0.3441443   0.09297799  60.81  0.001433644    3.879    0.742
        85  -9.0775    120.6608    219.5489   1.2770580877e+02   1.2426121860e+01     0.466938    0.2227046  63.46   0.00171604    2.977    0.664
        86  -8.6405     82.9136    220.7583   1.3545817867e+02   1.8363491976e+01    0.2848947    0.1502413  72.44    0.0013254    2.256    0.557
        87  -8.3544     72.8848    220.7563   1.3741879028e+02   1.9853531218e+01    0.2472064    0.1339953  80.02  0.001011594    2.108    0.526
        88  -7.8801     27.4965    221.4913   1.4591353902e+02   2.5547253737e+01    0.1170438   0.08481083  79.10 0.0008105973    1.011    0.011
        89  -8.2983    202.8596    220.1452   1.1117562872e+02  -2.6514768414e+00    0.1941236    0.1728992  53.43 0.0006077903    1.276    0.216
        90  -9.1219    248.4871    217.6968   1.0222388543e+02  -9.9473852575e+00    0.4195271    0.3207867  88.82  0.002045663    3.411    0.707
        91  -8.4765    210.0546    218.8550   1.0955440598e+02  -3.7193401963e+00    0.2176073    0.1839487 -33.03 0.0007046101    1.288    0.223
        92  -9.1202    159.9427    221.0558   1.1989570289e+02   5.0400823744e+00    0.5105071    0.2463126  59.64  0.001930355    3.051    0.672
        93  -9.3496    132.9022    216.0329   1.2467620878e+02   1.0950761844e+01    0.4792271    0.2862893  80.36  0.002002938    2.753    0.637
        94  -8.4692     62.1384    217.4330   1.3915542521e+02   2.2060869804e+01    0.2739318    0.1444672  72.95  0.001181168    2.004    0.501
        95  -8.7688     51.3534    217.4948   1.4122077911e+02   2.3485641736e+01    0.2827883     0.160321  81.41  0.001253318    1.685    0.407
        96  -8.7400    169.2802    216.3194   1.1721786152e+02   4.1681133878e+00    0.2824207    0.2261352 -78.36 0.0006855201    1.607    0.378
        97  -8.6924    142.8676    216.3388   1.2265776224e+02   9.0751964604e+00    0.3124311    0.2054654 -84.46  0.001211634    2.223    0.550
        98  -8.4924     18.5664    216.3255   1.4711395805e+02   2.7569877130e+01    0.2143278   0.08851878 -82.46  0.001125868    2.095    0.523
        99  -8.7780    232.2487    214.3250   1.0453949916e+02  -6.8323187790e+00    0.2664301    0.2030986 -36.06 0.0009315995    1.406    0.289
       100  -8.4289    185.7537    214.8203   1.1362250220e+02   1.3608741622e+00    0.2296849    0.1902394 -76.49  0.000988099    1.612    0.380
       101  -8.2454    154.3940    215.2751   1.2010430009e+02   7.1445101052e+00    0.2271943    0.1541745  62.08  0.000656945    1.621    0.383
       102  -9.0211     93.2631    213.9801   1.3257550272e+02   1.8157509147e+01    0.3930465    0.2191653  72.21  0.001209393    2.158    0.537
       103  -8.1662     41.3969    215.2506   1.4288909044e+02   2.5202481989e+01    0.1725648   0.09190683 -88.50  0.000680869    1.727    0.421
       104  -9.4782     72.9556    211.9367   1.3644414829e+02   2.1690179043e+01    0.6152889    0.2377342  63.27  0.002177316    3.907    0.744
       105  -8.3967    249.6712    212.5377   1.0105617076e+02  -9.3971771455e+00    0.2168856    0.1080152 -35.66  0.001081376    1.976    0.494
       106  -8.5265    224.7532    212.4326   1.0558492188e+02  -5.2698429157e+00    0.2902563    0.1659833 -40.03  0.001466888    1.857    0.462
       107  -9.4807    213.7732    212.0112   1.0759580144e+02  -3.2798090484e+00    0.3010822    0.2928942  81.06  0.001406769    1.307    0.235
       108  -8.7974    161.7247    212.4944   1.1812968492e+02   6.2945983981e+00    0.2511135    0.2160931  84.80  0.000803159    1.333    0.250
       109  -7.9558    106.7386    213.1586   1.2969588441e+02   1.6115700095e+01     0.225931    0.1217184  72.50 0.0009097646    2.651    0.623
       110  -8.9292    204.3226    210.9165   1.0923129766e+02  -1.3961073174e+00     0.258185    0.2277695 -75.34  0.000740429    1.523    0.343
       111  -9.6102    175.3738    209.9506   1.1487765637e+02   4.1827232253e+00    0.4714779    0.3132848  80.32  0.001511769    2.767    0.639
       112  -9.3309    171.2166    206.8574   1.1519189703e+02   5.5494886145e+00    0.2264138    0.2132938 -12.74 0.0003922574    1.165    0.142
       113  -9.3246      6.7260    209.4350   1.4872345683e+02   3.0165917583e+01    0.5575047    0.1737817  82.50  0.001919638    5.343    0.813
       114  -8.2518    192.3115    210.6959   1.1157319112e+02   8.5852968813e-01    0.2421596    0.2074503 -86.08 0.0008312306    1.566    0.361
       115  -8.7748    148.0607    210.5765   1.2066122581e+02   9.2341803614e+00    0.2827916    0.2051864  84.71  0.001114805    1.798    0.444
       116  -9.1064    116.2550    210.4850   1.2733743801e+02   1.5036924201e+01     0.306201    0.2100274  81.79 0.0008168113    1.683    0.406
       117  -9.3200    236.6826    207.6711   1.0247711603e+02  -6.5630200314e+00    0.4706496    0.2365692 -37.47  0.001680047    2.005    0.501
       118  -8.4774     85.6598    209.7047   1.3360226617e+02   2.0258165698e+01    0.2771949    0.1562867  74.97  0.001266904    2.104    0.525
       119  -8.1618     46.4050    209.4455   1.4141402300e+02   2.5807629041e+01    0.2500319    0.1218597  69.67  0.001233017    2.148    0.534
       120  -8.2572    126.5827    208.7124   1.2489724170e+02   1.3568157693e+01    0.2258191    0.1700138 -76.68  0.000682479    1.450    0.311
       121  -9.3045    246.2705    207.2821   1.0066979410e+02  -8.0851716255e+00     0.266436    0.1931442 -27.46 0.0006254721    1.319    0.242
       122  -7.9040    156.4050    208.1357   1.1850564118e+02   8.1348858494e+00    0.1859249    0.1336844 -68.10 0.0007650163    1.699    0.411
       123  -8.5373    139.1932    208.1290   1.2213557513e+02   1.1375727713e+01    0.2654544    0.1654183  66.41 0.0008843982    1.956    0.489
       124  -9.3131     99.4957    206.2963   1.3027924648e+02   1.8771768496e+01    0.4317494    0.2456804  84.46  0.001387052    2.463    0.594
       125  -8.1021     11.9790    207.0266   1.4762943842e+02   3.0152087049e+01    0.1391742   0.09984743  84.05 0.0005268433    1.007    0.007
       126  -8.4484     56.6662    205.6044   1.3901864254e+02   2.5312076142e+01    0.3187376    0.1449186  66.15   0.00141464    2.551    0.608
       127  -9.5797    195.0324    203.4555   1.0969795085e+02   1.6201672096e+00    0.4855821    0.3998338 -40.60  0.001882404    1.308    0.235
       128  -9.2257    192.4185    197.5439   1.0911232621e+02   3.1867761871e+00    0.3224431    0.2533815 -60.85 0.0008326754    1.563    0.360
       129  -9.2238    183.7793    203.9850   1.1208277358e+02   3.6720179336e+00    0.3288852    0.2510257  74.42 0.0009978454    1.783    0.439
       130  -8.6792    131.3025    204.1803   1.2318769025e+02   1.3642710954e+01    0.3288211    0.2025184  79.50  0.001020582    2.467    0.595
       131  -8.1379    109.1833    205.2452   1.2807967933e+02   1.7363309255e+01    0.1928126    0.1439114  79.73 0.0006650163    1.364    0.267
       132  -7.6588     92.3354    205.6510   1.3169965693e+02   2.0075527466e+01     0.146407     0.090213  73.02 0.0007047405    1.780    0.438
       133  -9.6045    163.7701    203.1233   1.1609060166e+02   7.6957842822e+00    0.4127264    0.2674791  64.19  0.000995695    1.929    0.482
       134  -9.4259    250.1093    201.9774   9.8973717761e+01  -7.9135906820e+00    0.3561898    0.1749743 -35.15  0.001365365    1.956    0.489
       135  -8.5650    210.9795    202.0891   1.0627676497e+02  -1.1273808481e+00    0.2656424    0.1940601 -54.46 0.0009663061    1.719    0.418
       136  -9.3043    243.0566    200.7207   9.9988116272e+01  -6.5618534328e+00    0.3298824    0.1795545 -36.96 0.0008711475    1.806    0.446
       137  -9.0024    140.5723    200.7714   1.2063767890e+02   1.2616189595e+01    0.4517344    0.2926635 -73.61  0.001543641    2.001    0.500
       138  -8.5208     80.0740    201.5210   1.3374605250e+02   2.2883465959e+01    0.3109765    0.1665734  74.79  0.001368484    2.382    0.580
       139  -7.8405     73.2744    202.6212   1.3530134563e+02   2.3651836337e+01    0.1391276   0.08521474  77.29  0.000700112    1.700    0.412
       140  -8.4579     48.2840    202.1488   1.4033710491e+02   2.7140656586e+01    0.2462677    0.1216735  64.11  0.001103048    2.051    0.512
       141  -8.0921    222.0064    201.1967   1.0397968782e+02  -2.9851023236e+00     0.187368     0.143076 -52.80 0.0008270881    1.638    0.390
       142  -9.3704    237.0724    197.9512   1.0053623211e+02  -5.1121120348e+00    0.5389422    0.2139705 -35.35  0.002238611    2.528    0.604
       143  -9.3859    149.5119    198.6407   1.1834552199e+02   1.1344416820e+01    0.4368546    0.2882603 -80.89  0.001215417    2.252    0.556
       144  -8.9359    123.9838    199.4707   1.2402034129e+02   1.5972771030e+01     0.305482     0.209326  77.81    0.0011387    1.751    0.429
       145  -9.2226    112.8937    198.5416   1.2628961481e+02   1.8157655828e+01    0.4675974    0.2664245  73.42  0.001678318    2.525    0.604
       146  -8.4973    176.9337    199.1020   1.1260051411e+02   5.9094014277e+00    0.2124867    0.1854438  75.09 0.0004764909    1.316    0.240
       147  -9.0516     88.5317    198.3923   1.3154200576e+02   2.2263765931e+01    0.3618964    0.2190535  82.36  0.001699843    1.961    0.490
       148  -8.4169    202.1094    197.8377   1.0721360068e+02   1.2735373710e+00    0.2045828    0.1858806  70.09 0.0004915102    1.322    0.243
       149  -9.1038     61.4266    197.1047   1.3711890303e+02   2.6533324546e+01    0.4074525    0.2090809  75.12  0.001435036    2.372    0.578
       150  -9.0379     12.6819    197.3702   1.4679665087e+02   3.2106773780e+01    0.2885285    0.1168525  86.17  0.001367855    2.554    0.609
       151  -8.0357     36.3983    197.1859   1.4221583358e+02   2.9646909585e+01    0.1785445    0.0936003 -87.55 0.0009411279    1.765    0.433
       152  -7.5062     29.3146    197.6471   1.4364855794e+02   3.0339763308e+01    0.1298721   0.07051295  72.98    0.0007046    1.734    0.423
       153  -8.7936    215.7875    195.4248   1.0405290192e+02  -8.7876570303e-01    0.2918979    0.1804188 -55.12 0.0009501291    2.195    0.545
       154  -8.9074    185.2697    194.8751   1.1007180990e+02   5.0767066268e+00    0.2844757    0.2402127 -78.45 0.0008111421    1.496    0.332
       155  -8.5740    132.9851    195.7932   1.2145452301e+02   1.5088995587e+01    0.2466293    0.1785139 -76.89 0.0006811825    1.597    0.374
       156  -9.2969    245.6703    193.5296   9.8114853108e+01  -5.8805232444e+00    0.3175747    0.2514716 -73.89  0.001418125    2.192    0.544
       157  -8.9785    160.9344    194.3541   1.1511849550e+02   9.9838981947e+00    0.3467445     0.246684  77.51  0.001055012    1.933    0.483
       158  -9.0922     43.9457    193.3963   1.4032328450e+02   2.9591937889e+01    0.4251756    0.1917551  69.40  0.001865006    2.732    0.634
       159  -8.1129    230.9927    194.2550   1.0093330098e+02  -3.4496696622e+00    0.1828551    0.1461792 -55.51 0.0006119999    1.611    0.379
       160  -8.7227     77.0616    193.8458   1.3340808415e+02   2.5035633969e+01    0.2627136    0.1829371  85.23  0.000585285    1.397    0.284
       161  -8.8619    172.3996    191.8301   1.1219426042e+02   8.2129669008e+00    0.3232518    0.2419641  88.33  0.001042953    1.908    0.476
       162  -8.8079    224.5463    194.1124   1.0211609895e+02  -2.2661080205e+00     0.302938    0.2106155 -52.71  0.001243083    1.803    0.445
       163  -7.8656    205.2096    191.9651   1.0545139381e+02   1.7288848122e+00    0.1826808    0.1122197 -40.85 0.0004568742    1.687    0.407
       164  -8.1580    199.0138    191.9676   1.0669503410e+02   2.9271561010e+00    0.2107895     0.176079 -89.12 0.0006058662    1.640    0.390
       165  -9.1609    139.5290    190.5908   1.1911782524e+02   1.4950101634e+01    0.4096556    0.2740556  85.89  0.001147279    2.160    0.537
       166  -8.6064     22.1358    191.8154   1.4454027014e+02   3.2360907408e+01    0.2783708    0.1238574  58.61  0.001441514    2.195    0.545
       167 -10.4457     92.2638    188.7498   1.2937190352e+02   2.3819791499e+01    0.9945467    0.3068779  51.83  0.003209685    3.844    0.740
       168  -8.6048    148.4662    189.2220   1.1689719421e+02   1.3498857497e+01    0.3261169    0.2273267 -83.20 0.0008541273    1.978    0.494
       169  -9.0500    129.4660    188.7186   1.2103211978e+02   1.7273473619e+01    0.3694764    0.2573424 -88.59  0.001142033    1.823    0.452
       170  -8.0271     53.7514    196.9869   1.3869291450e+02   2.7575442952e+01    0.2447213   0.09681911  64.78  0.000896932    3.667    0.727
       171  -8.3980    237.1441    188.6536   9.8684740131e+01  -3.6215135741e+00      0.21958     0.173425 -41.28 0.0006182751    1.345    0.256
       172  -9.2794    155.9387    187.4470   1.1492529690e+02   1.2389295687e+01    0.3837707     0.244635 -62.25 0.0009417286    1.862    0.463
       173  -9.8816    121.0562    186.8926   1.2261036189e+02   1.9242104153e+01     0.614602     0.319385 -74.83  0.002240976    3.070    0.674
       174  -8.6477     33.9981    187.8302   1.4179723289e+02   3.1974184257e+01    0.3006475    0.1355404  89.89  0.001369812    2.458    0.593
       175  -8.9819    242.6257    188.1905   9.7599057649e+01  -4.5073232182e+00    0.1916686    0.1162159 -26.59 0.0009511564    1.655    0.396
       176  -8.4256    230.4461    187.6938   9.9728097385e+01  -2.2601229935e+00    0.2497829    0.1267283 -43.08 0.0007250037    2.038    0.509
       177  -9.1149    216.6096    187.5004   1.0232019970e+02   3.4400301740e-01    0.3520859    0.2508727 -29.49  0.001406876    1.430    0.301
       178  -8.9027    191.4731    187.4832   1.0734997746e+02   5.2476311736e+00    0.3252622    0.2349022 -70.64  0.001091811    2.001    0.500
       179  -9.1121     54.8418    187.1484   1.3735703520e+02   2.9632153476e+01    0.3954441    0.1972274  70.10  0.001565799    2.436    0.589
       180  -8.7628    164.7056    186.8809   1.1290459546e+02   1.0747989149e+01    0.2694435     0.212272  86.42 0.0007187582    1.609    0.378
       181  -9.2538    109.5243    186.1675   1.2509622220e+02   2.1482092704e+01    0.3967482    0.2469406  76.68  0.001182065    2.107    0.525
       182  -8.7304    249.3356    185.8770   9.5944087052e+01  -5.2893246709e+00    0.2344895    0.2165965 -31.06 0.0009791101    1.211    0.174
       183  -8.8054    182.9257    185.3030   1.0869903936e+02   7.3827641736e+00    0.3070321    0.2081318 -49.85 0.0007433258    1.590    0.371
       184  -8.6488    210.1919    184.4937   1.0296832324e+02   2.1126808285e+00    0.2383156    0.1935682 -36.49 0.0004676201    1.248    0.199
       185  -8.9340    202.9297    184.8536   1.0448861583e+02   3.4685300811e+00    0.2793682    0.2313176 -68.31 0.0009735448    1.539    0.350
       186  -9.0316    174.5034    183.7846   1.1018838827e+02   9.3914985472e+00    0.3650541    0.2692096 -79.78 0.0009850601    1.920    0.479
       187  -9.0140     66.6137    184.5967   1.3448667917e+02   2.8634101220e+01     0.348907    0.2030284  70.01  0.001122957    1.886    0.470
       188  -8.2517    224.1429    183.6512   1.0009535292e+02  -4.0422626250e-01    0.2231374    0.1828765 -46.45 0.0003050121    1.337    0.252
       189  -8.3667    197.2206    183.0037   1.0527160342e+02   4.9483112099e+00    0.4081144    0.2110484 -37.34  0.001680577    2.060    0.514
       190  -8.8259    241.0229    181.4912   9.6534399704e+01  -3.1272352454e+00     0.424896    0.2286029 -53.61  0.001781264    2.727    0.633
       191  -9.1528     44.2859    182.2482   1.3905634298e+02   3.2046298159e+01    0.3163625    0.1785327  85.06 0.0009285788    1.816    0.449
       192  -8.0639      1.7754    183.6239   1.4782649449e+02   3.6020359027e+01    0.1484589    0.0841992  52.88 0.0009424043    1.713    0.416
       193  -9.2750    147.4886    180.6348   1.1551718931e+02   1.5521325314e+01    0.4000385    0.2767814 -82.15  0.001121228    1.999    0.500
       194  -9.5116     25.5422    178.8307   1.4265988175e+02   3.4873604066e+01      0.60716    0.2371695  80.90  0.002161808    4.377    0.772
       195  -8.6372    137.7104    179.4689   1.1751104771e+02   1.7713374948e+01     0.344199    0.2287182  79.39  0.001213785    2.135    0.532
       196  -9.3660    191.5203    178.4445   1.0551563426e+02   6.9749759530e+00    0.3440393    0.2549129  63.46 0.0005804761    1.623    0.384
       197  -7.9814    169.5278    178.7503   1.1026329401e+02   1.1434247651e+01    0.1961105    0.1439849 -62.61 0.0006890934    1.580    0.367
       198  -9.0207     35.7476    176.4742   1.4025357869e+02   3.4328411703e+01    0.4843091    0.2096704  83.29  0.001886589    3.442    0.709
       199  -9.5252    248.5607    176.6478   9.4208570119e+01  -3.6591683724e+00    0.4448881     0.283404 -52.52   0.00209003    1.990    0.497
       200  -8.4597    250.5196    172.9554   9.3109637666e+01  -3.3942685628e+00    0.2331316     0.153603 -29.77 0.0005120932    1.414    0.293
       201  -8.5206    231.2068    177.1271   9.7430024449e+01  -5.9463325775e-01    0.2419829     0.181383 -53.44 0.0005858809    1.589    0.371
       202  -8.4587    217.6248    177.4416   1.0006713482e+02   1.9421000459e+00    0.2654991    0.2103142 -65.56 0.0008967295    1.668    0.400
       203  -8.5500    205.1193    177.5977   1.0256332157e+02   4.3841825348e+00    0.2949596    0.2246909 -69.62  0.001153534    1.812    0.448
       204  -8.5996    129.0565    177.4110   1.1911410393e+02   1.9850591174e+01    0.2808025    0.2005518 -77.03 0.0006310528    1.627    0.385
       205  -9.2234    183.1545    176.2709   1.0682613261e+02   9.1235181465e+00    0.2912276    0.2369299 -62.59 0.0004281053    1.404    0.288
       206  -8.2104     97.9585    177.5363   1.2634904263e+02   2.5442206462e+01    0.2072418     0.136205  41.17 0.0008795594    1.560    0.359
       207  -8.7187     88.9146    176.7282   1.2831873734e+02   2.7112977631e+01    0.3143683    0.1960233  76.23  0.001199443    1.951    0.487
       208  -9.9631     57.3057    173.4277   1.3511351078e+02   3.2456530733e+01    0.8007335    0.3663552  84.51  0.002721759    4.189    0.761
       209  -8.2699    211.5366    176.0861   1.0097326938e+02   3.3859196508e+00    0.2151066    0.1386022 -41.74 0.0009037767    1.564    0.360
       210  -9.3459    158.8851    175.0855   1.1187808177e+02   1.4395602676e+01    0.4188198    0.2887794  81.40  0.001184615    2.165    0.538
       211  -9.3037    104.3824    174.7725   1.2439190366e+02   2.4981468218e+01    0.5543641    0.2787309  63.45  0.002047849    2.858    0.650
       212  -8.1150     79.1823    158.5864   1.2771668366e+02   3.2892978491e+01    0.2034073    0.1393711  38.79  0.001038245    1.584    0.369
       213 -10.6371     76.0223    171.1663   1.3047269225e+02   3.0394125753e+01      1.06521     0.428971 -77.40  0.003226728    4.610    0.783
       214  -8.3408    224.2299    174.2028   9.8127875396e+01   1.2441120995e+00    0.1890504    0.1639939 -59.47 0.0004817521    1.372    0.271
       215  -9.4087    175.7963    172.4296   1.0761098010e+02   1.1434520972e+01    0.3647544    0.2684225 -54.93  0.000663212    1.469    0.319
       216  -8.2921    143.0807    172.7043   1.1498906220e+02   1.8137144737e+01    0.2542392     0.203069 -70.24 0.0005941332    1.349    0.259
       217  -8.2266    194.0361    172.3106   1.0371793912e+02   7.6556155339e+00    0.2135889    0.1920105  38.60  0.001154506    1.088    0.081
       218  -8.3483    134.7237    171.9019   1.1676544344e+02   1.9982469135e+01    0.2695595    0.2001482 -77.88 0.0008207428    1.565    0.361
       219  -9.6141    121.3394    170.4220   1.1962253066e+02   2.2904307751e+01    0.4402763    0.2797621 -75.70  0.001035864    1.975    0.494
       220  -9.2496     44.9420    171.0574   1.3760626360e+02   3.4526363364e+01    0.3602472    0.1955514  80.80  0.001319406    2.139    0.533
       221  -8.8659    230.6253    169.8968   9.6026652840e+01   7.8146991703e-01    0.3042821    0.1607342 -40.67 0.0008987446    1.832    0.454
       222  -8.3438    205.8280    170.5185   1.0093565313e+02   5.5776791996e+00    0.2803067    0.1860367 -57.09 0.0007293945    1.853    0.460
       223  -8.4943    198.6219    170.1870   1.0232461384e+02   7.1214799056e+00    0.2905079    0.2276864  80.16 0.0009350894    1.750    0.429
       224  -9.3764     74.7780    160.1835   1.2905872747e+02   3.3166771881e+01    0.2825873    0.2000598 -27.78  0.001106752    2.168    0.539
       225  -8.3223    237.1469    169.6624   9.4785915940e+01  -4.1052471413e-01    0.2386607    0.1752195 -45.35 0.0007016013    1.410    0.291
       226  -9.1795    167.3770    168.8296   1.0870746564e+02   1.3954056971e+01    0.4058023    0.2733397  75.41  0.001052688    2.218    0.549
       227  -8.4981    149.8876    169.6782   1.1282529172e+02   1.7417578826e+01    0.2862898    0.2001809 -74.05 0.0007575555    1.825    0.452
       228  -8.0289     35.7584    170.2049   1.3955347199e+02   3.5754823065e+01      0.16424    0.1046664  18.00 0.0008767674    2.444    0.591
       229  -8.1005    244.4625    169.5003   9.3448303782e+01  -1.7322337116e+00    0.1357546    0.1240609 -21.20 6.539755e-05    1.055    0.052
       230  -8.4841    218.9484    168.4081   9.7911363648e+01   3.3278585924e+00    0.2339712    0.2009456 -70.01 0.0005971206    1.451    0.311
       231  -8.0842    211.4709    168.4641   9.9377446298e+01   4.8187962738e+00    0.2594266    0.1320004 -51.63 0.0006609114    2.356    0.576
       232  -8.2900     88.6944    168.7168   1.2709042327e+02   2.9018926247e+01    0.2748332    0.1568567 -83.58 0.0009621487    2.318    0.569
       233  -8.6956    111.5582    167.5268   1.2141335039e+02   2.5384873078e+01    0.3204845    0.2215384  89.50  0.001217998    1.789    0.441
       234  -8.8113    191.8807    166.4964   1.0293018660e+02   9.2551408130e+00    0.3178287    0.2118248 -53.36 0.0007618306    1.658    0.397
       235  -9.0224    184.9429    166.6990   1.0443671203e+02   1.0679808006e+01    0.2783872    0.2174854 -57.32 0.0006693237    1.405    0.288
       236  -9.2649     20.1306    165.9382   1.4252185942e+02   3.8292451869e+01    0.3438251    0.1679831  83.24  0.001288426    2.237    0.553
       237  -8.0118     13.3262    167.6776   1.4415461382e+02   3.8515850269e+01    0.1242506   0.07155582  73.36 0.0007048062    1.687    0.407
       238  -9.8949    136.6132    164.2346   1.1481142251e+02   2.1333927385e+01    0.6367059    0.3659962  63.90  0.002343088    2.342    0.573
       239 -10.0574     94.8759    162.6624   1.2457063060e+02   2.9434919722e+01    0.8496399    0.4728489  85.48  0.002888587    3.322    0.699
       240  -8.3361    233.9044    165.1292   9.4415141279e+01   9.9748432301e-01    0.2074836    0.1863662 -57.56 0.0007305429    1.280    0.219
       241  -8.8006    159.4263    164.4978   1.0958190348e+02   1.6558814041e+01     0.316312    0.2519951 -84.41 0.0008403286    1.525    0.344
       242  -9.4711     33.8422    163.7352   1.3923334062e+02   3.7442357658e+01     0.529318    0.2107106  57.78  0.002204274    3.204    0.688
       243  -9.0029    246.0385    163.1541   9.1840633502e+01  -9.3814494358e-01    0.2733717     0.176877 -35.83  0.000388743    1.426    0.299
       244  -8.2528    239.9149    164.2108   9.3139294471e+01   1.8245334473e-02    0.2014252    0.1840649 -52.35 0.0005567461    1.230    0.187
       245  -8.6784    212.9165    163.6045   9.8048816517e+01   5.4399510223e+00    0.2808899    0.2042032 -48.75 0.0007165351    1.442    0.307
       246  -8.3758     13.0553    176.8326   1.4504690368e+02   3.6512180684e+01    0.2492976    0.1190245  68.71  0.001027682    2.192    0.544
       247  -8.5886    204.9607    162.5857   9.9404099408e+01   7.2791625454e+00     0.271336    0.2023318 -56.72 0.0006542748    1.527    0.345
       248  -9.4117      3.2810    162.2990   1.4578670604e+02   4.0537172878e+01    0.3775352    0.1722168  64.10  0.001969015    2.411    0.585
       249  -8.0860    221.9798    161.9601   9.5948238816e+01   3.9097067061e+00     0.177277    0.1622626 -25.09 0.0004863364    1.045    0.043
       250  -9.2191    177.4203    160.9647   1.0481934988e+02   1.3467912621e+01    0.3495085    0.3016964 -64.32  0.001061236    1.253    0.202
       251  -8.9377     60.5846    160.6734   1.3257312541e+02   3.5014923571e+01    0.3231191    0.2305478  87.37  0.001467609    1.390    0.281
       252  -8.7793    151.5404    160.8816   1.1062545793e+02   1.9012122934e+01    0.2934715    0.2339015  86.22 0.0008351447    1.498    0.333
       253  -8.3284    242.0497    160.0257   9.1872271586e+01   3.4589387906e-01    0.1663598    0.1488507 -23.03 0.0003714946    1.022    0.021
       254  -8.6041    227.3845    159.0484   9.4305048641e+01   3.3637420568e+00    0.3005603    0.1977471 -54.09  0.001132188    1.775    0.437
       255  -9.5692    105.7628    158.1667   1.2107730303e+02   2.8618939725e+01    0.4551654     0.294306  84.13  0.001113637    2.171    0.539
       256  -9.6422    250.2519    157.9082   9.0009098711e+01  -8.1469032880e-01     0.327589     0.172435 -36.95 0.0008040263    1.735    0.424
       257  -8.2918    236.8066    158.8213   9.2542147410e+01   1.5579326327e+00    0.1888002    0.1646803 -61.70 0.0004669323    1.343    0.255
       258  -9.2303    167.8035    157.6051   1.0621068819e+02   1.6255020805e+01    0.3889296    0.2815019  78.97   0.00111522    1.897    0.473
       259  -8.3876    128.1156    159.1511   1.1581042023e+02   2.4187387900e+01    0.2879269    0.2008385  64.84  0.001000738    1.624    0.384
       260  -8.6095    196.7445    157.9409   1.0005554102e+02   9.9289944332e+00    0.2681585    0.2037996 -62.20 0.0006956083    1.550    0.355
       261  -8.3909    187.9976    157.5293   1.0179122137e+02   1.1894320081e+01    0.2924518    0.2093791 -60.51 0.0007251708    1.636    0.389
       262  -8.4342    217.9064    156.5944   9.5552956443e+01   5.7378672434e+00    0.2914515    0.1808171 -55.15 0.0008219884    1.935    0.483
       263  -9.1028    157.6317    155.9122   1.0815012802e+02   1.8814307942e+01     0.382656    0.2528306 -57.75  0.001248152    1.645    0.392
       264  -8.6675    144.8132    155.5257   1.1105837329e+02   2.1617710697e+01    0.3534866    0.2485736  84.58  0.001306701    2.009    0.502
       265  -9.4538    119.2594    154.6665   1.1705950978e+02   2.6947432404e+01    0.5293741    0.3016245 -68.95  0.001541813    2.219    0.549
       266  -9.4792     81.6383    154.8057   1.2646241803e+02   3.3419131965e+01    0.4847868    0.2940013  81.09  0.001437497    2.316    0.568
       267  -9.2505     49.7867    155.4048   1.3441390251e+02   3.7603427000e+01    0.3834788    0.2160277  66.59  0.001838348    2.145    0.534
       268  -9.2679    242.6442    154.8793   9.0665852175e+01   1.1342063341e+00    0.2163617    0.1832144 -56.88 0.0004361112    1.333    0.250
       269  -8.1319    204.6955    155.2538   9.7843574252e+01   8.7626590741e+00    0.2248075    0.1825769 -57.50 0.0005969381    1.350    0.259
       270  -9.7233     67.8237    153.7144   1.2972545438e+02   3.5690429263e+01    0.4889653    0.2860084 -88.92  0.001558548    2.179    0.541
       271  -8.1037     23.9461    155.6954   1.4055662695e+02   4.0264465633e+01    0.1662855   0.09603654 -11.67 0.0007039524    4.315    0.768
       272  -8.1225    232.9735    154.0323   9.2192504956e+01   3.1655747019e+00    0.2170718     0.172917 -71.35 0.0005958197    1.658    0.397
       273  -9.6830    132.8419    153.0112   1.1339104510e+02   2.4655171058e+01    0.5170909    0.3809965 -76.31  0.001290766    1.601    0.375
       274  -9.4493    133.6750    148.6517   1.1225054205e+02   2.5486593962e+01    0.4247311    0.2429523 -43.74  0.001749023    1.828    0.453
       275  -8.6270     20.0149    152.9163   1.4114440418e+02   4.1255671285e+01     0.191329    0.1189127  73.28 0.0005643127    1.656    0.396
       276  -7.7829      9.3498    153.3062   1.4361035953e+02   4.2061803820e+01    0.1162053   0.07447148 -49.91 0.0007042424    1.705    0.414
       277  -9.9375     29.3113    150.5724   1.3868560081e+02   4.0932774948e+01    0.4999165    0.2402786  74.06    0.0021503    3.002    0.667
       278  -9.5386    248.8618    149.3930   8.8424508283e+01   9.1289477683e-01    0.3800572    0.1893255 -41.80 0.0008375485    1.849    0.459
       279  -8.8576    247.0212    144.0463   8.7575752475e+01   2.1994282999e+00     0.250262    0.1812422 -36.84 0.0005791197    1.256    0.204
       280  -8.8488    243.1240    150.1625   8.9564187446e+01   1.8731101297e+00    0.3073542    0.1807414 -41.48  0.000937184    1.582    0.368
       281  -9.1087    189.3062    150.2258   9.9876875971e+01   1.3103023760e+01    0.3596676    0.2518341 -61.42 0.0008330287    1.704    0.413
       282  -8.0479    182.4230    151.2401   1.0157441636e+02   1.4407922584e+01    0.2140809    0.1448312 -56.17 0.0004962593    1.635    0.389
       283  -8.5919    162.6410    150.6561   1.0583639824e+02   1.8879970236e+01    0.3023008    0.2189284 -88.77 0.0009928336    1.964    0.491
       284  -8.8296     98.2924    150.6697   1.2150840347e+02   3.1699317302e+01    0.3068317     0.221021  85.39 0.0009959344    1.657    0.397
       285  -8.3406    238.3408    150.0700   9.0374065618e+01   2.8203155848e+00    0.3196058    0.1741263  29.83  0.001301821    2.527    0.604
       286  -8.2511    213.0677    149.8499   9.4985347175e+01   8.0326680627e+00    0.2186799    0.1982249 -76.97 0.0004873548    1.256    0.204
       287  -8.9624      2.9719    150.0223   1.4470874679e+02   4.3279620386e+01    0.1942458    0.1102007  72.95  0.001134492    1.808    0.447
       288  -8.3978    198.9102    149.0815   9.7625405073e+01   1.1230728734e+01     0.231435    0.2001929 -76.75 0.0004963913    1.342    0.255
       289  -9.9358     89.0672    145.4269   1.2285619084e+02   3.4484742096e+01     0.901206    0.4242986 -68.56  0.003364301    2.624    0.619
       290  -9.7578     39.8441    147.9991   1.3579481997e+02   4.0460319105e+01    0.4722619    0.2334314  65.46  0.001997925    2.826    0.646
       291  -8.6689    233.3956    147.7998   9.0749661976e+01   4.2126604361e+00    0.2534524     0.168257 -31.52  0.000637596    1.479    0.324
       292 -10.3674    106.6677    143.8552   1.1800354663e+02   3.1836447417e+01    0.8728904    0.5304192 -77.90  0.002520795    2.329    0.571
       293  -8.9438     77.9969    146.8923   1.2598217082e+02   3.5856180026e+01     0.333192    0.1850159 -79.07  0.001091482    2.337    0.572
       294 -10.2954     54.7869    144.6604   1.3155021229e+02   3.9536510872e+01    0.8020576    0.4089781  78.08  0.002885784    3.668    0.727
       295  -9.7654     56.4516    135.9673   1.2967159287e+02   4.1388124182e+01    0.4483835    0.2583414   6.49   0.00182956    3.548    0.718
       296  -8.3554    223.5207    147.0392   9.2374848595e+01   6.3716422218e+00    0.2341714    0.2030315  64.33 0.0004704412    1.305    0.234
       297  -8.0673    206.7864    146.7376   9.5510925468e+01   9.9829982727e+00    0.2008355    0.1763311  89.01 0.0006742532    1.337    0.252
       298 -10.3838    148.8672    144.8335   1.0773148789e+02   2.3159196451e+01    0.6253273    0.4148923 -78.49  0.001762918    2.270    0.560
       299 -10.6705    139.0665    143.3345   1.0975350896e+02   2.5584341714e+01     1.135705    0.3793407 -51.54  0.003159935    3.147    0.682
       300 -10.2651    132.1904    130.9378   1.0858476323e+02   2.9848933079e+01    0.7188919    0.4306401 -67.74  0.001579584    2.287    0.563
       301 -10.2533    133.5118    109.3001   1.0281774020e+02   3.4374333464e+01    0.7088156    0.3391327 -47.53  0.001940658    2.086    0.521
       302  -9.3838     13.4804    145.6415   1.4184132485e+02   4.3459378638e+01    0.4612874    0.2286386 -85.69  0.002050075    1.931    0.482
       303  -8.9802    240.3526    145.2423   8.8968048671e+01   3.2886128334e+00    0.2713939    0.1966549 -43.00 0.0005012176    1.302    0.232
       304  -9.9521    242.6973    143.3405   8.8149905807e+01   3.1663566198e+00     0.494067    0.2289858 -28.31  0.001871477    2.628    0.619
       305  -8.3555    175.3305    146.2015   1.0197143797e+02   1.7037840877e+01     0.285746    0.2005219  75.06 0.0009288788    1.958    0.489
       306 -11.0804     68.6284    139.9909   1.2716993001e+02   3.8845267090e+01     1.083147    0.5404255 -67.32  0.004265965    1.993    0.498
       307  -9.9366     73.1794    129.7436   1.2400423763e+02   4.0635741256e+01    0.4748771    0.2771294 -74.07  0.001594057    2.014    0.504
       308  -9.8468    124.9168    142.4976   1.1307135615e+02   2.8676707615e+01    0.5448925     0.343986 -75.35  0.001371969    2.237    0.553
       309  -7.6229    194.3945    144.1746   9.7428601489e+01   1.3212444062e+01    0.2155803     0.140451 -53.90 0.0004845515    1.671    0.402
       310  -8.8718    165.4617    143.9958   1.0367398550e+02   1.9707028169e+01    0.2931228    0.2488891  74.04 0.0007373844    1.294    0.227
       311  -8.6177    182.4372    142.4524   9.9552640485e+01   1.6237938198e+01    0.3478958    0.2360894 -80.69   0.00120953    2.388    0.581
       312  -9.4507      2.7461    141.5553   1.4390381246e+02   4.5180045968e+01    0.4460239     0.191234  89.23  0.002091604    2.602    0.616
       313  -8.4866    250.4868    140.9882   8.6339097263e+01   2.0688326029e+00    0.2148906    0.1251943 -38.94 0.0005588387    1.546    0.353
       314 -10.0474    131.0490    118.6205   1.0585564615e+02   3.2860658359e+01    0.6291116    0.4186793 -72.70  0.002058583    2.104    0.525
       315  -9.8443     23.6201    138.2969   1.3849105510e+02   4.4284413652e+01    0.4873222    0.2430044  68.34    0.0022468    2.800    0.643
       316  -7.9810    218.6182    138.7980   9.1422475267e+01   8.9653525689e+00    0.2110748    0.1324647 -49.09 0.0003772891    1.620    0.383
       317  -8.9346    172.0997    137.8791   1.0074402141e+02   1.9534924205e+01    0.4024333     0.243337 -57.29  0.000875087    1.907    0.476
       318  -9.6964    229.6349    136.5513   8.8905754282e+01   7.0511386601e+00    0.4082349    0.2855495 -16.56  0.001899536    1.782    0.439
       319  -8.2341    207.3325    138.0027   9.3395452158e+01   1.1578147678e+01    0.2150694    0.1875566 -46.10 0.0005350386    1.121    0.108
       320  -8.6554    197.4668    137.3450   9.5208120635e+01   1.3906364653e+01    0.3503205    0.2279825 -58.09  0.001009314    1.792    0.442
       321  -8.7080     84.1703    123.4571   1.1965483194e+02   4.0463355613e+01     0.430772    0.2974765 -13.18  0.001920157    2.312    0.568
       322  -8.6768    162.7150    136.4050   1.0252081268e+02   2.1969579020e+01    0.2840177    0.1872914 -55.48 0.0006609305    1.620    0.383
       323  -9.4647     39.0152    135.9108   1.3423618465e+02   4.3371278967e+01    0.3167471    0.1846497 -87.72  0.001033726    1.949    0.487
       324  -8.7612    250.7853    129.9867   8.3890282568e+01   3.9373067096e+00    0.4685155    0.1255281 -34.87  0.001255309    4.129    0.758
       325  -9.1747    248.3848    135.0579   8.5387872860e+01   3.5171616989e+00    0.3542519    0.2043679 -44.26 0.0009946944    1.604    0.377
       326  -8.3423    246.7463    130.1575   8.4574381291e+01   4.7077374450e+00    0.2600192    0.1695856 -47.09 0.0006590623    1.453    0.312
       327 -10.3308     83.3261    132.7650   1.2185860390e+02   3.8405813217e+01    0.7079152     0.355298 -57.97   0.00129762    1.851    0.460
       328  -7.9833    187.6491    135.7624   9.6866308279e+01   1.6447725198e+01    0.2231033    0.1400727 -52.03 0.0003990405    1.679    0.404
       329  -8.6699    151.0241    136.0781   1.0518376009e+02   2.4643380759e+01     0.348406    0.2096745  31.52  0.001360255    2.086    0.521
       330  -9.3402    113.6058    134.0353   1.1407718649e+02   3.2852614021e+01    0.5602258    0.3313874  74.75   0.00193314    3.231    0.691
       331  -8.8372    179.4009    134.0056   9.8212015527e+01   1.8693459953e+01    0.3312697    0.2232452 -59.70 0.0008673157    1.710    0.415
       332  -8.0951    237.5668    133.7663   8.6900542865e+01   5.9187757022e+00    0.2037598    0.1258802 -48.43 0.0009364241    1.599    0.375
       333 -10.4804     98.2602    130.1709   1.1727903861e+02   3.6556210681e+01    0.7241874    0.3258393 -58.09  0.001804381    2.268    0.559
       334  -8.7703     99.8275    120.1022   1.1455140491e+02   3.8622539124e+01    0.4335644    0.2779616  11.31  0.001709347    2.736    0.635
       335  -9.3465    142.9226    131.5397   1.0605947545e+02   2.7426509069e+01    0.3677511    0.2678061 -63.14    0.0010134    1.512    0.339
       336  -9.3349    168.2726    129.7628   9.9650671182e+01   2.2139874998e+01     0.402895    0.2869421  76.50  0.001329835    1.870    0.465
       337  -9.8390    152.9820    128.3566   1.0285500297e+02   2.5913524114e+01    0.7419586    0.3296382 -48.44  0.001439839    2.282    0.562
       338  -8.2819    211.5163    129.4158   9.0581686342e+01   1.2324845098e+01    0.2717874    0.1317102 -50.68 0.0007094154    2.258    0.557
       339  -8.2851    204.7039    130.1846   9.2074586357e+01   1.3703134984e+01    0.2441061    0.1820635 -58.14 0.0006797409    1.452    0.311
       340  -8.1845    192.7187    130.1722   9.4474730276e+01   1.6432711339e+01    0.2482149    0.1891075 -59.39 0.0005625831    1.424    0.298
       341 -10.8340     45.0485    123.7741   1.3062330601e+02   4.5562064241e+01     1.043653    0.5473269  82.37  0.003897303    3.850    0.740
       342 -10.0810    118.0918    125.4939   1.1091738571e+02   3.3958391361e+01    0.6095828    0.3954476  80.11  0.001501217    2.609    0.617
       343 -10.3020     59.8675    124.9223   1.2672838912e+02   4.3561546782e+01    0.6969218    0.4084928  84.82    0.0025163    2.837    0.648
       344  -8.8892     59.0748    115.7893   1.2513456263e+02   4.5783122080e+01    0.4765124    0.2309205 -34.55  0.001877333    2.979    0.664
       345  -8.0542    228.3796    125.2656   8.6550202735e+01   9.4106336603e+00    0.2133685    0.1268938 -48.65 0.0007077401    1.660    0.398
       346  -8.9538    179.3223    124.7282   9.5971823341e+01   2.0646467953e+01    0.3143073    0.2460923 -81.66 0.0007141411    1.586    0.369
       347 -10.4847     28.1964    121.2533   1.3482843095e+02   4.7790835069e+01    0.9176328     0.428607 -82.37   0.00393718    2.791    0.642
       348  -8.8692    234.5468    123.4279   8.5074207075e+01   8.4307844990e+00    0.2582407    0.1350215 -28.90 0.0006203488    2.224    0.550
       349  -7.8859    188.4182    124.1984   9.3914218512e+01   1.8638418028e+01    0.2220636    0.1434749 -52.97 0.0006935726    1.633    0.388
       350  -7.9287    203.0000    121.9417   9.0433268524e+01   1.5712904171e+01    0.2473103   0.08542594 -40.34 0.0004237367    2.816    0.645
       351  -7.8262    195.1291    122.1825   9.2048192411e+01   1.7484820981e+01    0.2149305    0.1761472 -66.41 0.0004725692    1.330    0.248
       352  -8.5923    171.9405    121.6557   9.6824397927e+01   2.3006817593e+01    0.2832862    0.2245305 -56.19  0.000439096    1.301    0.232
       353  -9.2699    158.5479    121.5445   9.9848006378e+01   2.6130164436e+01     0.322189    0.2641831 -84.99 0.0008945063    1.438    0.305
       354 -10.0513    141.5807    118.6169   1.0319571459e+02   3.0585598288e+01     0.523819    0.3570754 -68.67  0.001388936    1.886    0.470
       355  -8.6091    141.3119    113.3497   1.0190873375e+02   3.1790596465e+01    0.2605686    0.1814452   1.86 0.0009976893    2.480    0.597
       356  -9.5750     71.1241    119.8949   1.2254926794e+02   4.3235538878e+01    0.3941535    0.2332014 -72.65  0.001062929    2.011    0.503
       357  -9.4406    247.9284    118.2624   8.1747488874e+01   6.5714685521e+00    0.2390347    0.1867815 -39.23 0.0003609977    1.162    0.139
       358  -9.7448      3.0046    117.2864   1.4101232747e+02   5.0555552410e+01    0.4472251    0.2184117  78.98   0.00213114    2.923    0.658
       359  -8.2243    193.0031    115.4779   9.0823937713e+01   1.9316592471e+01    0.2389075    0.2016004 -46.54  0.000425728    1.160    0.138
       360  -8.2454    185.5301    116.0707   9.2500228993e+01   2.0961053215e+01    0.2323094    0.1513575 -44.27 0.0004208369    1.512    0.339
       361  -9.9767    109.2340    114.2541   1.1054299482e+02   3.8227637119e+01    0.6013893    0.3495267 -65.74  0.001457136    2.281    0.562
       362  -9.2323    108.8032    107.8109   1.0901950243e+02   3.9745543754e+01     0.452895    0.2949098  14.75  0.001831725    2.437    0.590
       363 -10.0260     12.8702    129.0238   1.3998316345e+02   4.7265611710e+01    0.5127926    0.2555887  86.88  0.002484693    2.458    0.593
       364  -9.9837     78.8951    112.3178   1.1863812245e+02   4.3850135803e+01    0.6569036    0.4124327 -75.45   0.00276525    2.156    0.536
       365  -7.9601    167.0844    114.3436   9.6056096354e+01   2.5669091854e+01    0.2199503    0.2057815  68.44 0.0006755264    1.072    0.067
       366 -10.3625    121.9395    111.8879   1.0651354111e+02   3.6248263427e+01    0.6367562    0.3804798 -35.10  0.001733996    1.887    0.470
       367 -10.1400     92.6965    112.4137   1.1470188794e+02   4.1616278822e+01    0.6142158    0.3489546 -66.90  0.001464679    2.286    0.563
       368  -8.6873     93.4610    104.6867   1.1255445742e+02   4.3217003222e+01    0.3242859    0.2043879  16.22  0.001360388    2.388    0.581
       369  -8.5803    174.7727    111.9404   9.3738999638e+01   2.4347123407e+01    0.2851377    0.2077262 -61.17 0.0005775276    1.534    0.348
       370  -8.6608    159.0462    111.8423   9.7247428912e+01   2.8071400969e+01    0.2810134    0.2267166 -48.80 0.0006570571    1.237    0.192
       371 -10.1277     66.6036    109.6621   1.2162150871e+02   4.6210938006e+01    0.6735001    0.3749255 -56.78  0.002234436    1.616    0.381
       372  -9.7348     14.2655    110.7973   1.3703961250e+02   5.1251168210e+01    0.4299035     0.233744 -87.52  0.001717785    2.176    0.540
       373  -7.3969    199.7025    111.7226   8.8572105423e+01   1.8475791407e+01    0.1479162    0.1225514  12.68 0.0002436875    1.534    0.348
       374  -7.7865    182.6613    109.7471   9.1497811692e+01   2.2910557506e+01    0.2218815    0.1387867 -50.36 0.0005106722    1.641    0.391
       375  -9.8162    248.2965    107.9852   7.9399529581e+01   8.2956597474e+00    0.3959035    0.2486095 -77.70  0.001690819    2.503    0.600
       376  -9.9433    248.8538    102.8937   7.8180380391e+01   9.0619057119e+00    0.3538256    0.2753968 -21.05  0.001886739    1.498    0.333
       377  -9.0064     42.9566    109.4918   1.2855913033e+02   4.9060713304e+01    0.2601015    0.1348686  16.83  0.001210517    2.746    0.636
       378  -8.4603    189.1057    108.0756   8.9749781551e+01   2.1701908231e+01    0.2500393    0.1851755 -73.79 0.0006693102    1.666    0.400
       379  -9.6718    150.8463    103.3007   9.6918924380e+01   3.1748919919e+01    0.5621566    0.3571443 -69.81  0.001709063    2.382    0.580
       380  -9.7931    139.8375    104.4074   9.9910634857e+01   3.4023557467e+01    0.5029044    0.2974365 -54.49  0.001219646    1.873    0.466
       381 -10.5558     45.5670    102.3752   1.2632698160e+02   5.0386065140e+01    0.6812793    0.4118032  77.71  0.002977911    3.084    0.676
       382 -10.6619     22.9476    102.6964   1.3319139015e+02   5.2399764549e+01    0.6929568    0.3931661  78.98  0.002771137    2.937    0.659
       383 -10.6605    108.8562     98.7780   1.0660267286e+02   4.1694459472e+01    0.8714769     0.504247  68.13  0.001702729    3.389    0.705
       384  -9.1181    107.6442     92.6825   1.0525746482e+02   4.3208957640e+01    0.4496971    0.3106976  16.61  0.002017002    1.948    0.487
       385  -8.5942    166.7823    104.2638   9.3496910968e+01   2.7804215946e+01    0.2746623    0.2040838 -54.00 0.0006367108    1.397    0.284
       386  -8.8082      6.5733    103.0199   1.3801867168e+02   5.3467788131e+01    0.2374085    0.1618307  89.00  0.001132082    1.588    0.370
       387  -9.9631    128.5708    102.2636   1.0221257626e+02   3.6939431610e+01    0.3725755    0.2929607 -86.55  0.000842897    1.655    0.396
       388  -7.9285    175.4184    102.1928   9.1069055911e+01   2.6147232960e+01    0.2219731    0.1435753 -52.40 0.0004872428    1.627    0.385
       389  -8.3888    159.7998    100.9690   9.4195790472e+01   3.0126548375e+01    0.2907613    0.2081226 -60.93 0.0006528774    1.593    0.372
       390  -9.3440     81.9508     99.8784   1.1470488601e+02   4.6165187346e+01    0.3744451    0.2548851 -73.65 0.0009667992    1.978    0.494
       391  -9.2287     94.9281     97.1787   1.1015730274e+02   4.4598457381e+01    0.3269041    0.2607033 -69.08 0.0007871295    1.456    0.313
       392 -10.1276     64.0118     95.9812   1.1918772692e+02   4.9604567133e+01    0.5095783    0.3448355 -87.10  0.001676946    2.390    0.582
       393  -8.6839    151.1448     95.8200   9.4810585230e+01   3.3194527904e+01    0.3772253    0.2221773 -15.67  0.001247608    3.301    0.697
       394  -7.6171    188.6398     94.3030   8.6303534936e+01   2.4459971597e+01    0.1626237    0.1188446 -80.20 0.0002640727    1.723    0.420
       395  -8.2245    176.4800     93.4754   8.8538054684e+01   2.7579463497e+01    0.2716459    0.2003431 -72.84 0.0005849149    1.663    0.399
       396  -8.5253    164.9267     94.3380   9.1248661389e+01   3.0213080778e+01    0.2187118    0.2013494  64.05 0.0004646927    1.076    0.071
       397  -9.3769    139.1877     92.4258   9.6772313674e+01   3.6622030976e+01     0.432526    0.3104594 -83.13    0.0008021    2.075    0.518
       398  -9.3029     45.8758     92.8678   1.2412955895e+02   5.2442929239e+01     0.386113    0.2300523  -6.63  0.001827484    2.631    0.620
       399 -10.4132    123.8376     91.3705   1.0043342706e+02   4.0199061764e+01    0.5826561    0.4603201  36.19   0.00137204    1.308    0.235
       400  -8.2152    158.0286     91.9798   9.2151149214e+01   3.2323459495e+01    0.2441597    0.1867675 -75.96 0.0004956112    1.629    0.386
       401  -9.6681     34.8139     89.9085   1.2698186115e+02   5.4179617143e+01    0.4267046    0.2586638 -83.28  0.001750902    2.482    0.597
       402  -8.9469     23.0801     90.3416   1.3080384183e+02   5.5078637036e+01     0.260841    0.2076718  -8.03  0.001291134    1.477    0.323
       403  -8.1134    151.1822     89.1735   9.2952975797e+01   3.4488802689e+01    0.2143742    0.1786874 -69.00 0.0004386147    1.345    0.257
       404  -8.9312     65.4241     87.6523   1.1662071300e+02   5.1201405799e+01    0.4585287     0.253216  -1.18  0.001615878    4.263    0.765
       405  -7.7167    174.2729     88.3508   8.7620845507e+01   2.9083233632e+01    0.1530172    0.1237414   7.41 0.0004848533    1.633    0.388
       406 -10.1692     86.2975     86.1984   1.0970587380e+02   4.8372013892e+01    0.5590753    0.3754908 -60.67  0.001101289    1.752    0.429
       407  -7.8948    188.4416     87.5098   8.4568128109e+01   2.5764721548e+01    0.1537399    0.1441739 -77.97 0.0001567545    1.033    0.032
       408  -7.9706    163.7869     87.0340   8.9497391015e+01   3.1882739539e+01    0.2035012    0.1245249 -40.28 0.0003941328    1.651    0.394
       409  -9.8988     48.5255     84.3833   1.2123482404e+02   5.3963535866e+01    0.4538072    0.3112486  86.01  0.001690076    2.572    0.611
       410  -7.3168    179.3019     85.6713   8.5872361312e+01   2.8344808961e+01    0.1595055    0.1177909 -74.44 0.0007032811    1.646    0.392
       411  -9.6973    104.6357     83.3689   1.0344001160e+02   4.5673195880e+01    0.4314264    0.3028495 -61.84  0.000980306    1.782    0.439
       412  -8.8100    104.6612     77.6850   1.0173834275e+02   4.6773298560e+01    0.4630097    0.2684273  21.56  0.001839408    2.580    0.612
       413  -8.8035    157.9050     83.9380   8.9937418577e+01   3.3880003592e+01    0.2679955    0.2047631 -49.68 0.0004524933    1.349    0.258
       414  -9.2678    140.7612     82.8272   9.3640185481e+01   3.8124517974e+01    0.3802073    0.2736727 -61.58 0.0008302472    1.674    0.403
       415  -9.6209      5.1401     92.3193   1.3672156049e+02   5.5857359370e+01    0.3124189    0.1934416  60.43  0.001375796    2.280    0.561
       416  -7.9366    185.2434     82.9493   8.3978459960e+01   2.7374926072e+01     0.202756    0.1274482 -40.41 0.0008801105    1.592    0.372
       417  -7.3951    170.3572     83.6939   8.7168917772e+01   3.0901387844e+01     0.161565    0.1194127 -81.16 0.0007040803    1.723    0.420
       418  -9.5580      9.9568     81.2938   1.3320714219e+02   5.7893879968e+01    0.3275124    0.2039671  77.10  0.001422975    2.608    0.617
       419  -9.7323     24.5541     80.2201   1.2817518138e+02   5.7099414033e+01    0.4607278    0.2583126 -78.04  0.001599595    2.561    0.610
       420  -9.2322     28.3518     70.8264   1.2464579089e+02   5.8704128582e+01    0.4400661    0.1829528 -28.01   0.00178237    3.581    0.721
       421  -8.5066    150.2015     80.7397   9.0786140520e+01   3.6310064462e+01    0.2642422    0.2010344 -53.10 0.0007103098    1.401    0.286
       422  -9.0015    119.4019     80.5348   9.8470758336e+01   4.3263320062e+01    0.3061135    0.2446577 -72.06 0.0009015824    1.602    0.376
       423  -8.9026     74.4365     80.2949   1.1172436490e+02   5.1438036755e+01    0.3330548    0.2164887 -64.80   0.00129381    2.053    0.513
       424  -8.2773    166.7082     79.9529   8.6902483939e+01   3.2472949802e+01    0.2156973    0.1901781 -44.43 0.0004027198    1.153    0.133
       425  -9.1676     64.2252     63.9972   1.1021146198e+02   5.6052670625e+01    0.7974396    0.2580265 -35.06  0.002639082    4.043    0.753
       426  -9.3407     65.2315     78.2166   1.1410481031e+02   5.3170030885e+01    0.3332047    0.2266562 -59.41   0.00154015    1.638    0.389
       427  -9.7885     63.4817     73.9836   1.1346902956e+02   5.4248680474e+01    0.3727567    0.2227388 -56.73  0.001411952    1.841    0.457
       428  -8.2906    157.4242     76.8977   8.8048229145e+01   3.5277895412e+01     0.225559    0.1476423 -40.56  0.000667588    1.556    0.357
       429  -9.5597    128.3391     75.6377   9.4639263045e+01   4.2256121826e+01    0.4044172     0.286999 -65.00 0.0008381354    1.881    0.468
       430  -8.1155    148.4632     76.4629   8.9952937803e+01   3.7498924783e+01    0.1495461    0.1458243  66.20 2.320032e-05    1.016    0.016
       431  -8.7795    140.3962     75.3578   9.1540839434e+01   3.9584177657e+01    0.2490447    0.2290065 -75.02 0.0005385436    1.186    0.157
       432  -9.7778     82.3945     72.7399   1.0696261018e+02   5.1677657412e+01    0.4640648    0.2778918 -58.71  0.001492684    2.210    0.547
       433  -7.4761    185.2903     74.3208   8.1668516725e+01   2.8874042810e+01    0.1475907     0.119466  19.49 0.0007009894    1.604    0.377
       434  -9.0131    115.7724     72.9826   9.7174452681e+01   4.5428824811e+01    0.3066356    0.1919541 -47.02 0.0007515406    1.688    0.408
       435  -8.0654    175.2245     72.8065   8.3183661715e+01   3.1628666944e+01    0.1997255    0.1786977  19.92 0.0004806462    1.301    0.231
       436  -8.2050    163.3156     73.0950   8.5692069557e+01   3.4513213184e+01    0.2152973    0.1901661 -52.24 0.0007704619    1.159    0.137
       437  -8.5725    151.4011     73.2602   8.8346523700e+01   3.7368183403e+01    0.2103353    0.1393901 -48.40 0.0009409016    1.603    0.376
       438  -9.2388    106.0542     71.9955   9.9595061262e+01   4.7567948238e+01    0.3101858     0.223445 -53.03 0.0008106824    1.575    0.365
       439  -9.3940     95.2107     71.2138   1.0253891771e+02   4.9757335021e+01    0.3756244    0.2373537 -57.55  0.001018325    2.064    0.516
       440  -8.2033     42.5177     72.5844   1.2018477935e+02   5.7022109523e+01    0.2107162    0.1131154 -62.76 0.0007654521    2.187    0.543
       441  -9.5192     51.5908     69.8563   1.1629827638e+02   5.6555508204e+01    0.4540401    0.2526541 -65.24  0.001491329    2.697    0.629
       442  -8.8372     16.6421     70.1869   1.2857825483e+02   5.9727589431e+01     0.233328    0.1764112 -85.01 0.0008703132    1.746    0.427
       443  -9.1436    147.1574     67.8558   8.7722389052e+01   3.9309581838e+01    0.4565211    0.2273966 -37.71  0.001322753    2.062    0.515
       444  -8.8986    138.7413     66.3219   8.9230445659e+01   4.1541526975e+01     0.324345    0.1799436 -50.57 0.0008985488    2.127    0.530
       445  -9.0947    121.5452     66.3064   9.3549636910e+01   4.5391268803e+01    0.3043745    0.2484921 -58.83 0.0007702137    1.439    0.305
       446  -8.9915    110.1441     63.7830   9.5847434161e+01   4.8209009563e+01    0.2926277    0.2189359 -54.03 0.0006837829    1.583    0.368
       447  -8.8500     37.2618     64.5184   1.1981025834e+02   5.9131101225e+01    0.2310728    0.1920156 -85.60 0.0008984476    1.758    0.431
       448  -9.8167    241.4467     62.2499   7.0067584754e+01   1.7378395630e+01    0.2493912    0.2094907 -71.62 0.0002750339    1.056    0.053
       449  -7.9076    158.0101     61.9797   8.3611830079e+01   3.7664615636e+01    0.1748005    0.1661828 -42.63 0.0003157801    1.100    0.091
       450  -9.4814     97.8302     60.2821   9.8261551540e+01   5.1212935137e+01    0.4113396    0.2992755 -26.62  0.001671195    1.375    0.272
       451  -9.6389     73.3189     59.6494   1.0576633191e+02   5.5512121043e+01     0.359615    0.2179478 -50.85  0.001158504    1.871    0.465
       452  -8.3628    147.0286     59.2735   8.5182566065e+01   4.0745731425e+01    0.2053544    0.1873051  56.69 0.0004425472    1.052    0.049
       453  -8.2912     88.8712     59.4121   1.0069469564e+02   5.2991834431e+01    0.1819624    0.1642456 -34.55 0.0005743715    1.164    0.141
       454  -9.8561     23.4823     56.5892   1.2262608450e+02   6.1856309936e+01    0.3860368    0.2715638 -85.33  0.001831522    2.583    0.613
       455  -9.3757      7.5357     57.1909   1.2873676216e+02   6.2841520998e+01    0.2935303     0.181766 -74.84  0.001162426    2.113    0.527
       456  -8.3996    130.8206     58.0023   8.8579989505e+01   4.4716063376e+01    0.2135236    0.1906964 -73.14 0.0005566801    1.309    0.236
       457  -8.9138    246.0052     57.5186   6.8466218896e+01   1.7082213994e+01    0.1960595    0.1264759  69.20 0.0004898558    1.567    0.362
       458  -8.8305    139.9583     56.2443   8.5859779171e+01   4.2889657366e+01    0.2919047    0.1944256 -43.81 0.0006323657    1.606    0.377
       459  -9.1778    119.1770     55.5246   9.0738957654e+01   4.7677019843e+01    0.4622314    0.2267282 -46.98  0.001560615    2.425    0.588
       460  -9.5796     54.3587     55.7028   1.1100617870e+02   5.8854576281e+01    0.3243999    0.2078083 -54.89  0.001270896    1.859    0.462
       461  -8.7128     44.2412     55.6766   1.1465208775e+02   6.0053881508e+01    0.2846674    0.1483835 -53.52  0.001300542    2.040    0.510
       462  -8.6067    105.7445     53.3710   9.3680659066e+01   5.0805692865e+01    0.2464397    0.2081358 -61.64   0.00067786    1.511    0.338
       463  -9.5079     92.3406     50.7103   9.6702211932e+01   5.3795554190e+01    0.3568172    0.2243214 -46.71  0.001077606    1.836    0.455
       464  -8.3529    164.4964     59.9909   8.1708545216e+01   3.6389601939e+01    0.2150726    0.1464419 -36.68 0.0004726579    1.535    0.349
       465  -8.2869    149.7603     48.9640   8.1477089611e+01   4.1650806790e+01    0.1757257     0.123069 -31.05 0.0003977661    1.538    0.350
       466  -8.1629    129.9149     49.1378   8.5985880074e+01   4.6273518359e+01    0.2078442       0.1911 -81.13 0.0005053172    1.257    0.205
       467  -8.6378    120.9371     47.3292   8.7608957564e+01   4.8534960516e+01    0.2249972    0.1937968 -24.50  0.000469168    1.205    0.170
       468  -8.5491    112.0896     46.9098   8.9770207304e+01   5.0487491704e+01    0.2304992    0.1944293 -30.79 0.0007197396    1.235    0.190
       469  -9.0717     82.0770     46.4819   9.8429681180e+01   5.6270207270e+01    0.2674099    0.1979373 -38.95  0.000615708    1.412    0.292
       470  -7.7714    156.3284     46.6837   7.9454208992e+01   4.0383515438e+01    0.1472787     0.109115 -75.84 0.0005486615    1.678    0.404
       471  -7.9832    144.6582     49.2442   8.2651894337e+01   4.2831176981e+01    0.1898541    0.1364769 -19.45 0.0005938749    1.612    0.380
       472  -8.4938     44.9721     44.9510   1.1086309253e+02   6.1831935848e+01    0.1807176    0.1526724 -26.26 0.0005546213    1.126    0.112
       473  -8.9733     16.5383     44.7917   1.2187703751e+02   6.4529221820e+01    0.1813047    0.1686083 -66.78 0.0007374769    1.492    0.330
       474  -8.8049    132.9176     43.6731   8.3529788956e+01   4.6365824307e+01    0.2556944    0.2020901 -46.42 0.0008128522    1.412    0.292
       475  -8.3538     92.7237     43.0251   9.3913532735e+01   5.4886663308e+01    0.2675852    0.1789073  -4.81  0.001363191    1.776    0.437
       476  -8.9079     58.0597     42.3916   1.0513846515e+02   6.0598046109e+01    0.3037011    0.1642935 -49.40  0.001084244    2.276    0.561
       477  -9.4662     69.7331     41.2494   1.0063405034e+02   5.9074505955e+01    0.4667868    0.2489697 -41.64  0.002240455    1.941    0.485
       478  -9.4234      5.1786     41.9427   1.2559463717e+02   6.5775758489e+01    0.3088459    0.1816453 -68.27  0.001816114    2.275    0.560
       479  -9.1854    105.9855     40.9294   8.9380948088e+01   5.2597312189e+01    0.3333578    0.1816838 -37.89 0.0008660387    1.943    0.485
       480  -8.5796     36.8346     40.9167   1.1259271637e+02   6.3393371633e+01    0.1959672    0.1549554 -51.77 0.0009305766    1.559    0.359
       481  -8.1939    155.4559     39.7327   7.7559522259e+01   4.1545904983e+01    0.1843654    0.1404741 -10.05 0.0009482122    1.611    0.379
       482  -8.7344     95.4434     38.2084   9.1400305589e+01   5.5052905885e+01    0.2293772    0.1941749 -62.49 0.0008660211    1.646    0.393
       483  -9.8372    137.9493     37.2281   8.0355675963e+01   4.6059052796e+01    0.2388545    0.2261916  15.78 0.0003017216    1.098    0.089
       484  -8.2717     80.7037     36.6250   9.5320778618e+01   5.7951992389e+01    0.2011961    0.1457527 -46.82 0.0005855911    1.738    0.425
       485  -9.4466     26.1812     35.5388   1.1497797270e+02   6.5309405093e+01    0.2802665    0.1902172 -51.11 0.0009794901    1.655    0.396
       486  -8.2769    133.4810     36.1056   8.0972752176e+01   4.7240765799e+01    0.1962957    0.1365711 -30.02 0.0007007302    1.551    0.355
       487  -7.9997    125.9944     35.6775   8.2533782546e+01   4.9000206536e+01    0.1930589    0.1585145  48.51 0.0003657365    1.116    0.104
       488  -8.5482    111.6468     34.5360   8.5664034599e+01   5.2273836544e+01    0.2388927    0.1608842 -33.70 0.0008372525    1.584    0.369
       489  -8.2217     88.4910     34.0567   9.1959320462e+01   5.6915558627e+01    0.1886177    0.1210361 -30.87  0.001022092    1.577    0.366
       490  -9.0247     48.4840     33.3638   1.0536565062e+02   6.3233622315e+01    0.2323783    0.1899802 -38.32 0.0007400594    1.405    0.288
       491  -8.2924    119.2282     33.2449   8.3328799693e+01   5.0806720501e+01    0.1754866    0.1577286 -65.98 0.0005748624    1.366    0.268
       492  -8.7180     60.4404     32.5532   1.0064687077e+02   6.1734077606e+01    0.2190411    0.1971433 -43.43 0.0007924188    1.499    0.333
       493  -8.1513    139.2281     31.9554   7.8416961330e+01   4.6418539731e+01    0.1692346    0.1146716 -29.21 0.0008663694    1.614    0.380
       494  -8.8229     72.3155     31.4530   9.6121918505e+01   6.0063019409e+01    0.2220736    0.1976579 -84.22 0.0007101812    1.865    0.464
       495  -8.9740     12.9075     30.3534   1.1873384223e+02   6.7232170491e+01    0.2565609    0.1370827 -52.40   0.00119309    1.898    0.473
       496  -8.4691    101.6118     29.4131   8.6509468651e+01   5.4979537706e+01    0.2332291    0.1865751 -53.93  0.000812379    1.665    0.400
       497  -7.8164     42.2224     29.9622   1.0649247866e+02   6.4498457463e+01    0.1475633   0.08287174 -36.44 0.0004591683    1.598    0.374
       498  -8.8466     81.4121     27.4725   9.1671269279e+01   5.9036486338e+01    0.2545825    0.1959884 -42.67 0.0008278871    1.617    0.381
       499  -8.7052      3.6163     27.8384   1.2190523075e+02   6.8258932147e+01    0.1733569    0.1475665 -60.66 0.0007352727    1.628    0.386
       500  -8.8965     91.7251     26.3598   8.8158464130e+01   5.7281099742e+01    0.2729975    0.1883753 -42.95 0.0008617102    1.785    0.440
       501  -8.0812     34.6430     23.2713   1.0692723027e+02   6.6321485718e+01    0.1455384    0.1375376 -60.09 0.0008688613    1.804    0.446
       502  -7.7497    104.3301     22.7154   8.3377940422e+01   5.5205233277e+01    0.1187964    0.1023532 -83.32 0.0003865971    1.612    0.380
       503  -8.9478     63.5353     21.1888   9.5097227689e+01   6.2768988931e+01    0.2542418    0.1905575 -43.14 0.0008877474    1.768    0.434
       504  -8.8692     48.3734     21.7214   1.0085281851e+02   6.4872587650e+01    0.1919341     0.182021 -34.84 0.0006721707    1.583    0.368
       505  -7.7189    120.5145     21.0054   7.8872702367e+01   5.1934730030e+01    0.1780976    0.1014495 -51.15 0.0008098761    2.500    0.600
       506  -7.9000     19.5214     21.4920   1.1263850307e+02   6.8067830950e+01    0.1092559    0.0838441 -19.22 8.782853e-05    1.066    0.061
       507  -9.6505    246.5893    229.5996   1.0471421322e+02  -1.1295242792e+01    0.5281844     0.238507 -29.83  0.002601881    2.307    0.567
       508  -8.5170     87.6786     17.5743   8.6002008458e+01   5.9038744690e+01    0.2179782    0.1460122 -26.82 0.0007081944    1.568    0.362
       509  -7.7740     38.8184     18.6238   1.0334282118e+02   6.6475511760e+01    0.1377495   0.09815064  32.24 0.0003636761    1.566    0.361
       510  -7.8976    112.6446     16.8508   7.9243920170e+01   5.4078497097e+01    0.1636711    0.1152199 -34.67 0.0002359274    1.614    0.381
       511  -8.2367     30.0672     16.1344   1.0593383666e+02   6.7791878416e+01    0.1432109    0.1360825 -32.23  0.001112849    1.698    0.411
       512  -8.1240      7.5925     15.7257   1.1575898754e+02   6.9862157360e+01    0.1315013   0.08512691 -44.12  0.000402391    1.529    0.346
       513 -10.1256    248.6436    242.6601   1.0662360861e+02  -1.3291754749e+01    0.5710482    0.2149451 -38.97   0.00234583    2.976    0.664
       514  -9.4124    247.8853    234.8085   1.0540231705e+02  -1.2178933223e+01    0.3456631    0.2747956 -53.59  0.001831351    2.015    0.504
       515  -9.0579    218.9234    247.5006   1.1276169297e+02  -9.3953308948e+00     0.367137    0.1684496 -35.23    0.0018491    2.470    0.595
       516  -8.9836    175.7490    247.7615   1.2087464381e+02  -2.2641824561e+00    0.3067152    0.2289829 -88.35  0.001103123    2.131    0.531
       517  -8.5650    156.1617    248.4139   1.2469039728e+02   1.0003171738e+00    0.2516893    0.1718942  72.22 0.0008721624    1.936    0.484
       518  -8.1458    113.1621    248.7715   1.3284229873e+02   8.1844599369e+00    0.2224584    0.1334319 -82.78  0.001179729    2.140    0.533
       519  -9.1826    104.0086    246.9484   1.3433666723e+02   9.9852893257e+00    0.4115617    0.1996333 -78.57   0.00186401    3.023    0.669
       520  -9.2092    243.2322    246.5822   1.0823765190e+02  -1.2990821417e+01    0.3341335    0.1722902 -26.47  0.001840523    2.074    0.518
       521 -10.2140    224.1102    244.1862   1.1127219643e+02  -9.7708137926e+00    0.4930368    0.2483567 -43.65  0.001975931    2.471    0.595
       522  -8.5589    132.2718    247.9696   1.2916464988e+02   5.1545166628e+00    0.2338645    0.1444659  61.42 0.0007986509    1.617    0.382
       523  -8.9907    147.2797    246.0123   1.2605796702e+02   2.9255777353e+00    0.3369998     0.200776  72.14  0.001349205    2.594    0.615
       524  -7.7614     83.3492     10.7416   8.4588651594e+01   6.0541248206e+01    0.1064036    0.0960638  81.19 0.0006375186    1.602    0.376
