#   1 NUMBER                 Running object number                                     
#   2 MAG_AUTO               Kron-like elliptical aperture magnitude                    [mag]
#   3 X_IMAGE                Object position along x                                    [pixel]
#   4 Y_IMAGE                Object position along y                                    [pixel]
#   5 X_WORLD                Barycenter position along world x axis                     [deg]
#   6 Y_WORLD                Barycenter position along world y axis                     [deg]
#   7 A_WORLD                Profile RMS along major axis (world units)                 [deg]
#   8 B_WORLD                Profile RMS along minor axis (world units)                 [deg]
#   9 THETA_WORLD            Position angle (CCW/world-x)                               [deg]
#  10 FWHM_WORLD             FWHM assuming a gaussian core                              [deg]
#  11 ELONGATION             A_IMAGE/B_IMAGE                                           
#  12 ELLIPTICITY            1 - B_IMAGE/A_IMAGE                                       
         1 -11.9783     96.5925     22.1305   2.3390708861e+01   5.8473617358e+01    0.3961561    0.3425539  53.83 0.0003960509    1.167    0.143
         2 -11.5409     20.7876     16.8145   5.4660785243e+01   7.3038034900e+01    0.3988567    0.3345277  -9.20  0.002043521    1.127    0.113
         3 -10.5276      6.6019     14.9679   6.3658664039e+01   7.4664212237e+01    0.2958507    0.1913161 -67.76  0.001091364    1.907    0.476
         4 -10.0984    128.0613     14.3094   1.2928876057e+01   5.1608839907e+01    0.2554431    0.2231751  87.65  0.001121993    1.161    0.138
         5 -11.0167     49.5842     13.8271   3.6304250458e+01   6.9422586278e+01    0.3330504    0.2794689  25.95  0.001010225    1.184    0.155
         6 -10.1759     45.5151     12.0780   3.7255437750e+01   7.0380395431e+01    0.2545715    0.1919144 -18.10 0.0008706014    1.189    0.159
         7 -10.4592     35.2216     13.7430   4.3864091520e+01   7.1749536228e+01    0.2430486    0.1878859  -8.89 0.0004684045    1.159    0.137
         8 -10.8929    119.1058      9.1165   1.2422267176e+01   5.4425947119e+01    0.3118646    0.2427552 -33.60 0.0002964857    1.315    0.239
         9  -9.4853    115.3717      8.7468   1.2967007940e+01   5.5404787381e+01    0.2005336     0.118582  59.21 0.0007429151    1.570    0.363
        10 -10.0728     79.0897     11.6677   2.3399389726e+01   6.3778177696e+01    0.2208649    0.1810751 -34.96 0.0006550073    1.301    0.232
        11 -10.2487     64.7954     11.6194   2.8400613348e+01   6.6831365932e+01    0.2612374    0.1875409   8.72 0.0008053002    1.449    0.310
        12  -9.6588     27.6946     11.2668   4.6890863053e+01   7.3201203071e+01    0.2261648    0.1585602 -32.13  0.001340349    1.239    0.193
        13 -10.6506     74.8713      9.2044   2.3433994140e+01   6.4989443130e+01    0.3503554    0.1838247 -23.09  0.001379688    1.901    0.474
        14 -11.1595    123.7479      6.4709   1.0507644913e+01   5.3502731757e+01    0.3014596    0.2407023 -85.40 0.0009562285    1.321    0.243
        15 -10.0956    104.9376      9.0840   1.5258288054e+01   5.7969641582e+01    0.3027377    0.2035071 -12.02  0.001518124    1.602    0.376
        16 -11.4156     56.6960      8.7675   3.0009319336e+01   6.8795965706e+01    0.4063133    0.2974078  14.34  0.001389488    1.343    0.256
        17  -9.9854     32.3970      9.7886   4.3051985178e+01   7.2790842513e+01    0.2374414    0.1100285 -39.91    0.0011223    2.032    0.508
        18  -9.2783    213.0731      8.6897   1.3792512862e+00   3.1140680820e+01    0.1729422    0.1465084 -71.50 0.0004488636    1.096    0.087
        19 -10.2137     99.2303      9.0002   1.6518261348e+01   5.9372105088e+01      0.21689    0.1987619  88.75 0.0006695573    1.201    0.168
        20  -9.9613     96.5381      5.3493   1.5398304158e+01   6.0380475162e+01    0.3389581    0.1447521 -30.97  0.001423051    2.309    0.567
        21 -10.5808     69.9074      8.0156   2.4454550182e+01   6.6195201419e+01    0.3849559    0.1990924   4.41  0.001507252    2.981    0.665
        22 -10.1894      3.3908      8.0823   6.2521324549e+01   7.6248630080e+01     0.245732    0.1606786 -41.60 0.0008326074    1.193    0.162
        23 -11.3049    177.9973      7.2533   3.8902251802e+00   3.9626313707e+01    0.2333131    0.1891802 -36.10 0.0005743112    1.209    0.173
        24 -10.8312     85.5456      7.4745   1.9270864948e+01   6.2771115535e+01    0.2582686     0.227782 -33.94 0.0007174112    1.225    0.184
        25 -11.1295     88.8297      5.8151   1.7532348926e+01   6.2171642218e+01    0.3232416    0.2451642  30.57 0.0003919067    1.284    0.221
        26 -10.7845    130.9641      4.5161   8.5799244102e+00   5.1841071509e+01     0.414929    0.2560637  -3.58  0.001864083    1.976    0.494
        27  -9.2863     11.2004      8.5777   5.6702342527e+01   7.5521433038e+01    0.1629432    0.1030801  -1.18  0.000936896    1.661    0.398
        28  -9.1547    196.6499      6.3115   1.9845728523e+00   3.5200650611e+01    0.1478713    0.0802528 -59.25 0.0007045441    1.719    0.418
        29 -10.2388    242.7074      5.1168   3.5865412347e+02   2.5169239815e+01    0.1750246    0.1269704 -44.53 0.0006508606    1.115    0.103
        30  -9.3796    203.1957      4.8340   1.0779477061e+00   3.3818111899e+01    0.1598768    0.1513728  49.62 0.0004111279    1.318    0.241
        31 -11.5203    174.1684      3.7131   3.1671115678e+00   4.0929962351e+01    0.3642089    0.2657576 -32.78  0.001495308    1.344    0.256
        32 -10.5529    178.9266      1.4858   2.0595354500e+00   3.9968381462e+01    0.2426178    0.1469991  62.58 0.0003869444    1.675    0.403
        33  -9.8502      8.1423      5.1452   5.6965171122e+01   7.6420311537e+01    0.1927912    0.1289957 -23.25 0.0005190347    1.266    0.210
        34  -9.2751     16.4793      4.5479   5.0169715517e+01   7.5686320328e+01    0.1243599   0.09820858 -17.94 7.587867e-05    1.009    0.009
        35  -8.6106     22.6884      5.2780   4.6267556302e+01   7.4822176567e+01    0.1034133    0.1003655 -51.88 0.0002474636    1.562    0.360
        36 -10.2794     37.6587      2.2362   3.4942543246e+01   7.3049465268e+01    0.2531233    0.1994741  22.55 0.0008115284    1.183    0.154
        37 -11.1325    114.3311      1.7982   1.0157769213e+01   5.6304377810e+01    0.3791274    0.1866574  68.81  0.001009309    1.929    0.482
        38  -8.7505    229.6677      1.6817   3.5856996684e+02   2.8248105382e+01    0.1117855   0.09424528  34.76 0.0007048135    1.692    0.409
        39  -8.7850      6.3297     85.6549   8.2628777916e+01   5.7563088146e+01    0.1405288   0.08814993  69.08 0.0007050413    1.753    0.430
        40 -11.3125     54.6714     78.7331   6.1521846938e+01   5.4962768775e+01    0.3394931     0.287217 -81.16 0.0004556514    1.280    0.219
        41  -9.1668    216.1891     78.2078   1.9404833822e+01   2.0706707823e+01    0.1942062    0.1431402 -52.45 0.0003830368    1.286    0.223
        42  -9.1546     77.8388     78.1497   5.2453150435e+01   5.1509806683e+01    0.2067617    0.1741108 -22.17  0.001023387    1.289    0.224
        43  -9.1157    144.2869     77.3697   3.2324758232e+01   3.7445959755e+01    0.1640849    0.1268599  -2.74 0.0007020677    1.707    0.414
        44  -9.7419     83.8131     74.8158   4.9211997669e+01   5.1236465064e+01    0.2271252    0.2025624 -25.28 0.0004800714    1.143    0.125
        45 -10.3118      2.6940     74.9018   8.2573328042e+01   6.0575929426e+01     0.264544    0.1674293  71.06  0.001388144    1.772    0.436
        46  -8.9551     76.6801     71.3064   5.0626995063e+01   5.3366781964e+01    0.1520229    0.1223955  89.73 0.0006927788    1.636    0.389
        47 -11.6872     64.0414     69.4926   5.4909172201e+01   5.5913617607e+01    0.2702759    0.2310705 -47.54  0.001426664    1.046    0.044
        48  -9.6609      7.8330     68.7909   7.9319400355e+01   6.1922897255e+01    0.1970611    0.1506938 -56.34 0.0004438711    1.101    0.092
        49  -9.9385     83.0923     68.1073   4.7161835195e+01   5.2938347069e+01    0.2347663    0.1984483 -21.40 0.0004305962    1.241    0.194
        50  -9.6102    151.8905     66.6296   2.7156872551e+01   3.7696626421e+01    0.2262168    0.1942277 -24.12 0.0007787331    1.203    0.169
        51 -10.4791     70.2409     66.1368   5.1301338820e+01   5.5704071719e+01     0.296872    0.2362978 -23.01 0.0006355527    1.342    0.255
        52  -9.0223    192.1455     65.8105   1.9568554127e+01   2.8130682763e+01    0.1842632    0.1644147 -17.82 0.0003774001    1.216    0.178
        53 -10.2663      4.3063     63.9651   8.0048643810e+01   6.3338278342e+01    0.2405311    0.1686088 -50.19 0.0008088085    1.231    0.187
        54 -10.8755      3.8377     59.1449   7.9355569859e+01   6.4587410367e+01    0.3491854    0.2407273 -51.08  0.001128059    1.210    0.173
        55 -10.5070     99.0863     61.8557   3.9408190134e+01   5.1065096990e+01    0.4676836    0.3072752 -64.79  0.001892685    2.094    0.522
        56 -10.6354     43.4581     62.4234   6.1369434263e+01   6.0505325191e+01      0.27762    0.2338693 -46.46 0.0001552214    1.017    0.017
        57  -9.3261    114.4071     60.7393   3.4356411568e+01   4.7859169047e+01    0.2083041    0.1473669 -28.58 0.0002466561    1.462    0.316
        58  -9.8755     34.8215     60.8580   6.4858405905e+01   6.1865668521e+01    0.2043404     0.166538 -39.73 0.0003545234    1.115    0.103
        59 -10.4719     13.9113     61.1451   7.4916057585e+01   6.3539522167e+01    0.3603866    0.1690254  16.77  0.001662337    2.568    0.611
        60 -10.0151    232.6765     59.8971   1.2679399679e+01   2.0152189269e+01    0.2860267    0.1975281  32.01  0.001452266    2.154    0.536
        61 -10.5466     85.3799     58.5224   4.2793756071e+01   5.4612861837e+01    0.3706023    0.2566118 -64.64 0.0008571272    1.886    0.470
        62  -9.1439     57.0092     59.9952   5.4549948063e+01   5.9255419420e+01    0.1780808    0.1578353 -38.94 0.0003904106    1.008    0.008
        63 -11.2670     23.5430     50.2368   6.7115138894e+01   6.5531011512e+01    0.7772827   0.09193254 -53.47  0.002309214    4.032    0.752
        64 -10.9774     22.4830     57.5797   6.9834301517e+01   6.3822104839e+01    0.2563029    0.2320762 -85.79 0.0005865964    1.248    0.199
        65  -9.7673      9.4721     57.7160   7.6295662132e+01   6.4668552669e+01    0.1932937   0.09524329 -57.30  0.000934124    1.532    0.347
        66 -10.9510     25.0000     55.9898   6.8135310995e+01   6.4005534910e+01    0.5658209     0.242415 -71.94  0.002134951    2.815    0.645
        67  -9.8475     44.7970     56.2286   5.8669296215e+01   6.1832021578e+01    0.2551924    0.1808854  54.83  0.001125144    1.907    0.476
        68 -10.2732     77.5699     55.2912   4.4408603783e+01   5.6817032274e+01    0.2542199    0.1854408  54.14 0.0007221414    1.640    0.390
        69 -10.4829     63.7488     52.1096   4.8673941074e+01   5.9968935243e+01    0.4166466    0.1934082 -44.35  0.001670351    1.944    0.486
        70 -10.8080     69.6246     51.7286   4.6092854433e+01   5.9034126229e+01    0.3377851    0.2472209  49.18  0.001171487    1.593    0.372
        71  -8.9960     88.4829     52.4923   3.9320889821e+01   5.5224945051e+01    0.1525451    0.1430082 -34.28 -4.356408e-05    1.042    0.040
        72 -11.7493     94.0549     48.4479   3.5789227545e+01   5.4823737802e+01     0.325483    0.2358081 -41.42  0.001550666    1.329    0.248
        73 -10.7989     51.7746     46.4094   5.1652661554e+01   6.3096351847e+01     0.388866    0.2700746  28.89  0.001232069    1.581    0.368
        74 -10.3870     32.7996     44.1791   6.0152911635e+01   6.6045061868e+01    0.2633162    0.2181253   3.04 0.0005696382    1.306    0.234
        75 -10.9708     39.1000     43.5622   5.6655132883e+01   6.5447263934e+01    0.6322241    0.3071088  22.11  0.002716249    2.518    0.603
        76  -9.4499      7.1136     44.6672   7.4296435917e+01   6.8011755149e+01    0.1878276    0.1452075 -68.38   0.00114027    1.193    0.161
        77 -10.2638    119.0219     43.1499   2.6410837086e+01   4.9952074507e+01    0.3595485    0.2186669 -47.19  0.001009126    1.715    0.417
        78  -9.8699    206.0868     43.0894   1.1285332414e+01   2.8412882927e+01    0.2135626    0.1804767 -50.94  0.000384038    1.009    0.009
        79  -9.7705    185.9224     41.4929   1.3352300060e+01   3.3426639531e+01    0.2186571    0.1773688 -39.11 0.0003244755    1.133    0.117
        80  -8.9296     71.3367     42.2955   4.1390918915e+01   6.0628329845e+01    0.1500739    0.1102516  -0.77 0.0007029483    1.650    0.394
        81  -8.8150    237.7587     40.7033   7.4402316349e+00   2.1837638236e+01    0.1157906    0.0967493 -11.47 0.0002187919    1.477    0.323
        82  -9.7959    158.9007     39.2122   1.6699585691e+01   4.0506411680e+01    0.2253831    0.1893109 -68.22 0.0003334821    1.198    0.165
        83  -8.9058     90.0000     39.0109   3.3107284679e+01   5.7411036617e+01    0.2387301   0.08140212 -35.79 0.0003330944    2.819    0.645
        84  -9.5709     29.3259     38.3416   5.9709783131e+01   6.7723953816e+01    0.3335634    0.2049075  59.67  0.001281788    3.152    0.683
        85  -9.3962     95.9073     38.0926   3.0806648328e+01   5.6250872869e+01    0.2097301    0.1961816 -70.85 0.0003863829    1.215    0.177
        86 -10.0350     47.5359     36.7462   4.9461835683e+01   6.5742348880e+01    0.3763879    0.2271494 -62.97  0.001153476    2.504    0.601
        87  -9.9334     13.1612     36.1732   6.8172283152e+01   6.9636822243e+01    0.3699421    0.1336279 -54.50  0.001615803    2.045    0.511
        88 -11.1969     40.2736     35.8236   5.2727010294e+01   6.6951145572e+01    0.4566204    0.2258792  36.09  0.001829736    2.256    0.557
        89  -8.8550    158.0000     34.9185   1.5399823535e+01   4.1350426798e+01    0.2350361   0.08139326 -29.45 0.0004288836    2.801    0.643
        90  -9.6294    119.1776     35.1797   2.3200350908e+01   5.1167061379e+01    0.2180237    0.1967921  14.34  0.000456012    1.175    0.149
        91  -9.8399    173.9164     34.3450   1.2807180316e+01   3.7402512335e+01    0.2397182    0.1793405 -46.69 0.0003747208    1.225    0.184
        92  -9.8934     25.3997     33.3827   5.9857854054e+01   6.9209808717e+01    0.3300799    0.1314887 -36.94  0.001107043    2.493    0.599
        93 -10.0050    153.7564     32.1443   1.5146182487e+01   4.2818572894e+01    0.2595813    0.2246059  28.74 0.0007353112    1.331    0.249
        94  -9.2851    139.6504     33.2701   1.8061822885e+01   4.6275758845e+01    0.1538724    0.1101749 -69.20 0.0006993927    1.625    0.385
        95 -10.6373     51.1018     32.7646   4.5834565358e+01   6.5974207225e+01    0.3741296    0.2100334  44.73  0.000917874    2.102    0.524
        96  -9.5989      7.3214     32.7248   7.0518769325e+01   7.0798385770e+01    0.1817114     0.163531 -44.83 0.0005515098    1.156    0.135
        97 -10.3856      3.6069     31.1276   7.2307959811e+01   7.1364479997e+01    0.1929999    0.1756844   1.30 0.0003506388    1.312    0.238
        98  -9.8119     82.5408     31.9992   3.2450322741e+01   6.0194539505e+01    0.2169138    0.1904984  39.95 0.0004726292    1.167    0.143
        99 -10.5898     17.5330     31.5736   6.3786333701e+01   7.0329566601e+01    0.2356108    0.1983883 -42.07 0.0003995541    1.077    0.072
       100  -9.9425    104.5235     29.5935   2.4584051308e+01   5.5560793865e+01    0.3374782    0.2105461 -48.07  0.001509373    1.788    0.441
       101  -9.4778     64.6861     29.9248   3.8292616340e+01   6.4128491959e+01    0.2006768    0.1668459 -25.79 0.0004963143    1.109    0.099
       102  -9.2423     59.4487     29.5099   4.0348687178e+01   6.5158285464e+01    0.2222574    0.1582507  -6.55 0.0006428089    1.578    0.366
       103  -9.7652     60.7477     26.0077   3.7980992100e+01   6.5518569634e+01    0.2473083    0.1859513 -30.38 0.0008911842    1.237    0.191
       104 -10.1207    160.7365     27.1525   1.2355181001e+01   4.1694092037e+01    0.3031618    0.1994163  75.94 0.0005336608    1.575    0.365
       105  -8.6930     42.4406     28.4825   4.8065903365e+01   6.8102648450e+01    0.1374494    0.1163539 -22.28  0.000214304    1.007    0.007
       106  -9.5106    153.2321     27.5940   1.3651427950e+01   4.3558081512e+01    0.1962714    0.1303643  55.37 0.0003041441    1.533    0.348
       107 -10.1485     89.1734     26.0188   2.7419836000e+01   5.9650497793e+01     0.469946    0.2416076 -54.51  0.001708386    3.155    0.683
       108 -10.0153     85.1014     20.4392   2.5994819407e+01   6.1341273953e+01    0.3104502    0.2282183 -79.00 0.0009581888    2.094    0.522
       109 -10.3439     46.9250     26.7852   4.4884551661e+01   6.7740880008e+01    0.2190401     0.171899 -29.27 0.0003529744    1.128    0.113
       110 -10.1625    121.2425     25.9019   1.8961375052e+01   5.1954084649e+01    0.3231863    0.1964882  48.20  0.001463047    1.646    0.393
       111  -9.8434    238.7459    220.9732   4.6249433490e+01  -5.4656382867e+00    0.1403035   0.08069187 -26.41 0.0004421485    1.535    0.349
       112  -8.7206     32.3180     26.3188   5.2547018279e+01   6.9882581609e+01    0.1401157   0.08923452 -19.63  0.000639268    1.659    0.397
       113  -9.4610    111.5323     24.9313   2.0775006104e+01   5.4500627068e+01    0.2089945    0.1416737 -25.80 0.0003109926    1.487    0.328
       114  -9.5477     83.9217     25.4621   2.8847898574e+01   6.0901282965e+01    0.2148365    0.1386439  51.79  0.001026693    1.582    0.368
       115  -9.3324    250.7150     23.8631   2.4566056372e+00   2.1400048153e+01    0.1777581   0.07922948 -40.04 0.0002614881    1.642    0.391
       116  -8.8087    238.7468     24.3578   3.4121145024e+00   2.3747491416e+01    0.1389992    0.0710429 -51.65 0.0004597592    1.610    0.379
       117  -9.2366    129.0233     24.0453   1.6608718002e+01   5.0221651383e+01    0.1685304      0.16515 -41.38 0.0003910444    1.026    0.025
       118  -9.8689      2.9238     23.6778   7.0097330669e+01   7.3060977699e+01    0.1685156    0.1360795 -34.62  0.000455378    1.096    0.088
       119  -9.8389     72.8465     22.6001   3.1314382165e+01   6.3682935974e+01    0.2215278    0.1791356  -8.99 0.0005096923    1.199    0.166
       120 -10.0916     38.1080     22.7560   4.7407031829e+01   6.9783527308e+01    0.2202146    0.1677167 -31.82 0.0004886296    1.148    0.129
       121  -9.3170    196.0193     22.7456   6.6769380872e+00   3.3484869554e+01    0.1672345    0.1144555  78.88 0.0005215463    1.504    0.335
       122 -11.1739     24.2989     19.9535   5.4090352614e+01   7.2058577653e+01    0.4197874    0.2484989 -16.44  0.001891247    1.913    0.477
       123  -9.3879     20.7717    174.8532   8.6707175429e+01   3.3145740623e+01    0.1857872    0.1179382  65.85 0.0004862631    1.341    0.255
       124  -9.1672    159.4174     20.5604   1.0321568384e+01   4.2845421075e+01    0.1415125    0.1302608 -64.78 4.600118e-05    1.013    0.013
       125  -9.6003     48.6710     19.8532   4.0252777616e+01   6.8648943010e+01    0.1841293    0.1513175 -24.75 0.0004065998    1.115    0.103
       126  -9.3489    109.5611     19.2965   1.8794537228e+01   5.5698940130e+01    0.1927205    0.1375912  -6.48 0.0009371668    1.575    0.365
       127 -10.5830     11.4667     18.1216   6.1718472276e+01   7.3658133102e+01    0.3315568    0.2038078  -4.14  0.001857768    1.784    0.440
       128 -10.0169      4.8736     19.4960   6.7021605852e+01   7.3845591916e+01    0.1647675    0.1156552   3.00  0.001016623    1.544    0.352
       129  -9.2260    147.6272     17.8170   1.1061856219e+01   4.6191004992e+01    0.1966588    0.1224868 -38.44 0.0003101608    1.545    0.353
       130  -9.0668     70.6491     18.2857   2.9865451326e+01   6.4751782153e+01    0.1309882    0.1105108 -71.38 0.0007021084    1.660    0.398
       131  -9.9135     85.4322     15.7469   2.3541462700e+01   6.1866793152e+01    0.3531886    0.1844303  61.89  0.001534716    2.103    0.524
       132  -9.7795     21.3501    169.9299   8.6228368576e+01   3.4288905882e+01    0.2167639    0.1489859  53.43  0.000552659    1.320    0.242
       133  -9.0270    206.7386     15.6877   3.7275246091e+00   3.1803250222e+01    0.1184554    0.1029462  20.12 0.0002109618    1.535    0.348
       134 -10.7211    183.1941     14.9464   5.7017168352e+00   3.7515271685e+01     0.221675    0.1611217 -59.67 0.0005476922    1.267    0.211
       135  -9.2141     17.0709    155.2126   8.6238799651e+01   3.8348394508e+01    0.1507744    0.1058098  28.66   0.00048985    1.658    0.397
       136  -8.8387     75.2425     15.6930   2.6822193513e+01   6.4128148229e+01    0.1279049    0.1040204 -51.24  0.000174485    1.497    0.332
       137  -9.0573     39.9995    147.5013   7.9270300329e+01   3.8146107748e+01    0.1978796   0.08970635  53.96 0.0005798512    2.314    0.568
       138  -9.7490     25.2798    146.5021   8.3286819949e+01   3.9871465920e+01    0.2694837    0.1404371  20.75 0.0009945377    2.405    0.584
       139  -9.1611      7.1986    142.9177   8.7984073204e+01   4.2281342394e+01      0.18494   0.08509009 -82.67 0.0008584441    1.760    0.432
       140  -9.7249     91.9757    137.9336   6.2834544051e+01   3.3595360965e+01    0.2247182    0.2093929 -84.51 0.0003128294    1.023    0.022
       141  -9.2936     28.5890    138.2404   8.1510518269e+01   4.1747974992e+01    0.1867729    0.1098015 -66.54 0.0002816255    1.473    0.321
       142  -9.6287     11.1097    133.6313   8.6165679920e+01   4.4423980641e+01    0.2318569    0.1516133  85.11  0.001184171    1.282    0.220
       143  -9.9037     17.4619    132.1252   8.4163299967e+01   4.4340236772e+01    0.2053036    0.1794451  64.96 0.0003508141    1.191    0.161
       144  -9.9822     58.0731    129.9579   7.1482072216e+01   4.0722861156e+01     0.220485     0.193372 -76.38            0    1.021    0.020
       145  -9.0379    162.6676     11.6949   6.9386286288e+00   4.3012342138e+01    0.1410754    0.1013522  38.36 0.0002888563    1.661    0.398
       146  -9.6956     40.4878    126.4575   7.6427254938e+01   4.3742046062e+01    0.3306545    0.1226918 -68.80  0.001238459    2.274    0.560
       147  -9.7610    134.5246    124.4669   4.8159905211e+01   2.9066390513e+01    0.1599035     0.150358 -36.22 3.273849e-05    1.043    0.041
       148  -9.9336     64.0964    122.2234   6.8219794373e+01   4.2021145633e+01    0.2187392     0.190945 -52.24 0.0005491171    1.162    0.139
       149  -9.2686      6.7698    118.5917   8.6162915078e+01   4.8714739978e+01    0.1712716    0.1131468  44.85 0.0004774061    1.629    0.386
       150  -8.7126     53.7071    117.2604   7.0668486725e+01   4.4735771198e+01    0.1456814    0.1062164  71.80 0.0001978219    1.498    0.332
       151  -9.2211     91.7663    116.3811   5.8264194482e+01   3.9263675787e+01    0.2046549    0.1559366  23.07 0.0004203336    1.576    0.365
       152 -10.3623     96.0098    111.9167   5.5877084303e+01   3.9672194132e+01    0.2961721    0.2088975 -54.20 0.0004973646    1.311    0.237
       153 -10.0042     19.3873    107.9353   8.0825105878e+01   5.0722442754e+01    0.2184602    0.1983711 -31.57  0.000635047    1.329    0.247
       154  -9.6753     12.8157    105.6866   8.2812479348e+01   5.1797720291e+01     0.211651    0.1614376  49.97 0.0006634454    1.447    0.309
       155 -10.2466      2.0904    104.5906   8.6377707894e+01   5.2724875463e+01    0.3061319    0.1474953 -57.91   0.00147342    1.779    0.438
       156 -10.0449     78.4146    101.4935   5.8918000409e+01   4.5443681230e+01    0.4597429     0.141334 -55.94  0.001393136    2.933    0.659
       157 -10.1282    117.6905    102.0230   4.6793570812e+01   3.7920083490e+01    0.2264692    0.2054315 -47.75 0.0004572952    1.031    0.030
       158  -9.5262     49.3331    101.2396   6.9056069167e+01   4.9649134973e+01    0.2500327    0.1904222  -0.83  0.001011136    1.725    0.420
       159  -9.6131     26.3159    101.2817   7.7411777507e+01   5.1983113643e+01    0.1433094     0.092936 -44.88 0.0002312989    1.577    0.366
       160  -8.8159    159.4989     98.5039   3.5182553031e+01   2.9518036827e+01    0.1617616    0.1487131 -34.57 -9.005369e-05    1.038    0.036
       161  -9.8156    102.9818     96.7171   4.9645876739e+01   4.2208866979e+01    0.3182047    0.2169538 -49.11 0.0008703656    1.358    0.264
       162 -10.4840     64.3496     96.2516   6.2498447662e+01   4.9008524113e+01    0.3334948    0.2755044 -58.80 0.0008552523    1.072    0.067
       163  -9.8119     61.0863     91.7048   6.2543260826e+01   5.0683795446e+01    0.2727069    0.1895184 -68.35 0.0006972522    1.396    0.284
       164 -11.1340     39.8733     96.7893   7.1615608546e+01   5.1925772432e+01    0.3033176    0.2773178 -20.43  0.001533337    1.276    0.216
       165 -10.3992      4.1502     96.1319   8.4763868260e+01   5.4879244925e+01    0.2235815    0.1689377 -71.84 0.0003407172    1.061    0.058
       166  -9.6411     94.0732     96.0673   5.2273995592e+01   4.4089218034e+01    0.2339444    0.2214074 -56.62 0.0004305048    1.029    0.028
       167 -10.3983     15.6268     93.2867   8.0137926123e+01   5.4963559477e+01    0.2861749    0.1469955  36.03  0.001348305    2.206    0.547
       168 -10.0075    132.3785     92.6577   4.0036633112e+01   3.6927233887e+01    0.2897511     0.273555 -11.69 0.0006451461    1.129    0.114
       169  -9.2519    107.6611     86.3082   4.5081359791e+01   4.3774352207e+01     0.164203    0.1280956 -87.02 0.0007043139    1.683    0.406
       170  -9.7813     12.0738     85.7016   8.0366205318e+01   5.7227987761e+01    0.2254014    0.1584529 -81.73 0.0003067671    1.236    0.191
