#   1 NUMBER                 Running object number                                     
#   2 MAG_AUTO               Kron-like elliptical aperture magnitude                    [mag]
#   3 X_IMAGE                Object position along x                                    [pixel]
#   4 Y_IMAGE                Object position along y                                    [pixel]
#   5 X_WORLD                Barycenter position along world x axis                     [deg]
#   6 Y_WORLD                Barycenter position along world y axis                     [deg]
#   7 A_WORLD                Profile RMS along major axis (world units)                 [deg]
#   8 B_WORLD                Profile RMS along minor axis (world units)                 [deg]
#   9 THETA_WORLD            Position angle (CCW/world-x)                               [deg]
#  10 FWHM_WORLD             FWHM assuming a gaussian core                              [deg]
#  11 ELONGATION             A_IMAGE/B_IMAGE                                           
#  12 ELLIPTICITY            1 - B_IMAGE/A_IMAGE                                       
         1 -14.9986      3.2194    119.0858   1.4086855075e+02   5.0312387169e+01     6.238768     0.156367 -68.69   0.01400591    9.802    0.898
         2 -13.7424    200.4188     27.5737   6.6855599932e+01   3.2114429252e+01     1.559433     1.261373  48.12  0.007307803    1.405    0.288
         3 -13.8029    216.8498      8.9490   6.0640340765e+01   3.0346957761e+01    0.9183528    0.7645699  75.55  0.002675069    1.171    0.146
         4  -9.8487     98.8115    148.7415   1.2058951646e+02   3.2161464688e+01    0.2551958    0.2312296 -84.85 0.0006147176    1.040    0.038
         5 -13.6117    247.1545    248.3478   1.0749806331e+02  -1.3740129278e+01     1.688659    0.6020046  38.74  0.008025399    2.508    0.601
         6 -13.1442    238.4878    248.4051   1.0903053651e+02  -1.2489318042e+01    0.9227415    0.4402384  39.36  0.004957911    1.890    0.471
         7 -12.7818      9.8046    207.2298   1.4777935112e+02   3.0376533922e+01    0.6765023    0.5051425  34.77  0.002934567    1.787    0.440
         8 -14.7159     10.9672    243.5396   1.4983341558e+02   2.3058895694e+01     2.887163     1.287304  46.99   0.01816445    1.931    0.482
         9 -14.9184     32.1063    228.7153   1.4537005940e+02   2.3581145070e+01     1.012488    0.8554633 -72.82  0.007554769    1.475    0.322
        10 -13.0960     44.0959    215.1013   1.4207728413e+02   2.4931909927e+01    0.7934206    0.4880884  69.78  0.001999801    1.402    0.287
        11 -11.9102     99.4736    248.1195   1.3496897777e+02   1.0451669125e+01    0.3385395    0.3010948  22.57  0.002275515    1.618    0.382
        12 -11.0816     81.6425    249.3888   1.3833460596e+02   1.2941498522e+01    0.2266122     0.132168  48.97  0.001148773    1.430    0.301
        13 -10.7175    145.6255    246.1924   1.2603911680e+02   3.1461286745e+00    0.1618121    0.1202201 -40.69 0.0009550621    1.720    0.419
        14 -11.7606    124.1262    249.5864   1.3054748320e+02   6.1975265075e+00    0.5546343   0.09553532  43.00   0.00171239    4.576    0.781
        15 -10.8936    139.4854    245.5095   1.2712388989e+02   4.3154510931e+00    0.1757736    0.1222481 -75.10 8.297815e-05    1.817    0.449
        16 -11.8809    111.6539    231.6823   1.3075534596e+02   1.1572010259e+01     0.395883     0.161847  41.36  0.001735374    2.218    0.549
        17 -12.4156     88.7737    226.7540   1.3465384871e+02   1.6240827607e+01    0.8152696    0.1783357  50.54  0.002534544    4.648    0.785
        18 -11.1773     58.2813    213.1431   1.3915976712e+02   2.3512439314e+01    0.3682272     0.156756  62.27  0.001623727    2.582    0.613
        19  -8.9725    152.5853    213.2483   1.1977143245e+02   7.8793139932e+00    0.1647184    0.1345236 -39.09 0.0002660372    1.425    0.298
        20 -12.2019     56.5167    199.4048   1.3806721971e+02   2.6731523240e+01    0.2816375    0.2299047 -84.15  0.000573374    1.116    0.104
        21 -11.1654      6.5646    192.5215   1.4732132697e+02   3.3784061840e+01    0.2649926    0.1479792  67.11  0.001119751    1.585    0.369
        22 -12.3767     63.3455    190.7724   1.3563142391e+02   2.7744759967e+01    0.2704862    0.2316062 -84.98 0.0004833427    1.107    0.097
        23 -13.3222     60.7024    175.7980   1.3430755999e+02   3.1544392479e+01    0.5292749    0.2784204 -47.90   0.00204092    2.279    0.561
        24 -11.1429     74.5184    177.5586   1.3139457656e+02   2.9198464650e+01    0.2502615    0.2155825 -89.95  0.000364956    1.013    0.013
        25 -12.6903     11.0661    120.9961   1.3905177515e+02   4.9364251068e+01    0.5250457    0.3677512  50.06  0.003415017    1.693    0.409
        26 -10.9652     66.6324    250.0469   1.4104341662e+02   1.4980884976e+01    0.2571185     0.143572  47.46 0.0008916685    1.538    0.350
        27 -12.0897     83.9600    151.7714   1.2494306959e+02   3.3882037709e+01    0.3078316     0.246148 -50.02 0.0004257584    1.285    0.222
        28 -12.2927     67.4921    143.4532   1.2768799330e+02   3.8293752485e+01    0.6454607    0.4176693  65.73  0.002051494    1.846    0.458
        29 -10.5650    108.5658    137.3648   1.1570455387e+02   3.3115406020e+01    0.5142336    0.3639699  -7.52   0.00172085    2.464    0.594
        30 -10.8723     95.1208    134.8820   1.1871354609e+02   3.6091675305e+01    0.2534189     0.216443 -48.00 0.0003045418    1.167    0.143
        31  -9.7818    115.5070    129.0075   1.1199557026e+02   3.3752998596e+01    0.4642416    0.2806938 -12.13  0.001315527    5.118    0.805
        32  -9.2507    105.8635    124.0890   1.1340811713e+02   3.6717490805e+01    0.2060583    0.1882106 -81.76 0.0002688082    1.113    0.102
        33  -9.0014     67.9851    114.5101   1.2185753951e+02   4.5048194254e+01    0.1814463    0.1378285  36.70 0.0003656598    1.469    0.319
        34 -10.7891    243.5021     93.9982   7.6704587029e+01   1.1902306202e+01    0.2266966     0.127992 -39.75  0.001043461    1.622    0.383
        35 -10.9455    159.0061     76.8520   8.7307867114e+01   3.5000628734e+01    0.2668328    0.2259035 -40.34 0.0006736248    1.209    0.173
        36 -12.3255     81.8627    168.7317   1.2833979600e+02   3.0167715176e+01    0.7623617     0.531089 -51.28  0.003568037    1.503    0.335
        37 -10.8587     89.1601    166.8788   1.2628808655e+02   2.9456176530e+01     0.390805    0.2784155  87.71  0.001863787    1.525    0.344
        38 -12.6326    173.1863    248.5928   1.2111694584e+02  -1.9785922705e+00    0.6747791    0.2640257  45.70  0.002991991    2.204    0.546
        39 -11.0692     95.4860    152.9854   1.2225261609e+02   3.1717371747e+01    0.3555406    0.3326089 -40.91 0.0007878262    1.216    0.178
        40  -9.9157    152.3369    249.3169   1.2517939298e+02   1.4744866350e+00    0.1231151   0.09430138  15.64 0.0007048376    1.700    0.412
