#   1 NUMBER                 Running object number                                     
#   2 MAG_AUTO               Kron-like elliptical aperture magnitude                    [mag]
#   3 X_IMAGE                Object position along x                                    [pixel]
#   4 Y_IMAGE                Object position along y                                    [pixel]
#   5 X_WORLD                Barycenter position along world x axis                     [deg]
#   6 Y_WORLD                Barycenter position along world y axis                     [deg]
#   7 A_WORLD                Profile RMS along major axis (world units)                 [deg]
#   8 B_WORLD                Profile RMS along minor axis (world units)                 [deg]
#   9 THETA_WORLD            Position angle (CCW/world-x)                               [deg]
#  10 FWHM_WORLD             FWHM assuming a gaussian core                              [deg]
#  11 ELONGATION             A_IMAGE/B_IMAGE                                           
#  12 ELLIPTICITY            1 - B_IMAGE/A_IMAGE                                       
         1 -18.5893    228.7865     91.7487   4.2708463501e+01   1.6670186609e+01     7.126168     5.188991 -37.41   0.03657994    1.203    0.169
         2 -10.6139    209.3980     12.7231   2.6210780658e+01   3.1650616322e+01    0.3554317    0.2070128  78.16   0.00118824    1.640    0.390
         3 -10.8508    184.4722     10.0243   2.7690773076e+01   3.7682817817e+01    0.2417677    0.1753333  81.04  0.000367035    1.260    0.206
         4 -10.3374    132.8151    226.0588   8.7217284270e+01   9.5720738531e+00    0.2105481    0.1950731 -33.56 0.0004853302    1.239    0.193
         5 -10.2611    248.7561    249.7646   6.9353136867e+01  -9.0376816663e+00    0.1891242    0.1046417  22.51  0.001292981    1.529    0.346
         6  -9.8174    221.9956    213.9751   6.8169175703e+01  -1.4459847061e+00    0.2217426    0.1584313  33.99 0.0003806564    1.458    0.314
         7 -10.9448    217.6601    212.3697   6.8653682017e+01  -6.3797025479e-01    0.2224652    0.1931118  21.85 0.0005533047    1.261    0.207
         8  -8.6337    155.7221    212.7020   8.0553785214e+01   8.4329403348e+00    0.1250617   0.09431344  -1.08  0.000233091    1.536    0.349
         9 -10.0757    170.0228    202.9560   7.6072833290e+01   7.8856224624e+00    0.4116256     0.262574  70.87  0.001642825    3.865    0.741
        10  -9.2646     16.4784    201.7321   1.1048824170e+02   2.9669847653e+01    0.1505348    0.1001165 -71.84 0.0008856931    1.510    0.338
        11 -10.6466    208.0592    198.6910   6.8031174919e+01   2.7403854198e+00    0.2863272    0.1556181  38.50  0.001195257    1.843    0.457
        12 -10.8465    192.2059    193.7553   7.0114824008e+01   5.9422656064e+00    0.8002964    0.4036297 -61.47   0.00242218    6.639    0.849
        13 -10.4556    196.3924    243.3586   7.7230760311e+01  -2.0652541890e+00    0.1972896    0.1649011  23.86 0.0001976022    1.209    0.173
        14 -11.7392    134.1388    146.6653   7.3600377340e+01   2.5443641897e+01     1.028476    0.3259333 -56.70   0.00277743    4.681    0.786
        15 -10.9909    131.4132    135.4014   7.1830519090e+01   2.8489702579e+01    0.4319001     0.239335 -64.72   0.00126298    2.483    0.597
        16 -11.1780    172.8978    174.8361   7.0495115300e+01   1.2481974650e+01     0.357887    0.2932058  81.95  0.001254843    1.758    0.431
        17 -12.2465     67.8349    144.0087   9.1125926096e+01   3.7480482242e+01    0.8434597    0.3783248  46.45  0.003363461    2.284    0.562
        18 -12.2822    157.9079    142.6980   6.7163114253e+01   2.1641568389e+01    0.4027147    0.3180162 -49.88  0.001652598    1.275    0.215
        19 -11.1040    211.2914    162.9662   6.0783358103e+01   8.0005381673e+00    0.2440577    0.2087651 -15.19 0.0002423152    1.058    0.055
        20 -13.5226     24.7500    130.8077   1.0227458087e+02   4.5880002004e+01    0.9016994    0.6167221 -88.11  0.004016818    1.355    0.262
        21 -12.2389     30.1776    129.3534   1.0038805043e+02   4.5740547703e+01    0.7102702    0.3549618 -85.34  0.002501937    2.142    0.533
        22 -12.3965     10.0107    134.8806   1.0721248474e+02   4.6064996398e+01    0.4086049    0.2362531  85.33  0.002122186    1.616    0.381
        23 -14.1651     63.9373    124.2000   8.8789094742e+01   4.3033064871e+01     1.733582     1.115084  27.57  0.006119521    1.742    0.426
        24 -12.5243     51.4654    125.9615   9.3090911691e+01   4.4247169181e+01    0.5337626    0.4679505  72.16 0.0007387347    1.135    0.119
        25 -13.2843    126.6956    107.2029   6.6199209433e+01   3.5746097308e+01     1.052971    0.5576299 -53.59  0.004120076    2.005    0.501
        26 -12.4008    113.1606    105.3679   6.9390141910e+01   3.8982780008e+01    0.5943713    0.4959161  -6.55  0.002900877    1.507    0.336
        27 -10.2276     78.3749    103.0067   7.9429228884e+01   4.6062281618e+01    0.2484573    0.2126323  39.70 0.0003337003    1.217    0.178
        28 -12.4797    120.1502    102.4221   6.6673028125e+01   3.8183788097e+01    0.7851389    0.5175971  -7.15  0.002832657    3.025    0.669
        29 -10.6946    127.3447     89.1272   6.1057057667e+01   3.9446002148e+01    0.3316766    0.2600017 -38.43 0.0006872236    1.295    0.228
        30 -11.1472    142.4034     74.9232   5.3246436449e+01   3.8739895103e+01    0.2878243    0.2190103  47.39 0.0006514138    1.351    0.260
        31 -10.5284    116.0182     63.5305   5.6132066886e+01   4.6975585085e+01    0.2853251    0.2190235 -37.59 0.0006358034    1.324    0.245
        32 -10.7767    165.0307    160.1927   6.9287314567e+01   1.6723983358e+01    0.2330948     0.201331 -40.42  0.000317617    1.156    0.135
        33 -12.8495    153.9749     57.6325   4.5664261693e+01   3.8923859403e+01    0.6644109    0.3882295 -28.87  0.002908119    1.907    0.476
        34  -9.6935     98.9922     54.5161   5.7841355085e+01   5.2387831420e+01    0.2727607    0.1942116 -23.42 0.0007923066    1.605    0.377
        35 -11.4810    144.6436     57.6614   4.7516636445e+01   4.1189345323e+01    0.2839921    0.2476946 -73.33 0.0006280939    1.169    0.144
        36 -12.3319    139.1014     44.7595   4.4543235626e+01   4.4538442228e+01    0.8485395    0.3820256 -17.76  0.002631704    4.372    0.771
        37  -9.7227    100.1968     48.7876   5.5406952086e+01   5.3101656424e+01    0.1966152    0.1666504   2.67 0.0009378271    1.339    0.253
        38 -10.4060    139.4084    158.6280   7.4773611274e+01   2.1829970556e+01    0.3760293    0.2265747 -65.08  0.001573297    2.182    0.542
        39  -8.7343     19.5661    186.4085   1.0881235725e+02   3.2804352970e+01    0.1228622    0.1016041  74.72 8.406062e-05    1.034    0.033
        40 -11.1385    177.7900    179.6025   7.0388093843e+01   1.0758943227e+01    0.3619314    0.2597294  70.17  0.001300714    2.305    0.566
        41 -11.5538    158.8577     31.8682   3.7029527422e+01   4.1412926612e+01    0.4549277     0.320515  18.23  0.001538123    2.110    0.526
        42 -10.1625    161.8221     26.1977   3.4891428451e+01   4.1380057588e+01    0.2579217    0.1798867  71.43 0.0005942173    1.346    0.257
        43 -10.3362    143.8966     32.8753   3.9781515373e+01   4.4993333211e+01    0.2072735    0.1837269  40.34 0.0003415179    1.236    0.191
        44 -10.2811    146.1696     28.3493   3.7934116401e+01   4.4999764811e+01    0.2238784    0.1968398  -1.94 0.0006342568    1.367    0.268
        45  -9.7407    112.1793     17.7811   4.0577586811e+01   5.4584887062e+01    0.1922492    0.1761157  83.18 0.0004742844    1.102    0.092
        46 -10.0328    215.6320     12.9638   2.5783161705e+01   3.0246470488e+01    0.2225429    0.1531559  59.35  0.001026823    1.664    0.399
        47  -9.3431    164.4937    238.4440   8.2504119758e+01   2.9551626809e+00    0.1208631   0.09888784  22.65  5.35438e-05    1.009    0.009
