#   1 NUMBER                 Running object number                                     
#   2 MAG_AUTO               Kron-like elliptical aperture magnitude                    [mag]
#   3 X_IMAGE                Object position along x                                    [pixel]
#   4 Y_IMAGE                Object position along y                                    [pixel]
#   5 X_WORLD                Barycenter position along world x axis                     [deg]
#   6 Y_WORLD                Barycenter position along world y axis                     [deg]
#   7 A_WORLD                Profile RMS along major axis (world units)                 [deg]
#   8 B_WORLD                Profile RMS along minor axis (world units)                 [deg]
#   9 THETA_WORLD            Position angle (CCW/world-x)                               [deg]
#  10 FWHM_WORLD             FWHM assuming a gaussian core                              [deg]
#  11 ELONGATION             A_IMAGE/B_IMAGE                                           
#  12 ELLIPTICITY            1 - B_IMAGE/A_IMAGE                                       
         1 -14.7522     48.1979     95.8187   1.1091572607e+02   5.1112453795e+01     1.858158      1.23158 -52.32    0.0104963    1.404    0.288
         2 -15.8539      6.7326     68.4678   1.1982088249e+02   6.0798506211e+01     3.144907     1.094706 -77.65   0.01363868    2.827    0.646
         3 -13.6827      8.7733     42.9457   1.1395195472e+02   6.6233773784e+01    0.9830831    0.7859143  63.13  0.006882113    1.602    0.376
         4 -15.0889     42.0679      6.7647   8.4084008321e+01   6.9841568124e+01     2.018993      1.15249 -22.91   0.01106092    1.686    0.407
         5 -15.3237     13.6384     19.7689   1.0455168710e+02   7.0610336046e+01     1.384414    0.9680515 -56.58  0.008984633    1.311    0.237
         6 -14.7383     22.6944     13.6462   9.7249569578e+01   7.0976578939e+01     1.039375    0.5608575  41.47  0.003168885    2.588    0.614
         7 -15.0738    119.4761     54.6540   7.7444027524e+01   4.7771619486e+01     1.372956    0.8962858  33.96  0.001884584    1.718    0.418
         8 -14.5495    101.4674     49.8529   8.0853837923e+01   5.2513716204e+01     1.239686    0.8932886 -36.97  0.002688141    1.335    0.251
         9 -14.8465    166.6892     30.0890   5.8482968069e+01   3.9641969230e+01     1.194179     1.003358  64.23   0.00362498    1.161    0.138
        10 -15.4099    147.2764     30.4652   6.2182786890e+01   4.4695387569e+01      3.11021     1.166425  65.54   0.01036148    2.970    0.663
        11 -13.6528    131.7704     32.7464   6.6341951510e+01   4.8321532299e+01    0.9859621    0.5336004 -27.16   0.00344682    1.890    0.471
        12 -14.2157    111.7233     40.2383   7.4273835974e+01   5.1942793130e+01     1.387854     0.857893  -2.14  0.005576773    2.496    0.599
        13 -14.4617    122.1104     37.0796   7.0315164341e+01   5.0037018179e+01     1.044642    0.6216871  25.23  0.002169109    2.266    0.559
        14 -13.7817     66.3706     49.3151   9.2401309340e+01   5.8911643814e+01    0.8031115    0.6357383 -51.48  0.001773929    1.239    0.193
        15 -15.1214      8.7313     29.3517   1.1028091643e+02   6.9053071691e+01     1.476914    0.6329421  30.30  0.007963158    2.812    0.644
        16 -12.8085    231.4673      2.4232   4.2579936278e+01   2.5840334431e+01     1.443984    0.3649583  62.97  0.004851765    3.442    0.709
        17 -13.1766    187.6347     13.2700   4.9968691677e+01   3.5977715490e+01    0.7011606     0.574721   6.12   0.00252737    1.408    0.290
        18 -15.4907    190.6362     24.4896   5.3061438391e+01   3.3948506546e+01     3.710569     1.875246  82.57   0.01434449    2.438    0.590
        19 -14.0006    218.8173     15.2487   4.7112999275e+01   2.7670276178e+01     1.006536    0.6602078  29.82  0.004539275    1.997    0.499
        20 -13.4354    215.0050      9.9443   4.6015448898e+01   2.9184927437e+01    0.5222589    0.4646685 -84.84 0.0006035469    1.067    0.063
        21 -14.4790    217.5534     41.7194   5.4603726657e+01   2.4891921440e+01     1.161385    0.8048314  51.52  0.004576204    1.505    0.335
        22 -12.9535    139.5128     21.8468   6.0553717120e+01   4.7781188904e+01    0.6314833    0.3695148  62.63  0.001318163    1.675    0.403
        23 -15.1487     57.7478     73.2047   1.0276031716e+02   5.5080909198e+01     1.923872     1.112655 -52.05  0.004814078    1.508    0.337
        24 -12.9588    223.5435     21.2391   4.8278846132e+01   2.5837527968e+01    0.7283249    0.4763119  34.93  0.001507533    1.925    0.481
        25 -15.7291     98.7387     12.7688   6.6387887268e+01   5.8697010922e+01     1.813469    0.8363931  50.85  0.004497227    2.033    0.508
        26 -11.7476     70.7605     16.5589   7.7134127635e+01   6.3847585733e+01    0.2634568    0.2169967 -25.97 0.0005480492    1.155    0.134
        27 -10.5592    202.3494     11.3518   4.7698945309e+01   3.2298769057e+01    0.2209251     0.155718  36.43  0.001090354    1.651    0.394
        28 -11.3534    153.0353      8.3189   5.3120002590e+01   4.5713141203e+01    0.2779411    0.2354815 -77.34 0.0007199716    1.272    0.214
        29 -10.9713    144.9136      8.3482   5.4458816160e+01   4.7851177266e+01    0.2124428    0.1920505 -41.03 0.0003790932    1.177    0.151
        30 -11.5247     61.3792     17.3562   8.1104846648e+01   6.5340180240e+01    0.5105533    0.2723884 -48.22  0.001687954    2.330    0.571
        31 -11.4346     67.8497      4.0437   7.1883186000e+01   6.6030599771e+01    0.3209749    0.2374445 -22.08  0.001911921    1.262    0.208
        32 -12.3588    120.2997      3.5065   5.7130057171e+01   5.4598858426e+01    0.5875331    0.3480278 -87.29  0.002453176    2.600    0.615
        33 -11.8880     27.1744      3.1735   8.9632966468e+01   7.2257749675e+01    0.3475265    0.2083556 -19.00  0.001443981    1.653    0.395
        34 -10.4573    192.9613      2.7771   4.6141308112e+01   3.5596092629e+01    0.1917861    0.1760445 -85.97 0.0003706964    1.018    0.017
        35 -12.0684     81.0004      1.8028   6.6299942161e+01   6.3720189060e+01    0.5765313    0.1418972  51.03   0.00204478    3.453    0.710
        36 -12.0990     60.9880      1.7881   7.3237540145e+01   6.7536750522e+01    0.4082848    0.1706663  46.46  0.001884272    2.403    0.584
        37 -10.4519    123.4817    182.9742   1.0639446428e+02   2.1301705655e+01    0.1740182    0.1074677 -88.27 0.0008101351    2.542    0.607
        38 -14.5531     94.4927    236.5870   1.1784675346e+02   1.6761181248e+01     1.595575    0.7621213  67.75  0.003360916    2.591    0.614
        39 -12.0070     40.4313    243.6607   1.2726971026e+02   2.2388806526e+01    0.3557486    0.1805197  84.35  0.002326485    1.874    0.466
        40 -13.5615     27.5875    244.7345   1.2932734848e+02   2.3604033649e+01    0.7410048    0.3610744  82.41  0.005286915    1.834    0.455
        41 -14.0458     23.8644    224.3166   1.2901646005e+02   2.7273738710e+01    0.9292685    0.5207848 -89.05  0.006608244    1.581    0.367
        42 -12.7769     16.6757    195.9172   1.2887365671e+02   3.2987321440e+01    0.5896245    0.2464268 -67.31  0.003019927    2.389    0.581
        43 -13.6158     29.8734    169.5329   1.2463414039e+02   3.6807186221e+01    0.5959213    0.4144657 -51.82  0.001244324    1.905    0.475
        44 -14.1011     18.3373    161.4756   1.2647443001e+02   3.9554278991e+01      1.18038    0.6769169  56.89  0.007657777    1.505    0.335
        45 -15.5045      9.0233    180.2147   1.2948874244e+02   3.6651914054e+01      1.73782     1.052403 -81.98   0.01235598    1.410    0.291
        46 -11.7834      2.7890    249.9274   1.3322512293e+02   2.5251360416e+01    0.2802635    0.1043169  46.58  0.001869366    1.811    0.448
        47 -13.8904      9.0085    245.6536   1.3218077471e+02   2.5316934727e+01    0.6611084    0.2902572  56.51  0.003183885    1.492    0.330
        48 -12.3137     85.2513    180.3062   1.1402057152e+02   2.7818978441e+01    0.3832185    0.2051389  67.28  0.001907028    2.134    0.531
        49 -11.5231     95.0044    170.6678   1.1072166369e+02   2.8259556531e+01     0.219554    0.1846315 -36.18  0.001350975    1.623    0.384
        50 -13.0356    123.9944    166.4871   1.0378222109e+02   2.4289186246e+01    0.5976968    0.4088686 -79.50   0.00309536    1.865    0.464
        51 -10.8032    177.4715    167.4801   9.2840621680e+01   1.4136301764e+01    0.1358167    0.1204919  34.07 9.057712e-05    1.002    0.002
        52 -12.7771    237.3954    159.9916   8.0489260952e+01   3.9025264701e+00    0.5818374    0.1478448  45.03  0.002067425    3.620    0.724
        53 -12.3407     77.3911    156.9728   1.1283284126e+02   3.3682289385e+01      0.46926    0.2677275  37.33  0.001800295    1.808    0.447
        54 -13.1274     74.3104    153.2092   1.1304364158e+02   3.4913752961e+01    0.7178779    0.4231595  38.59  0.003033312    1.726    0.421
        55 -12.0824    121.9172    156.0973   1.0251165236e+02   2.6685798174e+01    0.4114128    0.2847799   1.00  0.001780268    2.948    0.661
        56 -11.2102    112.8564    157.2905   1.0475603723e+02   2.8035293800e+01    0.2268683    0.1550648  58.69  0.001196837    1.433    0.302
        57 -11.3162    109.6078    153.8213   1.0492500406e+02   2.9296216947e+01    0.3061234    0.1785415 -89.37  0.001246985    2.918    0.657
        58 -11.6099     56.0743    155.3237   1.1754023036e+02   3.6850228597e+01    0.3894309    0.2382946 -41.42  0.002031417    2.492    0.599
        59 -12.8229    208.2855    154.7324   8.4467601760e+01   1.0117331210e+01    0.7167797    0.3220315  44.41   0.00311494    2.062    0.515
        60 -11.9090     85.6009    153.0563   1.1037971291e+02   3.3310944683e+01    0.4486232    0.2935533 -48.55  0.002413169    1.781    0.439
        61 -11.1873     41.4062    153.7209   1.2073158873e+02   3.8886580317e+01    0.2751799    0.1252423  71.90  0.001267484    2.629    0.620
        62 -11.8387    103.2967    150.2474   1.0579732606e+02   3.1098979228e+01    0.3712337    0.2954391 -28.68   0.00200683    1.741    0.425
        63 -12.4461      6.3432    147.8866   1.2814944182e+02   4.3376663102e+01    0.4408663    0.2655242  82.00  0.002934312    1.324    0.245
        64 -11.4902    244.4134    147.2505   7.6723742927e+01   4.2848109675e+00      0.25291    0.1183827 -25.06   0.00114826    2.145    0.534
        65 -12.0919     62.8751    147.1079   1.1494462031e+02   3.7763295437e+01    0.2939804    0.1699057 -69.85 0.0009312268    1.614    0.381
        66 -11.4714     38.0802    145.9636   1.2071690889e+02   4.0907338946e+01     0.183182    0.1518525 -89.58 0.0006413589    1.070    0.065
        67 -11.4859    149.5165    141.2081   9.3499016264e+01   2.4333312680e+01    0.4248314    0.2842908  75.11  0.001860614    2.228    0.551
        68 -11.2350     88.8505    140.7433   1.0769165950e+02   3.5454209446e+01    0.2938203    0.2248581  11.27  0.001553703    1.972    0.493
        69 -13.3297     42.5936    135.4594   1.1845423430e+02   4.2728593003e+01    0.7747893    0.4734231 -56.92  0.004467124    1.652    0.395
        70 -10.9753     62.9965    138.5023   1.1375438910e+02   3.9633855996e+01    0.2196488    0.1575972 -61.79 0.0004600785    1.357    0.263
        71 -11.0365     62.9952    134.1532   1.1313270866e+02   4.0599483331e+01    0.3142169    0.2405116  77.85  0.001892723    1.239    0.193
        72 -12.6200    246.3523    134.3141   7.3640625205e+01   5.6301343553e+00    0.3995649    0.3498949 -71.16  0.002392652    1.668    0.400
        73 -10.8533     81.0933    135.9689   1.0883456007e+02   3.7679186535e+01     0.190412    0.1714911 -88.62            0    1.037    0.036
        74 -13.5635    231.6599    133.4034   7.5798156806e+01   8.6022467875e+00    0.7051607    0.4290421  58.31  0.003382117    2.043    0.510
        75 -13.1001    223.1042    128.2815   7.6081388974e+01   1.1074842005e+01    0.5446608    0.4286068  78.83  0.002830358    1.862    0.463
        76 -11.0938     11.0568    134.0594   1.2605316584e+02   4.5949244677e+01    0.1733185    0.1352074  88.22  0.000600415    1.025    0.024
        77 -12.4581    133.0556    129.2302   9.4730371027e+01   3.0013327652e+01    0.7696089    0.3503644 -45.76  0.003069477    2.289    0.563
        78 -11.5150    138.2442    132.6139   9.4242102210e+01   2.8290766040e+01    0.2786046    0.1723661  35.66  0.001153512    1.738    0.424
        79 -11.9283    111.9695    131.5481   1.0031553514e+02   3.3544725258e+01    0.3698758    0.2738838 -43.64  0.001571491    1.480    0.325
        80 -12.9943    120.8501    111.5925   9.3731267212e+01   3.6114803886e+01       0.6941    0.5625072 -24.91  0.002673669    1.484    0.326
        81 -13.2709    137.6662     95.6938   8.5436802563e+01   3.5865730045e+01    0.6417761    0.4740736  50.54   0.00108482    1.357    0.263
        82 -12.8339    135.7384    103.2560   8.7919769690e+01   3.4764952212e+01    0.7500619    0.4098481  46.37  0.001907384    1.818    0.450
        83 -14.1743    122.8643    102.0451   9.0856040476e+01   3.7720603867e+01     1.219203    0.7723207  31.24  0.005323561    1.920    0.479
        84 -14.3092    106.4688    122.2569   9.9804400604e+01   3.6535519251e+01     1.607902    0.9931672  38.18  0.007628132    1.704    0.413
        85 -14.8827    107.2651    106.0084   9.5957930328e+01   3.9926399864e+01     1.834527     1.170089 -35.25  0.008327497    1.875    0.467
        86 -13.1175     54.8512    247.1419   1.2516382640e+02   2.0209722696e+01    0.8006687    0.3957012  30.94  0.004710863    2.785    0.641
        87 -11.6333    235.9960    248.5089   9.5639361241e+01  -5.5402146154e+00    0.1693842    0.0776345  37.87  0.001045428    1.627    0.386
        88 -13.6830    170.5784    242.7531   1.0545705334e+02   4.6792543305e+00    0.9025692    0.4673389  36.91  0.005489915    1.514    0.340
        89 -12.3427    147.3797    238.9718   1.0896165538e+02   8.6956582142e+00    0.2616272    0.2067119  83.10  0.001075526    1.652    0.395
        90 -15.6078     17.8762    110.8305   1.2206073399e+02   5.0543713793e+01     1.874246     1.364724  49.07   0.01171722    1.469    0.319
        91 -15.5045     26.2273     94.5956   1.1748000326e+02   5.3544596572e+01     1.932168     1.239062  -7.47   0.01064745    2.489    0.598
        92 -10.4720    136.6530    237.3157   1.1062964986e+02   1.0545912084e+01     0.115893    0.0709924  61.30 0.0005271495    1.722    0.419
        93 -13.3687      8.8946    210.8426   1.3092784815e+02   3.1035299367e+01    0.6491376    0.4459477  43.06  0.005203539    1.506    0.336
        94 -11.8969     59.4493    125.6170   1.1277504036e+02   4.2967338929e+01    0.3035678    0.2457204 -11.06 0.0001742584    1.844    0.458
        95 -11.6034    184.5425    124.0358   8.2235003299e+01   2.0032371063e+01    0.2863412     0.253765  75.00 0.0008855146    1.314    0.239
        96 -12.6236    180.6898    121.1153   8.2317163598e+01   2.1394949886e+01    0.5392812    0.3957902 -26.79  0.002646752    1.457    0.314
        97 -14.2300     89.1380    111.6046   1.0216121699e+02   4.1858255665e+01     2.101172     1.437337 -22.33  0.008929661    2.363    0.577
        98 -13.1626     62.0970    102.9587   1.0810140356e+02   4.7792043494e+01     1.328328    0.4696744 -63.25  0.005124235    2.717    0.632
        99 -12.3941     44.8110    110.4171   1.1443274579e+02   4.8140211385e+01    0.5220793    0.3858257 -61.74  0.003194841    1.227    0.185
       100 -12.2877    176.2993    110.7792   8.0675905000e+01   2.4222572883e+01    0.4277655    0.3724811 -11.96  0.002245634    1.224    0.183
       101 -11.6227    222.5803    109.3865   7.1713200935e+01   1.4010405176e+01    0.2790727    0.1749812  48.02  0.001107619    1.612    0.380
       102 -10.5565    154.0029    105.5527   8.4185719187e+01   3.0275062943e+01    0.2309965    0.1465721  49.07 0.0004812263    1.552    0.356
       103 -11.7346    249.3018     99.8663   6.5319842333e+01   9.7137378906e+00     0.228387    0.1587995 -42.38  0.001202198    1.472    0.321
       104 -12.0352    161.6869     97.2090   8.0250252628e+01   3.0088277574e+01    0.4503894    0.2688276  47.47  0.001925157    1.652    0.395
       105 -10.8097    188.4997     96.5075   7.4530140757e+01   2.3865913936e+01    0.1495371    0.1459906   5.32 0.0003129715    1.007    0.007
       106 -14.3294    214.5720     77.8377   6.4945837799e+01   2.0598741469e+01     1.125319    0.8665372  72.37  0.005672547    1.485    0.326
       107 -14.9002    197.4526     71.0686   6.5888477066e+01   2.5807614752e+01     2.121159    0.9484264  36.34  0.006935515    3.293    0.696
       108 -14.1797    188.3089     84.4882   7.1299188323e+01   2.5924641740e+01     1.432998    0.5512591  45.98   0.00445928    2.682    0.627
       109 -15.4591    166.1271     78.8005   7.4089629090e+01   3.2346968138e+01     2.967222      1.04239  42.42  0.008969877    3.409    0.707
       110 -13.7257    164.3457     71.5900   7.2312860152e+01   3.4032176065e+01     1.074619    0.4686775  42.11  0.003719565    2.597    0.615
       111 -14.1227    133.1122     81.6580   8.2585057655e+01   3.9652694225e+01     1.243478    0.9359679  22.36  0.004471406    1.633    0.388
       112 -12.4678    136.4463     49.8807   7.1474144618e+01   4.4582643422e+01    0.3978132    0.3026412  38.28 0.0009858372    1.350    0.259
       113 -13.9169    132.2472     66.3435   7.8053714676e+01   4.2744933749e+01      1.34362    0.9388445  47.87  0.006277026    1.435    0.303
       114 -12.9843    237.0491    230.1756   9.2841207754e+01  -3.9989953651e+00    0.3803677    0.2665559  58.59  0.002359655    2.518    0.603
       115 -10.1114     46.6465    232.6732   1.2567525807e+02   2.3427556127e+01   0.08267849   0.08124962  -2.18 0.0007046933    1.768    0.434
       116 -14.2387    157.5310     44.2086   6.4934984154e+01   4.0129528058e+01     1.447572    0.7505303  42.53  0.005676597    2.077    0.518
       117 -10.8249    160.3089    230.3301   1.0570662421e+02   7.8321197342e+00    0.1118144   0.07969531  19.22 0.0005613741    1.665    0.399
       118 -12.9077     57.2774    202.3208   1.2174534779e+02   2.7388192342e+01    0.9758327    0.2959508 -67.35  0.004637554    3.251    0.692
       119 -13.3817     66.4729    223.1666   1.2166117666e+02   2.2605299405e+01    0.7481808    0.4667172  39.90  0.005088135    1.543    0.352
       120 -14.0415     62.8787    214.8261   1.2167807625e+02   2.4472959347e+01    0.9863529    0.3974692  45.61  0.005538474    1.916    0.478
       121 -12.1491    144.6819    232.4895   1.0869795938e+02   9.9821787470e+00    0.2299394    0.1180021 -53.81  0.001335618    2.574    0.612
       122 -11.6386     89.4067     87.2077   9.6300624727e+01   4.7233716863e+01     0.404223    0.2945964  57.53  0.001728818    1.552    0.356
       123 -13.5625    238.9661     81.5836   6.2304141854e+01   1.4437063151e+01      0.83375     0.548543 -86.84  0.003731391    2.425    0.588
       124 -10.6636     98.2140     83.9283   9.2798346587e+01   4.6377101244e+01    0.2203353    0.1920904 -82.57  0.000561308    1.269    0.212
       125 -13.4228     95.9208    218.9832   1.1601733901e+02   1.9339637090e+01    0.5616225    0.2541125  42.26  0.003101048    1.801    0.445
       126 -13.1867     38.9441     67.8358   1.0804167632e+02   5.8429482383e+01    0.8688203    0.4218383  25.92  0.004271599    2.501    0.600
       127 -13.9128     91.2588     57.9075   8.6877448851e+01   5.3008306891e+01     1.393652     0.942665  84.09  0.005683176    2.937    0.659
       128 -13.6387     78.9514     71.8083   9.5277735360e+01   5.2305772493e+01    0.9714615    0.6502997  -6.25  0.004279053    2.517    0.603
       129 -13.6812     87.3216     65.6336   9.0686520868e+01   5.2179995550e+01    0.6146492    0.5216855 -40.96  0.001308676    1.102    0.093
       130 -12.0740    114.0160     80.3384   8.7252197227e+01   4.4040046578e+01    0.4379216    0.3541926 -46.77  0.001334001    1.208    0.172
       131 -12.0828     42.0127     77.2477   1.0913184915e+02   5.6009312737e+01    0.3592727    0.2387577 -61.83  0.001131205    1.280    0.219
       132 -11.3420     85.3505    215.9870   1.1767515711e+02   2.1319877283e+01    0.2912365    0.1433763  50.27  0.001695189    1.597    0.374
       133 -11.2268     23.1788     75.1275   1.1519714662e+02   5.8205085897e+01    0.1905537     0.136308 -51.45 0.0006681325    1.261    0.207
       134 -12.1280    241.4012     71.5740   5.9453686945e+01   1.5268136230e+01    0.4835254    0.2832317 -69.70  0.001966032    2.822    0.646
       135 -12.2265    158.2599     63.9785   7.1246139135e+01   3.6840201113e+01    0.4881459    0.3098255 -48.52  0.001580211    1.704    0.413
       136 -11.6648     90.8957     80.4620   9.4011567570e+01   4.8436886051e+01     0.441452    0.3626922 -19.72  0.002277545    1.421    0.296
       137 -14.3628    178.0041     57.6250   6.5354212234e+01   3.2814811322e+01    0.9654817    0.7044068 -47.30  0.002356213    1.421    0.296
       138 -12.4392     71.8613     75.2374   9.8570078610e+01   5.2669396357e+01    0.3432198     0.286605   5.30  0.001023953    1.455    0.313
       139 -12.5340     39.4548     60.4522   1.0598525856e+02   5.9999690719e+01    0.3410368    0.3282038 -65.71  0.002315476    1.147    0.128
       140 -13.7924     79.4670     60.4212   9.1577432694e+01   5.4595865674e+01    0.8914062    0.5569398 -32.60  0.003855998    1.705    0.414
       141 -12.6959     24.4655     59.8901   1.1156517566e+02   6.1493784752e+01    0.3531231    0.2046719 -55.55  0.001063116    1.375    0.273
       142 -12.7401    248.1948     52.1411   5.3727122783e+01   1.6284500125e+01    0.6757264    0.4258298 -26.23  0.003422911    1.483    0.326
       143 -11.8884    230.4147     55.5720   5.6731142027e+01   1.9951025804e+01      0.44882    0.2679849  67.59  0.002088201    1.830    0.454
       144 -11.0363     36.7016     54.0685   1.0530284989e+02   6.1656206422e+01    0.1870361    0.1391445 -53.45  0.001147245    1.124    0.110
       145 -10.7771     23.3496     50.0407   1.0958532723e+02   6.3718169142e+01    0.1754499    0.1278964 -56.54 0.0004937833    1.110    0.099
       146 -12.3702    201.7168     46.2299   5.8041366857e+01   2.8318470280e+01    0.4416213    0.3181745 -86.10  0.002085266    1.645    0.392
       147 -10.4932    200.6677    215.6849   9.6659247670e+01   3.1915886098e+00    0.1225081    0.0779645  18.32 0.0007046232    1.684    0.406
       148 -10.9727    154.5703    214.7716   1.0474161474e+02   1.0908398531e+01    0.1440484    0.1155466 -74.22 0.0009471925    1.667    0.400
       149 -11.8373    185.4428    213.7224   9.9027212667e+01   5.9407109335e+00    0.1948394    0.1186529 -46.18  0.001137312    2.138    0.532
       150 -11.0098    157.4108    213.2612   1.0401912240e+02   1.0659117559e+01    0.1465098    0.1166108 -69.35 0.0009559666    1.680    0.405
       151 -11.2953    136.7742    211.4174   1.0760129069e+02   1.4315845216e+01    0.1910793    0.1695024 -70.80  0.000938712    1.354    0.262
       152 -11.3579    248.4488    224.9879   9.0266536485e+01  -5.1507290355e+00    0.1844616     0.132564  44.02  0.001289997    1.637    0.389
       153 -12.4725     45.4937    208.8023   1.2439780828e+02   2.7616055160e+01    0.3604767    0.1855057  72.88   0.00200761    1.777    0.437
       154 -13.4142    205.5929     40.3176   5.5773617350e+01   2.8101429897e+01    0.7336177    0.4590484 -80.73  0.002601684    2.090    0.522
       155 -11.1010     25.4897     43.4770   1.0686260663e+02   6.4930155848e+01    0.2540764   0.09990248 -58.40 0.0007928052    2.090    0.522
       156 -11.1902     80.6057    208.4155   1.1786673579e+02   2.3272464880e+01    0.2487812    0.1530832  67.51 0.0009788086    1.495    0.331
       157 -13.1594     75.8842     37.4296   8.4462941453e+01   5.9590532015e+01    0.4173059    0.3584087  57.91 0.0007845727    1.435    0.303
       158 -12.4219     70.5471     36.5116   8.6027095081e+01   6.0659940594e+01    0.3173887    0.2871115  13.18  0.000951611    1.132    0.117
       159 -11.7723    181.6166     40.9270   5.9527598276e+01   3.4273458866e+01    0.4195524    0.2241589  85.57  0.001486729    2.860    0.650
       160 -12.6712     45.9572     34.0182   9.4810270842e+01   6.4692404814e+01    0.6083756    0.3227609 -33.01  0.003018448    1.894    0.472
       161 -13.1631     55.7455     27.4686   8.8014930767e+01   6.4560741703e+01    0.5339195    0.3471857  37.89  0.001627317    1.700    0.412
       162 -11.4134     64.9341     24.7840   8.3159538585e+01   6.3587325577e+01    0.3766541    0.2446102   7.26  0.001874819    2.013    0.503
       163 -12.2598     35.9773     35.9235   9.9838446127e+01   6.5471243417e+01      0.52815    0.2253004 -37.11  0.002386372    2.382    0.580
       164 -12.9836    242.6398     35.4706   5.0092028843e+01   1.9596934425e+01    0.6944613    0.4554839  63.73  0.002579105    1.605    0.377
       165 -11.1955    150.4845    206.8734   1.0443415359e+02   1.2759284947e+01    0.3470548    0.1473819  38.93  0.001641592    2.049    0.512
       166 -11.0388     91.0137     34.0009   7.7950473420e+01   5.7340190491e+01    0.2827687    0.2717551 -23.76  0.001705634    1.114    0.102
       167 -10.8233     89.1414     30.2971   7.7006351955e+01   5.8302702766e+01    0.2500457    0.1817692 -29.44 0.0002277815    1.309    0.236
       168 -11.7045     97.7461     26.9165   7.2903422002e+01   5.7038940745e+01    0.3192503    0.2605432  67.12  0.001157951    1.486    0.327
       169 -14.0182      2.3955     97.0735   1.2494367919e+02   5.4674042001e+01     1.282154     0.304326 -78.02  0.004824489    3.699    0.730
       170 -11.1835     75.5812     23.3234   7.8545390557e+01   6.1971018641e+01    0.2961921    0.1553928  44.68  0.001128509    1.981    0.495
       171 -12.6114     41.5108    200.9981   1.2460313569e+02   2.9478571758e+01    0.2265049    0.1455655  77.00  0.001392249    1.283    0.221
       172 -12.9187     40.4928    195.1685   1.2439216553e+02   3.0672968405e+01     0.499802    0.2795213  59.86  0.002892106    1.439    0.305
       173 -13.3434     22.3323    181.2275   1.2696856640e+02   3.5230148965e+01     0.453935     0.356608  83.92  0.001945497    1.130    0.115
       174 -10.7596    140.0104     10.5433   5.6152967894e+01   4.8909642441e+01    0.2246232    0.1362538  65.24 0.0005661745    1.585    0.369
       175 -10.5868    212.4740    200.4957   9.2211954094e+01   3.0994740659e+00    0.1245357   0.09815922  23.73 7.388723e-05    1.044    0.042
       176 -12.7325    164.1805    195.0012   1.0011248072e+02   1.2227259921e+01    0.4817444    0.3092515 -67.80  0.002460922    2.543    0.607
       177 -12.5928    201.2097    191.9174   9.2748342407e+01   6.1392293838e+00    0.3878462    0.3042463   5.31  0.001817733    1.319    0.242
       178 -10.4653    107.5123    192.9928   1.1097530816e+02   2.2082529028e+01    0.1693756    0.1190389 -62.31  0.001029985    1.595    0.373
       179 -10.9005     80.0635    193.1013   1.1648496340e+02   2.6116103664e+01    0.3431685   0.09932236  47.66  0.001447329    2.846    0.649
       180 -11.8333     98.8455    187.0403   1.1200458600e+02   2.4511840635e+01     0.346957     0.249864   0.72  0.001742863    2.955    0.662
       181 -12.0452     48.7853    181.3199   1.2168627391e+02   3.2389245311e+01     0.412962    0.2601829 -61.98  0.002505661    1.741    0.426
       182 -12.7664    198.6534    181.6694   9.1419643297e+01   8.0111666697e+00    0.3046148    0.2893125 -74.63   0.00176729    1.407    0.289
