#   1 NUMBER                 Running object number                                     
#   2 MAG_AUTO               Kron-like elliptical aperture magnitude                    [mag]
#   3 X_IMAGE                Object position along x                                    [pixel]
#   4 Y_IMAGE                Object position along y                                    [pixel]
#   5 X_WORLD                Barycenter position along world x axis                     [deg]
#   6 Y_WORLD                Barycenter position along world y axis                     [deg]
#   7 A_WORLD                Profile RMS along major axis (world units)                 [deg]
#   8 B_WORLD                Profile RMS along minor axis (world units)                 [deg]
#   9 THETA_WORLD            Position angle (CCW/world-x)                               [deg]
#  10 FWHM_WORLD             FWHM assuming a gaussian core                              [deg]
#  11 ELONGATION             A_IMAGE/B_IMAGE                                           
#  12 ELLIPTICITY            1 - B_IMAGE/A_IMAGE                                       
         1 -16.4267    218.5060    124.6687   2.9013014981e+02   4.9924480423e+00    0.3634093    0.1358643  16.23   0.02166739    4.915    0.797
         2 -17.1103    188.2605     80.6444   2.9020650620e+02   5.6810813413e+00     0.231101    0.1402142 -80.13   0.02126287    2.200    0.546
         3 -15.7450    244.6442     69.9082   2.8947997798e+02   5.4506960905e+00   0.08650918   0.05019034  77.30  0.006897622    3.125    0.680
         4 -15.9108    212.6029     48.3380   2.8971832661e+02   5.8956942739e+00    0.0938383   0.04463361 -46.36  0.008173137    2.181    0.542
         5 -18.7098    223.2943     79.7511   2.8979138929e+02   5.4724618843e+00    0.3929718    0.3101923 -24.68   0.04382579    1.403    0.287
         6 -15.4985    194.3441     40.9897   2.8988548050e+02   6.0931315523e+00    0.1112113   0.08593751  17.65  0.008883667    1.329    0.248
         7 -15.1070    192.0599     28.7405   2.8983494907e+02   6.2463446909e+00   0.08551433   0.06375211 -35.65  0.008284555    1.439    0.305
         8 -10.7580     41.3492     20.4257   2.9154845856e+02   7.2788883063e+00   0.02002885   0.01272388  79.39 0.0005180726    2.392    0.582
         9 -10.8072    248.1440     16.4272   2.8910169292e+02   6.0351902941e+00   0.01778718   0.01301224 -60.03  0.001486131    1.391    0.281
        10 -10.0390    169.5263     12.9528   2.8999903498e+02   6.5661126007e+00   0.01829072  0.008391111 -39.45  0.001455831    2.685    0.628
        11 -10.8672    122.2221     15.4332   2.9056869283e+02   6.8329535635e+00   0.02005968   0.01303512  85.73  0.001862132    2.232    0.552
        12 -10.6984    140.0122     13.1598   2.9034593871e+02   6.7478874689e+00   0.02139318  0.009682737  41.33  0.001277712    2.220    0.549
        13 -10.4907     94.8016     11.8674   2.9086762602e+02   7.0440770409e+00   0.01362747  0.008290054 -48.07 0.0008265359    1.659    0.397
        14 -10.8816    232.3785      6.9708   2.8922616645e+02   6.2410387215e+00   0.01135522  0.009318841  33.40 0.0003751657    1.191    0.160
        15 -12.6552    238.2654     10.5309   2.8917985960e+02   6.1638485279e+00   0.01916416   0.01495576 -14.08 0.0007537314    1.471    0.320
        16 -10.5445    233.1404     10.8376   2.8924167871e+02   6.1924503602e+00   0.01110221   0.01003748 -14.20 0.0002456451    1.150    0.130
        17  -9.3106    182.2036     11.8763   2.8984387337e+02   6.4991572125e+00  0.008966498  0.007472685 -29.88 0.0003491006    1.270    0.213
        18  -9.5249    220.9961      8.5069   2.8936889791e+02   6.2948549029e+00   0.02445471    0.0111206  19.08  0.001937316    2.678    0.627
        19 -11.0333    143.0726      8.3992   2.9028007104e+02   6.7828010729e+00     0.015019   0.01360675 -36.29  0.001230361    1.122    0.108
        20 -12.4325    201.5350      6.7373   2.8958528326e+02   6.4366191270e+00   0.01804458   0.01331945  10.63 0.0003322267    1.483    0.326
        21  -9.8657    130.5033      6.9528   2.9041819955e+02   6.8775573433e+00   0.01036573  0.006502054 -58.01 0.0008883381    1.599    0.375
        22  -9.5994    178.1336      5.3561   2.8985036080e+02   6.5985043981e+00  0.009617052  0.008515734 -57.67 0.0004451275    1.148    0.129
        23  -9.6490    180.1803      1.7724   2.8980379032e+02   6.6263482576e+00   0.01281124  0.009073398 -39.27    0.0005389    1.498    0.332
        24 -11.6923    213.8168      4.6613   2.8942855113e+02   6.3833479654e+00   0.01143241   0.01079571 -26.93 0.0003028352    1.071    0.067
        25  -9.4850    189.1349      3.8810   2.8971231454e+02   6.5464989986e+00  0.009329744  0.007835902 -21.51  0.001063162    1.284    0.221
        26  -9.3813    171.2074      4.2081   2.8992418426e+02   6.6547730408e+00  0.008576448  0.007415398  57.87 0.0002846732    1.237    0.191
        27 -10.2070    152.0151      2.2408   2.9013648866e+02   6.7968635002e+00   0.01159969  0.009838615 -61.23 0.0006903918    1.207    0.171
        28 -10.1193     51.1400      2.9551   2.9132363545e+02   7.4164242901e+00  0.009606403  0.009579997   1.42 0.0003926847    1.027    0.026
        29  -9.0528    238.6503    184.7266   2.9027258030e+02   4.1847079353e+00  0.006906509  0.005056088 -18.08 0.0004218033    1.632    0.387
        30 -10.0778    228.4994    250.4984   2.9080376239e+02   3.5009388060e+00  0.006623373  0.006461021   2.83 0.0008106721    1.011    0.011
        31 -10.0512    205.0447    250.0162   2.9107436024e+02   3.6524239383e+00  0.009909729  0.009721443  -0.39 0.0003678768    1.009    0.009
        32  -9.9271    182.3269    249.7406   2.9133776374e+02   3.7969073919e+00   0.01165308   0.01011374  64.82  0.000934783    1.260    0.206
        33 -10.3528    165.4252    249.5482   2.9153387227e+02   3.9042085741e+00   0.01554138  0.009753971  57.07  0.001476256    1.960    0.490
        34  -9.3734    124.6287    250.2158   2.9201449136e+02   4.1501322997e+00  0.009239329    0.0060012 -50.68 0.0004806887    1.537    0.350
        35 -10.0074    153.9160    217.2152   2.9146582324e+02   4.3432937004e+00   0.01344088   0.00777883 -35.89  0.001228133    2.042    0.510
        36  -9.3324    140.9988    218.0194   2.9162178019e+02   4.4144661455e+00  0.008128601  0.007635748 -56.03 0.0004031989    1.083    0.076
        37 -11.0579     60.2611    215.4906   2.9254978990e+02   4.9443788628e+00   0.02015966   0.01663159  29.41  0.002327393    1.186    0.157
        38 -10.7278    123.7339    216.2376   2.9181238323e+02   4.5420197907e+00   0.01263918   0.01132519  -8.89 0.0006607858    1.164    0.141
        39  -9.4239    235.0646    215.1890   2.9050570583e+02   3.8610840278e+00  0.009244055  0.005119108  26.54 0.0005233027    1.796    0.443
        40  -9.8981    186.3761    215.1724   2.9107388722e+02   4.1645400607e+00   0.01111111  0.007730533  34.78 0.0006416463    1.396    0.284
        41  -9.5328    225.5564    214.4660   2.9061210512e+02   3.9285461920e+00  0.006570478  0.006458892  16.32 0.0001020131    1.009    0.009
        42  -9.4233      2.7946    214.1423   2.9321351639e+02   5.3153449532e+00  0.009458627  0.007817673 -18.48  0.001066665    1.323    0.244
        43 -10.6790     89.8519    211.1594   2.9217669211e+02   4.8101453843e+00   0.01208544   0.01046302   0.89 0.0003126166    1.214    0.176
        44 -10.4140     86.8678    208.1209   2.9219258053e+02   4.8632183786e+00   0.01080606  0.009817499  81.41 0.0002632585    1.198    0.165
        45 -10.1904    237.5680    206.8883   2.9042439391e+02   3.9397581778e+00    0.0136425  0.009215905  37.51  0.000793659    1.448    0.309
        46 -10.0279    153.3079    206.8944   2.9140826044e+02   4.4643969524e+00   0.01075681  0.008696237  85.05 0.0008216836    1.454    0.312
        47  -9.8667    124.0025    205.9609   2.9174490305e+02   4.6572000264e+00  0.009497233   0.00920768  26.16            0    1.018    0.017
        48 -10.0853     99.8675    204.8041   2.9201982231e+02   4.8202572439e+00  0.009396087  0.007626491  56.31 0.0006334467    1.336    0.252
        49  -9.8538    194.5451    204.0087   2.9090848071e+02   4.2405358648e+00   0.01023585  0.006561781 -60.25  0.001026405    1.583    0.368
        50  -9.0379     80.2927    204.2887   2.9224550249e+02   4.9475942879e+00  0.006748363  0.005023497 -23.90 0.0002001704    1.546    0.353
        51  -9.3748     39.2040    204.2147   2.9272564349e+02   5.2030777712e+00  0.008996295  0.007611455  60.13 0.0004489073    1.285    0.222
        52  -9.4925    244.4177    202.7231   2.9031833202e+02   3.9443608172e+00  0.009542255  0.005993275 -48.73 0.0009447717    1.601    0.375
        53 -10.3532    191.3147    201.8004   2.9093235092e+02   4.2857463427e+00   0.01034198  0.008427244  83.99 0.0006970884    1.437    0.304
        54  -9.4074    250.6752    200.2619   2.9022988469e+02   3.9332921527e+00  0.009045446  0.005887648 -52.17 0.0004731305    1.529    0.346
        55 -11.2519     68.3425    198.9978   2.9235218302e+02   5.0818831693e+00   0.01865335   0.01219241 -48.87  0.001914389    1.537    0.349
        56 -11.2903    214.5707    197.2155   2.9063204766e+02   4.1929651180e+00   0.02149863   0.01370233  52.83  0.002108058    1.799    0.444
        57 -11.5051    149.2828    196.1901   2.9138820691e+02   4.6111167865e+00   0.01509529   0.01227907 -77.40  0.001080667    1.356    0.262
        58 -10.8086    143.9995    195.9984   2.9144875245e+02   4.6461559634e+00   0.01323241  0.009410678 -61.61 0.0007659505    1.440    0.305
        59 -10.3358    141.4662    193.4800   2.9146257798e+02   4.6905409728e+00   0.01188365  0.007799627  49.62 0.0007519317    1.659    0.397
        60  -9.0609     76.3440    197.3193   2.9224809282e+02   5.0513534737e+00  0.007146083  0.005003088 -23.13 0.0004713203    1.723    0.420
        61 -10.5327    166.0963    195.8984   2.9118990577e+02   4.5098208545e+00   0.01271684   0.01090368  29.83 0.0008940023    1.141    0.124
        62 -11.7530    156.3310    195.1308   2.9129919796e+02   4.5793112402e+00   0.01975889   0.01624815  30.44   0.00212421    1.188    0.159
        63 -10.2081    117.6600    195.1845   2.9175156112e+02   4.8191415454e+00   0.01427501  0.007504137 -45.31 0.0008282014    1.986    0.496
        64 -11.3082    117.4842    189.3005   2.9171675832e+02   4.8871374686e+00   0.03075572   0.01575059 -77.35  0.001654851    2.883    0.653
        65  -9.9766    100.0019    196.5194   2.9196639732e+02   4.9136371700e+00  0.009849668   0.00645184  28.59 -0.0001532362    1.492    0.330
        66  -9.0557     23.6903    196.2840   2.9285762004e+02   5.3893146193e+00  0.006797438   0.00499909  59.36 0.0001968265    1.570    0.363
        67  -9.6913    249.4891    194.8296   2.9020959667e+02   4.0023769938e+00    0.0131011  0.008791126  27.27  0.001353162    1.466    0.318
        68 -10.4762    106.6720    194.1990   2.9187387027e+02   4.8986042240e+00   0.01261446  0.009333784 -64.34 0.0006920107    1.404    0.288
        69 -10.2427    106.5084    190.5399   2.9185286968e+02   4.9412303938e+00   0.01229936   0.01008812  28.07 0.0008589916    1.194    0.163
        70 -10.8121    217.4383    193.7321   2.9057670543e+02   4.2146664785e+00   0.01127269  0.009790794  60.77 0.0003148727    1.242    0.195
        71 -12.0206    214.6814    186.0387   2.9056058075e+02   4.3192482974e+00   0.02308881   0.01712504 -20.77  0.001808583    1.578    0.366
        72 -11.5949    193.8722    183.6511   2.9078858591e+02   4.4760485512e+00   0.02163575   0.01383387  70.17  0.001668141    2.244    0.554
        73 -12.5415    202.1388    192.6611   2.9074860300e+02   4.3221715792e+00   0.03759499   0.02449721  85.84  0.003512885    2.213    0.548
        74 -11.6221    207.9626    190.7231   2.9066843629e+02   4.3079034860e+00   0.02286862   0.01652781 -35.92 0.0009088656    1.495    0.331
        75  -9.4470    129.8722    192.2063   2.9159012524e+02   4.7771075092e+00  0.009782915   0.00858272  61.69 0.0005873807    1.228    0.186
        76  -9.6560     48.1672    192.0324   2.9254466038e+02   5.2861478225e+00    0.0119237  0.007033039 -34.83  0.001095712    2.017    0.504
        77 -10.8679    226.2937    189.6213   2.9044752958e+02   4.2061641346e+00   0.01704583   0.01082469 -78.29  0.001387639    1.974    0.493
        78  -9.7291     90.8145    191.1623   2.9204031220e+02   5.0315928246e+00   0.00899831  0.007557969 -21.07 0.0002633411    1.284    0.221
        79 -11.1757    143.8761    189.5582   2.9140982563e+02   4.7201369969e+00   0.01545717   0.01038365 -74.99  0.001555446    1.735    0.424
        80 -10.9955    231.1438    187.6692   2.9037866307e+02   4.1980975844e+00   0.01480272   0.01275971 -74.43 0.0008324037    1.241    0.194
        81  -9.3198     23.4754    189.0011   2.9281464946e+02   5.4734949625e+00  0.009923863  0.006615056 -61.91  0.001013251    1.537    0.349
        82 -10.1176     81.8450    187.8363   2.9212441165e+02   5.1250810778e+00   0.01001021  0.008839654 -21.41 0.0004743701    1.186    0.157
        83  -9.9856     75.8779    186.1274   2.9218352254e+02   5.1815351258e+00  0.009449613  0.007873202 -18.33 0.0005862588    1.306    0.235
        84 -10.6643    132.2788    247.0187   2.9190513839e+02   4.1389647502e+00   0.01242717   0.00953289  29.81 0.0002942064    1.272    0.214
        85 -10.9563    215.1171    244.1905   2.9092033093e+02   3.6559076276e+00   0.01683923   0.01169508  45.26 0.0009263342    1.484    0.326
        86 -15.7053    240.0755     55.8977   2.8944499214e+02   5.6381888120e+00   0.05670832   0.04433829  47.79  0.005243823    1.326    0.246
        87 -10.7277    225.9537    241.6220   2.9077780880e+02   3.6176102758e+00   0.01264444   0.01080816 -32.19 0.0007364328    1.218    0.179
        88 -15.6352    213.1628     62.2477   2.8979947551e+02   5.7343851349e+00   0.07447449   0.04280307  -9.33  0.006013654    2.940    0.660
        89  -9.1251    131.4649    242.4283   2.9188593512e+02   4.1962095316e+00  0.006624559  0.006377701  -2.10  0.000218678    1.034    0.033
        90  -9.6359     66.0384    242.4966   2.9265089330e+02   4.6013977292e+00  0.009868914  0.006467247  28.05 0.0003589639    1.495    0.331
        91 -10.6882    150.5611    171.4429   2.9121806975e+02   4.8844728457e+00   0.01401974  0.009116162  71.54    0.0010137    2.183    0.542
        92 -11.0714    198.5386    182.6726   2.9072794192e+02   4.4580935090e+00   0.01221966  0.009061743 -38.98 0.0007281848    1.418    0.295
        93 -11.4063     81.1491    170.9906   2.9202709023e+02   5.3209791419e+00   0.02116734   0.01272494  14.96  0.001432163    1.907    0.476
        94 -10.8774    136.9856    175.9934   2.9140532738e+02   4.9171993650e+00  0.009907827  0.009752212 -21.42 0.0003115016    1.020    0.020
        95 -15.0813    202.6553     84.0959   2.9005995139e+02   5.5520496948e+00   0.02982763   0.02776258  56.17  0.002277559    1.116    0.104
        96 -11.4475    212.1723    166.7299   2.9046859061e+02   4.5542387017e+00   0.01644037   0.01124656  61.59   0.00145996    1.801    0.445
        97  -9.5617     83.1974    182.2415   2.9207357084e+02   5.1803188707e+00  0.009121201  0.007682702  60.25 0.0005814519    1.295    0.228
        98  -9.4463     16.8992    181.8033   2.9284665429e+02   5.5960586168e+00  0.009124349  0.007476354  53.63 0.0004000117    1.300    0.231
        99 -10.3530     56.1897    165.2043   2.9228296754e+02   5.5415847007e+00   0.01813192    0.0101154 -76.61  0.001579106    2.381    0.580
       100 -10.0285    242.7657    165.9283   2.9010641462e+02   4.3725155638e+00   0.01744345  0.009800711  23.26  0.001631167    1.841    0.457
       101 -11.3755    151.1402    165.5620   2.9117439730e+02   4.9477153440e+00   0.01366586   0.01210925  21.66  0.001626656    1.115    0.103
       102 -10.3921    110.5371    184.2150   2.9176613815e+02   4.9881255446e+00   0.01303178   0.01230661  14.24 0.0008997075    1.046    0.044
       103  -9.4088     96.1517    166.1736   2.9182137400e+02   5.2826230694e+00  0.009057024  0.007674737  60.26 0.0003902242    1.284    0.221
       104 -10.1364    140.0551    165.5159   2.9130371769e+02   5.0172130885e+00   0.01012878  0.006469293  28.08 0.0004229617    1.534    0.348
       105 -10.7084    236.4817    164.1809   2.9016876744e+02   4.4315689544e+00   0.01890636  0.005168806 -54.76  0.001311158    3.288    0.696
       106 -10.9677    127.4002    163.2828   2.9143770282e+02   5.1213080489e+00   0.01485115  0.008382057  39.13  0.001411424    1.738    0.425
       107  -9.5577     90.0388    163.2759   2.9187474335e+02   5.3535297365e+00  0.009089464  0.008423779  27.04 0.0002497527    1.058    0.055
       108 -11.3179    129.2611    179.6348   2.9151847708e+02   4.9238361127e+00   0.01171409   0.01008874  57.88  0.000554724    1.243    0.196
       109 -11.1236    157.4773    161.5251   2.9107497467e+02   4.9541530144e+00   0.01366295   0.01055201  56.18 0.0009872036    1.429    0.300
       110 -10.7475    154.1747    161.1088   2.9111097149e+02   4.9794430872e+00   0.01177933  0.009905231 -67.41  0.000485469    1.243    0.196
       111  -9.7817    243.9088    161.1736   2.9006318201e+02   4.4193746462e+00   0.01377505  0.008135846  32.20 0.0008742539    1.630    0.387
       112  -9.9888    140.9796    179.4909   2.9138056445e+02   4.8525988001e+00   0.01011528  0.006478225  27.83 0.0003664286    1.532    0.347
       113 -12.1131    127.1406    157.9516   2.9140729843e+02   5.1835284818e+00   0.01779027   0.01067237  35.61  0.001753774    1.609    0.379
       114  -9.1056     56.7566    241.9547   2.9275600343e+02   4.6650693198e+00  0.008471771  0.005617659 -59.05 0.0004965212    1.520    0.342
       115 -11.7077    121.8210    153.2649   2.9144012271e+02   5.2698850877e+00   0.01204563   0.01085437 -20.38 0.0002262899    1.151    0.131
       116  -9.8169     16.1290    156.1284   2.9269520881e+02   5.8928790127e+00   0.01077237  0.009049476 -25.59 0.0008109774    1.270    0.212
       117 -10.8034     77.0718    154.6048   2.9197216677e+02   5.5326177781e+00    0.0110261  0.009132593 -78.32  0.001252829    1.327    0.247
       118 -10.5356     43.4649    152.0207   2.9234941740e+02   5.7703770398e+00  0.009815023  0.008795585  24.37 0.0003226626    1.097    0.088
       119 -10.1480     38.7671    152.0054   2.9240432780e+02   5.7996501196e+00   0.01105866  0.007540014  71.75 0.0009261457    1.971    0.493
       120 -10.6836    235.1402    177.4575   2.9026786873e+02   4.2891561691e+00   0.01552288   0.01076675  41.77 0.0009709887    1.445    0.308
       121 -10.7461     14.8363    149.5632   2.9266929173e+02   5.9755489392e+00   0.01084833  0.008097251 -69.08 0.0005644612    1.434    0.303
       122 -10.9925    241.1499    148.6366   2.9001653711e+02   4.5789520867e+00   0.01565514  0.008935671 -34.05 0.0007595358    2.157    0.536
       123 -10.3983    243.2664    144.6365   2.8996667379e+02   4.6111586769e+00   0.01834061    0.0151489  77.76  0.001628591    1.404    0.288
       124  -9.8617    120.4811    149.4869   2.9143209601e+02   5.3211644312e+00   0.00660724   0.00647299  20.54 -2.982219e-07    1.010    0.010
       125 -11.7651    147.7050    177.0488   2.9128662392e+02   4.8385221335e+00   0.02289287   0.01335202  47.18  0.002172405    1.852    0.460
       126  -9.3914    249.6824    154.0222   2.8995083467e+02   4.4645401803e+00  0.008673614  0.008583768  85.66 0.0005187641    1.046    0.044
       127 -11.3036    246.6360    141.1784   2.8990559023e+02   4.6293839369e+00   0.02905339    0.0111444 -51.20  0.002322641    2.523    0.604
       128 -10.3426    249.6678    136.6933   2.8984198621e+02   4.6613712060e+00   0.01679095  0.008892226 -51.91  0.001556659    1.861    0.463
       129  -9.3164     58.5231    138.4901   2.9208835372e+02   5.8309184324e+00  0.006677922  0.006395147 -12.71 2.386235e-05    1.048    0.046
       130 -10.7004    121.9456    137.3541   2.9133881992e+02   5.4499745465e+00  0.009424693  0.008290948  21.32 0.0003987872    1.124    0.111
       131 -10.7475    109.8842    135.6342   2.9146916906e+02   5.5445160318e+00   0.01169217  0.008748544 -46.97 0.0004470548    1.351    0.260
       132 -10.2207     32.5257    135.8764   2.9237645427e+02   6.0217304201e+00   0.01252572  0.009865403 -22.26 0.0006999461    1.417    0.295
       133  -9.5731    249.2493    129.9223   2.8980425792e+02   4.7408518372e+00  0.008850495  0.008242887 -32.22 0.0002041012    1.088    0.081
       134 -11.5941    120.8001    127.3180   2.9128921694e+02   5.5711708081e+00   0.01501897  0.008915471 -49.98  0.001466007    1.682    0.405
       135 -10.5662     95.5389    127.8437   2.9158819505e+02   5.7222187708e+00   0.01429868  0.007824617  44.78  0.001227212    1.920    0.479
       136  -9.7666     64.2960    185.3454   2.9231413329e+02   5.2622549248e+00  0.007075055    0.0049468 -27.84  0.000703298    1.670    0.401
       137 -10.5318     41.9702    126.1079   2.9220464076e+02   6.0743103382e+00  0.009852455  0.009629191   7.65 0.0003359444    1.004    0.004
       138 -12.8875    122.0206    119.4882   2.9122576217e+02   5.6525658852e+00   0.02590289   0.01895622  15.39  0.001882344    1.445    0.308
       139 -11.9942     97.6576    117.5854   2.9149900644e+02   5.8256609513e+00   0.02448046   0.01212583  34.36  0.002211543    1.918    0.479
       140 -10.1277     45.2558    120.9847   2.9213404645e+02   6.1122019799e+00   0.01367343  0.008006805  27.55 0.0007361108    1.679    0.404
       141 -11.8049    103.8465    117.5096   2.9142607253e+02   5.7880607600e+00   0.02398278  0.009632744 -56.62  0.001964764    2.396    0.583
       142 -10.4038    113.0000    119.9303   2.9133411947e+02   5.7036431690e+00   0.01115958   0.00381107 -61.11 0.0008079221    2.981    0.664
       143  -9.7402     29.4493    119.4862   2.9230984224e+02   6.2271511567e+00  0.006597164  0.006443845  -4.86 6.856259e-05    1.015    0.015
       144 -11.2935     52.5831    113.5618   2.9200167199e+02   6.1511742521e+00   0.02153129   0.01170687  43.34  0.000131429    1.893    0.472
       145 -12.4160    125.7927    110.1970   2.9112324465e+02   5.7346834395e+00   0.02190151   0.01495911  64.91  0.002176199    1.866    0.464
       146 -10.3817     38.5672    110.7652   2.9214835455e+02   6.2698320766e+00   0.01254978  0.009899261 -14.71 0.0006898534    1.437    0.304
       147 -11.5166     99.0946    106.5749   2.9141304653e+02   5.9418702926e+00   0.01888906   0.01458088   5.25  0.001587721    1.430    0.301
       148 -10.3402     29.1012    107.0532   2.9223601540e+02   6.3706601957e+00   0.01717769   0.01190459  62.85   0.00163929    1.783    0.439
       149 -11.9902    114.8224     99.9015   2.9118696891e+02   5.9199176446e+00   0.02329936   0.01147188 -45.87  0.001587558    2.116    0.527
       150 -12.1791    122.6768     99.6370   2.9109335309e+02   5.8740598071e+00   0.01944222   0.01359506 -88.82  0.001562238    1.850    0.459
       151  -9.0510     11.3031    114.3286   2.9249017827e+02   6.3980902386e+00  0.007018029  0.004976089 -26.39 0.0003511621    1.648    0.393
       152  -9.2202     56.4720     99.5496   2.9186821526e+02   6.2863396327e+00   0.00661047  0.006427257   2.96 9.083075e-05    1.015    0.015
       153 -12.7603    125.4919     92.5430   2.9101580369e+02   5.9371391651e+00   0.04081436   0.02307196  68.49  0.001451905    3.037    0.671
       154 -12.2668    131.5592     89.7521   2.9092722799e+02   5.9310779042e+00   0.02951261   0.01410854 -53.95 0.0007717186    2.037    0.509
       155 -12.0643    132.4613     82.8468   2.9087323697e+02   6.0038994976e+00   0.02774662   0.01702502   5.32  0.002550222    2.136    0.532
       156 -11.4140    140.7274     78.7136   2.9075047004e+02   5.9993655572e+00   0.01598553   0.01296758  43.62  0.000437078    1.245    0.197
       157  -9.0417     33.2949    177.3152   2.9262670425e+02   5.5456572639e+00   0.00690914  0.004992937 -26.13 0.0002156694    1.602    0.376
       158 -10.6792    110.9665     94.9864   2.9120122859e+02   5.9997465331e+00   0.01204895   0.01150944   0.03  0.001043496    1.044    0.042
       159  -9.9840     85.8072     94.1299   2.9149050633e+02   6.1658557009e+00  0.009869541  0.008760602  59.33 0.0004276308    1.200    0.166
       160 -11.0000    107.5016     89.4557   2.9120704340e+02   6.0841331982e+00   0.01335175   0.01173545 -67.04  0.001350489    1.183    0.155
       161 -10.2685    104.7004     86.0177   2.9121823907e+02   6.1406121901e+00   0.01027958  0.009928342  10.99 0.0005029162    1.018    0.017
       162  -9.9425     32.8169    242.4200   2.9303874952e+02   4.8079920542e+00  0.009757735  0.006428275  10.68 0.0009532479    1.755    0.430
       163  -9.2631     60.6845     89.2830   2.9175441915e+02   6.3768928823e+00   0.00682582  0.004992556  58.91 0.0002120819    1.579    0.367
       164  -9.7807     98.5276     87.9622   2.9130275859e+02   6.1568960436e+00  0.009702024  0.006639181 -62.81 0.0003783484    1.509    0.337
       165  -9.9645     95.3256    176.0872   2.9189314854e+02   5.1750226760e+00  0.009002799   0.00853943 -69.87 0.0003450315    1.093    0.085
       166  -9.9408     82.9148     88.0128   2.9148596648e+02   6.2533320241e+00   0.01052441  0.007531474  57.71 0.0006977767    1.614    0.380
       167 -11.1812    118.3863     86.6301   2.9106181934e+02   6.0485283537e+00   0.01430654   0.01202731  50.42  0.000750931    1.239    0.193
       168 -10.5700    114.4715     84.0280   2.9109130037e+02   6.1024435565e+00   0.01284622  0.009621945  29.98 0.0005907437    1.302    0.232
       169 -11.2623     93.1801     84.6813   2.9134477809e+02   6.2274089798e+00   0.01203953   0.01142181  32.71 0.0002626833    1.042    0.041
       170 -10.1789     58.9123     83.7498   2.9174044902e+02   6.4507645112e+00   0.01140777  0.009658495 -63.16 0.0007443043    1.215    0.177
       171 -10.7545     99.5309     79.9690   2.9124076800e+02   6.2414706563e+00   0.01310937  0.009495487  36.22 0.0005568955    1.349    0.258
       172 -10.6985    113.9564     77.6711   2.9105735994e+02   6.1778601134e+00   0.01623226  0.009904621  88.89  0.001409563    2.538    0.606
       173 -12.7282    139.4527     84.0489   2.9079895816e+02   5.9467089766e+00   0.02801821   0.02597204 -52.09 6.460879e-05    1.091    0.084
       174 -10.1661     95.1315     77.8614   2.9127905553e+02   6.2927621532e+00  0.009389037  0.007788697 -24.05 0.0004168568    1.300    0.231
       175 -12.0705    122.4723     76.2262   2.9094854686e+02   6.1412808661e+00   0.01991602   0.01373489  51.58  0.002059537    1.595    0.373
       176  -9.6014     80.1718     75.2187   2.9143772161e+02   6.4157336951e+00  0.009299835   0.00781119  69.38 0.0006961062    1.345    0.256
       177 -11.8397    131.6303     73.0914   2.9082159392e+02   6.1198723858e+00   0.01810456   0.01291645  16.52   0.00126039    1.481    0.325
       178 -12.0461    169.6563    173.2202   2.9100602833e+02   4.7454093898e+00    0.0188314   0.01370209  56.27  0.001258982    1.554    0.356
       179 -10.2196    120.5535     70.2753   2.9093358086e+02   6.2208113067e+00   0.01577876  0.008673032  63.16  0.001260562    2.909    0.656
       180  -9.9627     55.9762     70.0228   2.9168865938e+02   6.6249488202e+00   0.01015995  0.009794016  10.94 0.0004752179    1.020    0.020
       181 -10.8577    110.0467     69.0534   2.9104895247e+02   6.3000666509e+00   0.01100893  0.007845264  62.47 0.0008397611    1.697    0.411
       182 -11.3967     99.1759     68.1353   2.9117052352e+02   6.3781013123e+00   0.02138831  0.009332061  43.13 0.0009496394    2.395    0.582
       183 -10.9556    130.9349     66.5047   2.9078828726e+02   6.1990023944e+00    0.0103472  0.006480961  27.71 0.0009195616    1.568    0.362
       184  -9.7098     69.3038     65.3159   2.9150285901e+02   6.5957163349e+00  0.006952009  0.005001112 -25.30 0.0002813806    1.622    0.383
       185 -10.5133     11.5177     63.8975   2.9217153942e+02   6.9699623652e+00   0.01963659   0.00835985  33.53  0.001415217    2.200    0.545
       186 -11.7565    125.6550     62.0136   2.9082185078e+02   6.2828759025e+00   0.02414953  0.005931807 -60.02  0.001546897    3.944    0.746
       187 -11.9481    127.0991     55.4162   2.9076341145e+02   6.3487942628e+00   0.01553535   0.01429067  68.12  0.001135651    1.163    0.140
       188 -12.7151    133.8457     49.6955   2.9064838261e+02   6.3717232049e+00   0.02637093   0.01965904  19.38  0.002877597    1.372    0.271
       189  -9.8592    100.7022     63.2850   2.9112213794e+02   6.4237001480e+00  0.009550927  0.007748764 -24.44 0.0001872246    1.344    0.256
       190 -11.2414    102.9286     59.6086   2.9107292625e+02   6.4516064111e+00   0.01223246   0.01071075 -58.19 0.0002140686    1.161    0.138
       191 -12.2786    112.8747     59.5660   2.9095613866e+02   6.3902171105e+00   0.02687952    0.0161283  48.21  0.002587377    1.819    0.450
       192 -10.7156    173.2895    171.4066   2.9095218692e+02   4.7433962481e+00   0.01051201  0.006583242  26.38 0.0009089665    1.582    0.368
       193  -9.7841     82.2659     61.0350   2.9132402420e+02   6.5638439655e+00  0.009214928   0.00895676 -47.99   0.00046327    1.044    0.042
       194 -12.0281    233.5150    171.0576   2.9024661780e+02   4.3719791576e+00   0.01307527    0.0124663  84.03  0.001612706    1.109    0.098
       195  -9.5955     33.3248     59.6535   2.9188913021e+02   6.8831692213e+00  0.007125597  0.005014359  63.18 0.0007049996    1.744    0.427
       196 -11.3714    133.7532     57.8600   2.9070087234e+02   6.2796083863e+00   0.01897563  0.009926425  14.37  0.001599006    2.421    0.587
       197  -9.1930      1.6603     58.2853   2.9225196098e+02   7.0946882861e+00  0.006963643  0.004948463  57.86 0.0007016495    1.634    0.388
       198 -12.5560    142.3531     54.3802   2.9057826679e+02   6.2655367359e+00   0.02551691   0.02038387  79.71     0.001604    1.491    0.329
       199 -10.8602    150.5429     51.9722   2.9046721947e+02   6.2418280618e+00   0.01497289  0.009865342 -21.68 0.0009095813    1.952    0.488
       200 -10.9925    147.6475     50.7522   2.9049343179e+02   6.2737249243e+00   0.01294924   0.01080104  85.60 0.0009529985    1.379    0.275
       201 -10.7101    107.6798     51.2480   2.9096465337e+02   6.5169900898e+00   0.01751109   0.01175852  -5.43  0.001698355    1.939    0.484
       202  -9.7352     20.3564     52.1609   2.9199419109e+02   7.0485921828e+00  0.009168652  0.006404512 -76.28 0.0003046505    1.663    0.399
       203  -9.2685      3.7396     52.3741   2.9219047447e+02   7.1489815377e+00  0.006830655  0.005087687  70.86 0.0006977948    1.659    0.397
       204 -11.4604    122.0394     49.0634   2.9078267954e+02   6.4524235369e+00    0.0157564   0.01064855  -4.91  0.001535498    1.911    0.477
       205  -9.1083     58.4841     49.5154   2.9153039275e+02   6.8423332080e+00  0.006745954  0.006320354 -16.84 0.0002452134    1.084    0.078
       206  -9.3626     67.5515     46.5071   2.9140516032e+02   6.8202178496e+00  0.006640034  0.006396137  50.86 -0.0002400945    1.062    0.059
       207  -9.7960     56.2971     46.3295   2.9153600966e+02   6.8920821885e+00  0.006994785  0.004972934 -26.75 0.0002982844    1.637    0.389
       208 -10.2299     33.3399     44.5872   2.9179431568e+02   7.0542040234e+00   0.01125168   0.01036631 -74.58 0.0005964114    1.142    0.124
       209 -10.7032    118.1081     43.1936   2.9079177482e+02   6.5435340006e+00   0.01674616  0.009555742 -84.41  0.001394642    2.717    0.632
       210 -11.9428    136.7041     42.0306   2.9056663355e+02   6.4409192151e+00   0.02010144   0.01566181  74.32  0.001968883    1.548    0.354
       211 -10.0779    140.8256     41.1177   2.9051261702e+02   6.4255983181e+00  0.009375382  0.008668008 -51.34 0.0004481523    1.094    0.086
       212 -10.3339     27.7319     43.1406   2.9185101476e+02   7.1053728633e+00   0.01221799  0.009545467  19.36 0.0003543569    1.297    0.229
       213 -11.4951    126.6247     40.4830   2.9067493917e+02   6.5212730647e+00   0.02062782   0.01208086  -0.12  0.001567196    2.561    0.610
       214 -10.3657      5.9954     40.5259   2.9208962901e+02   7.2696011503e+00   0.01113128  0.009731506 -79.59  0.000391238    1.239    0.193
       215 -10.0869      1.9427     40.3369   2.9213600066e+02   7.2968102948e+00   0.01157853   0.01073862   3.16 0.0005506333    1.087    0.080
       216 -10.9896    147.0776     37.5623   2.9041700871e+02   6.4269785396e+00   0.01805609   0.01216228 -58.22  0.001882942    1.494    0.331
       217  -9.4633     55.3055     39.6823   2.9150584588e+02   6.9737165392e+00  0.006900684  0.005047401  62.67 0.0003286902    1.629    0.386
       218 -10.1128     66.0686     36.7085   2.9136092137e+02   6.9406834618e+00  0.009195635  0.008607976  16.13 0.0003868694    1.054    0.051
       219 -10.5367    140.6798     35.6855   2.9048009999e+02   6.4881562597e+00   0.01161771    0.0100263 -21.70 0.0006293506    1.229    0.186
       220 -11.1471    123.3336     34.4221   2.9067531663e+02   6.6105599878e+00   0.01436175  0.009217676 -38.28  0.001423643    1.710    0.415
       221 -10.2023     82.0001     32.6519   2.9114859233e+02   6.8877839448e+00  0.009141633  0.008633442  13.43  0.001115836    1.045    0.043
       222 -11.7135    133.0808     30.5810   2.9053693698e+02   6.5934360749e+00   0.01600208   0.01221232 -36.46  0.001468324    1.388    0.280
       223  -9.1955     23.2471     35.0015   2.9185249452e+02   7.2255719645e+00    0.0083474   0.00568464 -60.52  0.000377197    1.494    0.331
       224  -9.7432    111.5629     32.0008   2.9079797994e+02   6.7113212552e+00   0.01030145  0.006539893 -60.48 0.0006540445    1.602    0.376
       225  -9.9865    138.2138     22.7827   2.9042766819e+02   6.6499327823e+00   0.01427627  0.009161996   7.40    0.0013656    1.911    0.477
       226 -10.6503    145.4779     31.4558   2.9039725812e+02   6.5062449598e+00   0.01194669   0.01006102  57.19 0.0007836019    1.278    0.218
       227 -10.2233    141.4879     29.9311   2.9043437501e+02   6.5484183303e+00   0.01189842   0.01001117 -26.04 0.0007010974    1.266    0.210
       228 -11.0252    137.6487     27.2069   2.9046217128e+02   6.6032578669e+00   0.01888124    0.0115292  56.13  0.001005282    2.021    0.505
       229  -9.9468    118.0000     31.0533   2.9071658523e+02   6.6820046413e+00   0.01120517  0.003809599 -61.04 0.0008100127    2.995    0.666
       230  -9.7944     70.3248     31.2847   2.9127688714e+02   6.9758317500e+00  0.006864734  0.005043117 -20.85 0.0003989015    1.601    0.375
       231  -9.3313     43.3428     27.3068   2.9156834534e+02   7.1884174256e+00  0.007066885  0.005016393 -22.08 0.0007042733    1.690    0.408
       232 -10.3020     99.1082     25.8574   2.9090525803e+02   6.8585400262e+00    0.0111404  0.009436468 -40.74 0.0002763941    1.204    0.169
       233 -10.1741    152.5418     24.7449   2.9027224236e+02   6.5383386496e+00   0.01236562   0.00625235 -56.14  0.001115331    1.943    0.485
       234 -10.6959    148.1329     22.9232   2.9031238520e+02   6.5865012224e+00   0.01530875  0.009884917 -40.49  0.001088741    1.658    0.397
       235  -9.7544    128.0371    237.9902   2.9189821798e+02   4.2679611119e+00   0.01912116  0.008769747  13.21  0.001387991    3.301    0.697
       236  -9.5524     22.5199    236.9688   2.9312514606e+02   4.9337050699e+00  0.009760913  0.006531232 -58.84 0.0005386081    1.505    0.335
       237  -9.8654    236.0578     18.0115   2.8925287986e+02   6.0928881854e+00  0.009383689   0.00910075  74.16            0    1.076    0.071
       238  -9.8100    112.4305     17.2722   2.9069502914e+02   6.8730603443e+00   0.01371017  0.005986323 -55.31  0.001158107    2.214    0.548
       239 -10.3448     19.0318     17.7216   2.9179335643e+02   7.4478453148e+00   0.00968083  0.008621886  29.51 0.0007747312    1.100    0.091
       240  -9.9330    166.5266     16.0968   2.9005398152e+02   6.5491806600e+00    0.0113315  0.008545067 -66.68 0.0008569633    1.399    0.285
       241 -10.5266     57.3576    236.0651   2.9271222057e+02   4.7283388414e+00   0.01377865  0.009496476  35.94    0.0014489    1.413    0.292
       242  -9.9689    237.0629    233.8918   2.9059974813e+02   3.6362142829e+00   0.01014483  0.009894139  45.30 0.0006765448    1.042    0.040
       243 -10.2473    140.9824    172.2531   2.9133513763e+02   4.9348597119e+00   0.01442594   0.01003467 -61.04 0.0008585122    1.467    0.318
       244 -10.2030    211.5605    234.2293   2.9089938710e+02   3.7912132401e+00  0.009584694  0.005959347 -47.68 0.0009426672    1.627    0.385
       245  -9.5209    156.9210     12.6234   2.9014453102e+02   6.6485166821e+00   0.00931148  0.008152362  33.45 0.0004820593    1.120    0.108
       246  -9.7686    130.2610     12.9821   2.9045905160e+02   6.8106783531e+00  0.009082238  0.008676415 -50.10 0.0003384338    1.061    0.058
       247 -10.0405    167.4300    232.7916   2.9140554533e+02   4.0821902633e+00   0.01312389   0.01146404 -51.55  0.001551384    1.154    0.133
       248  -9.6295    220.3855    232.8093   2.9078750902e+02   3.7523890087e+00  0.009902185   0.00582638 -49.02 0.0009497498    1.705    0.414
       249 -12.2639    154.0103    231.3588   2.9155330254e+02   4.1819303832e+00   0.01319649   0.01291744  65.94 0.0003230436    1.057    0.054
       250  -9.8263     32.3205    233.5685   2.9298935713e+02   4.9117574585e+00   0.01307913  0.005959609  33.30  0.000994536    2.069    0.517
       251  -9.9249    144.9968    231.4381   2.9165908715e+02   4.2370648014e+00   0.01158994  0.009247988  88.04 0.0003081707    1.478    0.324
       252  -9.6777     43.6375     11.6911   2.9146665662e+02   7.3638323164e+00  0.007157119  0.005001728 -21.38 0.0007039847    1.744    0.427
       253  -9.5572     69.0417    230.6940   2.9254209235e+02   4.7170278561e+00  0.009151922   0.00860119  16.95 0.0005957432    1.049    0.047
       254  -9.4067    113.9767    231.0000   2.9201878421e+02   4.4347661155e+00    0.0109644  0.003743368  27.97 0.0005670861    2.877    0.652
       255 -10.1126    149.8076    227.3280   2.9157715514e+02   4.2538815234e+00   0.01353949   0.01034007 -38.17  0.001203564    1.375    0.272
       256  -9.5727     59.6601     16.7767   2.9131067286e+02   7.2067161866e+00  0.008863475  0.006349142 -73.58 0.0002531822    1.569    0.363
       257  -9.5942    219.3127    227.3310   2.9076566993e+02   3.8213026900e+00    0.0112159  0.007587568 -24.92  0.001103681    1.810    0.447
       258  -9.9970     62.3053    173.0783   2.9226067183e+02   5.4141194857e+00   0.01095967  0.009165766  29.28 0.0005371323    1.170    0.145
       259  -9.9121    126.9253    226.8119   2.9184126986e+02   4.4019618923e+00   0.01070664   0.00919908 -16.12  0.001240219    1.246    0.197
       260 -10.0639    204.9688    226.4903   2.9092779227e+02   3.9201807770e+00   0.01007872  0.006452049  28.73 0.0004042174    1.525    0.344
       261 -11.4077    238.7749    224.3395   2.9051984975e+02   3.7340362643e+00   0.01544332   0.01185706  23.24 0.0004553378    1.299    0.230
       262 -11.5041    180.8262    224.1068   2.9119469867e+02   4.0975496611e+00   0.01519042   0.01263534  39.31 0.0004965424    1.192    0.161
       263  -9.8040    165.3036    223.5742   2.9137263983e+02   4.2001823825e+00   0.01355987  0.005853168  33.85  0.001137575    2.172    0.540
       264 -10.8720     93.8017    222.3349   2.9220040141e+02   4.6585394968e+00   0.01492103   0.01119507  36.05 0.0008709256    1.303    0.233
       265  -9.1470      2.2862    222.6348   2.9327240350e+02   5.2218667099e+00  0.006970322  0.005065613  67.26 0.0007021265    1.695    0.410
