#   1 NUMBER                 Running object number                                     
#   2 MAG_AUTO               Kron-like elliptical aperture magnitude                    [mag]
#   3 X_IMAGE                Object position along x                                    [pixel]
#   4 Y_IMAGE                Object position along y                                    [pixel]
#   5 X_WORLD                Barycenter position along world x axis                     [deg]
#   6 Y_WORLD                Barycenter position along world y axis                     [deg]
#   7 A_WORLD                Profile RMS along major axis (world units)                 [deg]
#   8 B_WORLD                Profile RMS along minor axis (world units)                 [deg]
#   9 THETA_WORLD            Position angle (CCW/world-x)                               [deg]
#  10 FWHM_WORLD             FWHM assuming a gaussian core                              [deg]
#  11 ELONGATION             A_IMAGE/B_IMAGE                                           
#  12 ELLIPTICITY            1 - B_IMAGE/A_IMAGE                                       
         1 -14.2804    214.7106      3.6179   4.5372858477e+01   3.0298380542e+01     3.014684     1.703529  52.58  0.008995264    1.824    0.452
         2 -13.7882    177.0491     45.3421   6.2997611762e+01   3.5147314068e+01     1.165988    0.9394701 -32.24 0.0009110463    1.249    0.200
         3 -14.2946    195.4689     26.1826   5.4116388125e+01   3.2826940585e+01     1.286749     1.097072  34.73  0.001300155    1.274    0.215
         4 -14.0320    188.4244     35.2861   5.7931189677e+01   3.3538654652e+01      1.27098     1.087473 -29.16  0.003141387    1.194    0.162
         5 -12.4701     65.5058      3.8090   7.4695792869e+01   6.5642848000e+01    0.5652978    0.3051793  19.05  0.002785029    2.178    0.541
         6 -13.2051     46.6522    215.4840   1.2661311117e+02   2.5560146296e+01    0.4461507    0.1881265  66.68   0.00165275    2.269    0.559
         7 -16.3437     71.8015    148.5731   1.1476717737e+02   3.5860977640e+01     7.848083      3.79673  83.09   0.02803368    4.057    0.754
         8 -13.2336     58.5494    204.9817   1.2373032359e+02   2.6037839851e+01    0.4273365    0.3159369 -63.21  0.001475957    1.612    0.380
         9 -13.2234    120.0404    211.8341   1.1315113476e+02   1.5901680335e+01    0.9793335    0.2933452  44.51  0.004061324    2.750    0.636
        10 -13.7351    124.8539    206.3059   1.1156067464e+02   1.6067529307e+01    0.9590719    0.4674163  62.78  0.004313316    2.600    0.615
        11 -14.0965    113.5137    197.8668   1.1265037596e+02   1.9438291059e+01     1.262927    0.6656771 -59.36  0.006633893    2.078    0.519
        12 -12.2865    106.1714    203.5065   1.1475529738e+02   1.9579608619e+01    0.5045109    0.2593599  53.82  0.002496657    1.706    0.414
        13 -11.6409     72.3989    211.7324   1.2183766545e+02   2.2996418946e+01    0.2289613    0.1610079  69.00 0.0003798126    1.133    0.117
        14 -10.7140     76.3649    206.9569   1.2068064340e+02   2.3330765960e+01    0.3137055    0.1946414 -66.44  0.001419534    1.682    0.405
        15 -11.2582     39.1852    212.7666   1.2768748086e+02   2.6910454416e+01    0.1701546    0.1000439  60.07 0.0004659345    1.322    0.243
        16 -11.5519    121.1675    198.1396   1.1119960546e+02   1.8128944989e+01     0.271495    0.1771059 -63.56  0.001008009    1.699    0.411
        17 -11.1464     44.4772    210.4895   1.2662990061e+02   2.6718805673e+01    0.2079839    0.1053177  56.95 0.0006454533    1.582    0.368
        18 -10.8819     37.1130    206.7012   1.2763080669e+02   2.8251779801e+01    0.1850564   0.09617743  54.87  0.001192916    1.554    0.356
        19 -10.5689    158.8058    204.7762   1.0492193891e+02   1.0463948379e+01    0.4144036    0.2459264  77.64  0.001689925    3.641    0.725
        20 -10.3689      1.2499    206.1724   1.3355023462e+02   3.1922264923e+01    0.1080373   0.06246505  89.36 0.0007987423    1.297    0.229
        21 -10.6489     95.2415    200.4572   1.1647978372e+02   2.1819943601e+01    0.3148238    0.1873562  88.53  0.001103331    1.974    0.493
        22  -9.6317    163.5026    204.0740   1.0393081846e+02   9.7367983177e+00     0.166016    0.1289701 -49.85 0.0005615411    1.526    0.345
        23  -9.5604     87.7386    201.9697   1.1806745248e+02   2.2648357116e+01     0.167623    0.1327773  73.24  0.001135124    1.044    0.042
        24 -12.2776    193.7121    193.0593   9.6443704524e+01   5.9008811444e+00    0.7865825    0.4752008 -52.31  0.003503475    2.233    0.552
        25 -12.3508     36.3669    200.0052   1.2729412007e+02   2.9585925590e+01    0.1899534    0.1423864  72.36 0.0004619553    1.066    0.062
        26  -9.9996    209.8932    199.8528   9.4671419794e+01   1.9658835033e+00    0.1605726    0.1439939  51.32  0.000333319    1.303    0.233
        27 -11.0724    204.1183    198.7051   9.5514026297e+01   3.1670109262e+00    0.2025694    0.1840725 -48.23 0.0009952976    1.397    0.284
        28 -11.6125    102.2473    196.3008   1.1464310396e+02   2.1523696350e+01     1.413525    0.9212185   4.77   0.00467671    7.174    0.861
        29 -12.2263    106.0733    209.4835   1.1546772656e+02   1.8523414929e+01    0.4783204     0.360654  76.83  0.003145742    1.243    0.196
        30 -12.7199    110.6529    188.4876   1.1198206924e+02   2.1663408556e+01    0.9987941    0.6458086 -17.68  0.003603612    5.562    0.820
        31  -9.7562     46.7911    198.2361   1.2529796410e+02   2.8738601555e+01    0.1285071    0.1117652  80.17  0.000192082    1.276    0.216
        32 -10.9930    154.6991    196.1706   1.0439721527e+02   1.2618485726e+01    0.4132238    0.2410142  69.72   0.00181526    2.727    0.633
        33 -10.3239     82.4469    195.1717   1.1834280992e+02   2.4697578811e+01    0.2888107    0.2322981  44.08   0.00193804    1.371    0.271
        34 -13.2939     68.4070    191.0197   1.2060992495e+02   2.7438581751e+01    0.7248222    0.6182364 -89.89  0.005214368    1.181    0.153
        35 -16.5127     79.2672    246.7387   1.2354623773e+02   1.6190793555e+01     7.798701     2.432696  35.54   0.02884227    5.696    0.824
        36 -10.0448    152.4437    184.9155   1.0304150303e+02   1.4982265389e+01    0.1801158    0.1153815 -78.87 0.0008071647    2.557    0.609
        37 -10.8103    205.7972    180.5680   9.1905204080e+01   5.4997076623e+00    0.3646961    0.2791828 -84.42  0.001843676    2.319    0.569
        38 -10.5021    208.6868    178.6683   9.1004879213e+01   5.2324455997e+00     0.307665    0.2320103  -5.11   0.00170764    1.481    0.325
        39 -11.9240    145.2400    179.6469   1.0362529326e+02   1.7276340353e+01    0.3824773    0.2857393  29.13  0.002085418    1.519    0.342
        40 -11.4425     99.3765    180.7437   1.1323160439e+02   2.4987132707e+01    0.2608439    0.2179087  45.49 0.0005836993    1.268    0.211
        41 -10.0662     69.1835    178.0247   1.1907698672e+02   2.9939050376e+01    0.1978896    0.1545792  58.90 0.0004840443    1.181    0.153
        42 -11.5884    195.5070    168.9230   9.1590597027e+01   9.3453422938e+00     0.384526    0.3285341  62.78 0.0006043504    1.347    0.257
        43 -11.0495    145.8716    168.6227   1.0159350574e+02   1.9230588996e+01    0.2261053    0.1948275 -38.02 0.0004974439    1.329    0.247
        44 -11.1612    230.2216    166.5162   8.4670831920e+01   2.8955661826e+00    0.3156987    0.1745602 -49.08  0.001392422    2.584    0.613
        45 -11.5814     96.7640    188.3001   1.1473683614e+02   2.3904256736e+01     0.394863     0.281557  64.88  0.001408523    1.250    0.200
        46 -10.7669    141.4484    158.4375   1.0067214778e+02   2.2070901618e+01    0.2586136    0.2188649  77.97 0.0002832717    1.247    0.198
        47 -12.8848     96.2727    155.3252   1.1019510920e+02   3.0759251210e+01    0.6493502    0.4931507 -35.17  0.003547008    1.807    0.447
        48 -11.2931    189.3056    155.2585   9.0007286360e+01   1.2923044860e+01    0.3913826    0.3650332  21.35  0.001266424    1.027    0.026
        49  -9.8260    113.4940    151.4886   1.0563195842e+02   2.8692026617e+01    0.2428479    0.1294197 -67.92  0.001024935    2.278    0.561
        50 -10.9858    134.3264    148.6587   1.0037016135e+02   2.5435127083e+01    0.3781095    0.2446843 -63.59  0.001776985    1.750    0.429
        51 -11.6161    133.7785    143.7747   9.9521143409e+01   2.6556715107e+01    0.8101453    0.2769006 -57.27  0.002461555    4.078    0.755
        52 -10.1873    174.8907    149.1393   9.1643813861e+01   1.7056848551e+01    0.2207174    0.1992543  76.54 0.0005257907    1.236    0.191
        53 -11.5274    144.3661    146.8088   9.7747207353e+01   2.3835053521e+01    0.3961917    0.2805696 -77.17  0.001847345    1.869    0.465
        54 -19.4255     13.2826    136.0365   1.2668643877e+02   4.4893000059e+01     17.29127     1.906054 -74.28   0.04201373    9.273    0.892
        55 -12.0084    107.7476    140.2999   1.0492225588e+02   3.2115226785e+01    0.5236188    0.3291499 -35.49  0.002380374    2.184    0.542
        56 -12.5789     95.6872    140.6069   1.0785873203e+02   3.4069700017e+01    0.2742407    0.2599898 -48.77 0.0006115046    1.226    0.184
        57 -11.8681    114.9606    130.7476   1.0128833302e+02   3.2921919220e+01     0.670182    0.4335318  21.14  0.002459818    2.428    0.588
        58 -11.0661    106.1106    130.7803   1.0346452700e+02   3.4499169804e+01     0.398359    0.3033417 -81.99   0.00137761    1.430    0.301
        59 -11.2824    102.5227    126.7585   1.0354040783e+02   3.6015238620e+01    0.2839049     0.229212 -33.04 0.0006953527    1.491    0.329
        60 -11.1118    136.0000    128.5244   9.5744885764e+01   2.9325265574e+01    0.4178737    0.1536711 -51.36  0.001415489    2.888    0.654
        61 -10.0292    160.8272    127.8432   8.9881828572e+01   2.4201190943e+01    0.2154406    0.1844521 -87.02  0.001085926    1.366    0.268
        62 -11.2276    119.6615    124.6716   9.8830641561e+01   3.3374016423e+01     0.641791     0.353486 -24.10  0.001934076    4.801    0.792
        63 -10.2830    110.2565    119.4518   1.0002593973e+02   3.6274634647e+01    0.2363404    0.2101872 -50.83 0.0002575408    1.120    0.107
        64 -10.0668    167.9485    112.5715   8.4533436556e+01   2.5615961108e+01    0.3037637    0.2128097 -59.89  0.001119457    1.715    0.417
        65  -9.6690    135.0000    112.0492   9.2073159936e+01   3.3026265685e+01    0.2533149    0.0847877 -45.53 0.0008033751    2.949    0.661
        66 -11.3233    119.9764    110.8134   9.5528511349e+01   3.6339322160e+01    0.5312892    0.3016778  63.92  0.002049058    2.562    0.610
        67  -9.6591    105.0362    111.7491   9.9623543494e+01   3.8927303875e+01     0.192146    0.1813229  68.89 0.0003136784    1.088    0.081
        68 -10.2129    205.6795    110.1214   7.6196151943e+01   1.7229882146e+01    0.2867279    0.2175567  42.13 0.0006567264    1.328    0.247
        69 -11.6908     53.0597     90.5042   1.0950111167e+02   5.1357683413e+01    0.3133675    0.1672975 -62.01  0.001566462    1.623    0.384
        70 -11.3787     41.8889     91.8108   1.1311850845e+02   5.2254582655e+01    0.2205532    0.1927416 -75.81 0.0004816415    1.102    0.092
        71  -9.9219     70.1027     72.0862   9.9588644309e+01   5.3245345213e+01    0.1952053    0.1789193 -56.16   0.00049037    1.101    0.092
        72 -11.7660    166.1054     66.4689   7.1801517146e+01   3.4637677629e+01     0.508148    0.3512253 -80.91 0.0008548782    2.178    0.541
        73  -9.8394    105.0521     61.2708   8.5383932520e+01   4.9544848498e+01    0.1933662    0.1858461  26.53 0.0003930405    1.103    0.093
        74 -11.0264     35.0659     57.0514   1.0736441535e+02   6.0476553910e+01     0.187231     0.171065  -9.26 0.0004766885    1.252    0.201
        75 -12.4070     54.7457    210.6871   1.2486654413e+02   2.5455983770e+01    0.7888067    0.1801976  53.89   0.00195969    4.112    0.757
        76 -10.3586    171.8979    239.3175   1.0734946236e+02   3.2186128266e+00    0.2394605     0.175678  60.90  0.001595282    1.472    0.321
        77  -9.5081     71.8076    229.6540   1.2344659025e+02   1.9943834154e+01    0.1401815   0.07541444  54.14 0.0008864815    1.434    0.302
        78  -9.1851     66.5239    225.5894   1.2401229438e+02   2.1325685143e+01    0.1126626   0.07857111  66.75 0.0001245313    1.073    0.068
        79  -9.8812     70.7763    218.8472   1.2274080307e+02   2.1941523579e+01    0.3486319    0.2075858  60.03  0.002277038    1.338    0.252
        80 -11.3330     48.7488    205.4481   1.2551265765e+02   2.7147281373e+01    0.3705105    0.2630019  52.48  0.001764648    1.312    0.238
        81 -12.5653     63.0217    206.3023   1.2303925930e+02   2.5224415108e+01    0.5279001    0.3330743 -72.46  0.002161862    1.553    0.356
