#   1 NUMBER                 Running object number                                     
#   2 MAG_AUTO               Kron-like elliptical aperture magnitude                    [mag]
#   3 X_IMAGE                Object position along x                                    [pixel]
#   4 Y_IMAGE                Object position along y                                    [pixel]
#   5 X_WORLD                Barycenter position along world x axis                     [deg]
#   6 Y_WORLD                Barycenter position along world y axis                     [deg]
#   7 A_WORLD                Profile RMS along major axis (world units)                 [deg]
#   8 B_WORLD                Profile RMS along minor axis (world units)                 [deg]
#   9 THETA_WORLD            Position angle (CCW/world-x)                               [deg]
#  10 FWHM_WORLD             FWHM assuming a gaussian core                              [deg]
#  11 ELONGATION             A_IMAGE/B_IMAGE                                           
#  12 ELLIPTICITY            1 - B_IMAGE/A_IMAGE                                       
         1  -7.3910    236.7593      1.3334   2.8907640814e+02   6.3826784146e+00  0.008841203  0.006206982  15.77 0.0005475064    1.571    0.363
         2  -9.2011     62.6302    247.6622   2.9252721400e+02   4.5437518021e+00   0.01322648   0.01048351 -49.50   0.00151549    1.240    0.193
         3  -7.5443    172.4630    244.5045   2.9125872951e+02   3.9469774853e+00  0.006489934  0.006352286 -80.39 -9.241717e-06    1.023    0.022
         4  -7.8155    129.8787    234.5215   2.9168391027e+02   4.3082433070e+00  0.009644331  0.006517672  25.53 0.0006841198    1.521    0.343
         5  -6.9032     55.0264    232.2270   2.9252243837e+02   4.7660763879e+00  0.008286519  0.005460153  25.80 0.0002810069    1.558    0.358
         6  -7.9007    134.6795    229.7937   2.9160122257e+02   4.3352156459e+00   0.01693557   0.00750688 -59.80 0.0008704484    2.132    0.531
         7  -8.7660     40.4299    226.2500   2.9265329870e+02   4.9191844343e+00   0.01222965   0.01102526 -29.66 0.0003923884    1.149    0.130
         8  -6.8804    142.7217    226.2676   2.9148877464e+02   4.3295714379e+00  0.006435983   0.00491748  63.03 0.0001984586    1.484    0.326
         9  -6.9223     37.9665    213.2400   2.9260435407e+02   5.0838787574e+00  0.008195352  0.005516242  28.15 0.0003234699    1.506    0.336
        10  -6.9834    149.5644    206.4743   2.9129333463e+02   4.5189341350e+00  0.006558383  0.006239442 -42.65 -1.848014e-05    1.046    0.044
        11  -7.2090     59.7914    203.1560   2.9229597056e+02   5.0749932061e+00  0.008886114  0.007292748 -35.20 0.0004866358    1.275    0.216
        12  -6.7307     50.6622    198.6415   2.9237323164e+02   5.1797617279e+00   0.00723773  0.004761342 -30.07 0.0007039006    1.814    0.449
        13 -10.0943    183.9111    195.2928   2.9083600350e+02   4.4496972732e+00   0.01114964   0.01082361  75.48 0.0002360009    1.049    0.047
        14  -7.6164    214.3861    192.2242   2.9047111586e+02   4.3088461172e+00  0.009270498  0.006267239 -78.86   0.00039218    1.678    0.404
        15  -7.4969    184.0396    180.6872   2.9074762204e+02   4.6177821554e+00  0.009126805   0.00833744  30.10 0.0004508904    1.113    0.102
        16  -7.4699     59.2146    161.9952   2.9205839045e+02   5.5544835240e+00  0.008810024  0.008304135 -68.12 0.0002372126    1.048    0.046
        17  -7.9313     11.9378    153.3787   2.9254642587e+02   5.9260577512e+00   0.01338437  0.008934578 -30.63 0.0006083638    1.761    0.432
        18  -7.2740     13.7963    147.1067   2.9248803404e+02   5.9879369436e+00  0.008934638  0.007325141 -29.52  0.000235327    1.311    0.237
        19  -7.1225    198.3561    143.8448   2.9036522847e+02   4.9607038785e+00  0.009258504  0.005657574 -52.30 0.0003407928    1.578    0.366
        20  -9.2665    128.9660    141.7501   2.9114297111e+02   5.3862987842e+00   0.01108606  0.009148887 -63.72 0.0002790824    1.191    0.161
        21  -8.6251    193.8138    131.7882   2.9034504203e+02   5.1263169170e+00   0.01175258   0.01003934 -30.18 0.0003778413    1.235    0.190
        22  -8.4547    126.0574    126.8991   2.9108769743e+02   5.5747884675e+00  0.009375482  0.009141039 -53.09 0.0003072754    1.009    0.009
        23 -10.2640    239.6237    123.4247   2.8977393078e+02   4.9574043923e+00   0.01315584   0.01258735  28.58 0.0007440289    1.065    0.061
        24  -7.6579    168.6818    116.0777   2.9053753113e+02   5.4533584092e+00   0.01008577  0.007911432 -89.28 0.0005761496    1.435    0.303
        25  -6.9915     50.4708    113.4494   2.9186971803e+02   6.1662731894e+00  0.006456709   0.00635336 -62.38 7.106437e-05    1.005    0.005
        26  -7.5702    186.0217    109.1940   2.9029898381e+02   5.4324842816e+00  0.009744603  0.008375982 -25.27 0.0003833173    1.244    0.196
        27  -6.9222     28.5135    109.5110   2.9209690373e+02   6.3381584837e+00  0.006571629  0.006272354  73.96 -0.0001728476    1.076    0.071
        28  -7.9265    189.9619    104.4477   2.9022579241e+02   5.4644850542e+00  0.009978667  0.008640473 -57.66 0.0003702797    1.126    0.112
        29  -8.2574    242.6846    104.1440   2.8962398606e+02   5.1622677591e+00   0.01142455  0.008403757  41.15 0.0006070434    1.383    0.277
        30  -6.7410    142.2446    101.2824   2.9075054655e+02   5.7772815293e+00  0.006420269  0.004790349 -33.87 0.0006818242    1.457    0.314
        31  -6.9002     13.0542     88.0000   2.9214555866e+02   6.6757231779e+00   0.01050574  0.003747047  26.84 0.0003562183    2.862    0.651
        32  -7.0625    220.0235     84.4898   2.8976438720e+02   5.5206653917e+00  0.009355359  0.005653646  -9.20 0.0008100121    2.514    0.602
        33  -7.5623    210.2697     83.0414   2.8986675731e+02   5.5939675185e+00  0.008850162   0.00817108 -65.84 0.0002155784    1.067    0.063
        34  -6.5869     17.2867     72.2650   2.9200365147e+02   6.8332697154e+00  0.006478556  0.004893041 -27.26 0.0002120342    1.494    0.331
        35  -7.8361    155.9137     65.4537   2.9038093896e+02   6.1120586708e+00  0.009825066  0.008328258 -59.30 0.0003335042    1.150    0.131
        36  -8.8680    193.1255     61.5040   2.8993329873e+02   5.9420357449e+00   0.01184347  0.009706584 -52.48 0.0003185572    1.191    0.160
        37  -7.0724    153.3522     56.3060   2.9035551140e+02   6.2325167667e+00  0.006998738  0.004881098 -26.28 0.0007041991    1.711    0.415
        38  -9.8039    248.4030     47.8507   2.8922240018e+02   5.7786727848e+00   0.01496721   0.01264393 -60.56 0.0003305566    1.156    0.135
        39  -7.2175    175.4268     51.5263   2.9007532506e+02   6.1598179964e+00  0.006536821  0.006238528 -45.10 0.0001360854    1.039    0.037
        40  -8.8608    133.4087     50.5870   2.9054879700e+02   6.4139785569e+00   0.01726072   0.01065341  51.99  0.001696195    1.843    0.457
        41  -7.2564    242.3830     37.8201   2.8923086677e+02   5.9293463269e+00  0.009459518   0.00563847 -50.93 0.0004346533    1.629    0.386
        42  -7.8827    249.4955     36.1008   2.8913965756e+02   5.9078324492e+00  0.009766689  0.006353728 -62.36 0.0005223273    1.505    0.335
        43  -7.7545    189.2075     35.0486   2.8981977438e+02   6.2700754790e+00  0.009729075  0.008372924 -36.09 0.0004068446    1.196    0.164
        44  -7.4088    232.9620     30.2059   2.8929250850e+02   6.0719032807e+00  0.008909099  0.005217146  28.06  0.000623265    1.730    0.422
        45  -8.3653    161.1640     27.9688   2.9009709945e+02   6.5143534703e+00   0.01633217   0.01077852 -34.22  0.001251763    1.725    0.420
        46 -10.3758    143.0792     27.0080   2.9029761626e+02   6.6301925333e+00   0.01194631   0.01052358 -62.95  0.001441695    1.114    0.103
        47  -7.5698    153.8826     22.1204   2.9014516968e+02   6.6240240385e+00   0.00897285  0.007347071 -36.31 0.0003484418    1.272    0.214
