#   1 NUMBER                 Running object number                                     
#   2 MAG_AUTO               Kron-like elliptical aperture magnitude                    [mag]
#   3 X_IMAGE                Object position along x                                    [pixel]
#   4 Y_IMAGE                Object position along y                                    [pixel]
#   5 X_WORLD                Barycenter position along world x axis                     [deg]
#   6 Y_WORLD                Barycenter position along world y axis                     [deg]
#   7 A_WORLD                Profile RMS along major axis (world units)                 [deg]
#   8 B_WORLD                Profile RMS along minor axis (world units)                 [deg]
#   9 THETA_WORLD            Position angle (CCW/world-x)                               [deg]
#  10 FWHM_WORLD             FWHM assuming a gaussian core                              [deg]
#  11 ELONGATION             A_IMAGE/B_IMAGE                                           
#  12 ELLIPTICITY            1 - B_IMAGE/A_IMAGE                                       
         1 -14.4481    159.7318     52.3123   8.1247148055e+01   3.8704369606e+01     1.725512     1.293157  20.83  0.005757259    1.683    0.406
         2 -14.2201    171.7381     36.7633   7.4530431507e+01   3.7897011965e+01    0.9220944    0.8716781 -85.73   0.00320085    1.071    0.066
         3 -13.2708    175.9938     29.0080   7.1669611980e+01   3.7811671294e+01    0.5180742    0.4438196   3.97  0.001577171    1.456    0.313
         4 -12.3130    189.8467     15.0694   6.5992675699e+01   3.5983715146e+01     0.342022    0.2492203 -79.41  0.001130688    1.371    0.271
         5 -14.0396    188.7768      4.8354   6.3530132741e+01   3.7296856861e+01     1.030899    0.6284811  66.22  0.004097539    1.394    0.283
         6 -10.3009      4.5839    223.8772   1.5042935329e+02   2.7497896463e+01    0.1322441   0.06732293 -60.26 0.0007992074    2.304    0.566
         7 -18.9671     69.9524    241.4971   1.4056843069e+02   1.6248830383e+01     6.953367     5.705639  72.92   0.04269505    1.129    0.114
         8 -12.5150    146.2055    189.7307   1.1825464122e+02   1.3881526868e+01    0.3402632    0.2578306  10.76   0.00162259    1.905    0.475
         9 -10.4532    176.4580    188.2291   1.1143664087e+02   8.1637813217e+00    0.2619354    0.1433306 -41.49 0.0008326791    1.973    0.493
        10 -10.9070    184.4970    186.7778   1.0946196203e+02   6.8287465955e+00    0.2751672    0.1983889  42.76 0.0006895826    1.312    0.238
        11 -10.1660    179.1401    206.1383   1.1420673136e+02   4.2479787243e+00    0.1814005    0.1588817  69.25            0    1.286    0.223
        12 -12.5068     37.5135    183.7912   1.4121520465e+02   3.2431523139e+01    0.2499976     0.188154  83.19 0.0005765423    1.097    0.088
        13 -13.5696    137.8061    198.4770   1.2159582885e+02   1.3672894094e+01    0.7665237    0.4181587  58.36  0.003279165    2.057    0.514
        14 -12.9696    206.5999    180.0977   1.0359241561e+02   3.6555082637e+00    0.8546922    0.4520533  32.18  0.002862134    2.153    0.535
        15 -12.7360    196.4697    171.9809   1.0395908100e+02   7.2415898289e+00    0.9601841    0.4961269 -55.27  0.002863315    2.559    0.609
        16 -11.1835    175.0678    194.0422   1.1283655899e+02   7.3118193328e+00    0.3317142    0.1955443 -60.69 0.0008219452    2.275    0.560
        17 -11.8658    230.5713    167.4732   9.6325669215e+01   1.2195535061e+00    0.5562547    0.2161212 -51.86  0.001717641    4.274    0.766
        18 -10.8897    177.5121    169.9487   1.0753320474e+02   1.1608555551e+01    0.2291425    0.1491366 -45.24 0.0009817873    1.587    0.370
        19 -19.1933     51.3723     98.3697   1.2442198839e+02   5.0471196344e+01     17.37699     1.015279 -57.20   0.02814677   15.417    0.935
        20 -11.0176    180.2206    192.4132   1.1144758436e+02   6.6027510864e+00    0.2744713    0.2360077 -87.74 0.0005485768    1.428    0.300
        21 -11.6766    142.1841    165.9638   1.1464683618e+02   1.9820176863e+01    0.3342236    0.2015624 -58.39  0.000868504    1.791    0.442
        22 -10.2391    122.9094    166.1184   1.1920427875e+02   2.3581057505e+01    0.2223677    0.1860292  74.67  0.001155409    1.217    0.178
        23 -10.9867    223.9129    164.2953   9.6892110179e+01   3.0944419775e+00    0.2942999    0.1933879 -52.72 0.0006063826    1.769    0.435
        24 -12.3811    167.2451    190.9117   1.1390861269e+02   9.4795513606e+00    0.4354462    0.3760359  44.99  0.002040479    1.081    0.075
        25  -9.7646     25.3861    165.4004   1.4186216659e+02   3.7821537122e+01    0.1904872    0.1225095  24.59  0.001124094    2.132    0.531
        26 -11.1536    237.5909    159.7559   9.3397580209e+01   1.2230760437e+00    0.2005589    0.1253057 -46.38 0.0007593588    1.650    0.394
        27 -11.2921    112.0053    159.3495   1.2053113147e+02   2.7176889954e+01    0.3993013     0.231693  65.12  0.001603102    2.297    0.565
        28 -11.1025    140.0239    156.5458   1.1321596819e+02   2.2368377761e+01    0.2662095    0.2208111 -56.82 0.0002333215    1.213    0.176
        29 -12.0126    156.1930    190.9056   1.1628824277e+02   1.1676027935e+01    0.2738386     0.195983  66.30 0.0009152498    1.613    0.380
        30 -11.4021    162.3398    153.9171   1.0745283263e+02   1.8232605669e+01    0.3048832    0.2294416  38.86 0.0008843053    1.357    0.263
        31 -12.9946    134.0204    145.5267   1.1229123813e+02   2.6100023303e+01     1.330531    0.3389197 -54.97  0.003110252    5.724    0.825
        32 -10.9764      9.1485    152.9411   1.4413826566e+02   4.2038989589e+01    0.3387028    0.2387585 -14.33  0.002117794    2.369    0.578
        33 -11.0983    174.4713    148.8245   1.0358750874e+02   1.6666475973e+01    0.3542775    0.2821834 -69.69  0.001318086    1.463    0.316
        34 -12.5019    144.9015    146.1091   1.0978685447e+02   2.3698713915e+01    0.5612212    0.3788145 -87.42  0.002217796    2.321    0.569
        35 -12.8855     15.8050    142.0478   1.4142638595e+02   4.3949234830e+01    0.5506531    0.3042541  24.12  0.001618051    2.393    0.582
        36 -12.7919      4.6314    112.5910   1.4051598236e+02   5.1312534786e+01    0.5884969    0.4573047 -55.11  0.003555877    1.177    0.151
        37 -13.4680      3.0756    127.8444   1.4283567341e+02   4.8051051387e+01     1.110089    0.4709742 -68.34  0.005990445    1.730    0.422
        38 -12.4000      4.0829    144.9738   1.4446555785e+02   4.4188954319e+01    0.7044017    0.3668357  19.52  0.004053507    2.754    0.637
        39 -12.9377      4.4517    138.5408   1.4370586001e+02   4.5588973674e+01    0.8962108    0.5724313 -59.86  0.005864842    1.351    0.260
        40 -10.1567    171.1621    137.4022   1.0167209226e+02   1.9830746951e+01    0.2252689    0.1474596  59.77 0.0009392049    1.711    0.416
        41 -12.3060    106.0489    130.8570   1.1615068627e+02   3.4926518941e+01     0.417433    0.3619776 -69.61   0.00124921    1.136    0.120
        42 -11.5252    107.8251    125.5565   1.1447209837e+02   3.5829054353e+01    0.3027875    0.2668922  -5.06 0.0006305512    1.363    0.266
        43 -12.2280    119.1139    129.4798   1.1241322577e+02   3.2775662276e+01    0.4743401    0.3388426 -54.07  0.001189965    1.370    0.270
        44 -13.2519    124.5267    126.6116   1.1033606410e+02   3.2352746812e+01    0.7737507      0.53461  83.36   0.00319627    2.177    0.541
        45 -11.3441    160.4117    127.8227   1.0181443161e+02   2.4321450803e+01    0.4031185    0.2727687 -57.03  0.001503824    1.610    0.379
        46 -13.0458    113.5221    139.1787   1.1603889141e+02   3.1604733977e+01    0.7834947    0.5834021   8.97   0.00307456    2.006    0.501
        47 -12.6208    104.0384    138.4882   1.1833735774e+02   3.3504267006e+01    0.3003433    0.2760688  49.98 0.0004481225    1.136    0.120
        48 -11.1988    113.3382    118.7598   1.1137779835e+02   3.6342989720e+01    0.2634679    0.2420368  39.41 0.0003823639    1.139    0.122
        49 -10.8291    117.5388    115.9909   1.0957030259e+02   3.6147093197e+01    0.2880922     0.206213  61.48 0.0008099859    1.633    0.388
        50 -12.1076     12.4097    116.0822   1.3892293111e+02   5.0031845716e+01    0.2580771    0.1783062  14.23  0.001558077    1.943    0.485
        51 -11.2367    167.7520    113.2210   9.6456879992e+01   2.5708498860e+01    0.4438379    0.3150471  75.33   0.00158632    1.821    0.451
        52 -12.3157     84.5008    110.0036   1.1727317844e+02   4.3386992370e+01    0.3250946    0.2618344 -45.67  0.001770394    1.158    0.137
        53 -10.7870    205.4825    110.1734   8.7891444567e+01   1.7375948648e+01    0.3306959    0.2202706  44.38 0.0009393055    1.598    0.374
        54 -12.6316    135.4309    122.8592   1.0664163142e+02   3.0930814401e+01     1.022673    0.2427778 -50.16  0.002550342    4.761    0.790
        55 -11.2641    134.5723    105.2788   1.0233205660e+02   3.4942350465e+01    0.4702138    0.1484451 -45.54  0.001435795    3.150    0.683
        56 -10.1640    147.4970     79.4847   9.1910102044e+01   3.7131413263e+01    0.1504453    0.1474716  48.10 0.0001451053    1.003    0.003
        57 -11.1924     92.2437     79.0418   1.0669378329e+02   4.8686744484e+01    0.2346531    0.2020346  40.62 0.0003246036    1.239    0.193
        58 -10.0279    201.3452    222.2820   1.1262511020e+02  -2.6247255315e+00     0.135379    0.0946544  14.19 0.0004951203    1.640    0.390
        59 -11.5785     30.2358    207.8312   1.4485935866e+02   2.8060995654e+01    0.2281063    0.1803001   4.56  0.001386277    2.432    0.589
        60  -9.8401     30.1277    213.6454   1.4534706166e+02   2.6869149499e+01    0.1099883   0.05929827 -89.20 0.0005745669    1.595    0.373
        61 -10.5317     13.4879     59.5835   1.2786983173e+02   6.1821087180e+01    0.1996451    0.1479163 -45.11 0.0005390498    1.040    0.038
        62 -11.5252    168.8622    234.4953   1.2095558687e+02   1.2014689277e+00    0.2604826    0.2089901 -61.04  0.001572115    1.526    0.345
        63 -10.5941    129.0107     27.9725   8.0154795921e+01   4.9231217657e+01    0.2986686    0.1862356  65.13 0.0007202227    1.683    0.406
        64 -10.7705     18.3001    231.2969   1.4863426554e+02   2.4654818662e+01    0.0931247   0.07615829 -69.97 0.0006993663    1.575    0.365
