#   1 NUMBER                 Running object number                                     
#   2 MAG_AUTO               Kron-like elliptical aperture magnitude                    [mag]
#   3 X_IMAGE                Object position along x                                    [pixel]
#   4 Y_IMAGE                Object position along y                                    [pixel]
#   5 X_WORLD                Barycenter position along world x axis                     [deg]
#   6 Y_WORLD                Barycenter position along world y axis                     [deg]
#   7 A_WORLD                Profile RMS along major axis (world units)                 [deg]
#   8 B_WORLD                Profile RMS along minor axis (world units)                 [deg]
#   9 THETA_WORLD            Position angle (CCW/world-x)                               [deg]
#  10 FWHM_WORLD             FWHM assuming a gaussian core                              [deg]
#  11 ELONGATION             A_IMAGE/B_IMAGE                                           
#  12 ELLIPTICITY            1 - B_IMAGE/A_IMAGE                                       
         1 -15.0661    240.8596    107.3297   2.4656549703e+01   1.1723942347e+01     4.939583     1.990787 -31.36   0.02111914    2.156    0.536
         2 -14.4613    190.7257    101.0707   3.1139967345e+01   2.2848508438e+01     3.486519     1.678706  47.95   0.01416315    2.178    0.541
         3  -9.5082    113.8541     41.5278   2.9227825875e+01   5.1565762933e+01    0.2877793    0.2169746  11.41 0.0002800449    1.597    0.374
         4 -10.8950     40.9434     13.8155   4.3599511724e+01   7.0762149004e+01    0.2267254    0.1871876   3.59 0.0002383361    1.069    0.064
         5  -9.8558     97.6368     12.3069   2.0978898627e+01   5.9317616868e+01    0.2868308    0.2031939  12.48  0.001457991    1.577    0.366
         6  -8.5687     52.0050      3.0302   3.1477537246e+01   7.0288493165e+01    0.1552991     0.130772   6.62 0.0003438516    1.040    0.039
         7  -8.8298     67.7025      1.3212   2.4213763359e+01   6.7280207579e+01    0.1809053    0.1036136  46.68 0.0004964175    1.546    0.353
         8 -10.2875    250.3943    241.2646   4.8670549473e+01  -6.9762054069e+00     0.242824    0.1367855 -20.45   0.00123382    1.607    0.378
         9 -10.4762     52.3226    249.7998   8.6116289000e+01   1.7213523689e+01    0.2999626    0.1739544  30.31  0.001071429    1.661    0.398
        10  -9.5922     57.0023    246.5236   8.5039635554e+01   1.7234177511e+01    0.2296583    0.1415122  36.68 0.0008212451    1.362    0.266
        11 -10.9558     13.5129    250.2012   9.3179717371e+01   2.1137891985e+01     0.332176    0.1648873  35.28  0.001590571    1.702    0.413
        12 -11.1521     20.1010    249.1246   9.1976630912e+01   2.0692079432e+01    0.4149156    0.1742756  57.28  0.002568594    1.782    0.439
        13 -10.7690     13.1674    244.1795   9.3043110985e+01   2.2196922595e+01    0.2418033    0.1167082  59.52 0.0008271105    1.544    0.352
        14 -10.3802      3.9965    249.2154   9.4808606807e+01   2.2173539682e+01    0.2343941    0.1293892  50.34 0.0007588195    1.256    0.204
        15 -11.2583    249.2096    237.5940   4.8300371763e+01  -6.4719679402e+00    0.3530453    0.1696998 -22.92  0.002213319    1.937    0.484
        16 -11.2995    167.0505    241.8413   6.3245006955e+01   3.5277267294e+00    0.3485084    0.1678881  29.88  0.001907592    1.704    0.413
        17 -10.4056    236.6385    239.8276   5.0656202756e+01  -5.2438845236e+00    0.3234447     0.108323  28.57  0.001606762    2.636    0.621
        18  -9.6242    107.8809    238.9979   7.4467702528e+01   1.2117053853e+01    0.2557275    0.1407745 -32.84  0.001256943    3.292    0.696
        19  -9.8077     16.9666    238.9122   9.2167250258e+01   2.2759849296e+01     0.194203   0.07686247  62.54  0.001100269    2.076    0.518
        20 -10.5276    231.0706    234.0588   5.0700247472e+01  -3.9488457305e+00    0.2667481    0.1954907  -3.31  0.001097681    1.141    0.123
        21  -9.5129     90.1076    235.2465   7.7681972963e+01   1.5101761223e+01    0.1738555    0.1420436  30.77  0.001210116    1.220    0.180
        22 -10.2333    162.4504    232.5984   6.2904696616e+01   5.4556631167e+00    0.5962316    0.1998153  46.42  0.002262415    3.866    0.741
        23 -10.8216     88.2410    227.1329   7.7316063921e+01   1.6764091172e+01    0.4169101    0.2268169  55.27  0.002292771    1.780    0.438
        24 -10.4759     88.8503    222.4511   7.6739445555e+01   1.7527435185e+01    0.4728249    0.2880898 -26.73  0.002248197    3.310    0.698
        25 -11.8148     98.4956    225.3746   7.5005703927e+01   1.5699059909e+01    0.5240036    0.4524274  88.72  0.001474227    1.314    0.239
        26 -11.3316     95.8838    217.8528   7.4773463595e+01   1.7414359833e+01    0.5224802     0.314623  55.11  0.001847436    1.620    0.383
        27  -9.8949     99.9590    217.2832   7.3837129803e+01   1.6952600338e+01    0.2194102    0.1858026  59.43 0.0005711822    1.140    0.123
        28 -11.2575    237.9598    230.3662   4.8992871058e+01  -4.3832918370e+00    0.3076062    0.2155362  10.12  0.001358909    1.058    0.055
        29 -10.9980    249.2366    225.1746   4.6355102694e+01  -5.1718824201e+00    0.2821675     0.212644 -30.92  0.002064035    1.732    0.423
        30 -11.6840    126.3853    221.0517   6.8673452852e+01   1.2494921469e+01    0.5714175    0.3882247 -82.88  0.003139418    2.327    0.570
        31 -10.9745    162.4214    225.5737   6.1947606468e+01   6.4840795567e+00    0.3844166    0.2600583  20.14  0.002331733    1.356    0.262
        32  -8.6994    144.5372    227.5286   6.5773792867e+01   8.7926514366e+00    0.1232255    0.0998769  28.04 0.0008086914    1.024    0.023
        33  -9.7634    116.9409    227.2885   7.1378392216e+01   1.2800682479e+01    0.1761086    0.1357294  35.99   0.00059753    1.071    0.066
        34  -9.5601    169.6579    224.8226   6.0424181778e+01   5.5406515029e+00    0.3540325    0.2009255  52.00  0.001786393    2.448    0.592
        35 -10.3759    242.9508    223.9572   4.7166839644e+01  -4.2830104529e+00    0.1772124    0.1302903   4.06   0.00101135    1.035    0.034
        36 -10.1614    108.7780    222.5181   7.2541861658e+01   1.4774313442e+01    0.2452483    0.1819008  -7.48  0.001425272    1.965    0.491
        37  -8.7423    157.4865    221.5135   6.2358228405e+01   7.8227055149e+00    0.1248266    0.1021153  26.22 0.0008103516    1.013    0.013
        38  -9.8369    115.0629    220.9376   7.1036686924e+01   1.4155970488e+01    0.1890001     0.161005  29.16 0.0005985845    1.119    0.106
        39  -9.5988     74.6873    218.9041   7.9412412660e+01   2.0038150996e+01    0.2490679    0.1597583  51.87  0.001057292    1.319    0.242
        40  -9.1115    143.5005    216.6127   6.4525752328e+01   1.0693916253e+01    0.2233321    0.1267999 -49.88  0.001192871    2.104    0.525
        41  -9.7335    131.2765    214.7250   6.6831565832e+01   1.2850453465e+01    0.2909716     0.181624 -58.79 0.0009757045    2.010    0.502
        42  -9.8236     84.4971    216.5290   7.7087147258e+01   1.9206422325e+01    0.2269424    0.1207457 -67.17  0.001099371    2.159    0.537
        43  -9.5656    190.6285    215.3240   5.4960554926e+01   3.8386486397e+00    0.2254841    0.1462283 -30.89  0.001348296    1.642    0.391
        44 -10.3749    170.3274    215.2716   5.8885169651e+01   6.8579412272e+00     0.258724    0.2128159  10.41 0.0007634373    1.101    0.092
        45  -9.3287    152.2355    215.8986   6.2625273441e+01   9.4913857925e+00    0.2481626    0.1477308  13.34  0.001222413    2.160    0.537
        46 -10.5146    121.5471    222.5461   6.9867032369e+01   1.2944602512e+01    0.2603793    0.1957077  68.68  0.001592188    1.634    0.388
        47  -8.5777    174.5004    222.5153   5.9148422738e+01   5.1695297581e+00    0.1238746   0.09891538  19.45 0.0008104497    1.015    0.015
        48 -10.3550     22.9149    215.2332   9.0002911237e+01   2.6596022720e+01    0.2985429    0.1309503  31.26  0.001632766    2.126    0.530
        49  -9.0849    228.3213    214.3131   4.8021858412e+01  -1.2984727749e+00    0.1225116   0.07312713   4.08 0.0007038977    1.654    0.395
        50 -10.1403     77.2106    211.4286   7.8174233009e+01   2.1146322243e+01    0.2693549    0.2548901 -79.36  0.001906148    1.237    0.192
        51  -9.7163    115.8981    210.1751   6.9545641635e+01   1.5955750339e+01    0.2043205    0.1561907  54.72 0.0009080691    1.295    0.228
        52  -9.6623    212.0932    207.8220   4.9774082576e+01   1.7651109795e+00    0.3283883    0.1775854  40.69  0.001786847    1.925    0.481
        53 -10.3759    124.0176    205.9851   6.7221782564e+01   1.5499187277e+01    0.1853103     0.159566  36.93            0    1.001    0.001
        54  -8.8431     98.8055    205.9394   7.2800755915e+01   1.9250278868e+01    0.2101322    0.1339061  72.40  0.001078782    2.021    0.505
        55  -9.3614     12.1713    206.6124   9.1809537053e+01   2.9308321594e+01    0.1382581    0.1026496  22.05 0.0005646757    1.668    0.401
        56  -9.3135    212.1752    203.0986   4.8956289731e+01   2.3908275411e+00    0.1946524    0.1416904   3.53  0.000755372    1.206    0.171
        57  -9.0390    130.3944    201.7132   6.5225632819e+01   1.5294624244e+01    0.2750143    0.1720345 -59.91  0.001437812    1.973    0.493
        58 -10.6365    172.6880    190.5405   5.4387397527e+01   1.0421219441e+01    0.2823376    0.1940539 -41.75  0.001556444    1.601    0.375
        59 -11.6601    176.5703    197.9351   5.4864547545e+01   8.5888202455e+00    0.5905094    0.3781818   4.70  0.002354205    1.932    0.483
        60 -11.5830    172.9869    195.5463   5.5186580642e+01   9.5476869976e+00    0.3864372    0.3273365 -19.45  0.001347246    1.212    0.175
        61  -9.7741    250.1647    199.6184   4.1925355454e+01  -2.3801031877e+00    0.3396719    0.1248497 -27.81  0.001640774    2.537    0.606
        62  -8.5038     57.9870    201.0000   8.1498104755e+01   2.5664372168e+01    0.1981385   0.06264938  31.80 0.0007952166    2.893    0.654
        63  -9.7271    144.2194    198.1725   6.1676467151e+01   1.3742518672e+01     0.272992    0.2245745 -17.39   0.00144181    1.364    0.267
        64  -8.3397    212.6588    198.6929   4.8104818733e+01   2.9251848775e+00    0.1308326   0.08192255   4.97 0.0006605592    1.686    0.407
        65 -10.8083    126.1451    196.9024   6.5473252578e+01   1.6855489403e+01    0.3748609     0.259935  23.42  0.001152984    1.484    0.326
        66  -9.2532    112.6994    197.9801   6.8660802981e+01   1.8736522041e+01    0.3183014    0.1669363  56.00  0.001419192    2.303    0.566
        67  -9.5438    113.0376    194.2537   6.8072099600e+01   1.9413759347e+01    0.2279271    0.1950987 -42.31 0.0003767465    1.340    0.254
        68  -9.4575    105.0902    197.5543   7.0340123467e+01   1.9969598482e+01    0.2326964    0.1753337 -37.65 0.0009703197    1.641    0.391
        69  -8.8794     88.0000    197.9841   7.4323666227e+01   2.2363120832e+01    0.1929459   0.07331998 -63.23 0.0006139749    2.912    0.657
        70  -9.5907    124.6785    193.0072   6.5231587554e+01   1.7830320152e+01    0.2456547    0.1839704 -29.91  0.001189121    1.628    0.386
        71  -9.0153     66.4984    194.4627   7.8935316448e+01   2.5977684094e+01    0.3093698    0.1465244  63.08  0.001359666    2.521    0.603
        72  -9.7803    162.6313    194.3201   5.7123220971e+01   1.1431053555e+01    0.1952429    0.1583685  66.75  0.001104383    1.727    0.421
        73  -9.7944    248.9304    193.1200   4.0969023200e+01  -1.4315711709e+00    0.2145603    0.1399835  20.63  0.001377027    1.387    0.279
        74  -9.1963    104.4957    189.0084   6.9333896827e+01   2.1780506809e+01    0.2516014    0.2005595   2.76 0.0005806349    1.603    0.376
        75 -10.8815     98.4129    188.5211   7.0707220373e+01   2.2800482756e+01    0.5422255    0.3108206  61.18  0.002517323    2.112    0.527
        76 -11.0870     94.4565    182.9562   7.0908679942e+01   2.4563988660e+01    0.5089968    0.3897752 -67.48  0.002331895    1.403    0.287
        77  -9.8393     16.9601    191.0386   9.0034147535e+01   3.2107141508e+01    0.2896945    0.1715136   2.39  0.001490131    3.029    0.670
        78  -9.7067    138.9183    188.0399   6.1240096247e+01   1.6463790454e+01    0.4404057    0.1663456 -46.41  0.001748974    2.904    0.656
        79  -9.9438    203.8441    187.3848   4.7697384888e+01   5.8934696166e+00    0.3158297     0.262648  81.19   0.00177035    2.324    0.570
        80  -9.2315    129.0410    188.3151   6.3522584321e+01   1.8033848481e+01    0.1982233    0.1638726  39.97 0.0006854367    1.094    0.086
        81 -10.5984     11.0715    187.4642   9.1164789411e+01   3.3388967746e+01    0.2863519    0.1854386  29.54  0.001450594    1.649    0.394
        82 -10.0257    109.5346    184.5845   6.7511302328e+01   2.1909619350e+01    0.3581842    0.3184135  62.43  0.001925284    1.123    0.109
        83  -9.1461    120.0000    184.4107   6.5011078764e+01   2.0274699196e+01    0.2719611   0.07887205 -54.42 0.0009189898    3.809    0.737
        84 -11.3158     20.1394    181.5196   8.8764043144e+01   3.3887191116e+01     0.399635    0.2959712  63.15    0.0013386    1.114    0.103
        85 -10.4706     10.2438    180.0190   9.0978136281e+01   3.5077894104e+01    0.1832918    0.1491002  71.75 0.0004595974    1.045    0.043
        86 -10.3804     14.1130    178.5666   9.0000591683e+01   3.5073144853e+01    0.2689032    0.2362314 -71.76  0.001273696    1.308    0.236
        87  -8.6241     44.2902    182.6575   8.3105581838e+01   3.1196641991e+01    0.1357647   0.07848499  64.25  0.000414694    1.651    0.394
        88  -9.6695    147.8349    179.8125   5.7849015729e+01   1.6513184344e+01    0.2472855    0.1884965 -88.87  0.001235522    2.065    0.516
        89  -9.8615    138.8964    179.7986   5.9872627667e+01   1.8044505824e+01      0.25598    0.1882918  86.16   0.00124036    2.140    0.533
        90 -10.6871      3.1273    178.0059   9.2517242019e+01   3.6088109425e+01    0.3122314    0.2214961  18.31  0.002038193    1.776    0.437
        91  -9.7607     88.7303    177.0212   7.1509119428e+01   2.6700313663e+01    0.2645753    0.2150725  69.36 0.0005557125    1.230    0.187
        92  -9.8214     88.0076    173.0064   7.1134296853e+01   2.7696922815e+01    0.5222217    0.2104883  28.19  0.001952474    2.898    0.655
        93 -10.1117    204.6336    175.3909   4.5292629771e+01   7.5923585654e+00    0.2663052    0.2044452  11.99   0.00156981    1.199    0.166
        94 -10.1645     77.1824    175.5722   7.4212665794e+01   2.8676494495e+01    0.2854537    0.1831729  72.61  0.001059483    1.792    0.442
        95  -8.4459    159.3214    175.6558   5.4554418620e+01   1.5297001091e+01    0.1350992    0.1106879  74.74 0.0007049993    1.729    0.422
        96 -10.0239    148.8499    174.9469   5.6753043483e+01   1.7261692696e+01    0.3095804    0.1975602  27.50  0.001003568    1.586    0.369
        97 -10.0023    105.2631    174.1778   6.6983459625e+01   2.4782395192e+01    0.3949999    0.2343238 -69.06  0.001765189    2.037    0.509
        98  -9.9331     24.2080    174.3530   8.7324932833e+01   3.5117008289e+01    0.2478014    0.1182387  69.01  0.001101152    2.060    0.515
        99  -9.6745    176.7852    169.7340   4.9694192227e+01   1.3287236056e+01    0.4570347    0.1993534 -41.89  0.001905066    2.372    0.578
       100  -8.9971    135.1497    171.2286   5.9245857988e+01   2.0387972926e+01    0.1947309    0.1661128  67.08   0.00107038    1.354    0.261
       101 -10.4774    206.9708    168.5443   4.3515066741e+01   8.2714116827e+00    0.3382826    0.1780079 -35.19  0.001639505    1.837    0.456
       102 -10.4877    121.7857    167.6434   6.1828091847e+01   2.3444743532e+01    0.7222601    0.2884726 -50.90  0.002788635    2.629    0.620
       103 -10.2319     28.6496    169.9009   8.5900430085e+01   3.5713992767e+01    0.1885523     0.176138  32.55 0.0007763318    1.292    0.226
       104  -8.4565     55.3219    169.6548   7.9087980343e+01   3.2874880706e+01    0.1448308   0.08595604  64.46 0.0007049909    1.733    0.423
       105 -11.0381    217.9939    165.4437   4.0898355958e+01   6.9226124290e+00    0.5706339    0.2811152  46.77   0.00264926    2.385    0.581
       106 -10.1761    139.2085    164.7765   5.7102337971e+01   2.0976866390e+01    0.6221669    0.2828678 -60.24  0.002195327    3.377    0.704
       107 -11.1981    146.2999    162.8935   5.5077542350e+01   2.0072956812e+01    0.5257677    0.3533777  62.72 0.0004087388    2.063    0.515
       108 -10.5584    142.4349    158.7195   5.5168887865e+01   2.1623999810e+01    0.6615066    0.2272815  42.43  0.002297291    2.786    0.641
       109  -8.8326     19.2783    166.6779   8.8009653187e+01   3.7318940182e+01    0.1307029    0.0743778  64.72 0.0002543571    1.583    0.368
       110  -9.7325     98.4970    164.3171   6.7142148395e+01   2.8036125090e+01    0.4400254    0.2539956 -47.39  0.002021156    1.898    0.473
       111  -9.4845     80.4912    164.5178   7.1871713097e+01   3.0727173630e+01    0.3230785    0.1767018  78.78  0.001249828    2.938    0.660
       112 -11.7427    248.5702    154.1004   3.3584171221e+01   3.7207572565e+00    0.9920644    0.3013462 -31.92   0.00397632    2.893    0.654
       113  -9.0767    177.8443    160.7359   4.7672817767e+01   1.4693307274e+01    0.2504118    0.1888448 -68.49  0.001221895    2.064    0.516
       114 -10.0443     92.4961    159.2945   6.7904666438e+01   3.0128489276e+01    0.3795716    0.2412041 -75.23  0.001768621    1.844    0.458
       115  -8.6840    128.5033    158.9932   5.8596256066e+01   2.4103791300e+01    0.1930612    0.1303665 -82.58 0.0006055848    2.392    0.582
       116  -9.2101    197.4025    158.1826   4.3217328503e+01   1.1599562245e+01    0.1880865      0.12412 -45.20 0.0005517939    1.689    0.408
       117  -9.6362    188.6519    157.1362   4.4717680546e+01   1.3354358533e+01    0.2953293    0.1678937 -48.75  0.001326403    2.095    0.523
       118  -9.4102    167.7892    157.1389   4.9075639225e+01   1.7211529601e+01     0.306953    0.1965115 -60.97  0.001340362    2.304    0.566
       119 -10.1205    105.2566    156.5470   6.4071926134e+01   2.8689821871e+01    0.5019545    0.2513303 -56.25  0.001240135    2.070    0.517
       120 -10.9146    209.7768    156.6889   4.0585175850e+01   9.6663083481e+00     0.330926    0.2131269  57.08  0.001594069    2.292    0.564
       121  -9.4051    157.5205    155.5939   5.1036357234e+01   1.9434740396e+01     0.256694    0.1384893 -55.68  0.001031509    2.413    0.586
       122  -8.3553    178.3560    155.3036   4.6438477646e+01   1.5576608744e+01    0.1495427     0.105482   5.13 0.0007039635    1.714    0.417
       123  -9.3298    138.2184    147.3994   5.3880511097e+01   2.4769200002e+01    0.4013851    0.2399455 -46.97  0.001782157    1.721    0.419
       124  -9.9360    134.1865    147.5719   5.4913157537e+01   2.5497823770e+01    0.3634841    0.2773631  -0.81  0.001730882    1.691    0.409
       125  -9.3953    134.5684    154.4677   5.6223047843e+01   2.3959047101e+01    0.2485215     0.231892  66.33 0.0008019498    1.157    0.135
       126  -9.8256    132.3188    151.6726   5.6217804782e+01   2.4969795022e+01    0.2856945     0.237472  85.49 0.0009305156    1.509    0.337
       127  -9.4971    119.2447    153.6817   5.9913732059e+01   2.6912711540e+01    0.4473981    0.2447164 -63.86   0.00181467    2.315    0.568
       128  -9.1181     49.4809    154.6387   7.8942729698e+01   3.7125139686e+01    0.2874714    0.1532928  70.56 0.0009474847    2.219    0.549
       129 -10.4188    208.3223    151.6541   3.9791821112e+01   1.0729739729e+01    0.2749129     0.183131 -57.16 0.0009609849    2.318    0.569
       130 -10.3939    205.5069    149.9832   3.9953471936e+01   1.1504987972e+01    0.3187167    0.2025768 -15.18  0.001542143    1.759    0.432
       131  -9.5878     99.5614    152.6951   6.4902380793e+01   3.0519242732e+01    0.4207902    0.2465889 -79.92  0.001578845    2.545    0.607
       132  -9.0393     95.8234    154.3666   6.6197281105e+01   3.0741034254e+01    0.1994598    0.1349372  23.98 0.0004091784    1.693    0.409
       133  -9.9226     81.6727    154.0320   6.9983771976e+01   3.3012150546e+01    0.3199425    0.2054691  74.50  0.001056575    1.967    0.492
       134 -10.2224     68.1407    153.2401   7.3597474925e+01   3.5122665038e+01    0.4357136    0.2617592  88.48  0.001971368    2.034    0.508
       135 -11.0430    189.8244    150.0045   4.2968943173e+01   1.4378347681e+01    0.3855007    0.3167469 -59.29  0.001661727    1.588    0.370
       136  -8.6892    162.4022    150.5739   4.8883449937e+01   1.9483509037e+01    0.2726402    0.1306722 -56.49 0.0009484437    3.210    0.689
       137  -9.0161    182.6792    150.3793   4.4494038529e+01   1.5653179443e+01    0.2111385    0.1805188 -88.51  0.001114381    1.712    0.416
       138 -10.2713    223.5433    148.1398   3.6363132081e+01   8.6288488714e+00    0.3488795     0.226788  33.71  0.001795952    1.590    0.371
       139  -9.8786    200.1524    148.3954   4.0614827728e+01   1.2741728549e+01    0.2400171    0.2175965  85.53 0.0008542493    1.559    0.359
       140 -10.3189     57.3940    146.4225   7.5672312026e+01   3.8180069236e+01     0.691817    0.3015317  62.82  0.002388407    3.559    0.719
       141  -9.0349     27.6705    148.5024   8.4332457926e+01   4.0881215056e+01    0.2656631    0.1233608  72.08  0.001139885    2.455    0.593
       142  -8.9557    142.5616    147.7581   5.2898230713e+01   2.3863790548e+01    0.2835623    0.1420221 -42.60  0.001140896    2.069    0.517
       143 -10.4714    149.1561    144.8662   5.0700244320e+01   2.3186616845e+01    0.5936383    0.3933426 -72.99  0.001931605    2.558    0.609
       144  -9.6415    149.0120    137.2677   4.9045209297e+01   2.4779722081e+01    0.3004888    0.1972312 -17.36   0.00124504    2.141    0.533
       145  -9.0960     39.2667    147.1455   8.0937613718e+01   4.0075725727e+01    0.2679521    0.1335742  55.91  0.001009569    2.082    0.520
       146 -10.5559    106.7622    142.7743   6.1093970434e+01   3.1595509644e+01    0.8227879    0.4379492 -66.58  0.003206792    2.407    0.584
       147 -10.3919     78.3115    144.1791   6.9327115870e+01   3.5878265403e+01    0.4693424    0.1663287 -54.89  0.001709538    2.680    0.627
       148  -9.4563     83.7887    122.7864   6.3682940017e+01   4.0285303977e+01    0.4026458    0.2255764 -31.30  0.001500241    2.746    0.636
       149  -9.7825    143.0207    130.1615   4.8854142089e+01   2.7479116856e+01    0.5938588    0.2026642 -41.74  0.001902783    3.048    0.672
       150 -11.8154    182.3780    117.5362   3.6935105570e+01   2.1707621238e+01     1.234375    0.6051662 -25.21  0.004483282    2.657    0.624
       151 -11.0178    206.8559    141.8439   3.7935670397e+01   1.2599667947e+01    0.3716474    0.3633661 -14.79  0.002310927    1.215    0.177
       152  -8.6753     22.3272    131.3465   8.4199369368e+01   4.5581432804e+01    0.1359019   0.08669797 -46.44  0.000705006    1.751    0.429
       153  -9.5269    172.4742    137.8248   4.3850199555e+01   1.9956664824e+01    0.4061942    0.2271693 -56.74  0.001224572    2.566    0.610
       154  -9.9356    192.8483    129.3329   3.7719199679e+01   1.7429749050e+01    0.3660134     0.196531 -42.53  0.001355756    1.845    0.458
       155  -9.7562    168.9437    128.8559   4.2517515731e+01   2.2393391769e+01    0.4168082    0.2571468 -51.95   0.00158167    1.858    0.462
       156 -10.2877    153.0170    127.6563   4.5845241798e+01   2.5941136095e+01    0.7115794    0.2388587 -45.53  0.002290043    3.032    0.670
       157 -10.7358     98.6194    127.0992   6.0149004042e+01   3.6730812258e+01    0.6577096    0.4010103 -80.20  0.002306461    2.567    0.611
       158 -10.4634     98.8434    120.2317   5.8550968262e+01   3.8337036584e+01    0.7663105    0.4712502  10.09  0.002791614    2.952    0.661
       159 -10.0634     73.0124    128.3983   6.8115408292e+01   4.0549288495e+01    0.4442338    0.2523363 -80.01   0.00180528    2.266    0.559
       160  -8.9262     12.8595    129.2414   8.6851703525e+01   4.6833262359e+01    0.2345557   0.09254066  60.36 0.0009507023    2.870    0.652
       161 -10.6706     59.6457    124.2306   7.1548189680e+01   4.3443530291e+01    0.5986865    0.3023127  73.57  0.001997277    3.741    0.733
       162 -10.1948     44.2124    122.9735   7.6291416933e+01   4.5607815250e+01    0.5541854    0.2647842  67.46  0.002039681    3.180    0.686
       163  -9.7976     29.4011    123.2419   8.1083270570e+01   4.7012079155e+01    0.3720953    0.1672188  65.23  0.001449963    2.952    0.661
       164  -9.6674     26.8286    119.7490   8.1475079192e+01   4.8123742515e+01    0.2831359    0.2054327 -47.04  0.001451535    1.460    0.315
       165  -9.3505     38.9822    131.5083   7.9137366507e+01   4.3999029072e+01    0.1913171     0.133304  29.68 0.0006555013    1.562    0.360
       166 -10.2609    116.4230    124.6384   5.4516638007e+01   3.4014078835e+01    0.6118014    0.3940108  46.13  0.002448002    1.572    0.364
       167  -9.3700    165.8751    143.8333   4.6644022613e+01   2.0114005821e+01    0.2671081    0.1977659 -71.30   0.00122264    2.031    0.508
       168  -9.4866    172.7991    120.3530   3.9615478085e+01   2.3215427279e+01    0.3737825    0.2086253 -44.31  0.001317049    1.796    0.443
       169  -9.6089    158.4557    120.2213   4.2753693973e+01   2.6301420226e+01    0.4309468    0.2593198 -45.92  0.001849449    1.683    0.406
       170 -10.6654    141.6579    117.2412   4.6029462350e+01   3.0504549409e+01     0.915512     0.337515 -47.02  0.003015015    2.780    0.640
       171 -10.0080     70.9391    118.8090   6.6913042334e+01   4.3253094340e+01    0.5090333    0.2088689 -61.61  0.001893536    2.375    0.579
       172 -10.0975    130.4787    116.9784   4.8838297629e+01   3.2913972240e+01    0.5945441    0.2927292 -49.79  0.002010076    2.094    0.522
       173 -10.1743    124.7218    141.2474   5.5990518784e+01   2.8667133446e+01    0.7127308    0.3227029 -60.03  0.002459244    2.980    0.664
       174  -9.4160      3.5174    117.8499   8.8748913995e+01   5.0259724994e+01    0.3128955    0.1010496  62.64  0.001083296    4.132    0.758
       175 -11.1315    108.7248    112.3748   5.3734274323e+01   3.8346392004e+01    0.8984255     0.344845 -53.60   0.00297078    2.776    0.640
       176 -10.2943     92.4661    111.7156   5.8494938095e+01   4.1524782765e+01    0.5891542    0.3347519 -70.59  0.002200935    2.428    0.588
       177  -9.4726     92.8506    104.4459   5.6566815715e+01   4.3204515303e+01    0.4332563    0.2984688 -16.68  0.001807134    2.145    0.534
       178 -10.1116     79.2952    112.7070   6.2916933312e+01   4.3498925029e+01    0.5112445     0.313478  76.31  0.001940121    2.728    0.633
       179  -9.9097     87.8996    143.3871   6.6460030206e+01   3.4602127744e+01    0.3572047    0.2088457 -74.10  0.001168411    2.070    0.517
       180  -9.4214     88.1933    138.1172   6.5409640875e+01   3.5826529184e+01    0.4198247    0.2098719 -36.73   0.00151124    2.966    0.663
       181 -10.9267     15.0546    112.4576   8.4487115906e+01   5.0884137503e+01    0.3593331    0.2275555  89.33  0.001691294    1.455    0.312
       182 -10.8427     18.1054    104.2227   8.2447331610e+01   5.2755141615e+01    0.4682448    0.3131045 -38.98  0.001998555    1.652    0.395
       183  -9.9170    159.2301    110.2758   4.0027137194e+01   2.8115188051e+01    0.5309802     0.208696 -38.40   0.00181828    2.544    0.607
       184 -10.6580    122.2316    110.1501   4.9311632962e+01   3.6140314627e+01    0.6609071    0.2792212 -38.27  0.002207228    2.725    0.633
       185  -9.2414     30.7788    106.1978   7.8251739568e+01   5.1230823017e+01     0.431519    0.2069552  70.00  0.001483184    3.140    0.682
       186 -11.0496     24.4979    102.9284   7.9993637318e+01   5.2599285530e+01     1.263351    0.4480477  62.01  0.003198085    7.454    0.866
       187 -10.5985     66.0609    108.7352   6.6431315020e+01   4.6490193818e+01    0.6011672    0.3024777 -67.85  0.002400888    2.145    0.534
       188  -9.9261    133.5215    108.4919   4.5832466686e+01   3.4117353271e+01    0.4841717    0.2792655 -48.76  0.001733632    1.767    0.434
       189 -10.4794     60.9486    106.5989   6.7726814448e+01   4.7738172016e+01    0.4136648    0.2415904 -33.66  0.001738251    2.219    0.549
       190  -9.6429     78.0471    106.2681   6.1842366262e+01   4.5291411277e+01    0.3341607    0.2152594 -15.50  0.001311976    2.596    0.615
       191  -9.9068    139.5851    102.5343   4.2651852749e+01   3.4053498935e+01    0.5964226    0.2868956 -41.21  0.002233175    2.059    0.514
       192 -10.2222     45.4047    101.6916   7.2231236721e+01   5.0907851914e+01     0.627476    0.3104208  67.13    0.0021666    3.684    0.729
       193 -10.3560    149.9410    100.4247   3.9526683476e+01   3.2158407505e+01    0.7259288    0.2561881 -45.51  0.002305715    2.914    0.657
       194  -9.8227    166.8167    101.9235   3.6124950959e+01   2.8037123937e+01    0.4229226    0.2440755 -29.42  0.001726442    1.870    0.465
       195 -10.2524    128.8537     99.5682   4.4624378638e+01   3.7048993301e+01    0.6286835    0.3370524 -31.38  0.002322161    2.279    0.561
       196  -9.4908    159.7258     98.9779   3.6872349990e+01   3.0213694638e+01    0.4605267     0.194994 -36.39   0.00161976    2.378    0.579
       197 -10.3073    108.7730     98.2444   4.9965132093e+01   4.1589164081e+01    0.5995889    0.4096898  79.02  0.002057509    2.404    0.584
       198  -9.5936    108.2500     91.8796   4.8298418650e+01   4.3127662126e+01    0.4045656    0.3001527   3.85  0.001448592    1.876    0.467
       199  -9.5225     81.7907     98.7628   5.8727476690e+01   4.6511700418e+01    0.4458794    0.2168995 -66.73  0.001535075    2.868    0.651
       200 -10.0595     94.8257     96.0714   5.3699691626e+01   4.4822191265e+01    0.6257767    0.2124488 -51.32  0.001995324    2.922    0.658
       201 -10.1139     63.9680     95.9655   6.4253830162e+01   4.9985547783e+01    0.4823351    0.2983523  80.12  0.001685268    2.721    0.632
       202  -9.6752    182.2767    141.5987   4.2645291988e+01   1.7318339721e+01    0.3045928    0.2135218 -62.89   0.00106443    2.103    0.524
       203 -10.6724     69.5596    140.4919   7.1254120657e+01   3.8038698208e+01    0.5478551    0.2843703  80.59  0.001879601    3.547    0.718
       204  -8.8193      3.3307    142.6924   9.0591461696e+01   4.4202220609e+01    0.1322314   0.07297614  61.88 0.0007039763    1.663    0.399
       205 -10.6466    247.1901    247.7793   5.0142861384e+01  -7.2625584385e+00    0.2479362    0.1625029  19.88  0.001120706    1.221    0.181
       206  -9.8592    138.4575     89.4529   3.9189555549e+01   3.6992223687e+01    0.5254869     0.257816 -35.86  0.001948229    2.118    0.528
       207  -8.9629     57.8449     91.8296   6.5499862257e+01   5.1863754673e+01    0.1896701     0.164869  72.03  0.000351671    1.279    0.218
       208  -9.8962     44.6176     91.7572   7.0488182937e+01   5.3514128952e+01    0.4139375    0.2076236  15.38   0.00169605    2.684    0.627
       209  -9.7343    124.4093     90.2487   4.3134640842e+01   4.0012327545e+01    0.4064853    0.2708236 -61.33  0.001326809    1.862    0.463
       210  -9.8182    124.4952     86.0005   4.1827771179e+01   4.0882146700e+01    0.6939898      0.42612   2.85  0.002128188    3.975    0.748
       211 -10.0336     34.6027     89.0345   7.3801418541e+01   5.5243676685e+01    0.5172088    0.2359399 -83.02  0.001872348    3.163    0.684
       212  -9.3578     22.5333     90.9674   7.8861767222e+01   5.5792150287e+01    0.2062709   0.07308809 -50.19 0.0007832207    2.506    0.601
       213 -12.0943    197.6268    136.9304   3.8555361055e+01   1.5168491813e+01    0.6884869    0.4620126  -9.49  0.003261963    1.794    0.443
       214  -9.2737     23.4763    138.1319   8.4535986818e+01   4.3798347489e+01    0.3548963    0.1405032  65.21  0.001341622    3.229    0.690
       215  -9.4809     64.2804     87.1228   6.1895204407e+01   5.2117345692e+01    0.3264945     0.221126 -14.03  0.001439393    2.091    0.522
       216  -9.7582     86.4863     86.4612   5.3726036500e+01   4.8608351287e+01    0.3168502    0.2651477  85.58  0.000876857    1.470    0.320
       217 -10.5367    188.3036    135.3013   3.9995672815e+01   1.7272286809e+01     0.505628    0.2280104 -42.10  0.002000887    2.193    0.544
       218  -9.1856    116.7925     83.1452   4.3117144138e+01   4.3194165848e+01    0.2784004    0.2080247 -21.25 0.0005693424    1.565    0.361
       219 -10.1611    104.3420     82.5110   4.6662016310e+01   4.6001716457e+01    0.4666941    0.2761409 -59.06  0.001347656    2.087    0.521
       220  -9.5498     48.1940     83.9505   6.7292479878e+01   5.5049168111e+01    0.3041355    0.1924534  67.91  0.001328633    2.311    0.567
       221  -9.8811      7.6022     84.2063   8.3693651256e+01   5.8454048579e+01     0.272327    0.1223713 -62.04 0.0005707622    1.745    0.427
       222 -10.1214    140.7328     80.9311   3.6045813606e+01   3.8137779851e+01     0.470281    0.2073831 -35.45  0.001658105    2.337    0.572
       223  -9.8738    186.9030    128.2566   3.8630332522e+01   1.8818653002e+01    0.4111866    0.2347838 -34.57  0.001058703    1.692    0.409
       224 -10.1573     87.3513     80.2012   5.1530391397e+01   4.9881512088e+01    0.5316371     0.290932  15.50   0.00164713    4.000    0.750
       225  -9.3727     24.5518     80.5490   7.6174663994e+01   5.8257131117e+01     0.295864     0.172033  67.78  0.001347686    2.350    0.574
       226  -9.3511    196.0131    248.4990   5.8831533428e+01  -1.1735801987e+00    0.1752255    0.0863997  32.01  0.001033055    1.591    0.371
       227 -10.1609    116.7912    119.4372   5.3173000491e+01   3.5135769992e+01    0.3990593    0.3720651 -49.63  0.001575792    1.068    0.064
       228 -10.8623    188.2408    122.5853   3.7008814927e+01   1.9565897554e+01    0.3751471    0.2448068 -38.77  0.001325393    1.465    0.318
       229  -9.2088    119.4143     77.8648   4.0691349440e+01   4.3698356320e+01    0.4344754    0.1514249 -39.50  0.001368259    2.895    0.655
       230  -9.3173    150.3771     77.7323   3.2791679657e+01   3.6430867399e+01    0.2238577    0.1471783 -25.34 0.0009473402    1.691    0.409
       231  -9.0065    174.8345     76.1877   2.7284391504e+01   3.0794279961e+01     0.209217    0.1800113  16.41 0.0007546404    1.323    0.244
       232  -8.7470    167.7574     75.4360   2.8425500625e+01   3.2628624431e+01    0.2124731     0.141215  43.95 0.0009435767    1.597    0.374
       233  -9.1762    127.6181     74.7940   3.7447155510e+01   4.2418454024e+01    0.3334962    0.2125926 -52.35  0.001398648    1.739    0.425
       234  -9.5572    128.2741     70.2831   3.5793856136e+01   4.3127664893e+01     0.390297    0.2652149  -0.83  0.001543803    2.287    0.563
       235 -10.1606     10.5231     74.2108   8.0952370480e+01   6.0781593555e+01    0.2933772    0.1959013  18.88 0.0003265535    1.761    0.432
       236  -9.3880    138.5739    137.2870   5.1595888086e+01   2.6853955425e+01    0.2877136    0.1474018 -50.72  0.001134604    2.066    0.516
       237 -10.0220    193.6076    134.7984   3.8839868289e+01   1.6318779763e+01    0.2540627    0.2119325  64.15 0.0006969319    1.534    0.348
       238 -10.8716    111.1693    128.8849   5.6951844336e+01   3.4030552530e+01    0.6368176    0.4621857 -61.40  0.003005343    1.465    0.317
       239  -9.5634     82.1646     72.2614   5.0812619099e+01   5.2618594767e+01    0.2782608    0.1981336 -75.10 0.0008715434    2.028    0.507
       240  -8.9766    115.7201     71.1320   3.9528800249e+01   4.5884284127e+01    0.3815012    0.1378478 -37.76  0.001219674    2.850    0.649
       241  -8.7813     74.5219     80.0411   5.6069923582e+01   5.2197085457e+01    0.2129174    0.1326864 -76.40 0.0008099588    2.599    0.615
       242  -9.4741     49.0333     76.9791   6.5160378829e+01   5.6655252945e+01    0.2471936     0.157942 -28.74  0.001146413    1.839    0.456
       243  -8.8865    105.5015     71.0021   4.2542825334e+01   4.8182174294e+01    0.2233927    0.1323557 -62.98 0.0008106115    2.572    0.611
       244  -9.5488    106.2270     67.1903   4.1006949798e+01   4.8790604242e+01    0.3281296    0.1994732  -4.32  0.001059604    3.562    0.719
       245  -9.4744     94.9564     70.3391   4.5713886394e+01   5.0542840479e+01    0.3936844    0.1950536 -58.55  0.001327388    3.008    0.668
       246 -10.1298     29.1207     69.9804   7.1903285943e+01   6.0484110382e+01    0.5582657    0.2228367 -23.46  0.001459184    7.090    0.859
       247  -9.0368    163.1977     69.6461   2.7591563737e+01   3.4728149979e+01    0.2964839    0.2020126   0.44  0.001217545    2.179    0.541
       248  -9.8018     51.2060     69.0266   6.1985309558e+01   5.8277165470e+01    0.3796546    0.2272516 -80.91  0.001499202    2.829    0.647
       249  -9.0174      1.3791     68.8302   8.4080747041e+01   6.2543247842e+01    0.1940652   0.08645512 -62.40 0.0008252172    1.705    0.413
       250  -8.2779    157.3141     68.3254   2.8379734300e+01   3.6401990673e+01    0.1573491    0.1199149  16.70 0.0003723116    1.666    0.400
       251  -9.0136    147.4174     63.8126   2.9057384640e+01   3.9623951080e+01    0.2518944    0.1858856  17.16  0.001117502    1.765    0.433
       252  -9.4534    162.5839    135.8919   4.5581644461e+01   2.2321445515e+01    0.2879375    0.1820244 -54.45  0.001179249    1.882    0.469
       253  -9.5575    179.9054    132.9867   4.1163330126e+01   1.9370281055e+01     0.412838    0.1948194 -45.36  0.001627435    2.213    0.548
       254 -10.2085     83.0700     64.9557   4.7982287810e+01   5.4025591306e+01    0.4630826    0.2714956 -12.47  0.001545242    3.533    0.717
       255  -9.1230    121.5917     63.2747   3.5192664039e+01   4.6018733146e+01    0.5297934    0.2040575 -30.66  0.001652471    3.195    0.687
       256 -10.1045    131.9998    131.0200   5.1835330096e+01   2.9516862881e+01    0.5908592      0.30817 -60.71  0.002066075    2.634    0.620
       257  -9.5725     18.0036     61.9700   7.5118721784e+01   6.3306560682e+01    0.2242107    0.1225571 -40.90 0.0005809304    1.704    0.413
       258 -10.5326     83.3520    131.1047   6.5493419273e+01   3.8307117373e+01    0.6080462    0.3640402 -80.85  0.001933232    2.261    0.558
       259  -9.2457    100.3199     59.6699   4.0167070931e+01   5.1554410333e+01    0.2492735     0.173776 -79.55 0.0009917753    2.485    0.598
       260  -9.3848    100.0614     55.2215   3.8587273648e+01   5.2449494466e+01    0.4095329    0.2066696 -22.16   0.00137922    3.091    0.677
       261  -9.4802     73.1961     59.3223   4.9672873310e+01   5.7032511552e+01    0.3361587     0.182804 -55.17  0.001157732    2.116    0.527
       262  -9.2677    110.8680     58.7276   3.6593353323e+01   4.9362397377e+01    0.2624612    0.1648849  11.60 0.0009474484    2.794    0.642
       263  -9.4594      7.5126     57.5168   7.9209889169e+01   6.5004421106e+01    0.1257008     0.108001 -69.19 5.660738e-05    1.108    0.097
       264  -9.7173    132.3143    125.3520   5.0419161008e+01   3.0697354426e+01    0.2748327    0.2174667  24.92  0.001322471    1.376    0.273
       265  -9.0345     39.4966     57.5012   6.3638774725e+01   6.2391580047e+01    0.1391954    0.1201585 -38.07 0.0008105455    1.026    0.026
       266  -9.4377      1.6017     55.1975   8.1669686869e+01   6.5824042301e+01    0.1978383   0.08349261 -59.50  0.000956569    1.761    0.432
       267  -9.1624     62.5489     54.5259   5.2224318281e+01   5.9853707948e+01    0.1424344    0.1316848 -27.75 1.656325e-05    1.033    0.032
       268  -9.2398     26.0062     54.5099   6.9263841978e+01   6.4444850645e+01    0.1885894   0.09968429 -17.78  0.000810338    2.581    0.613
       269  -9.2727     92.4260     50.1446   3.9116675539e+01   5.5043706719e+01    0.3467294     0.127597 -46.40  0.001135555    3.098    0.677
       270  -8.5284     31.2997     51.6336   6.5731345095e+01   6.4608096592e+01    0.1299715    0.1030206  79.49 0.0007033166    1.731    0.422
       271  -8.4048    164.3110     59.3408   2.4201553288e+01   3.6135905570e+01    0.1554836    0.1170313  19.31 0.0007045484    1.695    0.410
       272 -11.6440     45.4855     48.9519   5.7819475212e+01   6.3553581732e+01    0.2718198    0.2290278 -27.67 0.0001106962    1.079    0.074
       273  -9.1743     63.7995     46.8109   4.8659426193e+01   6.1219819963e+01     0.247116    0.1489559  -6.98  0.000950263    2.847    0.649
       274  -8.8235     81.8296     46.6216   4.1419648745e+01   5.7893043304e+01    0.1946006    0.1382685  54.34  0.000473918    1.603    0.376
       275  -9.5890     23.0553     46.5004   6.8336514841e+01   6.6533533787e+01    0.2599741    0.1297769  10.26  0.001197536    2.468    0.595
       276  -8.9114    150.0000     43.9644   2.1918864922e+01   4.2094463364e+01     0.243153   0.08464707 -30.02  0.000797031    2.905    0.656
       277  -8.6389      1.4788     46.0240   7.9849349989e+01   6.7986529313e+01     0.184018    0.1012218 -66.17  0.000413364    1.483    0.325
       278 -11.3645    167.5499    247.4800   6.3871595549e+01   2.7115742840e+00    0.4529984    0.1896254  25.19  0.002178126    2.438    0.590
       279  -9.2465    123.5057     40.4597   2.6363507254e+01   4.9347507792e+01    0.2619576    0.1902876  22.63 0.0005983764    1.644    0.392
       280  -8.9858     84.0230     39.9344   3.7800880229e+01   5.8621149821e+01    0.2395967    0.1697751  11.85  0.001074585    1.732    0.423
       281 -10.0966      5.0457     41.1129   7.6682080881e+01   6.8958808726e+01    0.3558244    0.1539459 -82.71  0.001411666    3.391    0.705
       282  -9.4624      6.5176     33.5114   7.3629462419e+01   7.0586271822e+01    0.1259597    0.1000743 -44.81 1.173587e-05    1.006    0.006
       283  -9.6167    117.3052    113.9357   5.1662988274e+01   3.6290875714e+01     0.402258    0.2055644 -41.74  0.001184048    2.027    0.507
       284  -8.5760     60.6548     32.3377   4.3647708044e+01   6.4453866212e+01    0.1327968    0.1132077 -82.35 0.0007048576    1.776    0.437
       285  -9.0755     26.3284     36.5646   6.3027189335e+01   6.8406658018e+01    0.2294443    0.1068596 -54.04  0.001064519    1.910    0.476
       286  -9.3332     44.3311     25.1533   4.7965980345e+01   6.8378921012e+01    0.2106696    0.1640954  11.08 0.0004155968    1.260    0.206
       287  -8.5452    118.5252     24.4939   2.1247587505e+01   5.2757303667e+01    0.1446817    0.1359048  42.94 5.425865e-05    1.017    0.016
       288  -8.8346    110.5100     24.4677   2.3128343517e+01   5.4767149702e+01    0.1443622    0.1348969  38.22 3.277116e-05    1.010    0.010
       289  -9.9731     13.1590     21.1156   6.4691231592e+01   7.2757582868e+01    0.2437004    0.2005493  10.58 0.0006940055    1.314    0.239
       290  -9.8562    188.6636     20.5168   8.8460442204e+00   3.5176722316e+01    0.2363477      0.12354 -26.88    0.0010732    1.917    0.478
       291  -8.6710     84.9540     21.4877   2.9035729073e+01   6.1197323233e+01    0.2048853    0.1334218  53.09  0.000506931    1.506    0.336
       292  -8.5250     41.0137     21.0376   4.7588989909e+01   6.9582545581e+01    0.1570725    0.1341932  -5.53 0.0003475781    1.030    0.029
       293  -9.6293     30.6977     19.0059   5.2404565293e+01   7.1348824111e+01    0.1821906    0.1431453 -25.79 0.0003550022    1.091    0.083
       294  -8.5687     50.5089     15.4707   3.9626954233e+01   6.8935470064e+01    0.1365789    0.1113628   3.37 0.0001031275    1.108    0.097
       295  -9.3942    107.4473    247.5829   7.5385636548e+01   1.0812278782e+01    0.2184385    0.1529437  72.80  0.001420042    1.799    0.444
       296  -9.5074     29.9906    243.7352   8.9961107914e+01   2.0633431132e+01    0.1339591   0.07372077  38.16 0.0004186883    1.481    0.325
       297 -10.7745      6.5505    243.1977   9.4192533060e+01   2.2972871774e+01    0.2992367    0.1199765  31.74  0.001773878    2.224    0.550
