#   1 NUMBER                 Running object number                                     
#   2 MAG_AUTO               Kron-like elliptical aperture magnitude                    [mag]
#   3 X_IMAGE                Object position along x                                    [pixel]
#   4 Y_IMAGE                Object position along y                                    [pixel]
#   5 X_WORLD                Barycenter position along world x axis                     [deg]
#   6 Y_WORLD                Barycenter position along world y axis                     [deg]
#   7 A_WORLD                Profile RMS along major axis (world units)                 [deg]
#   8 B_WORLD                Profile RMS along minor axis (world units)                 [deg]
#   9 THETA_WORLD            Position angle (CCW/world-x)                               [deg]
#  10 FWHM_WORLD             FWHM assuming a gaussian core                              [deg]
#  11 ELONGATION             A_IMAGE/B_IMAGE                                           
#  12 ELLIPTICITY            1 - B_IMAGE/A_IMAGE                                       
         1 -14.1715    222.6907    101.3104   6.0561614540e+01   1.5377559432e+01     2.223923    0.8172253 -41.62  0.008039273    2.489    0.598
         2 -14.4886    133.7590     55.3667   6.5096445488e+01   4.4492911005e+01     1.968017     1.066331 -41.94  0.005103891    1.917    0.478
         3 -13.4270    123.3273     26.2401   5.7282077588e+01   5.1070471225e+01     1.650391    0.7318827 -21.55  0.006610525    2.581    0.613
         4 -14.6395     15.8777     42.9973   1.0265455742e+02   6.5843025676e+01     1.253041    0.8457221 -54.72  0.005133995    1.323    0.244
         5 -13.7344    218.1238     53.5410   4.9179605768e+01   2.4058270766e+01     1.311642    0.8846365 -26.50  0.005319794    1.574    0.365
         6 -13.9302    233.7545     48.5099   4.6005210668e+01   2.1177956781e+01     1.493585     1.035338 -73.81  0.005570309    1.546    0.353
         7 -13.7634    200.1092     37.0066   4.7227289280e+01   3.0671711871e+01     1.210572    0.8011693  65.91  0.004983525    1.472    0.321
         8 -14.1642    199.7085     22.0256   4.3255961355e+01   3.2608077001e+01     2.004156      1.12486 -69.46  0.007566584    2.112    0.526
         9 -13.3048     64.0175     33.2835   7.8234484911e+01   6.2096034818e+01    0.7759848    0.6638503  14.58  0.002874158    1.137    0.120
        10 -12.7740     86.2562     25.4400   6.7050161635e+01   5.9250829905e+01    0.9627686    0.6191335  10.16  0.003853835    1.794    0.442
        11 -14.5951     84.3126      7.6264   5.9853493038e+01   6.1666531251e+01     1.596612    0.9517778  31.18  0.006988388    1.561    0.360
        12 -13.1501     67.9246     13.2079   6.7793918001e+01   6.4195446325e+01    0.9127609    0.4727678  25.89  0.004345139    2.088    0.521
        13 -14.0587     13.3298     15.6954   9.3782363789e+01   7.1018020903e+01     1.345928    0.6043122 -20.02  0.006603718    2.630    0.620
        14 -14.2786      8.7859      6.3026   9.1943206030e+01   7.2877458698e+01     1.147302    0.5837228 -24.60  0.006862249    1.696    0.410
        15 -12.2444    179.0475     17.6391   4.4613925810e+01   3.8224056535e+01    0.5238711    0.3291738  89.01  0.002546484    1.728    0.421
        16 -12.5476    226.6227     14.2231   3.8546992389e+01   2.7099818438e+01    0.6530578    0.5280643 -60.09  0.003119764    1.092    0.085
        17 -10.9935    108.2708     16.7475   5.7235170486e+01   5.5610000239e+01    0.3948672    0.2797872  35.64  0.001725593    1.302    0.232
        18 -11.4430     27.2636      1.8273   7.9510548710e+01   7.1661211227e+01    0.3483227    0.1490549  32.65  0.001383836    2.332    0.571
        19 -13.5601     32.3538     10.3212   8.1412543496e+01   6.9917077515e+01    0.8149176     0.511781 -20.37   0.00288355    1.348    0.258
        20 -14.1203     48.9170      4.7621   7.1000865406e+01   6.8330004319e+01     1.087226    0.6839408  33.11  0.005498553    1.468    0.319
        21 -10.8012    102.0680     13.6972   5.7567731028e+01   5.7307595255e+01    0.2483791    0.2312912 -25.90  0.001297475    1.229    0.186
        22 -12.3140    215.9012     25.6796   4.2382036367e+01   2.8274318161e+01    0.6245382     0.432135  13.21  0.001891787    2.309    0.567
        23 -15.1266    132.8300    214.9850   1.0289088746e+02   1.1523953277e+01     2.853536     2.530903  80.28   0.01813688    1.225    0.184
        24  -9.4642    197.8599    250.5143   9.5357106180e+01  -4.4334946138e+00    0.1801421   0.09447254  35.09 0.0007626365    1.532    0.347
        25  -9.8129    150.7470    245.8761   1.0349385965e+02   3.4294432501e+00    0.5703458    0.4089338  87.69  0.003192508    2.265    0.558
        26 -16.0586     47.1472    125.4943   1.0998800351e+02   4.4362056263e+01     5.371636     2.640765 -87.24   0.02055515    3.100    0.677
        27 -15.1532    197.2822    175.0745   8.2355433219e+01   7.2943669028e+00     2.041095     1.724612   6.03  0.006878872    1.149    0.129
        28 -14.8114     35.5671    164.8657   1.1822622925e+02   3.6148627524e+01     2.040094    0.9177836 -88.03  0.009010166    2.480    0.597
        29 -16.1867     22.4193    144.2697   1.1921824911e+02   4.2223579407e+01     2.929729     1.119712 -75.28   0.01309721    2.250    0.556
        30 -14.3143     85.4437    227.2159   1.1398824022e+02   1.6524757848e+01     1.102065    0.5678432  71.60  0.005212968    2.537    0.606
        31 -16.5899     95.4063    217.1858   1.1091449166e+02   1.7010977016e+01     4.385571     1.906052 -71.89    0.0189029    3.043    0.671
        32 -14.2461      4.4516    189.3903   1.2688043666e+02   3.3583840363e+01     2.668881    0.7309549 -84.66   0.01084838    3.558    0.719
        33 -13.0433     50.5050    245.0829   1.2194983578e+02   1.7792215090e+01    0.6249443    0.4771207  73.33  0.003472911    1.086    0.079
        34 -13.7953     33.0544    240.9444   1.2470152830e+02   2.0553423817e+01    0.5117754    0.2662928  65.76  0.002986897    1.571    0.363
        35 -16.0083     22.8281    226.6357   1.2564776630e+02   2.4320330589e+01     2.661726    0.4381074  54.88  0.008960686    5.753    0.826
        36 -17.0795     12.9581    243.2629   1.2816632376e+02   2.2247179787e+01     1.828992    0.9571351  48.54   0.01270989    1.528    0.345
        37 -15.4775      3.3618    227.2631   1.2902592325e+02   2.6103769248e+01    0.9903912     0.279081 -83.34  0.004742719    3.209    0.688
        38 -11.2333     97.5553    160.3363   1.0237619570e+02   2.8984454188e+01    0.5983853    0.3934866  59.62  0.002852465    1.673    0.402
        39 -16.1024     62.5245    224.1369   1.1814714865e+02   2.0207024685e+01     2.865374     1.184862 -81.75   0.01301606    3.026    0.669
        40 -11.5050     85.8262    142.7645   1.0226605881e+02   3.5031625050e+01    0.2920744    0.2753059 -37.06 0.0004630271    1.176    0.150
        41 -11.4210    136.6553    136.6150   8.7623723295e+01   2.7295337748e+01    0.3102678    0.1960695 -50.75  0.001176608    1.591    0.372
        42 -10.4615    107.2811    131.4907   9.4146037470e+01   3.4142905453e+01    0.4686371    0.2599171  48.67   0.00194314    1.946    0.486
        43 -10.9816    215.9903    130.2026   6.8731390826e+01   1.1704989960e+01     0.274906    0.2074073 -33.57  0.001007271    1.231    0.188
        44 -15.1054    165.3771    185.9454   9.1179747365e+01   1.1277072090e+01     3.132039     2.391802  -5.57   0.01609215    1.616    0.381
        45 -12.6282    127.8618    128.0424   8.7855012709e+01   3.1015697604e+01    0.6399695    0.4471781  55.87  0.002877074    1.597    0.374
        46 -10.1058     96.2991    128.4740   9.6508661297e+01   3.6782878738e+01    0.2456764    0.2113704  -1.74 0.0004035278    1.413    0.292
        47 -11.3073    232.0085    124.5336   6.4585215261e+01   9.4405963985e+00    0.4360827    0.2844019  48.61  0.001997208    1.695    0.410
        48  -9.1542    106.4773    120.4189   9.1814062571e+01   3.6903630860e+01    0.1496539    0.1444313 -44.97 0.0001119272    1.028    0.028
        49 -12.1331    143.5458    117.3454   8.1160782370e+01   3.0125421894e+01    0.5121339    0.4280047 -45.21  0.001685515    1.177    0.151
        50 -13.6090    215.9793    240.9086   9.0619410562e+01  -5.8830758469e+00     1.084084    0.5458446 -42.55  0.005698855    2.538    0.606
        51  -9.8483      1.5466    113.2758   1.2135108120e+02   5.1005102176e+01    0.1745959   0.08374117 -64.22 0.0009430461    1.566    0.361
        52 -11.7826    135.7289    104.9185   7.9838219871e+01   3.4521528680e+01    0.4914597    0.4316151 -42.46  0.001770553    1.113    0.102
        53 -11.0367    250.5047     93.5670   5.4553168653e+01   1.0839047666e+01    0.4618561    0.1537053 -31.45  0.001626004    2.986    0.665
        54 -11.8338     39.0989     88.9922   1.0553311568e+02   5.3945142348e+01    0.4693755    0.2918489 -74.30  0.002385844    1.754    0.430
        55 -12.7446     45.8210     86.1196   1.0253771636e+02   5.3925215660e+01    0.6982746    0.5000445  14.37   0.00311451    1.663    0.399
        56 -15.1915    195.6018    206.4543   8.8692003434e+01   2.2724095904e+00     2.212404     1.662637 -33.99   0.00979504    1.419    0.295
        57 -11.5426    130.8364     82.9967   7.4756243823e+01   4.0158937430e+01    0.7983696    0.4220568  60.01  0.002912421    2.530    0.605
        58 -12.7557    246.3028    105.5652   5.7920821170e+01   9.7553624380e+00    0.9634671    0.6221191 -49.38  0.004848184    1.557    0.358
        59 -10.6504     51.8964     75.4859   9.7615854999e+01   5.5642789410e+01    0.2355135     0.166369 -35.22  0.001127104    1.311    0.237
        60 -12.4232      2.1917     64.4830   1.1381694509e+02   6.2108985765e+01    0.7972636    0.1871563 -68.24  0.002917947    3.718    0.731
        61 -12.8443    219.7739    229.6340   8.8107817078e+01  -4.9871127129e+00    0.5492064    0.4375138  14.18   0.00225797    1.011    0.010
        62  -9.3981    159.9846    248.5122   1.0209187528e+02   1.6032889419e+00    0.1907088   0.09788312  37.71  0.001025317    1.574    0.365
        63 -12.1691    131.5711    241.1808   1.0657128539e+02   7.1523402561e+00    0.5441651    0.3071631  50.85  0.001794831    1.608    0.378
        64 -14.0313     23.9633     60.8886   1.0434748703e+02   6.1555646864e+01    0.7836764    0.6999253 -15.62  0.002975876    1.207    0.171
        65 -12.8572     23.6153     54.2491   1.0264953966e+02   6.2983077295e+01    0.5125628    0.3240009 -42.74  0.002288099    1.256    0.204
        66 -13.9510    243.1259    233.6018   8.4634377656e+01  -8.8514347546e+00    0.9078408    0.6143971  17.19  0.003094915    1.197    0.165
        67 -12.3515    249.3957    219.8066   8.1179129820e+01  -8.0341976127e+00    0.7226744    0.3062584 -30.62  0.002951366    2.285    0.562
        68 -10.3032     42.6497     61.8280   9.7151208076e+01   5.9629137713e+01    0.2736862    0.1487375   4.13  0.001225459    2.701    0.630
        69 -13.3228    189.6883     51.6412   5.2800006461e+01   3.1228055609e+01      1.17114    0.8329336  83.59  0.005191693    1.583    0.368
        70 -13.0401    181.3350     45.2443   5.2310349456e+01   3.4230981251e+01    0.8886117     0.710492 -57.25  0.003195666    1.286    0.222
        71 -11.6451      2.2534     45.3578   1.0944063429e+02   6.6160586552e+01    0.3525988    0.1775108 -63.71  0.001326775    1.716    0.417
        72 -10.8283     45.9821     45.1921   9.0238294425e+01   6.2560656722e+01    0.2945524     0.251842 -17.00  0.001095549    1.062    0.059
        73 -11.2180    250.0427    209.2637   7.9169647348e+01  -6.7755786404e+00    0.4301497    0.2144027 -30.41  0.002092467    1.892    0.471
        74 -13.5987    232.4612    207.8366   8.1994454673e+01  -3.9517202730e+00     1.190439    0.9361724  53.58  0.005084396    1.881    0.468
        75 -11.6664    150.3906     42.0002   5.6925171400e+01   4.2456836679e+01    0.4542594    0.2694504 -86.15  0.001666847    3.056    0.673
        76 -13.6287    243.1050    200.1009   7.8665088580e+01  -4.5066327062e+00     1.037825    0.8190799 -14.45  0.004595395    1.134    0.118
        77 -12.8191     72.1937     29.4129   7.3532836671e+01   6.1318342056e+01    0.6145869     0.453595  27.49  0.002176181    1.284    0.221
        78 -10.5871     43.0348    235.7641   1.2263805100e+02   2.0374194499e+01    0.3044944    0.1172979  46.86  0.001304723    2.021    0.505
        79 -10.9979     39.6928    233.4035   1.2307613741e+02   2.1199977199e+01    0.3691144    0.1620747  87.43  0.001301681    2.465    0.594
        80 -12.5244    228.1119    223.8095   8.5614939980e+01  -5.4654471235e+00    0.4797724    0.3445171 -31.70  0.002539693    1.519    0.342
        81 -11.2113    235.9161     29.0850   4.1169800089e+01   2.3243984483e+01    0.4530315     0.275779 -83.11  0.002339065    1.776    0.437
        82 -11.5073     72.4254    210.7548   1.1492314754e+02   2.1571079825e+01    0.3274409    0.2676185 -76.59  0.001247393    1.244    0.196
        83 -11.4727     33.2353    209.5520   1.2262617560e+02   2.6600384605e+01    0.2518881    0.1973729 -58.91  0.000726738    1.591    0.372
        84 -11.7541    181.1114     22.6627   4.5786255698e+01   3.7151024404e+01    0.3330458     0.258878  83.32  0.001445687    1.249    0.199
        85 -12.2875     43.4415    198.6378   1.1972597903e+02   2.7744491583e+01    0.5876806    0.4715971  80.83  0.002610732    1.026    0.026
        86 -14.0870    163.7888    226.0241   9.8214541039e+01   4.4653132414e+00     1.768364     1.185478  36.22  0.006535207    1.274    0.215
        87 -12.2087    247.7510    178.5312   7.3648216247e+01  -2.1265941848e+00    0.6414238    0.4643218 -28.94  0.003789396    1.274    0.215
        88 -16.0080     67.2941    183.0006   1.1294835207e+02   2.8227973429e+01     2.392533      1.43507  68.91   0.01015174    1.791    0.442
        89 -10.9269      6.9677    177.3122   1.2560903808e+02   3.5972853254e+01    0.2980864    0.1807562  70.80 0.0009785595    1.410    0.291
        90 -10.9224     97.2169    167.6787   1.0369683401e+02   2.7334550684e+01    0.5029414    0.2996208 -84.76  0.002123116    2.356    0.576
        91 -11.7784      5.7474    163.0834   1.2485915636e+02   3.9226004052e+01    0.6779542     0.227404 -86.95  0.002869588    2.945    0.660
