#   1 NUMBER                 Running object number                                     
#   2 MAG_AUTO               Kron-like elliptical aperture magnitude                    [mag]
#   3 X_IMAGE                Object position along x                                    [pixel]
#   4 Y_IMAGE                Object position along y                                    [pixel]
#   5 X_WORLD                Barycenter position along world x axis                     [deg]
#   6 Y_WORLD                Barycenter position along world y axis                     [deg]
#   7 A_WORLD                Profile RMS along major axis (world units)                 [deg]
#   8 B_WORLD                Profile RMS along minor axis (world units)                 [deg]
#   9 THETA_WORLD            Position angle (CCW/world-x)                               [deg]
#  10 FWHM_WORLD             FWHM assuming a gaussian core                              [deg]
#  11 ELONGATION             A_IMAGE/B_IMAGE                                           
#  12 ELLIPTICITY            1 - B_IMAGE/A_IMAGE                                       
         1 -13.2213     23.8392     55.6745   9.1364242263e+01   6.3536512640e+01     0.847514    0.6727389 -70.21  0.004603046    1.707    0.414
         2 -13.6198     25.8265     47.3748   8.7655013196e+01   6.4949085884e+01     1.331074    0.9311935  48.87   0.00739267    2.241    0.554
         3 -13.7938    233.1319     33.3194   3.3227147254e+01   2.4779042550e+01     1.141067    0.8155413  43.52  0.006955972    2.091    0.522
         4 -12.8284    207.8760     19.0888   3.2490701451e+01   3.1699243988e+01    0.8433031    0.5997208 -43.32  0.005386883    1.390    0.281
         5 -11.4552    236.9475     19.7484   3.0235936485e+01   2.5658521887e+01    0.5531392     0.269082 -53.26  0.003167283    1.700    0.412
         6 -12.1277    144.6207     15.9480   3.9135773111e+01   4.6425574309e+01    0.4246519    0.2355827  82.01  0.002073626    1.934    0.483
         7 -13.0142      5.1627      4.6939   8.0804230495e+01   7.3795300832e+01    0.7789829    0.4591564 -11.68  0.005053592    1.465    0.317
         8 -11.4079     75.6643    230.3902   1.0648682325e+02   1.5519141506e+01    0.5257469    0.2303602  44.78  0.001961434    2.023    0.506
         9 -11.8283    178.2581    249.2138   8.6681905647e+01  -2.8654677492e+00    0.4558309    0.1707366  36.18  0.002013626    2.378    0.579
        10 -11.6000     13.7473    247.4212   1.2067122457e+02   1.9215587481e+01    0.3656277    0.1705739 -88.04  0.001676996    2.037    0.509
        11 -12.6616      3.9762    111.0299   1.1145471875e+02   5.2254695552e+01    0.7552468    0.5219229 -50.56   0.00341729    1.245    0.197
        12 -15.3089      9.8989    135.8971   1.1276203064e+02   4.5673429380e+01     3.397061     1.724088 -69.47   0.01316674    1.607    0.378
        13 -12.3578      2.1944    123.1022   1.1360468805e+02   4.9360139018e+01    0.8431404    0.2521953 -70.26  0.002936507    2.585    0.613
        14 -14.3060     20.6099    192.3933   1.1553793820e+02   3.0702255411e+01     1.598413    0.8939129  43.00   0.00485159    1.723    0.420
        15 -13.4065      6.2181    206.1734   1.1980989110e+02   2.8771942861e+01    0.6015353    0.3845001 -63.72 0.0007789275    1.569    0.363
        16 -15.1006     12.7625    200.8132   1.1800598497e+02   2.9431046832e+01     4.024135    0.7624718 -67.94   0.01433725    3.824    0.738
        17 -14.2500    120.4795    233.7557   9.6824810595e+01   8.3768833380e+00     1.468165     1.026829  50.15  0.005426448    1.442    0.307
        18 -11.5552     39.7115    235.2002   1.1472547068e+02   1.8968997968e+01    0.4106927    0.3450318  84.26  0.001728998    1.118    0.106
        19  -9.8882     33.1867    211.6299   1.1424977578e+02   2.4902936593e+01    0.2438502    0.1670926  39.06 0.0009878484    1.430    0.301
        20 -11.4762     37.3907    209.9154   1.1314647054e+02   2.4840131378e+01    0.4712668    0.3133815  72.52  0.002228566    1.429    0.300
        21  -9.9660     58.7971    208.1110   1.0796389739e+02   2.2723495423e+01    0.2102891    0.1642071  72.50 0.0005651896    1.221    0.181
        22 -11.9691     40.9958    199.7655   1.1134820404e+02   2.6827233610e+01     0.725564    0.3789884  83.95  0.002883598    2.225    0.551
        23 -11.3909     40.6651    179.6168   1.0927830615e+02   3.1803309655e+01    0.2638086    0.2403782 -40.12 0.0005436164    1.275    0.216
        24 -11.6219     48.7517    173.0123   1.0632302739e+02   3.2554868816e+01    0.2688897    0.2414016 -50.55 0.0004070744    1.191    0.160
        25 -11.0163     75.8694    225.4925   1.0590633125e+02   1.6547788868e+01    0.3585352    0.2879403 -50.17  0.001617365    1.428    0.300
        26 -12.4911     50.6110    217.8797   1.1086724761e+02   2.1487346180e+01    0.9101313     0.424998  63.03  0.003662077    2.520    0.603
        27 -10.5929     62.1099    162.9668   1.0118001780e+02   3.3475286191e+01    0.2191915    0.2092751  51.66 0.0003364132    1.101    0.092
        28 -12.8721     46.9187    159.4776   1.0498715470e+02   3.6238220142e+01    0.5295352    0.3120952 -33.73  0.001513925    2.226    0.551
        29 -11.4418     71.0470    156.4192   9.7529634046e+01   3.3949382775e+01    0.5093709    0.3792482 -23.15  0.001277803    1.683    0.406
        30 -11.8814     67.7714    143.3727   9.6143826074e+01   3.7780195463e+01    0.7505677    0.4273933  59.84  0.002723213    2.446    0.591
        31  -9.7032     88.0886    143.6489   9.0065484175e+01   3.4641188031e+01    0.2650183    0.2120005 -69.55 0.0008655238    1.303    0.233
        32 -11.2794     75.5926    141.2359   9.3340307300e+01   3.7204330227e+01    0.3107849    0.2531639 -55.53 0.0004833349    1.156    0.135
        33  -8.8414     92.2731    140.2949   8.8110354231e+01   3.4798886977e+01    0.1531443     0.117284 -24.53 0.0002562879    1.522    0.343
        34 -10.2976    241.3308    137.3303   5.3831094816e+01   7.0457575322e+00    0.1330734   0.09603836 -10.87 0.0007051848    1.718    0.418
        35 -11.4208    159.3196    128.6261   6.7343422759e+01   2.4477233891e+01    0.6232429    0.3710665 -27.00  0.002439568    2.148    0.534
        36 -10.3248    123.0253    131.4711   7.7234095972e+01   3.1304482845e+01    0.2469175    0.1565131  39.82   0.00103919    1.614    0.380
        37 -10.4971     89.5032    127.8165   8.6155568101e+01   3.8389717209e+01    0.2695184    0.2635414  30.34 0.0004088924    1.067    0.063
        38 -12.7507    104.4533    132.4519   8.2740648243e+01   3.4611892597e+01    0.7726969     0.662385 -45.33  0.002259745    1.130    0.115
        39 -11.5791    118.9846    126.7734   7.7203235629e+01   3.3210131166e+01    0.6717963    0.3176538  33.16   0.00238152    2.429    0.588
        40 -11.7387    113.1718    124.9386   7.8395182150e+01   3.4780693409e+01    0.6052335    0.3272988  24.03  0.002144723    2.621    0.618
        41 -12.2641     45.6722    117.8028   9.8303164958e+01   4.7120443818e+01    0.6644473    0.5498667 -25.96  0.003681731    1.259    0.206
        42 -10.4143    102.4268    119.5045   8.0191417559e+01   3.8116308962e+01    0.2669043    0.2535549 -29.71  0.000190063    1.023    0.022
        43 -10.9876     89.4605    114.4817   8.2929931050e+01   4.1653660035e+01    0.4182295    0.3698531 -80.19  0.002151484    1.300    0.230
        44 -10.9413     68.7309    104.1299   8.7174325297e+01   4.7482937025e+01    0.5512314    0.3044846 -68.88   0.00210694    2.576    0.612
        45 -11.8548     45.7890    107.4810   9.6087420166e+01   4.9680644469e+01    0.5943613    0.3884522  -5.39   0.00280303    1.948    0.487
        46 -11.4008    135.1354    105.1633   6.7220859924e+01   3.4699830710e+01    0.6832353    0.4517145  57.32  0.002959881    1.716    0.417
        47 -11.2381     87.0345    105.8638   8.1468198799e+01   4.4112887814e+01    0.4162048    0.3088803  76.68  0.001838587    2.027    0.507
        48 -12.8125    247.4399     99.7450   4.5275486835e+01   1.2355164647e+01    0.4762512    0.3385845 -37.83  0.002835789    1.248    0.199
        49 -11.2307    125.1559    102.9378   6.9248558861e+01   3.7317996729e+01    0.5580679    0.3780393 -13.82  0.002260268    2.168    0.539
        50 -10.2106     51.3208     89.5685   8.9682641822e+01   5.3285001487e+01     0.259612     0.130925  33.11  0.001133937    2.096    0.523
        51 -11.4737     20.4259     84.9864   1.0069044306e+02   5.7467984334e+01    0.4532879    0.3629572 -22.42  0.001886824    1.215    0.177
        52 -10.8264      4.6428     81.7381   1.0637677482e+02   5.9227534745e+01    0.3792008    0.1751669 -20.70  0.001756721    2.539    0.606
        53 -10.8877     45.1152     80.6179   8.9645583480e+01   5.6059995585e+01    0.3427571    0.1622801  29.30  0.001507436    2.214    0.548
        54 -10.6493    164.3327     80.4518   5.3828058832e+01   3.2895436237e+01    0.6441797     0.229846 -50.75  0.002002041    3.634    0.725
        55 -10.7624     39.7315     75.5830   9.0400005901e+01   5.7783035568e+01    0.2510488    0.1309001  18.36  0.001146348    2.140    0.533
        56 -11.5891    149.6508     72.5149   5.4654624125e+01   3.7666831597e+01    0.4363274    0.3260553  19.64  0.002080373    1.790    0.441
        57 -11.1278    168.6047    249.3909   8.8685839619e+01  -1.5432683851e+00    0.3212493    0.1091261  29.05  0.001252729    2.892    0.654
        58 -10.5493     60.8381    249.1611   1.1146978918e+02   1.3569397467e+01    0.1907874    0.1395959  60.88 0.0005440315    1.198    0.165
        59 -13.0184     14.6731     59.4320   9.6754616556e+01   6.3521715379e+01    0.6929548    0.5950658  47.81  0.004529415    1.597    0.374
        60 -13.5782      5.6791     56.6340   1.0020050927e+02   6.4688855355e+01     1.047362    0.6609566 -48.22  0.003988534    1.264    0.209
        61 -12.5727     23.3564    241.7337   1.1849459999e+02   1.9388851849e+01    0.6822285    0.3083308  70.53  0.003304306    2.256    0.557
        62 -10.6891     41.8817     35.3284   7.5486489000e+01   6.5113071270e+01    0.2131419     0.167897 -35.86   0.00109728    1.377    0.274
        63 -13.7316     94.5790    233.0230   1.0254433952e+02   1.2333437795e+01     1.515183     1.102665  41.57  0.008672532    1.218    0.179
        64 -13.5718    135.6034    233.4157   9.3406459364e+01   6.1555904600e+00    0.8494321    0.7761088 -63.35  0.004005894    1.286    0.222
        65 -12.2714     70.0819    220.9876   1.0673364689e+02   1.8317716273e+01    0.7958667    0.4615103  50.83  0.002772545    1.622    0.383
