#   1 NUMBER                 Running object number                                     
#   2 MAG_AUTO               Kron-like elliptical aperture magnitude                    [mag]
#   3 X_IMAGE                Object position along x                                    [pixel]
#   4 Y_IMAGE                Object position along y                                    [pixel]
#   5 X_WORLD                Barycenter position along world x axis                     [deg]
#   6 Y_WORLD                Barycenter position along world y axis                     [deg]
#   7 A_WORLD                Profile RMS along major axis (world units)                 [deg]
#   8 B_WORLD                Profile RMS along minor axis (world units)                 [deg]
#   9 THETA_WORLD            Position angle (CCW/world-x)                               [deg]
#  10 FWHM_WORLD             FWHM assuming a gaussian core                              [deg]
#  11 ELONGATION             A_IMAGE/B_IMAGE                                           
#  12 ELLIPTICITY            1 - B_IMAGE/A_IMAGE                                       
         1 -15.0525    241.6051     12.6231   2.7841506318e+01   2.5494746999e+01     2.316008     1.107921 -55.59   0.01370746    1.683    0.406
         2 -12.7760     12.3209     23.5053   8.5043327782e+01   7.0509512854e+01    0.5659149    0.2299753 -26.79  0.002623412    2.615    0.618
         3 -13.0422      6.0926     11.1874   8.3087638068e+01   7.2942953795e+01    0.7702931    0.3434506 -27.78  0.004201595    2.024    0.506
         4 -11.9799     10.6201      1.9257   7.5478260812e+01   7.3741545757e+01    0.5318023    0.1429061  29.07  0.002300603    3.512    0.715
         5 -11.6770     13.2149     12.9159   7.9636780593e+01   7.2018001356e+01    0.2572611    0.1270462 -30.21  0.001427969    1.790    0.441
         6 -12.1277     15.8678      6.5728   7.4856039259e+01   7.2578708715e+01    0.3783573    0.2006864  -7.28  0.002091082    2.044    0.511
         7 -12.3844     25.0540      4.3303   6.8572174453e+01   7.1701780629e+01    0.4497603    0.2314079  15.66  0.002448641    2.007    0.502
         8 -11.2525     19.6593     14.3493   7.6656208683e+01   7.1122772689e+01    0.2513988    0.1357902  -6.64  0.001344075    2.051    0.512
         9 -11.7717     84.4953    244.8540   1.0589375762e+02   1.0740995963e+01    0.3674752    0.2150343  59.77  0.001870513    1.843    0.457
        10 -11.3800    249.9062    232.9084   6.9747841559e+01  -1.0125262119e+01    0.2904243    0.1622497 -21.71  0.001712879    1.516    0.340
        11 -12.4985    243.1652    245.3503   7.3024976221e+01  -1.1109638285e+01    0.6373789    0.2596738 -25.31  0.003089615    2.473    0.596
        12 -12.3088    247.6155    239.0679   7.1192393752e+01  -1.0734979611e+01     0.463008    0.2335191 -22.56   0.00218411    1.774    0.436
        13 -11.0747    248.8210    249.8737   7.2779309372e+01  -1.2329540456e+01    0.3736176    0.1997162  15.66  0.002247848    1.734    0.423
        14 -10.6690    248.9743    245.0365   7.1955031381e+01  -1.1700271467e+01    0.2727062     0.161173 -13.23  0.001658967    1.443    0.307
        15 -11.0506     74.3854    250.2913   1.0861396471e+02   1.1010799207e+01    0.3522818    0.1230375  40.72  0.001534624    2.287    0.563
        16 -11.3426     65.2059    249.2420   1.1045635659e+02   1.2414571236e+01    0.4036275    0.2035393  48.73  0.002086444    1.710    0.415
        17 -10.8319     50.4738    250.1423   1.1358962099e+02   1.4065355574e+01    0.3505565    0.1540826  34.79  0.001745474    2.011    0.503
        18 -11.2207     36.9090    248.8735   1.1624432013e+02   1.5910688424e+01    0.4266247    0.2015493  53.52  0.002264823    1.804    0.446
        19 -11.0833     20.4603    249.2741   1.1950181959e+02   1.7619723317e+01    0.3452769    0.1631134  52.08  0.001936501    1.707    0.414
        20 -10.9976     12.0357    249.0786   1.2109754445e+02   1.8517315423e+01    0.3384276    0.1652134  52.48  0.001812212    1.628    0.386
        21 -10.2366      3.0995    250.5309   1.2282945856e+02   1.9094227581e+01    0.2621433   0.09663782  31.34  0.001337806    2.639    0.621
        22 -11.5009      3.2977    243.3057   1.2245944347e+02   2.0532803206e+01    0.4212144    0.2118937  69.06  0.002366408    1.685    0.406
        23 -11.1373    116.4913    244.5027   9.8806663116e+01   6.2542551407e+00    0.3027802    0.1773215  61.83  0.001389218    2.413    0.586
        24 -11.5341     57.4724    242.3599   1.1148727990e+02   1.4803911154e+01     0.464006     0.227558  57.43  0.002264254    2.019    0.505
        25 -11.2013     29.5650    240.6687   1.1716888208e+02   1.8423365175e+01    0.4347289    0.2086371  65.23  0.001955728    2.023    0.506
        26 -11.6673     16.1478    240.4851   1.1983958350e+02   1.9867553509e+01    0.5696874    0.2085943  50.20  0.002740464    2.208    0.547
        27 -11.7832    226.4328    240.7204   7.5287110772e+01  -8.5169079955e+00    0.3087458    0.1582827 -14.96  0.001528404    2.227    0.551
        28 -11.4690     73.0394    240.4775   1.0794834424e+02   1.3188620866e+01    0.3837166     0.213623  51.81   0.00197054    1.660    0.398
        29 -11.0393    107.7942    240.3430   1.0021687251e+02   8.3428896472e+00    0.3586873    0.1622212  49.23  0.001525414    2.339    0.573
        30 -10.1910     38.0306    240.3607   1.1541163471e+02   1.7545708387e+01    0.2381097    0.1375975  67.25  0.001263854    1.629    0.386
        31 -10.2627     64.5018    239.9817   1.0976127008e+02   1.4410274694e+01    0.2613639    0.1450383  49.56  0.001171291    1.589    0.371
        32 -10.1074     27.0872    248.8147   1.1818680596e+02   1.7009730464e+01     0.198181    0.1233553  60.56  0.001226574    1.326    0.246
        33 -10.8968     45.0402    237.2556   1.1370362564e+02   1.7392175519e+01    0.2986917     0.144357  56.33  0.001476863    1.939    0.484
        34 -10.9697      6.4464    236.3054   1.2151060973e+02   2.1689379000e+01    0.3537049    0.1743411  74.51  0.001880339    1.822    0.451
        35 -11.2641     95.4718    235.9726   1.0245538918e+02   1.1019926931e+01    0.3739054     0.169981  50.97  0.001583036    2.347    0.574
        36 -11.0995     82.0068    236.4748   1.0554393217e+02   1.2812097982e+01    0.3590327    0.1832364  54.87  0.001655109    2.067    0.516
        37  -9.8102    238.3235    234.3177   7.2027311367e+01  -9.0008244192e+00    0.1276311   0.07510652  -7.55 0.0007044023    1.670    0.401
        38  -9.6728     67.3071    234.6262   1.0862900577e+02   1.5183214228e+01    0.1415364   0.08453326  64.38 0.0007031355    1.770    0.435
        39 -10.7788     59.6304    232.1467   1.1009074868e+02   1.6708677332e+01    0.3725829    0.1516894  49.51  0.001624732    2.283    0.562
        40 -10.5611     48.7042    230.7314   1.1236881775e+02   1.8367880057e+01    0.3521718    0.1817676  75.74  0.001642177    2.290    0.563
        41 -10.6081     39.7094    230.7629   1.1432376974e+02   1.9416648922e+01    0.3324361    0.1909624  70.87  0.001764816    1.730    0.422
        42 -11.7251     25.8020    228.6470   1.1712690406e+02   2.1409211874e+01     0.483502    0.2288758  73.32  0.002329585    2.226    0.551
        43 -11.4010    237.0816    227.9910   7.1156974859e+01  -7.9187591128e+00    0.2796153    0.1308923 -24.96  0.001376817    2.089    0.521
        44 -11.0887      4.7338    228.3655   1.2143144079e+02   2.3541486567e+01      0.39446    0.1979503  65.85  0.002155352    1.734    0.423
        45 -11.4394    231.8862    234.6921   7.3258248413e+01  -8.2890478079e+00    0.2919122    0.1418512 -24.40  0.001482543    2.002    0.501
        46 -11.9377    248.8573    225.3703   6.8624562443e+01  -8.9209153095e+00    0.3544644     0.179857 -32.28  0.001798353    1.643    0.391
        47 -10.6659     11.1371    225.8156   1.1999273924e+02   2.3499582471e+01    0.3469182    0.1564975  58.02  0.001620619    1.960    0.490
        48 -10.8634     18.7451    221.9322   1.1816046224e+02   2.3620336466e+01    0.3227427    0.1653651  72.28  0.001662498    1.884    0.469
        49 -11.0423      2.2542    220.8647   1.2152889774e+02   2.5402646013e+01    0.3648276    0.1714904  83.98  0.001825595    1.933    0.483
        50 -10.7837     14.0934    231.8878   1.1974976644e+02   2.1894552668e+01    0.3401982    0.1877289  63.49  0.001929177    1.562    0.360
        51 -10.3493     44.0018    221.5121   1.1260363392e+02   2.0983378247e+01    0.2604299    0.1619277  79.90  0.001384059    1.625    0.385
        52 -12.1283    248.3044    215.3841   6.6953874524e+01  -7.3662997254e+00     0.555666     0.186258 -31.18  0.002307544    2.885    0.653
        53  -9.8953     24.3180    217.4418   1.1664289613e+02   2.4072260819e+01    0.2248714    0.1249794  75.33  0.001090405    1.743    0.426
        54 -10.7156     35.2167    216.8031   1.1417329397e+02   2.3058708199e+01    0.2397347    0.0976343  61.73 0.0009604449    2.849    0.649
        55 -10.7439      2.4829    212.4861   1.2101367425e+02   2.7257691416e+01      0.30669     0.172753  78.42  0.001739834    1.541    0.351
        56 -10.5526     28.8298    211.5088   1.1517880906e+02   2.4973323194e+01     0.258346    0.1246875  78.28  0.001157974    2.317    0.568
        57 -10.1981     21.7287    211.2117   1.1675201658e+02   2.5768192859e+01    0.2352073    0.1382586 -85.37  0.001279022    1.540    0.351
        58  -9.8280     36.2411    207.8400   1.1316047134e+02   2.5039951985e+01    0.2412344     0.102707  63.19 0.0009529709    2.836    0.647
        59 -11.5740     12.8230    205.2265   1.1830682714e+02   2.8015428683e+01    0.4542504    0.2255491  62.83  0.002283794    1.929    0.481
        60 -11.2419     12.2457    216.9105   1.1921378506e+02   2.5378289542e+01    0.4431536    0.2116115  55.14  0.002308694    1.865    0.464
        61 -11.4978      3.4069    196.9916   1.1986136892e+02   3.0771566314e+01    0.3917357    0.1891155  70.98  0.001935418    2.011    0.503
        62 -10.2673     16.8964    189.7441   1.1618245200e+02   3.1357068655e+01    0.2707251    0.1339825  72.57  0.001237964    2.162    0.537
        63 -11.2402      4.0522    188.6973   1.1915098330e+02   3.2702902836e+01    0.4235772    0.1734928  61.40  0.001865883    2.562    0.610
        64  -9.8070     24.4929    186.9721   1.1408146774e+02   3.1331279165e+01    0.2008074   0.09347603  77.61 0.0008102749    2.604    0.616
        65 -10.6743     11.3662    183.8920   1.1704346706e+02   3.3277495794e+01    0.2962493    0.1373271  89.76  0.001341833    2.111    0.526
        66  -9.8494      5.3985    183.1694   1.1843102055e+02   3.3940336409e+01    0.1875101    0.1005559  87.97 0.0009464056    1.685    0.407
        67 -10.6672      1.6874    177.7842   1.1892770071e+02   3.5543943019e+01     0.301441    0.1312376 -82.88  0.001399927    1.990    0.498
        68  -9.4033     11.3152    172.6518   1.1610747470e+02   3.6079686183e+01    0.1410201   0.08277858  67.28 0.0007047412    1.724    0.420
        69 -10.4944      6.4940    171.4611   1.1723483696e+02   3.6753696554e+01    0.2799177    0.1091871 -77.09  0.001210228    2.168    0.539
        70 -10.0787      5.5134    161.0344   1.1658653282e+02   3.9448964151e+01    0.1929208   0.08904254  76.76 0.0008095173    2.494    0.599
        71 -10.1115    248.1841    129.9782   5.0494749161e+01   6.9138402297e+00    0.2204877    0.1294896 -58.07  0.001081243    2.018    0.504
        72 -10.1404      2.5896    126.7737   1.1390564759e+02   4.8350799085e+01    0.1946244    0.1080394 -86.16 0.0009532705    1.743    0.426
        73 -10.9189    248.8543    119.1237   4.8202717224e+01   8.6642947783e+00    0.2076109    0.1537238 -53.54  0.001010343    1.250    0.200
        74 -11.4806    247.4825    102.9719   4.5100362094e+01   1.1615157784e+01    0.3528908    0.1369017 -52.58  0.001419334    2.739    0.635
        75 -11.1923    249.2390     98.1123   4.3896475057e+01   1.2108678917e+01    0.2535568    0.1430499 -53.23 0.0009884596    1.597    0.374
        76  -9.7610    236.2856     95.6596   4.5026428585e+01   1.4847636036e+01    0.1365159   0.08773715 -62.37 0.0004263744    1.636    0.389
        77 -11.2083    242.6998     93.1435   4.3686204049e+01   1.4084855305e+01    0.2196019    0.1345116 -53.57  0.001187345    1.448    0.309
        78 -11.1887    247.8973     92.1433   4.2850738159e+01   1.3313734340e+01    0.2066118    0.1448432 -58.72 0.0009684054    1.300    0.231
        79  -9.7411    237.3344     90.6429   4.3837609583e+01   1.5481699307e+01    0.1405262   0.08673767 -64.92 0.0007042163    1.800    0.444
        80 -11.3964    249.4885     87.9897   4.1826476437e+01   1.3695624182e+01    0.2967884    0.1150961 -49.47 0.0007700114    2.242    0.554
        81 -11.1226    243.4793     82.5208   4.1412218241e+01   1.5648609901e+01    0.2370059   0.09013962 -48.04 0.0009613969    2.224    0.550
        82 -11.9147    248.8458     75.0121   3.9298990090e+01   1.5830968669e+01    0.5702561    0.1120718 -47.81  0.001818777    4.462    0.776
        83 -10.2784    239.5117     72.4926   3.9807407178e+01   1.7949235918e+01    0.1293993    0.1026934 -59.42 0.0001004096    1.044    0.042
        84 -11.9960    249.1611     64.7276   3.7227095438e+01   1.7309492556e+01    0.3302714     0.158878 -39.47  0.001712242    1.811    0.448
        85 -10.3026    242.3071     61.6481   3.7302112081e+01   1.9037928229e+01    0.1338097   0.07614441 -63.25 0.0007042712    1.713    0.416
        86 -11.6055      3.0287     49.9319   9.9488144659e+01   6.6336497101e+01    0.4225454     0.120488 -53.67  0.001842164    2.497    0.600
        87 -11.5692    225.9338    248.2798   7.6633439434e+01  -9.5460749870e+00    0.2856105     0.177554   4.80  0.001721538    1.458    0.314
        88 -11.6808    212.7728    247.7247   7.9031437698e+01  -7.8650181739e+00    0.3751193    0.2007197  -3.78  0.001821874    2.354    0.575
        89 -11.6950      2.6302     39.9738   9.6667009011e+01   6.8319227704e+01    0.3635033    0.1316645 -54.13  0.001736364    2.292    0.564
        90 -12.4598    234.5306    244.2194   7.4383960646e+01  -9.9771640088e+00    0.4571369    0.2476507  -6.30  0.002332428    2.009    0.502
        91 -11.5223    240.0611    239.4515   7.2589254470e+01  -9.9392642458e+00    0.2646191    0.1547413 -16.81  0.001521792    1.513    0.339
        92 -11.9563    243.9737    235.2484   7.1182109594e+01  -9.7886157952e+00    0.2964584    0.1398379 -28.99  0.001592412    1.838    0.456
        93 -11.0017     44.8068    245.3562   1.1438543034e+02   1.5718515732e+01    0.3508723     0.179602  59.76  0.001788425    1.838    0.456
        94 -11.4716     97.7758    245.2687   1.0302960026e+02   8.8044407233e+00    0.4050537    0.1670139  49.95  0.001673441    2.578    0.612
        95 -11.5405      1.5036     25.3992   9.2108726059e+01   7.1035128781e+01    0.3457906   0.09545976 -52.18  0.001482491    3.217    0.689
