#   1 NUMBER                 Running object number                                     
#   2 MAG_AUTO               Kron-like elliptical aperture magnitude                    [mag]
#   3 X_IMAGE                Object position along x                                    [pixel]
#   4 Y_IMAGE                Object position along y                                    [pixel]
#   5 X_WORLD                Barycenter position along world x axis                     [deg]
#   6 Y_WORLD                Barycenter position along world y axis                     [deg]
#   7 A_WORLD                Profile RMS along major axis (world units)                 [deg]
#   8 B_WORLD                Profile RMS along minor axis (world units)                 [deg]
#   9 THETA_WORLD            Position angle (CCW/world-x)                               [deg]
#  10 FWHM_WORLD             FWHM assuming a gaussian core                              [deg]
#  11 ELONGATION             A_IMAGE/B_IMAGE                                           
#  12 ELLIPTICITY            1 - B_IMAGE/A_IMAGE                                       
         1 -15.6312     69.2017    144.3847   9.8343281795e+01   3.7383425422e+01     5.187265     2.351544  62.52  0.002979788    5.022    0.801
         2 -13.8985    198.7349     43.1772   4.1793404501e+01   3.0636408134e+01    0.9406841    0.8363447 -66.66  0.003023711    1.077    0.072
         3 -14.3209    208.1688     34.3299   3.8610008399e+01   2.9677042855e+01    0.8188747    0.7450086  12.84  0.001358892    1.552    0.356
         4 -13.8922    233.3737      7.9387   3.0741744992e+01   2.7405520105e+01    0.8250072    0.6385777 -72.59  0.004236017    1.012    0.012
         5 -13.6016     57.9062      2.7643   5.8155375292e+01   6.6681650714e+01      1.15546    0.3093397  37.40  0.004156827    4.040    0.753
         6 -10.7419     76.4055    210.8796   1.0606941956e+02   2.0247709604e+01    0.3498009    0.2135175 -87.49  0.001410023    1.916    0.478
         7 -15.5949     54.5639    183.4987   1.0811592230e+02   2.9562217967e+01      6.53275     1.797667  47.41   0.02148584    3.820    0.738
         8 -14.4831     43.0774    195.2205   1.1220362129e+02   2.8144272852e+01     2.587707    0.8767887  55.61  0.009190304    3.626    0.724
         9 -17.0975      6.4839    204.8329   1.2117608430e+02   2.9663597108e+01     12.87548     1.062758 -75.56    0.0203688    8.272    0.879
        10 -11.7054    149.2251    191.6256   8.5968854183e+01   1.2687895868e+01    0.4927411     0.319283 -77.90  0.002017755    2.685    0.628
        11 -10.7068    147.2617    185.7746   8.5358866633e+01   1.4280787100e+01    0.2643363    0.2112804  33.10   0.00137279    1.212    0.175
        12 -11.8570    118.3480    190.6075   9.3140643444e+01   1.8296398530e+01    0.4414862    0.2512105 -78.44  0.001661709    2.952    0.661
        13 -10.2753    125.2965    189.3414   9.1236420485e+01   1.7388200741e+01    0.1466365    0.1138476 -15.22 0.0003719101    1.662    0.398
        14 -10.5158     80.4675    182.7983   1.0142686100e+02   2.6196394114e+01    0.3746377    0.3065889  58.27  0.002059331    1.176    0.150
        15 -18.1536     14.9405    240.5079   1.2151140987e+02   2.1317762700e+01     7.241047     2.448744  25.63   0.02880475    4.149    0.759
        16 -11.1510     99.4382    180.8188   9.6260499024e+01   2.3722316505e+01    0.2690661     0.247003  45.95 0.0006606937    1.071    0.066
        17  -9.2673     88.6892    179.2920   9.8783414617e+01   2.5797463716e+01    0.1490438    0.1052191  67.59  0.000456074    1.587    0.370
        18 -11.4503    239.5139    175.5000   6.4630035688e+01   3.9982868623e-01    0.2214971    0.1161106  27.34  0.001042302    2.357    0.576
        19 -11.1655    186.2633    174.0195   7.4383200089e+01   9.6011436958e+00    0.3461587    0.3249198  66.64  0.001256268    1.267    0.211
        20 -13.7714     71.1229    152.8582   9.9262131034e+01   3.4971827446e+01    0.7466581    0.5971597 -46.73  0.001330007    1.293    0.227
        21 -12.1386    193.8350    196.4901   7.7168123586e+01   4.0229660223e+00     1.224358    0.6169279 -63.29   0.00335245    7.041    0.858
        22 -10.0285     88.5170    210.0320   1.0314501405e+02   1.8686401270e+01    0.1973299    0.1885463 -38.59  0.000965602    1.237    0.192
        23 -10.6416     59.5756    197.0089   1.0845187858e+02   2.5702718160e+01    0.2249608    0.1823628  44.10 0.0001089029    1.211    0.174
        24 -11.0383    240.7232    169.3936   6.3243911012e+01   1.2334466078e+00     0.168218    0.1180561  24.14 0.0009024952    1.595    0.373
        25 -14.1854     45.4590    108.6501   9.9048606638e+01   4.9321419057e+01     1.693711     1.078411  63.23  0.007853284    2.191    0.544
        26  -9.7903     21.4996    195.9613   1.1727756545e+02   3.0273999763e+01    0.2589186    0.1495687  69.14   0.00140329    1.622    0.384
        27  -9.3981    120.5245    165.5589   8.8108457659e+01   2.3712683845e+01     0.149967    0.1449597  63.82 8.834537e-05    1.024    0.023
        28  -9.6514     23.8189    193.5704   1.1655645320e+02   3.0599476105e+01    0.1951089    0.1492164 -74.92 0.0005145396    1.223    0.182
        29 -10.8209     36.1827    158.4291   1.0990018666e+02   3.7863571774e+01    0.5264938    0.2558417  84.26  0.002083052    2.786    0.641
        30 -10.9624     32.2631    156.5885   1.1075045881e+02   3.8721263375e+01    0.3617987    0.2240732  16.92  0.001560992    2.040    0.510
        31 -12.3244     89.7494    151.3103   9.3689482036e+01   3.2516748351e+01    0.7281748    0.4739754 -26.74  0.003051996    2.205    0.547
        32 -11.5241    133.7427    145.0409   8.0435508226e+01   2.6013557415e+01      1.30292    0.3357112 -55.26  0.002915421    6.174    0.838
        33 -12.6849     54.0401    146.8431   1.0321220937e+02   3.8763175345e+01    0.7078273    0.6599385  41.56  0.004216044    1.160    0.138
        34 -10.2337    174.8851    149.1350   7.1574478790e+01   1.6834853880e+01    0.2298085    0.2079276 -82.48  0.000629105    1.280    0.219
        35  -9.6471    111.3133    149.5619   8.7352238594e+01   2.9219897751e+01    0.3012639    0.1202942  50.62 0.0008317228    3.185    0.686
        36 -11.5050     38.7627    146.1015   1.0755484138e+02   4.0690433867e+01    0.3411443    0.2757637  69.67 0.0008303311    1.263    0.208
        37 -11.0507    103.1038    137.7299   8.7129939165e+01   3.3583323885e+01    0.5829744    0.3664477 -20.11  0.002177874    2.692    0.629
        38 -11.1809    106.0259    131.0912   8.4815688851e+01   3.4658875464e+01    0.4322256    0.3307335 -56.44  0.001411933    1.301    0.231
        39 -12.3438     90.6590    137.2489   9.0627737856e+01   3.5861914047e+01    0.2925276    0.2579471 -45.68 0.0003925205    1.133    0.117
        40 -11.0667    135.6241    129.0722   7.6268537945e+01   2.9298060898e+01    0.4623152    0.1487753 -50.56   0.00137465    3.284    0.696
        41 -12.1725     43.4559    129.3117   1.0355718390e+02   4.4421486524e+01    0.3358127    0.2577216  44.81  0.001186895    1.411    0.291
        42 -10.5746    112.2591    128.8582   8.2527629217e+01   3.4019380031e+01    0.2920076    0.2483201   9.61 0.0007785982    1.364    0.267
        43 -11.0766     99.3319    124.6950   8.5287439964e+01   3.7421721541e+01    0.2903494     0.244357 -14.41 0.0004913231    1.386    0.279
        44 -11.1473    118.3300    123.2336   7.9484332318e+01   3.4155101899e+01    0.4378325     0.277462  12.37  0.001600891    2.723    0.633
        45 -12.2882     70.2113    170.6935   1.0233948257e+02   3.0635300066e+01    0.4628545    0.3156844 -29.89  0.002161913    2.038    0.509
        46 -10.1335     89.4976    122.6817   8.7777397789e+01   3.9633152124e+01    0.4055818    0.2278483  64.08  0.001411278    3.100    0.677
        47 -10.1450    135.0000    119.9894   7.4208613123e+01   3.1470480789e+01    0.2618721   0.08808212 -46.42  0.000803009    2.946    0.661
        48 -10.0626    108.1327    118.1352   8.1127165504e+01   3.7336747659e+01    0.2213179     0.202296 -11.00 0.0002809733    1.183    0.155
        49 -10.5924    231.3067    113.7277   5.3306208393e+01   1.2480029464e+01    0.2387435    0.2170623 -28.93 0.0007254356    1.136    0.120
        50 -10.3826    135.0000    112.5173   7.2313881116e+01   3.3117040958e+01    0.3476636   0.08788423 -45.40 0.0009339585    3.928    0.745
        51 -10.0991    205.5312    110.2212   5.6672042548e+01   1.8224168027e+01    0.2462088    0.2012109  54.99 0.0006241434    1.319    0.242
        52 -11.6905    115.6828    108.7696   7.6570612367e+01   3.7987317247e+01    0.3709866    0.3033213 -19.04  0.001798652    1.414    0.293
        53 -12.2400     74.3296    166.3469   1.0056837479e+02   3.1129571092e+01    0.3899773    0.3663275 -71.69  0.001138905    1.067    0.063
        54  -9.3166    138.4712    105.4336   6.9578196102e+01   3.3883158307e+01    0.1523695    0.1497284  86.75 9.716037e-05    1.022    0.022
        55 -12.8759     82.5474    158.2620   9.6971683976e+01   3.1921592786e+01    0.9171589    0.6749642  82.05 0.0004841662    1.589    0.371
        56 -11.2363     31.4373     99.3488   1.0209742556e+02   5.2989032168e+01    0.4069897    0.1861388  38.18  0.001812868    2.474    0.596
        57  -9.9055    126.3151     93.9380   6.9609740167e+01   3.8936134983e+01    0.2121257    0.1969577 -43.16 0.0005627895    1.082    0.076
        58 -10.2127    155.8486     87.9390   6.0771897548e+01   3.3449946129e+01    0.3443883    0.2184121 -70.33  0.001019051    2.340    0.573
        59  -9.7303    115.2722     84.5843   6.9962287306e+01   4.3203664962e+01    0.2753468    0.1436717  50.75 0.0009280347    1.992    0.498
        60  -9.4084    158.4999     83.4705   5.8989847790e+01   3.3663114718e+01    0.1479952    0.1428622 -89.14 0.0001588696    1.002    0.002
        61  -9.0800     70.6216     82.2248   8.3551900514e+01   5.2049633454e+01    0.1363318    0.1077665  59.23 0.0006833958    1.606    0.377
        62 -11.3350     13.5273     59.8903   1.0029678677e+02   6.3255166575e+01    0.2292772    0.1871365 -43.63 0.0004002923    1.064    0.060
        63 -13.4828    187.3929     51.8946   4.5482621707e+01   3.2029827144e+01    0.6985051    0.5705875  35.56 0.0007732093    1.547    0.354
        64 -11.9969    122.5689    199.2484   9.3529955537e+01   1.5664327423e+01    0.3760249    0.2642957 -71.87  0.001845103    1.714    0.417
        65 -10.4680    168.2036    232.7801   8.8659462391e+01   1.6702975610e+00    0.2404786    0.1765402  36.69 0.0009009517    1.251    0.200
        66  -9.7744     68.9783     52.7139   7.4634774259e+01   5.8059869295e+01    0.1884853    0.1616897  25.26 0.0004809012    1.126    0.112
        67 -11.4217     24.4077     34.7995   8.7213424945e+01   6.7157711828e+01    0.2046658    0.1821558  33.00 0.0007898535    1.484    0.326
        68  -9.5526    198.3662     23.7192   3.7223803402e+01   3.3183307111e+01    0.1571305    0.1211447 -25.67 0.0006071504    1.604    0.376
        69  -9.5711    189.5303     14.9834   3.6098936001e+01   3.6186690130e+01    0.1731278    0.1192629 -37.73 0.0005362848    1.542    0.352
        70 -11.3862    184.3416    212.4105   8.1975388917e+01   2.6996715794e+00    0.2550398    0.1688761 -44.44  0.001347423    1.616    0.381
