#   1 NUMBER                 Running object number                                     
#   2 MAG_AUTO               Kron-like elliptical aperture magnitude                    [mag]
#   3 X_IMAGE                Object position along x                                    [pixel]
#   4 Y_IMAGE                Object position along y                                    [pixel]
#   5 X_WORLD                Barycenter position along world x axis                     [deg]
#   6 Y_WORLD                Barycenter position along world y axis                     [deg]
#   7 A_WORLD                Profile RMS along major axis (world units)                 [deg]
#   8 B_WORLD                Profile RMS along minor axis (world units)                 [deg]
#   9 THETA_WORLD            Position angle (CCW/world-x)                               [deg]
#  10 FWHM_WORLD             FWHM assuming a gaussian core                              [deg]
#  11 ELONGATION             A_IMAGE/B_IMAGE                                           
#  12 ELLIPTICITY            1 - B_IMAGE/A_IMAGE                                       
         1 -15.0284    166.8687     28.8662   7.8119802671e+01   3.9954900520e+01     3.585975     1.702889  44.51   0.01412011    2.199    0.545
         2 -15.2135    194.6278     40.1054   7.7646582447e+01   3.1678172763e+01     1.876485     1.213885  51.57  0.006134556    1.596    0.373
         3 -14.9876    192.0775     28.6571   7.4417562652e+01   3.3627444649e+01     1.301653     0.919261   4.85  0.006118613    1.588    0.370
         4 -17.0178    188.3542     80.8292   9.0860031273e+01   2.7514799668e+01     4.585432      2.06366 -38.82   0.01790204    2.164    0.538
         5 -15.7478    244.1496     69.5483   7.9417509847e+01   1.7169102064e+01     1.774786    0.7741813 -46.14  0.007253224    2.792    0.642
         6 -15.8397    212.6483     48.3776   7.7674746510e+01   2.6434095983e+01      1.58797    0.9745758  -0.63  0.007190774    1.947    0.486
         7 -18.8261    223.3572     81.6170   8.5309538837e+01   1.9843717266e+01     8.156808     6.217745  15.73   0.04468419    1.354    0.261
         8 -10.6836     41.2300     20.2558   1.1330173019e+02   6.8767648122e+01    0.3418881    0.2414866 -65.69 0.0004711635    2.104    0.525
         9 -10.8416    248.2233     16.3313   6.5465918013e+01   2.2046271565e+01    0.3527023    0.2078595 -27.80  0.001305963    1.414    0.293
        10 -10.5088    122.1582     15.3354   8.1242138109e+01   5.2996489023e+01    0.4586619    0.2347091 -43.26  0.001839447    2.232    0.552
        11 -10.4629     94.8054     11.8325   8.6578868746e+01   6.0054961319e+01    0.2924756    0.1846527  -7.74 0.0008445534    1.669    0.401
        12 -11.2993    232.3775      6.9881   6.4187419169e+01   2.6276875414e+01    0.2151639    0.1833074 -52.26 0.0003832209    1.119    0.106
        13 -12.5596    238.2236     10.5451   6.4703966399e+01   2.4686805828e+01    0.3320626    0.2683562  28.52     0.000717    1.435    0.303
        14  -9.8887    233.1388     10.8278   6.5150531363e+01   2.5768011659e+01    0.2194071    0.2011308  78.88 0.0003442957    1.206    0.171
        15 -10.3763    142.8822      8.5197   7.4411589409e+01   4.8352570204e+01    0.3068787    0.2347472   5.41 0.0009155162    1.359    0.264
        16  -9.6716    221.5885      8.3884   6.5376508006e+01   2.8578988787e+01      0.34891    0.1345309  60.74 0.0003581451    2.599    0.615
        17 -11.8755    201.2946      6.8666   6.6660721922e+01   3.3515177222e+01    0.2583873    0.2516282  40.32   0.00037263    1.084    0.078
        18  -9.5620    205.6623      5.2816   6.5799450430e+01   3.2594488538e+01    0.1794108    0.1223559  61.50 0.0009434362    1.515    0.340
        19  -9.4787    117.1257      7.8402   7.8977618129e+01   5.5068992614e+01     0.198235    0.1550972  23.89 0.0002950166    1.247    0.198
        20  -9.4010    103.5073      7.5223   8.2028026388e+01   5.8480344425e+01    0.1441189    0.1335527  12.13 2.438179e-05    1.043    0.041
        21 -11.9441    213.7857      4.6732   6.4950036091e+01   3.0713823757e+01    0.2220591    0.2087362 -18.33 0.0003016711    1.067    0.063
        22  -9.6299    178.1521      5.3659   6.8504240067e+01   3.9441335475e+01    0.1782357    0.1695867 -79.52 0.0004761593    1.072    0.067
        23  -9.5949    180.1790      1.7809   6.7092948711e+01   3.9223318833e+01    0.2551508    0.1889401  16.51 0.0005027751    1.491    0.330
        24  -9.1059    171.3043      4.2699   6.8902868373e+01   4.1299079934e+01     0.144198   0.09905229  37.01 0.0002470065    1.534    0.348
        25  -9.7754    151.8903      2.4004   7.0663517366e+01   4.6528624826e+01    0.2459583    0.1856839 -30.60 0.0005628126    1.333    0.250
        26 -10.3425     51.1309      2.9865   9.8167662522e+01   7.0193035485e+01    0.2007681     0.166888  -9.11 0.0003853627    1.028    0.027
        27  -9.2366     26.6608      3.6749   1.1272680050e+02   7.3694188961e+01    0.1371478   0.08349775 -17.09 0.0007051318    1.726    0.421
        28  -9.9381    165.3351    223.8510   1.2450357017e+02   9.7376040154e+00     0.209402     0.121043  38.60  0.001319954    1.444    0.307
        29  -9.8767    228.5042    250.5187   1.1738184320e+02  -1.0553329857e+00    0.1035503   0.06844981  17.05 -2.789472e-05    1.004    0.004
        30 -10.2212    205.0367    250.0143   1.2102574500e+02   1.7749869302e+00    0.1577821    0.1079284  20.12 0.0003757034    1.007    0.007
        31 -10.3008    182.3130    249.7295   1.2471423836e+02   4.5844152261e+00    0.1744546    0.1275352  33.93 0.0009360751    1.269    0.212
        32 -10.9389    165.4926    249.4751   1.2750985006e+02   6.6963706441e+00    0.2859354    0.1718718  49.76  0.001902041    2.034    0.508
        33 -10.0269    124.8455    250.1306   1.3454890421e+02   1.1603152733e+01    0.1557563    0.1081206  45.16  0.000841468    1.246    0.197
        34 -11.7119    180.9399    224.1019   1.2174506544e+02   7.6036086167e+00    0.2574447    0.1736085  28.93 0.0005006276    1.142    0.124
        35 -11.0905     93.8250    222.3357   1.3770066017e+02   1.9211016555e+01    0.2485432    0.1482146  41.98 0.0009684931    1.317    0.241
        36  -9.9555     65.1036    221.7077   1.4307492870e+02   2.2576345996e+01    0.1938832    0.1132515 -76.53 0.0009689519    1.963    0.491
        37  -9.4580      2.2764    222.6344   1.5444264832e+02   2.8210285674e+01    0.1036629   0.04543593  59.25 0.0007007768    1.673    0.402
        38 -10.1264    153.8370    217.0728   1.2575370275e+02   1.2185531060e+01    0.1976942    0.1464109  -6.92  0.001336518    1.575    0.365
        39 -11.1733     60.1571    215.3919   1.4358464577e+02   2.4135116893e+01    0.3366044    0.2205363  46.30  0.002418268    1.202    0.168
        40 -10.8294    123.8450    216.2611   1.3135226801e+02   1.6348741125e+01    0.2300207    0.1651899  27.81 0.0006552915    1.229    0.186
        41  -9.8680    186.4305    215.1705   1.1953235617e+02   7.9224397913e+00    0.1939483    0.1082429  35.43 0.0007536095    1.472    0.321
        42  -9.5875    225.5514    214.4747   1.1272091579e+02   2.7052479488e+00    0.1133787   0.08102653  12.78 0.0001008308    1.004    0.004
        43 -11.0120     89.8685    211.1480   1.3746463864e+02   2.1462243686e+01    0.1887033    0.1730007   5.24 0.0003020575    1.336    0.252
        44 -10.9382     86.8744    208.1307   1.3778202533e+02   2.2321741897e+01    0.2003157    0.1552555  71.69 0.0002588464    1.348    0.258
        45 -10.5878    237.8146    206.9464   1.0954052231e+02   1.8652749985e+00    0.2356158    0.1334572  34.71  0.001115122    1.628    0.386
        46 -10.0033    153.0555    207.0192   1.2458282463e+02   1.3686848239e+01     0.177773    0.1330324  57.03 0.0008192679    1.719    0.418
        47  -9.8824    123.9778    205.9474   1.3013985458e+02   1.7899487894e+01    0.1679984    0.1364434  37.79 -0.002661949    1.036    0.035
        48  -9.4616    189.5232    205.4642   1.1754376774e+02   8.6787900976e+00    0.1189268   0.09134449  18.12 0.0001536473    1.005    0.005
        49 -10.1276     99.8732    204.8027   1.3484791328e+02   2.1263863626e+01    0.1612492    0.1119563  52.81 0.0006567066    1.342    0.255
        50 -10.3362    244.4417    202.9639   1.0783577608e+02   1.3998108230e+00    0.2336698    0.1496859  -1.43 0.0008710992    1.271    0.213
        51 -10.5220    191.3285    201.8327   1.1665741313e+02   8.8740481288e+00    0.2205312    0.1804613  58.97 0.0007518205    1.988    0.497
        52  -9.7261     39.2866    204.0968   1.4692153529e+02   2.8176712697e+01    0.1440426    0.1101392  66.06 0.0004525526    1.092    0.084
        53  -9.7476    250.6593    200.2592   1.0641416097e+02   8.6145286479e-01     0.144084   0.08236783 -11.61 0.0003683713    1.525    0.344
        54 -11.4696     68.2402    198.8762   1.4074451970e+02   2.6092193372e+01    0.2908598    0.2194227 -63.75  0.001298594    1.509    0.337
        55 -11.3084    214.6317    197.2174   1.1179087022e+02   6.0853825668e+00    0.3181105    0.2531194  44.83  0.002140266    1.760    0.432
        56 -11.0938    217.6308    193.6771   1.1068178112e+02   6.0684650982e+00    0.2059885    0.1757648  10.64 0.0002431011    1.271    0.213
        57 -12.3085    214.8039    186.0895   1.0986215424e+02   7.3808548108e+00    0.4318093    0.2871924 -10.50  0.002096368    1.411    0.291
        58  -9.5332    134.6806    198.7104   1.2708718087e+02   1.7540425697e+01    0.1165634   0.08518965   7.27 0.0002221672    1.600    0.375
        59 -11.0982    149.3779    196.2102   1.2379928879e+02   1.5800164564e+01    0.2239526    0.2056812  66.15  0.001188972    1.396    0.284
        60 -11.2016     99.8137    195.8199   1.3389889562e+02   2.2789373975e+01    0.2922629    0.1661534 -72.02  0.001215775    2.294    0.564
        61 -11.4837    230.9229    193.8233   1.0847198145e+02   4.1749232556e+00    0.3396193    0.1750306 -28.02  0.001947561    1.936    0.483
        62 -11.5157    231.1378    187.5311   1.0734326441e+02   4.8425243079e+00    0.2536549    0.2029552  -8.97 0.0007668572    1.257    0.204
        63 -10.2843    166.1611    195.7836   1.2044193429e+02   1.3381667579e+01    0.1762422    0.1688544 -15.88   0.00091475    1.307    0.235
        64 -10.9090    156.3276    194.8406   1.2222270055e+02   1.4979807031e+01    0.3337554    0.2413656  25.39  0.002114192    1.189    0.159
        65 -10.6212    143.8611    195.8041   1.2484443847e+02   1.6668931332e+01    0.1987027    0.1803131 -54.84 0.0006299188    1.381    0.276
        66  -9.9009    141.3013    193.3359   1.2501393278e+02   1.7426756088e+01     0.147384    0.1202048 -60.72  0.000691102    1.583    0.368
        67 -10.3301    117.7956    195.0282   1.3006489257e+02   2.0506807077e+01    0.2297291     0.183124 -38.83 0.0008382127    1.488    0.328
        68 -11.4019    117.3951    189.2127   1.2941042636e+02   2.1543625281e+01    0.4292041    0.2502873 -70.13  0.001641472    2.491    0.599
        69  -9.9498    249.4766    194.8095   1.0567047354e+02   1.5573368134e+00    0.2100925    0.1226002  28.86  0.001355778    1.469    0.319
        70 -10.6383    106.7366    194.0443   1.3224956885e+02   2.2179970211e+01    0.2050324    0.1642083 -67.86 0.0007212957    1.461    0.316
        71 -10.2461    106.5121    190.5415   1.3188077998e+02   2.2815632911e+01    0.2191538    0.1614161  38.00 0.0009044571    1.170    0.145
        72 -11.8220    202.2534    192.9866   1.1326017623e+02   8.3871859757e+00    0.4097797    0.2966479  12.46  0.002032405    1.143    0.125
        73 -11.5785    208.0458    190.7477   1.1185270778e+02   7.8107001550e+00    0.3807395     0.227657 -14.36  0.000917525    1.737    0.424
        74  -9.6564    129.8997    192.2485   1.2719885763e+02   1.9256709931e+01    0.1725715    0.1392574  47.12 0.0005675065    1.208    0.172
        75 -10.2633     48.6442    192.2594   1.4428472969e+02   2.9395955449e+01     0.192416     0.146899  40.59  0.001387762    1.210    0.174
        76 -10.3858     90.8365    191.1583   1.3528178559e+02   2.4763639034e+01    0.1465836    0.1304201  13.54 0.0002738885    1.290    0.225
        77 -10.8846    226.2337    189.1349   1.0844130239e+02   5.3599953585e+00    0.2017706    0.1782481 -40.95   0.00105808    1.880    0.468
        78 -11.1164    143.9449    189.7163   1.2395585041e+02   1.7606496729e+01    0.2210538    0.1857467 -55.65  0.001464967    1.486    0.327
        79 -10.6725    241.6866    189.5809   1.0598955055e+02   3.1458109212e+00    0.2206486   0.08912269  32.68  0.001136962    2.164    0.538
        80  -9.2028     23.3939    189.1759   1.4929736232e+02   3.2334040665e+01    0.1458901   0.08261646  80.25 0.0009405526    1.610    0.379
        81 -10.4046     81.8623    187.8466   1.3685553450e+02   2.6485902019e+01    0.1632432    0.1493036  31.26 0.0004345996    1.175    0.149
        82 -10.3589     76.1785    186.1486   1.3791299068e+02   2.7489661447e+01    0.1661814      0.15673  26.13 0.0007237953    1.214    0.176
        83 -10.6950    110.5638    184.3905   1.3024673313e+02   2.3340475004e+01    0.2492972    0.2229763  67.15 0.0008902135    1.189    0.159
        84 -10.0872     64.2886    185.6546   1.4044192351e+02   2.8961556578e+01    0.1211077   0.07304325  63.09 0.0001887795    1.654    0.395
        85 -10.9321    193.8711    183.6159   1.1319538746e+02   1.0861004220e+01    0.2084357    0.1485246 -10.76 0.0007551881    1.383    0.277
        86 -10.0295    193.2094    247.7910   1.2267903931e+02   3.4367417751e+00      0.14581    0.1019669  56.25 0.0009415399    2.734    0.634
        87 -16.2829    218.7500    124.6235   9.6692752790e+01   1.4833867325e+01     7.024406     1.608693  38.61   0.02005799    5.412    0.815
        88 -11.0590    132.3034    247.0168   1.3296662070e+02   1.1088068492e+01    0.2337542    0.1313018  33.07  0.000298263    1.339    0.253
        89  -9.6121    131.2562    242.3369   1.3269898727e+02   1.1806599258e+01    0.1622826    0.1245199   2.80 0.0009604888    1.568    0.362
        90 -10.9480    215.1878    244.1122   1.1863886943e+02   1.1007215394e+00    0.2389774    0.1625829  30.91 0.0008780719    1.336    0.252
        91  -9.7408     66.0429    242.6418   1.4423098871e+02   1.9281174869e+01    0.1397923   0.09627778  43.36  0.000862188    1.092    0.084
        92 -15.6196    239.9601     55.6389   7.6343488767e+01   1.9646980422e+01    0.9614867    0.8646402  88.36  0.005239253    1.378    0.275
        93 -15.5923    213.0631     62.3871   8.1591608428e+01   2.4581421316e+01     1.527572    0.6600534  33.77  0.005323088    3.430    0.708
        94 -10.4606     32.8420    242.6109   1.4990229576e+02   2.2531883109e+01      0.14952    0.1199078 -51.83  0.001295914    1.862    0.463
        95 -10.6766     13.3770    242.0064   1.5309628649e+02   2.4311307775e+01    0.1842282   0.07650561 -85.33  0.001257063    2.479    0.597
        96 -10.7145     56.2917    165.4869   1.4037650705e+02   3.3828126346e+01    0.3484341    0.1730516 -85.99  0.001722146    2.367    0.578
        97 -10.3661    242.6633    165.9474   1.0147681578e+02   5.6207316321e+00    0.2940745    0.1531397  32.92  0.001630495    1.770    0.435
        98 -10.9952    236.7031    164.3455   1.0212505530e+02   6.7013459070e+00    0.3079766    0.1495594 -21.35  0.001586341    1.932    0.482
        99  -9.8622     96.0338    166.2643   1.3111070642e+02   2.8750467767e+01     0.175868    0.1483926  43.50 0.0003670189    1.084    0.078
       100  -9.4521    140.2761    165.6680   1.2094140410e+02   2.2191755494e+01     0.122731    0.1016812  71.99 0.0002558506    1.599    0.375
       101  -9.6893    140.9183    179.4875   1.2304589081e+02   1.9724426445e+01    0.1906069    0.1098463  36.75 0.0003520413    1.519    0.341
       102 -10.7947    235.1379    177.4210   1.0486102920e+02   5.4123947385e+00     0.251369    0.2065267  31.94  0.001144005    1.489    0.328
       103 -11.2738    119.9496    163.6118   1.2517077922e+02   2.5768515089e+01    0.2934479    0.1959532 -20.58  0.001454285    2.149    0.535
       104 -10.3678    127.3792    163.3114   1.2342681435e+02   2.4669994720e+01    0.2783911    0.1585309  44.75  0.001388733    1.691    0.409
       105  -9.9459     90.1304    163.1525   1.3208184874e+02   3.0174632525e+01    0.1731007    0.1663099  -7.30 0.0003196626    1.185    0.156
       106 -12.5343    233.5276    171.0755   1.0393894374e+02   6.3857009323e+00    0.2633244    0.2116683   4.71 0.0003374268    1.118    0.106
       107 -10.9785    147.7980    177.2056   1.2123651087e+02   1.9035576485e+01    0.3468362    0.2299585  55.14  0.001860833    1.886    0.470
       108 -10.6139    157.4797    161.5235   1.1648184563e+02   2.0073591280e+01    0.2398212    0.2009483  68.09 0.0009454283    1.652    0.395
       109 -11.0441    154.1845    161.1105   1.1711118267e+02   2.0695467361e+01    0.2454035    0.2253532 -82.73 0.0006423364    1.458    0.314
       110  -9.3218      8.2084    162.5680   1.5125444107e+02   3.8753476641e+01    0.1262173    0.1050746   8.94 0.0003989447    1.610    0.379
       111 -10.0114    244.0582    161.2117   1.0033187278e+02   5.9580281489e+00    0.2355446    0.1470157  40.98 0.0009606625    1.785    0.440
       112 -10.9535    145.2549    159.6407   1.1878940267e+02   2.2439496414e+01     0.230395    0.1821477 -41.99 0.0005949404    1.371    0.271
       113 -12.0765     81.1261    170.8054   1.3515140934e+02   2.9827538968e+01    0.4239024    0.2433225  26.83  0.001629859    1.855    0.461
       114 -10.9331     77.2174    177.9931   1.3684526581e+02   2.8910718995e+01    0.2445865    0.1397707  44.15    0.0013855    1.538    0.350
       115  -9.3549     43.6610    158.7088   1.4275203577e+02   3.6553434132e+01    0.1107267   0.08832134 -35.70 0.0003165005    1.645    0.392
       116 -11.2900    157.2611    155.1236   1.1532697233e+02   2.1195886795e+01     0.352505    0.2304216 -27.47  0.001817995    1.685    0.407
       117  -9.4211    179.8757    176.8669   1.1467920727e+02   1.3998567562e+01    0.1551911    0.1421597  32.41  0.001029452    1.294    0.227
       118  -9.9937     16.0652    156.3196   1.4913439350e+02   3.9469590847e+01    0.1936938    0.1354159 -75.10  0.001311021    1.347    0.258
       119 -11.1829    138.8686    155.0219   1.1938005134e+02   2.4332296023e+01    0.2402917    0.1964268  34.61            0    1.133    0.118
       120 -11.2869    134.6271    154.8072   1.2030778527e+02   2.5075783856e+01    0.2532138    0.2159466 -54.36 0.0009473065    1.323    0.244
       121 -11.1255     77.0586    154.6188   1.3412480211e+02   3.3646740265e+01    0.2235906    0.1749393 -62.19 0.0007254898    1.309    0.236
       122  -9.5684    249.6640    154.0009   9.8022719941e+01   5.9456848981e+00    0.1658316    0.1250084  -5.47 0.0004294525    1.061    0.057
       123 -11.8053    121.7473    153.2644   1.2303384449e+02   2.7462870971e+01    0.2424222    0.2163528 -24.19 0.0002107362    1.201    0.168
       124 -11.1979    128.4827    150.0166   1.2086584604e+02   2.6994788516e+01    0.4416325    0.1893569  48.10  0.001473148    2.609    0.617
       125 -11.0964    124.0381    149.0275   1.2173933594e+02   2.7916104665e+01    0.2461807    0.1827122  14.82 0.0004453163    1.541    0.351
       126 -10.2721     92.4695    152.4895   1.3000874563e+02   3.2028696138e+01    0.1277414    0.1193208  58.18 5.771132e-05    1.013    0.013
       127 -10.2929     38.9514    152.0229   1.4330919761e+02   3.8437348495e+01    0.2039946    0.1154104  60.40  0.001129884    1.716    0.417
       128  -9.9702    233.4621    150.4634   9.9870495710e+01   8.8944784998e+00    0.2090272    0.1485263 -21.84  0.001263011    1.294    0.227
       129 -11.2473    235.2295    146.8584   9.8833899799e+01   9.0585344047e+00    0.4246605    0.2716304  30.62  0.002449268    1.478    0.323
       130  -9.0823     33.2922    177.3080   1.4653775326e+02   3.3739746755e+01   0.09940439   0.08211188 -45.75 0.0002261359    1.582    0.368
       131 -10.2197    243.1312    144.6932   9.7123045700e+01   8.0556225096e+00     0.278959    0.2097168 -13.25  0.001063193    1.133    0.118
       132  -8.9016     26.2556    177.6999   1.4808452377e+02   3.4288466076e+01    0.1117174   0.06445499  63.24            0    1.503    0.335
       133 -10.5446     14.9708    149.5170   1.4899229361e+02   4.0997689780e+01    0.1816232    0.1267893 -89.27 0.0005377989    1.222    0.182
       134 -10.5990     43.6026    151.9410   1.4214905683e+02   3.8005670038e+01    0.1719547    0.1629864  31.37 0.0003933826    1.238    0.192
       135 -10.3212     77.2254    146.8542   1.3303438285e+02   3.5280244696e+01    0.1659409    0.1496201 -25.65 0.0005852724    1.310    0.236
       136  -9.9056     36.5117    147.0127   1.4347341996e+02   3.9755728543e+01    0.1769309   0.08336016  75.30 0.0008100512    2.505    0.601
       137  -9.4074     11.4492    146.4705   1.4966661227e+02   4.1908384057e+01    0.1141429   0.09175345  78.38 0.0001035252    1.004    0.004
       138 -11.5078    247.2715    140.0546   9.5507002631e+01   7.9543355766e+00    0.5413467    0.2636433  -6.34  0.002400417    2.561    0.609
       139 -10.7546    136.9768    175.9875   1.2334108192e+02   2.0921533656e+01    0.1884924    0.1697314  23.63 0.0003330406    1.031    0.030
       140  -9.3003     58.5163    138.5062   1.3681744698e+02   3.9393463991e+01    0.1243753    0.1154888 -88.03 1.714889e-05    1.052    0.050
       141 -10.4636    121.9035    137.5062   1.2008836456e+02   3.0557677696e+01    0.2048062    0.1313827  36.87 0.0003859485    1.506    0.336
       142 -10.9549    109.8434    135.7959   1.2280155205e+02   3.2900324819e+01    0.2792173    0.1790375 -40.56  0.001057186    1.685    0.406
       143 -10.4617     32.4857    136.0186   1.4350827275e+02   4.2567280754e+01    0.1882094    0.1696112 -24.26 0.0006116033    1.407    0.289
       144  -9.9244     95.2377    176.1999   1.3258658278e+02   2.6942917246e+01    0.1654062    0.1277542  60.52 0.0003952964    1.302    0.232
       145 -11.6402    120.7841    127.7118   1.1837702115e+02   3.2750434773e+01    0.3837428    0.1888242 -42.22  0.001608621    2.123    0.529
       146 -10.4735     95.5693    127.7394   1.2504688961e+02   3.6876066874e+01    0.2870877    0.1969081  62.21  0.001411627    1.772    0.436
       147 -15.0895    202.4878     84.0287   8.9256682152e+01   2.3923529178e+01    0.6773084    0.5713777 -34.13  0.002317463    1.199    0.166
       148 -10.7712     41.9896    126.2326   1.3985174289e+02   4.3938713926e+01    0.2080446    0.1612132 -77.69  0.000279106    1.160    0.138
       149 -13.0881    121.9579    119.4399   1.1626541552e+02   3.4257800717e+01    0.5697483    0.4092813  25.62  0.001975805    1.502    0.334
       150 -11.5849    103.7187    117.9878   1.2084541802e+02   3.7722959266e+01    0.4636878    0.2144647 -48.16   0.00183877    2.124    0.529
       151 -11.8842     97.7674    117.6111   1.2242448292e+02   3.8774026093e+01    0.5335122    0.2525104  42.07  0.002233268    2.136    0.532
       152 -10.0128     44.9376    120.7447   1.3831435568e+02   4.4932526864e+01    0.2287079    0.1167315  18.34  0.001059746    2.516    0.603
       153 -12.5483    122.6742     99.4309   1.1116531644e+02   3.8297607547e+01    0.4741627     0.284388 -48.84  0.001263697    1.702    0.412
       154 -10.2051     40.2305    175.5338   1.4489247704e+02   3.3439769653e+01    0.2947726   0.05084711  37.52  0.001176611    3.601    0.722
       155 -10.0889    247.5623    173.4846   1.0213819030e+02   4.0636493792e+00    0.1912585    0.1418521   4.09 0.0005820249    1.016    0.016
       156 -11.1956     52.5205    113.4852   1.3500865502e+02   4.5858626415e+01    0.4292409    0.2294532  47.14  0.001022127    1.984    0.496
       157 -10.5863     38.5975    110.6680   1.3887479960e+02   4.7936255839e+01    0.2324887    0.1865814 -51.90 0.0005420885    1.267    0.211
       158 -10.4496     29.1422    107.1206   1.4135984860e+02   4.9607797552e+01     0.320599    0.1963024  66.50  0.001658524    1.755    0.430
       159 -10.4400     98.7024    106.6361   1.1973446889e+02   4.1071691624e+01    0.3510735    0.2621153  23.23  0.001770303    1.499    0.333
       160 -12.1332    114.8343     99.8596   1.1344095551e+02   3.9701234667e+01    0.5169435    0.2933729 -29.61  0.001574265    2.210    0.547
       161  -9.2273     56.4492     99.5684   1.3137607849e+02   4.8753027874e+01    0.1343756     0.122211 -69.93 9.682686e-05    1.008    0.008
       162  -9.4022     64.1646     97.1676   1.2836228092e+02   4.8388561522e+01    0.1848682    0.1564933  77.85 0.0005396011    1.290    0.225
       163  -9.6160     13.2902     97.6747   1.4535443685e+02   5.3006049620e+01    0.1271448   0.07981001  68.91 0.0003753076    1.613    0.380
       164 -10.4880    110.6578     94.9435   1.1332981713e+02   4.1535187745e+01    0.2152722    0.1923801 -45.45 0.0005438864    1.101    0.092
       165 -10.1122     85.8086     94.1470   1.2065888782e+02   4.6006007473e+01    0.2048886    0.1890479 -89.34 0.0004277426    1.179    0.152
       166 -10.8540    107.4576     89.4323   1.1275672855e+02   4.3321096184e+01     0.255459    0.2427262 -31.30 0.0001306214    1.016    0.016
       167 -10.0634    104.6972     86.0039   1.1261408733e+02   4.4577197662e+01    0.2626478    0.2024578 -61.96 0.0004990281    1.472    0.321
       168  -9.8899    250.7043    172.2604   1.0141926076e+02   3.7513700298e+00    0.3267581   0.09746677 -33.77   0.00139593    3.371    0.703
       169 -11.4041    118.3114     86.6079   1.0880826300e+02   4.1821039798e+01    0.3471891    0.2574477 -44.45 0.0009497756    1.321    0.243
       170 -10.7018    114.4742     84.0170   1.0914404283e+02   4.3122186222e+01    0.2774725    0.2231426  39.88 0.0005551956    1.287    0.223
       171  -9.2564     82.7622     87.8555   1.2004745009e+02   4.7937062553e+01    0.1876777    0.1657169  79.17 0.0005422087    1.311    0.237
       172  -9.4019     14.2711     88.3402   1.4398000494e+02   5.5209850301e+01    0.1302631   0.07621129 -51.66 0.0002360741    1.607    0.378
       173  -9.5355     98.3543     87.7069   1.1503345923e+02   4.5357383915e+01    0.1475698    0.1179848  79.78 0.0007030554    1.685    0.406
       174 -10.9698     93.2451     84.9376   1.1586794421e+02   4.6869159154e+01    0.2438909    0.2300566  34.20 0.0002184548    1.121    0.108
       175 -10.0881     58.9255     83.7197   1.2719484107e+02   5.2278488470e+01    0.2413817    0.1839077 -61.31 0.0007259303    1.198    0.165
       176 -10.1926    198.5132    182.5102   1.1214627028e+02   1.0293600469e+01    0.1266175   0.09898462  12.13 0.0008102484    1.032    0.031
       177 -10.7265     99.3410     79.9554   1.1249950837e+02   4.6880762435e+01    0.2429313    0.2069128  50.87 0.0005349258    1.301    0.231
       178 -10.7759    113.9731     77.7987   1.0740353382e+02   4.4510466191e+01    0.3761271    0.2090155 -58.26  0.001405204    2.515    0.602
       179 -11.4556    169.7940    173.2030   1.1603229833e+02   1.6166285146e+01    0.2868372    0.2071097 -62.90  0.001095687    2.302    0.566
       180 -12.1541    122.5991     76.3804   1.0450016342e+02   4.3014602589e+01    0.4185018    0.3472119  64.88  0.001754314    1.469    0.319
       181 -10.0288      2.4949     73.5507   1.4653424872e+02   5.9409583707e+01    0.1238931   0.09932971 -78.45 0.0002153602    1.029    0.028
       182 -11.0032    104.7604     71.7206   1.0824671411e+02   4.7603000900e+01    0.3210098    0.2011835 -49.58  0.001411554    1.633    0.388
       183 -11.1325    120.3659     69.8337   1.0300920420e+02   4.4774464393e+01    0.4026235    0.2547792 -63.47  0.001351805    2.507    0.601
       184  -9.8435     55.9499     70.0663   1.2487440446e+02   5.5915575153e+01    0.2129797     0.188669 -43.32 0.0004636024    1.046    0.044
       185 -10.2242     62.3018    173.0854   1.3971959821e+02   3.1624555700e+01    0.1911937    0.1470553  45.50 0.0005259753    1.171    0.146
       186 -10.3477     98.5360     67.7154   1.0890199768e+02   4.9646561784e+01    0.3350063    0.1779288  53.78  0.001292885    2.463    0.594
       187 -10.8986     11.6399     63.8990   1.4156816294e+02   6.1336864909e+01    0.3296423    0.1517362  24.74  0.001576782    2.511    0.602
       188 -12.5348    142.2706     54.1764   9.1954901205e+01   4.2572507610e+01    0.6451957     0.583658 -56.90  0.003181183    1.258    0.205
       189 -10.5773    140.2892     47.5530   9.0039789899e+01   4.4103524399e+01    0.4008602     0.245637 -28.21  0.001116774    1.578    0.366
       190 -13.1647    125.8183     61.0789   9.8522160900e+01   4.5224430403e+01     1.293185    0.3626744 -33.05  0.003577443    3.923    0.745
       191 -12.0431    136.7857     42.4740   8.8967865543e+01   4.5737006415e+01    0.5656449    0.4005018  76.32  0.002516233    1.881    0.468
       192 -10.6439    140.7353     41.0342   8.7528864749e+01   4.4976681803e+01      0.32839    0.2345955  14.66 0.0003809626    1.618    0.382
       193 -12.0379    131.0018     53.9979   9.4641151240e+01   4.5277736530e+01    0.5385273    0.3043663  34.98  0.002158575    2.010    0.503
       194 -12.7323    133.5952     49.6638   9.2409992794e+01   4.5384036972e+01    0.6481742    0.4776086  55.74  0.003075747    1.454    0.312
       195  -9.4537    100.7168     63.2821   1.0669523330e+02   5.0136871789e+01    0.1993129    0.1265645  41.21  0.000196703    1.653    0.395
       196 -11.2064    102.9765     59.6454   1.0469489882e+02   5.0413207593e+01    0.3051022    0.2330241 -30.55 0.0002438875    1.251    0.200
       197 -12.2542    112.7636     59.4937   1.0164654803e+02   4.8394972357e+01    0.5346669    0.4149613  72.05  0.002507814    1.768    0.434
       198 -10.4261     83.0771    182.1099   1.3598546260e+02   2.7402543136e+01    0.1829129    0.1554404  57.05  0.000697616    1.060    0.056
       199  -9.3043     39.2276     59.9861   1.2897134941e+02   6.0202450785e+01    0.1823504   0.09857444 -60.30 0.0004180414    1.594    0.373
       200  -9.3232     45.9930     58.2390   1.2559690587e+02   5.9898223283e+01    0.1547637    0.1174759  23.65 0.0002862586    1.498    0.332
       201  -9.3409      1.6673     58.2905   1.4494682915e+02   6.3151858195e+01    0.1206993   0.08261309  66.63 0.0007020299    1.630    0.386
       202  -9.9644    100.6590     54.8390   1.0368059752e+02   5.1827670038e+01    0.2190298    0.1321816 -46.18 0.0009383953    1.686    0.407
       203 -11.3223    149.3318     51.0835   8.9275369831e+01   4.1349400311e+01    0.4281191     0.371781  78.49  0.001479817    1.376    0.273
       204 -11.0603    108.1630     51.0904   9.9919554095e+01   5.0955647165e+01    0.4790364    0.2721346  30.53  0.001827009    2.143    0.533
       205 -10.1185     20.0359     52.0292   1.3554304969e+02   6.3722413509e+01    0.1889502    0.1426997  78.38 0.0003448199    1.568    0.362
       206 -11.2890    121.9412     49.1913   9.5243187340e+01   4.8204065377e+01    0.3154305     0.221159  15.99  0.001392779    1.730    0.422
       207 -11.2629    125.9285     46.8505   9.3297296503e+01   4.7663886633e+01    0.2907816    0.2273367  25.33 0.0007792934    1.341    0.254
       208  -9.1812     58.4734     49.5108   1.1743256054e+02   6.0311738022e+01    0.1452616    0.1225138 -31.51 0.0002884434    1.077    0.072
       209  -9.7504     56.3169     46.3203   1.1719827582e+02   6.1315207064e+01    0.1472097   0.09923813 -22.70 0.0003406008    1.660    0.398
       210 -11.7043    118.0721     43.0996   9.3940843217e+01   5.0118908982e+01    0.4645839      0.21682 -35.31  0.001786595    2.039    0.510
       211  -9.2851     98.3268     44.2992   1.0033856891e+02   5.4291147735e+01    0.1551036    0.1132051   6.42 0.0007028226    1.636    0.389
       212 -10.2031     27.6577     43.3105   1.2957088022e+02   6.5217534137e+01    0.2137789      0.16482   3.03 0.0002435207    1.496    0.332
       213 -11.9833    127.1718     40.0081   9.0336390273e+01   4.8452198990e+01    0.6624891    0.2754725  34.90  0.002051849    3.480    0.713
       214 -10.0232     58.4679     41.4824   1.1439974382e+02   6.2046998770e+01    0.1431334    0.1235413 -30.27 0.0001373937    1.011    0.010
       215 -10.1140      6.0485     40.7389   1.3981838481e+02   6.7208355578e+01    0.1751327    0.1497412 -81.76 0.0007135118    1.203    0.168
       216 -10.2380      1.9229     40.2421   1.4182407928e+02   6.7491700627e+01    0.2146606    0.1434829 -67.09 0.0005154241    1.170    0.145
       217 -11.2054    146.9815     37.2945   8.4796854357e+01   4.3945861835e+01    0.4409697    0.2937291 -27.68  0.002022838    1.445    0.308
       218  -9.5314     55.2964     39.6678   1.1508377718e+02   6.2890246613e+01    0.1318491    0.1110023 -81.58 0.0004313088    1.641    0.391
       219 -10.1534     66.2075     36.6247   1.0904129101e+02   6.1826440169e+01    0.2279166    0.1767649  18.81 0.0002396107    1.381    0.276
       220 -11.2936    123.2481     34.8281   8.9252768457e+01   5.0179366074e+01    0.3634621    0.1988498 -20.32  0.001462887    1.944    0.486
       221 -10.5343     33.4462     44.6810   1.2716695812e+02   6.4376845634e+01    0.2397117    0.1907444 -43.68 0.0002671597    1.069    0.064
       222  -9.6041     25.6759    172.3210   1.4789539044e+02   3.5404281053e+01    0.1212807   0.06381444  60.34 0.0007046381    1.679    0.404
       223  -9.2582     23.2430     35.0264   1.2923030751e+02   6.7497627812e+01    0.1689696   0.09247501 -57.71 0.0003518467    1.499    0.333
       224  -9.7872    138.6437     22.6007   8.0826326281e+01   4.7954209753e+01    0.3367888    0.1749358  43.21  0.001367825    1.943    0.485
       225 -12.5272    133.0125     29.9649   8.4965026295e+01   4.8453801228e+01    0.6348004    0.4372692  29.84  0.002927184    1.551    0.355
       226 -10.8006    145.4763     31.4592   8.2912229342e+01   4.5106597024e+01    0.2621646    0.2541549 -27.41 0.0007472971    1.081    0.075
       227 -10.2987    141.4932     29.9543   8.3143530474e+01   4.6313947202e+01    0.2674376    0.2179914  20.23 0.0006761204    1.254    0.202
       228 -11.2386    137.7857     27.3739   8.2901277104e+01   4.7586481733e+01    0.4011643    0.2885441 -74.40  0.001075484    1.932    0.483
       229 -10.2642    111.8278     31.8163   9.1019168506e+01   5.3352050134e+01    0.2071611    0.1773707 -49.89 0.0006124896    1.337    0.252
       230 -10.2274    118.0000     31.0474   8.9032482429e+01   5.1997861105e+01    0.2565487   0.08317082 -28.79 0.0008095623    2.992    0.666
       231 -10.9829    140.6815     35.6575   8.5508135882e+01   4.5755268299e+01     0.270503    0.2238465  17.61 0.0006280345    1.234    0.190
       232  -9.6900     55.3096     31.6661   1.1167755901e+02   6.4533605837e+01     0.130917    0.1115184 -77.52 0.0006120192    1.675    0.403
       233 -10.3272     82.0047     32.3302   1.0085595300e+02   5.9752687988e+01     0.198739    0.1780255  12.51 0.0003602298    1.097    0.088
       234  -9.3435     43.3488     27.3115   1.1555204042e+02   6.7083920520e+01    0.1439484   0.09301522 -19.25 -7.452807e-06    1.716    0.417
       235 -10.5304     99.2667     25.8394   9.2022610610e+01   5.7139081266e+01    0.2654258    0.2158077  19.45 0.0002127604    1.216    0.178
       236 -10.1776    152.5072     24.5499   7.8979793267e+01   4.4154441049e+01    0.3012356    0.1440734 -22.43  0.001179828    2.059    0.514
       237 -10.4678    148.0267     23.3430   7.9327854797e+01   4.5451657902e+01    0.2557841    0.1986468  -2.52 0.0004283947    1.326    0.246
       238  -9.4662      2.4500    243.5412   1.5488979063e+02   2.4961578529e+01   0.08948974   0.06351499  56.28 4.990897e-05    1.053    0.051
       239 -10.0076    236.0702     18.1099   6.6850709740e+01   2.4453024137e+01    0.2170191    0.1500657 -37.39   0.00122959    1.265    0.209
       240 -10.3875    226.0466    241.6883   1.1658868608e+02   1.3130420181e-02    0.1674186    0.1199078   2.88 0.0007318493    1.200    0.167
       241 -10.7800    201.8846    179.1484   1.1093357248e+02   1.0215907215e+01    0.2218353    0.1758051 -27.46 0.0007910149    1.402    0.287
       242 -10.0753    127.6110    238.4388   1.3296628392e+02   1.2764338861e+01    0.3038124    0.1780254  16.12  0.001846786    2.137    0.532
       243  -9.7314     59.6437     16.7515   1.0227527591e+02   6.6573305253e+01    0.1853456    0.1179311 -39.69 0.0002731906    1.529    0.346
       244  -9.1231    243.3132     16.2638   6.5808677053e+01   2.3077749776e+01    0.1198012   0.09168541  26.63 0.0002584013    1.540    0.351
       245 -10.1755    166.4979     16.1021   7.3675755681e+01   4.1447167740e+01    0.2207043     0.138964 -21.47 0.0008763556    1.549    0.354
       246  -9.6173     17.1037    181.8512   1.5023670808e+02   3.4247445312e+01    0.1625008    0.1082033  61.36  0.000342439    1.209    0.173
       247 -12.5932    204.4227    176.7245   1.1003417454e+02   1.0139991591e+01     0.509446    0.4222922 -79.07  0.002869503    2.698    0.629
       248 -11.1098    129.0374    179.4631   1.2557633073e+02   2.1530436984e+01    0.1757013    0.1716873  -6.93 0.0005016092    1.138    0.121
       249 -10.0833    140.8309     13.1787   7.6631940717e+01   4.8430705891e+01    0.2181364    0.1964314 -60.63 0.0005726884    1.234    0.190
       250 -10.2072    130.0935     13.0227   7.8578741915e+01   5.1226534011e+01    0.2187382    0.2043358  22.02 0.0003731567    1.005    0.005
       251  -9.9353    142.4956    242.9916   1.3078527138e+02   1.0325102890e+01     0.213766    0.1136839  43.43  0.001381108    1.606    0.377
       252  -9.8824     22.5089    236.9425   1.5142927494e+02   2.4303193520e+01    0.1213947   0.08071541  88.31 0.0005556199    1.509    0.337
       253 -10.6632     57.3714    235.8596   1.4535890589e+02   2.1180557684e+01    0.2313423    0.1039472  51.66  0.001486182    1.776    0.437
       254 -10.0577    167.5291    233.1072   1.2526505546e+02   8.3143892294e+00    0.2259908    0.1587252 -13.24  0.001602799    1.677    0.404
       255  -9.9393    226.7155    167.5808   1.0440865320e+02   7.8393112260e+00    0.1569326    0.1097997  39.78 0.0007012603    1.588    0.370
       256  -9.4593    156.9344     12.4770   7.3746200446e+01   4.4295879412e+01    0.2030045    0.1426395  68.41 0.0004433116    1.450    0.310
       257 -10.0959    237.2637    233.8083   1.1372971891e+02  -6.2345664718e-01    0.1659178    0.1110814  26.61  0.000647345    1.302    0.232
       258  -9.7890    211.4728    234.4674   1.1794827985e+02   2.4911253446e+00    0.1092056   0.07624097  17.68 0.0001581902    1.009    0.008
       259  -9.8251    220.0317    233.0247   1.1635388289e+02   1.5596749495e+00    0.1754279   0.09782432   9.25 0.0009198944    1.693    0.409
       260 -12.6631    154.0082    231.4342   1.2747202189e+02   1.0290021472e+01    0.2308372    0.1816804  31.19 0.0003897964    1.080    0.074
       261 -10.5234    149.7823    227.3335   1.2775725055e+02   1.1371058897e+01    0.2097761    0.1689666  21.50 0.0009754972    1.100    0.091
       262 -10.2722    141.0278    172.2726   1.2187686409e+02   2.0925992150e+01    0.2170884    0.1966261 -52.73 0.0008496149    1.299    0.230
       263  -9.9820     32.2844    233.5586   1.4963505063e+02   2.3955410184e+01    0.1863321   0.06420441  37.53  0.001031045    2.067    0.516
       264 -10.3093    145.0135    231.4433   1.2909542670e+02   1.1462733794e+01    0.1635408    0.1426887  61.78 0.0003092099    1.480    0.324
       265  -9.5845    113.8118    231.1746   1.3477142497e+02   1.5469190548e+01    0.1449001    0.1087072  21.43 0.0005042007    1.345    0.256
       266  -9.6869     69.1044    230.7878   1.4294468581e+02   2.0722599192e+01    0.1560957    0.1065519  53.30 0.0007235261    1.188    0.159
       267 -10.7390    126.6698    226.9032   1.3196742227e+02   1.4448091930e+01    0.2263804    0.1752346  15.79  0.001656362    1.344    0.256
       268  -9.6951    102.4168    166.7531   1.2969201804e+02   2.7761083950e+01     0.170186    0.1156529 -45.40 0.0009489824    1.652    0.395
       269  -9.6687    219.3559    227.2858   1.1564854378e+02   2.2082884729e+00    0.1801319   0.09841427   8.42  0.001102616    1.833    0.454
       270 -11.9144    238.8034    224.2596   1.1208713188e+02   6.1524755180e-02    0.2370173     0.149855  17.10  0.000421007    1.133    0.117
