#   1 NUMBER                 Running object number                                     
#   2 MAG_AUTO               Kron-like elliptical aperture magnitude                    [mag]
#   3 X_IMAGE                Object position along x                                    [pixel]
#   4 Y_IMAGE                Object position along y                                    [pixel]
#   5 X_WORLD                Barycenter position along world x axis                     [deg]
#   6 Y_WORLD                Barycenter position along world y axis                     [deg]
#   7 A_WORLD                Profile RMS along major axis (world units)                 [deg]
#   8 B_WORLD                Profile RMS along minor axis (world units)                 [deg]
#   9 THETA_WORLD            Position angle (CCW/world-x)                               [deg]
#  10 FWHM_WORLD             FWHM assuming a gaussian core                              [deg]
#  11 ELONGATION             A_IMAGE/B_IMAGE                                           
#  12 ELLIPTICITY            1 - B_IMAGE/A_IMAGE                                       
         1 -11.8669    208.9115      2.7495   6.4955575830e+01   3.1462504586e+01      1.26567    0.4370357  62.48  0.002847793    2.691    0.628
         2 -13.1120    186.4167     26.7662   7.4631696361e+01   3.4770509585e+01     2.102276     1.426011 -12.51  0.007427975    1.602    0.376
         3 -12.7190    194.4987     20.1187   7.1552780943e+01   3.3419597615e+01     1.322829    0.9629433 -43.16  0.006105993    1.333    0.250
         4 -11.6538    199.9440     12.0227   6.8502963629e+01   3.2853090666e+01    0.6317868    0.4931793  35.47  0.001244613    1.431    0.301
         5  -9.6179      9.5201     10.0628   1.2716273818e+02   7.3977162264e+01    0.1818015   0.09829165 -57.34 0.0006866604    1.543    0.352
         6  -9.7904      2.2065      7.8379   1.3133529974e+02   7.4872515253e+01    0.2608988   0.09071446 -70.83  0.001043858    3.456    0.711
         7  -8.9911      7.6679      3.3240   1.2542960341e+02   7.5458584440e+01    0.1066199   0.08998436  77.23 0.0007050558    1.705    0.414
         8  -9.3401     11.9862      2.0000   1.2160451021e+02   7.5389878756e+01    0.1716114   0.06601262  22.71 0.0008041797    2.955    0.662
         9 -11.9831     50.8038    225.3099   1.4429650097e+02   2.4473627794e+01    0.3438561    0.3048583 -86.51  0.001028776    1.401    0.286
        10 -10.0729    248.8342    249.0153   1.1286936280e+02  -4.0063569810e+00    0.2743341    0.1547611  -4.98  0.002042304    1.737    0.424
        11 -10.3275    242.4647    249.4756   1.1386542198e+02  -3.2809563512e+00     0.271706    0.1236457  28.15  0.001826299    1.581    0.367
        12 -12.5520     33.0776    245.1013   1.4830060266e+02   2.3271581296e+01     1.359216    0.4796414  34.47  0.006695097    2.313    0.568
        13 -11.4965     52.2823    234.3889   1.4452775214e+02   2.2897253237e+01    0.3795304    0.3165361 -73.37  0.001971718    1.555    0.357
        14 -14.3673     12.4354    236.5347   1.5143998438e+02   2.6495549764e+01     3.401547    0.7914827 -69.93   0.01775976    4.568    0.781
        15 -14.2876     58.6261    212.4283   1.4204564939e+02   2.5709762517e+01     6.499738          nan  41.41   0.02016328    6.314    0.842
        16  -9.7012     43.6769    230.7608   1.4585987440e+02   2.4372023604e+01    0.2084531    0.1214358  50.07 0.0004779713    1.219    0.180
        17  -8.9860    206.3176    245.6615   1.1892830523e+02   1.6023592402e+00   0.09309943   0.07177711  46.66 0.0007048885    1.705    0.414
        18 -13.9551     30.0818    186.0118   1.4609914494e+02   3.3452562289e+01      6.09536     1.746171  76.89   0.01688703    9.249    0.892
        19  -8.9221    238.6426    234.6796   1.1243948793e+02  -1.5879980641e+00    0.1119697   0.05836984  15.45 0.0007044975    1.762    0.432
        20  -9.7603    142.8651    242.2079   1.2912943187e+02   1.0523432316e+01    0.1986296    0.1629864  -6.97 0.0004223442    1.599    0.375
        21  -9.6250    243.8094    233.6191   1.1151070542e+02  -2.1504908869e+00    0.1410024      0.07685  38.41 0.0009521703    1.685    0.406
        22 -10.0454     35.3916    230.9496   1.4732590985e+02   2.5190027658e+01     0.344342    0.1476874  61.10  0.001204043    1.909    0.476
        23  -9.0505    139.2322    241.9506   1.2973419328e+02   1.1045546172e+01    0.1223393    0.1161459 -62.97 0.0009768213    1.454    0.312
        24  -7.3956     92.6903    199.3259   1.3419674266e+02   2.3688449243e+01    0.1214105   0.07357613  61.38  0.000340235    1.657    0.396
        25  -9.8828     66.2242    196.7986   1.3937968567e+02   2.7522020295e+01    0.3696276    0.1851718  63.15  0.001975904    2.027    0.507
        26  -9.0596    192.9654    195.9315   1.1422790585e+02   8.9591757666e+00    0.3378325    0.1900865 -59.39   0.00135831    5.298    0.811
        27  -9.9681    190.8824    188.8218   1.1346758058e+02   1.0199973813e+01    0.2243597    0.1794276 -10.60 0.0005830934    1.310    0.237
        28 -10.8807     73.3209    192.8501   1.3757327267e+02   2.7355373996e+01    0.3058628    0.2668513 -26.38  0.001408159    1.675    0.403
        29 -10.9085     77.7245    186.1846   1.3601358035e+02   2.8005997495e+01    0.2491331    0.2313969 -49.73 0.0004306065    1.394    0.283
        30 -10.5744     18.4979    192.0855   1.4875923244e+02   3.3407937905e+01     0.240635    0.2100719 -58.83  0.001961074    1.586    0.369
        31 -10.5555     18.3962    187.8050   1.4858691949e+02   3.4206087048e+01    0.2810469    0.2200803  28.08  0.002154562    1.541    0.351
        32  -9.8144      6.5661    190.8133   1.5106393032e+02   3.4665150261e+01    0.1873481    0.1524088  50.83 0.0006835961    1.241    0.194
        33  -7.9827     90.4523    184.9856   1.3315619014e+02   2.6519108113e+01    0.1581713   0.09204577  77.47 0.0005362607    2.321    0.569
        34 -10.6876      6.6825    182.8718   1.5075464742e+02   3.6124002839e+01    0.4600878    0.1556661  34.95  0.001795175    2.403    0.584
        35  -8.6288     82.4212    244.2344   1.3985029833e+02   1.8014658426e+01    0.1262672   0.08521398  77.80 0.0009518829    1.644    0.392
        36  -9.3919    126.3258    174.5900   1.2406919800e+02   2.2995014455e+01    0.3161508    0.1364531  43.69  0.001448082    1.998    0.499
        37 -10.5544     86.2063    174.6996   1.3292632213e+02   2.9020681080e+01    0.3362332    0.1944693  49.81 0.0005215591    1.512    0.339
        38 -12.0993     56.2090    127.3987   1.3447032542e+02   4.2853390803e+01     1.626336    0.5223273 -76.73  0.005002225    5.061    0.802
        39 -12.7327     69.1667    147.2389   1.3364514098e+02   3.6871888175e+01     1.802211     0.880838  81.30  0.007064987    3.502    0.714
        40 -12.3465     73.8389    171.5854   1.3536940716e+02   3.1283380390e+01     0.392913    0.2652991 -41.99  0.001557584    2.065    0.516
        41  -8.5572     44.2632    172.9884   1.4217597666e+02   3.4517237711e+01    0.2947069    0.1422658  24.10  0.001500543    2.601    0.616
        42  -9.7884    230.7248    168.5235   1.0301523409e+02   6.2653943828e+00    0.2834319    0.1312105 -40.53  0.001360774    2.776    0.640
        43  -9.9950      2.8762    168.2845   1.5099588086e+02   3.9219692423e+01    0.1991016    0.1321752 -84.71 0.0009074083    1.362    0.266
        44  -7.8456     66.3105    158.2872   1.3567041270e+02   3.4922603380e+01    0.1103153    0.0963605 -24.72 0.0002367784    1.577    0.366
        45  -9.5747     36.9973    227.1807   1.4687358563e+02   2.5622733159e+01    0.2439201    0.1293259  56.87 0.0009201805    1.405    0.288
        46  -9.6252     47.9537    152.0000   1.3948221887e+02   3.8413740067e+01    0.2129382    0.1480099 -69.28 0.0006052849    1.427    0.299
        47 -10.8496     48.2102    146.8961   1.3890641914e+02   3.9474598294e+01    0.3273789    0.2552133 -33.64  0.002026454    1.799    0.444
        48 -12.4007     10.6966    207.3270   1.5084403477e+02   3.1391785274e+01    0.5795912    0.4542793  24.24  0.002653211    1.667    0.400
        49  -9.6526    103.3259    149.9494   1.2556114059e+02   3.1338828474e+01    0.2776375    0.2375672 -34.15 0.0008962702    1.415    0.293
        50  -8.7186    105.3179    146.3326   1.2449307004e+02   3.1748379802e+01    0.2047422    0.1644575 -39.49 0.0006091024    1.465    0.317
        51 -11.2857     92.3351    149.1705   1.2812528405e+02   3.3201635372e+01    0.2549546    0.2394811  24.70 0.0005460143    1.215    0.177
        52 -10.3085     28.0175    145.4992   1.4385910662e+02   4.1817410914e+01    0.2857409    0.1553557   8.51  0.001400925    3.179    0.685
        53  -8.4436    237.3131    141.6679   9.6696363524e+01   8.3913600365e+00    0.1139185   0.09960507 -52.61 0.0002750853    1.679    0.404
        54  -9.0739    135.1493    136.0500   1.1543664628e+02   2.8554398272e+01    0.1967543    0.1862323  38.85 0.0002786633    1.017    0.017
        55  -9.0993    112.9239    135.6240   1.2073727163e+02   3.2651073928e+01     0.289279    0.2171134 -15.33 0.0009436633    1.930    0.482
        56  -9.7994    100.4217    132.9697   1.2342684969e+02   3.5311872411e+01    0.2585059    0.2167991 -20.81 0.0005346669    1.524    0.344
        57 -11.4450     42.5640    128.0733   1.3834731824e+02   4.4232838466e+01    0.5337951    0.2762271  73.70  0.002546012    2.258    0.557
        58  -8.5361    119.6892    126.0198   1.1715715585e+02   3.3405768152e+01    0.2185833    0.1053605 -30.95 0.0006999437    4.051    0.753
        59  -8.2195    199.3909    124.9004   9.9497558925e+01   1.7744908833e+01    0.1889192    0.1591056  -6.57 0.0005772552    1.137    0.121
        60  -8.6468    108.9411    123.3365   1.1936967531e+02   3.5896284838e+01    0.1905828    0.1654108  42.90 0.0003112511    1.119    0.107
        61  -8.3564    132.0106    121.2358   1.1307140101e+02   3.2035730134e+01    0.1904651    0.1760471  42.69 0.0002467978    1.034    0.033
        62 -10.5511    245.3301    115.4671   8.9867674060e+01   1.0190993965e+01    0.2539507    0.2158721  29.50 0.0003200424    1.211    0.174
        63  -9.3267    168.0228    113.7735   1.0308233442e+02   2.6037788432e+01    0.3110365     0.259001 -84.58 0.0008949072    1.634    0.388
        64  -9.8108      1.8599    109.8246   1.4826863766e+02   5.1690405181e+01    0.2350106    0.1359783 -88.30 0.0007553751    1.419    0.295
        65  -7.4160    191.2780    102.2821   9.5595786439e+01   2.2912874955e+01    0.1426156    0.1064531  13.27 0.0002711083    1.508    0.337
        66 -12.0298     91.3639    166.5833   1.3076558661e+02   2.9855447833e+01     2.020254    0.5457659  48.05   0.00120673    3.767    0.735
        67 -10.6447    145.5262    249.2259   1.2937659014e+02   9.3255496357e+00    0.4495468    0.1545472  34.10  0.002311252    2.380    0.580
        68  -8.1883    154.0125     76.9968   9.6287061886e+01   3.5646018489e+01    0.1877466    0.1763324 -24.45 0.0004979063    1.060    0.057
        69  -7.9312    159.9953     58.9961   8.9450987073e+01   3.7181962957e+01    0.1785616    0.1723759 -14.36 0.0009626441    1.024    0.024
        70  -8.7297    197.1306     54.0517   8.1391003941e+01   2.8662336793e+01    0.2077613    0.1985902 -16.82 0.0002916813    1.009    0.009
        71  -8.8293    172.2416     49.5936   8.4111407566e+01   3.5500065187e+01    0.2096057    0.1334504  47.53 0.0003075023    1.580    0.367
        72  -9.7780    216.4859    249.4846   1.1780625879e+02  -5.9972018280e-02    0.2232053   0.07355297  37.77  0.001225814    2.222    0.550
        73  -9.8129    189.7376    249.5959   1.2206693201e+02   3.4022600180e+00    0.2140178   0.07254259  35.16  0.001143149    2.165    0.538
        74  -9.4615    109.1430    248.2753   1.3552415032e+02   1.4176883478e+01    0.1463606    0.1354954  35.43  0.000773319    1.328    0.247
        75  -8.0403     95.6630    249.3010   1.3792112467e+02   1.5718637324e+01    0.1073724   0.05653976  54.91  0.000428032    1.662    0.398
        76  -8.4760    137.0196     45.0566   8.9725016056e+01   4.5114121556e+01    0.2173152    0.2120629  21.11  0.001186884    1.005    0.005
        77 -10.4060    145.9158     21.0709   7.8985399159e+01   4.6110936998e+01    0.2614256    0.2263838 -18.23 0.0002864888    1.181    0.153
        78  -8.5342    164.5532     20.6798   7.5730824635e+01   4.1206196653e+01    0.2909991    0.1385689  -1.28 0.0009452823    3.508    0.715
        79  -8.3872    156.4052     15.7955   7.5252810424e+01   4.3914849842e+01     0.195586     0.140979  -1.39  0.000277577    1.575    0.365
        80  -8.3122    164.6933     12.3247   7.2787995009e+01   4.2060334607e+01    0.1544124    0.1039092 -58.01 0.0004241498    1.647    0.393
        81 -10.1864     70.5607    238.8490   1.4157074801e+02   2.0182080324e+01    0.6159672    0.2471249  78.13  0.002630813    5.416    0.815
        82  -9.9815     71.3185    243.5806   1.4173288491e+02   1.9407621683e+01    0.1863239     0.152986  39.07  0.000491645    1.301    0.231
        83  -9.4229     75.2840    242.6413   1.4098587605e+02   1.9082876358e+01    0.2415994    0.1162451  55.23  0.001042524    1.728    0.421
