#   1 NUMBER                 Running object number                                     
#   2 MAG_AUTO               Kron-like elliptical aperture magnitude                    [mag]
#   3 X_IMAGE                Object position along x                                    [pixel]
#   4 Y_IMAGE                Object position along y                                    [pixel]
#   5 X_WORLD                Barycenter position along world x axis                     [deg]
#   6 Y_WORLD                Barycenter position along world y axis                     [deg]
#   7 A_WORLD                Profile RMS along major axis (world units)                 [deg]
#   8 B_WORLD                Profile RMS along minor axis (world units)                 [deg]
#   9 THETA_WORLD            Position angle (CCW/world-x)                               [deg]
#  10 FWHM_WORLD             FWHM assuming a gaussian core                              [deg]
#  11 ELONGATION             A_IMAGE/B_IMAGE                                           
#  12 ELLIPTICITY            1 - B_IMAGE/A_IMAGE                                       
         1 -13.9402     56.1758     64.9091   5.5631774691e+01   5.8486984754e+01     1.862795     1.110894 -29.68  0.007779117    2.207    0.547
         2 -13.7442     61.1147     75.5943   5.6747170103e+01   5.5137347398e+01     0.826336    0.4859777 -44.76  0.001783484    1.708    0.415
         3 -14.9189      6.5081     70.7662   8.0215512972e+01   6.1956151406e+01     1.206411    0.7649023 -65.88  0.004513368    1.330    0.248
         4 -15.8871     11.6481     22.7046   6.5792154745e+01   7.3365973383e+01     2.036422     1.037109 -39.50  0.007908985    1.777    0.437
         5 -14.3735     27.0795     11.7539   4.8742473077e+01   7.4036425838e+01    0.9888725    0.5979487 -20.82  0.004963811    1.901    0.474
         6 -13.1543      9.0440      3.0340   5.8098479604e+01   7.7686803900e+01    0.6842682    0.3393543  36.68   0.00346865    2.416    0.586
         7 -14.1666    122.2723     36.8603   2.1959232351e+01   4.9715069444e+01     1.438814    0.7216838  53.45  0.005749211    1.900    0.474
         8 -14.3419    166.5736     29.0618   1.1076561096e+01   3.9066347805e+01     1.055297    0.8582078  75.51  0.003926388    1.213    0.175
         9 -14.4542    147.5847     29.7373   1.4213723202e+01   4.4000081385e+01     1.365887    0.8381799  69.94  0.005012246    1.621    0.383
        10 -13.6261    188.2363     24.0730   6.8953325434e+00   3.4128775316e+01     1.465198    0.6622938 -47.82  0.006158112    2.092    0.522
        11 -12.6767    120.4312     26.1392   1.8080634104e+01   5.1712565693e+01    0.6099651    0.4643872  48.48  0.002617343    1.295    0.228
        12 -15.2037     99.1564     11.5782   1.6581174315e+01   5.9061386465e+01     1.617083    0.9638009  58.41  0.004691566    1.544    0.352
        13 -12.1659     85.4898     13.7802   2.1467334521e+01   6.2237218395e+01    0.4103691    0.3627247 -14.03  0.001864703    1.165    0.142
        14 -12.1791     60.1013     15.3388   3.1869298468e+01   6.7771016149e+01    0.5319491    0.3169807  28.37  0.002434194    1.942    0.485
        15 -13.8774    214.9598     10.0528   6.9674822573e-01   2.9252279944e+01    0.6804914    0.4262339 -77.38  0.002694085    1.595    0.373
        16 -12.1808    122.9405     10.9294   1.1269018832e+01   5.2835879204e+01    0.3904157    0.2450255 -49.55  0.001094414    1.710    0.415
        17 -13.9212     41.8078      4.5338   3.4325716526e+01   7.2897995034e+01    0.7648133    0.5807851   4.25   0.00344906    1.335    0.251
        18 -12.6199    153.0957      8.7763   5.9759005068e+00   4.4904764657e+01    0.4086084     0.289048  76.35  0.002080397    1.337    0.252
        19 -11.7312     75.1331     10.0941   2.2861056253e+01   6.5167349475e+01    0.2305629    0.1813837  24.93  0.001236776    1.286    0.222
        20 -13.4785    187.6912     11.4555   3.2263445143e+00   3.5635840365e+01    0.6937517    0.4824148 -18.16  0.003590069    1.575    0.365
        21 -10.8035     80.4298      7.2688   1.9545021106e+01   6.4234980326e+01    0.1877705    0.1286174 -36.26 0.0007856142    1.550    0.355
        22 -11.9271     46.6317     12.9101   3.7122487417e+01   7.0753505486e+01    0.2938642    0.2772816 -15.61   0.00166094    1.132    0.116
        23 -12.3369    119.5396      2.8498   8.4304603677e+00   5.4532799401e+01    0.6815307    0.2943032 -87.75  0.002229023    3.560    0.719
        24 -11.4807     74.9454      3.0830   1.8900290574e+01   6.6007195415e+01    0.2428121    0.1889282  10.12  0.001007447    1.350    0.259
        25 -11.6339     81.2786      1.3384   1.5985285712e+01   6.4643361932e+01    0.7385254   0.08466576  56.97  0.002048776    4.566    0.781
        26 -11.0860     67.6194      2.7298   2.1192962121e+01   6.7762334685e+01    0.3149338    0.1950972  27.92  0.001513855    1.750    0.429
        27 -10.6916    232.9341      1.5083   3.5749493444e+02   2.6130673621e+01    0.1724374    0.1130968  86.66 0.0008455406    1.567    0.362
        28 -11.2839     61.4973      1.4969   2.2741008503e+01   6.9281436253e+01    0.3858032    0.1314708  58.65  0.001391634    2.973    0.664
        29 -11.7584     48.8888    181.2113   7.7609360975e+01   3.0861334539e+01    0.3030436    0.1906921 -58.77  0.001686525    1.815    0.449
        30 -13.8377    107.3414    247.3299   7.0507581632e+01   1.1506911174e+01    0.7221846    0.4846646  72.36  0.004728898    2.069    0.517
        31 -14.4412     92.1031    230.3939   7.2064044589e+01   1.6065945875e+01    0.6894858    0.5609911  82.85   0.00495746    1.457    0.314
        32 -12.3092     50.9738    248.6935   8.1547244651e+01   1.7955027202e+01    0.3250256    0.2588644  46.61  0.002585894    1.135    0.119
        33 -10.9871     41.6585    250.3036   8.3397535883e+01   1.8687387204e+01    0.1168229   0.05192354  52.19 0.0007039831    1.679    0.404
        34 -12.1336      2.8928    249.5629   9.0534534829e+01   2.2513457755e+01    0.3358131    0.1671066  42.25  0.001755586    1.356    0.263
        35 -13.7437      9.7469    245.6207   8.9202453890e+01   2.2551926571e+01    0.7817252    0.2910112  48.07  0.003636775    1.702    0.413
        36 -12.6452    124.1621    166.6268   5.6858433537e+01   2.3049381926e+01    0.5676057    0.4006388 -73.93  0.002840835    1.923    0.480
        37 -12.0748     23.9266    159.6489   8.2457611100e+01   3.8341438797e+01    0.2185562    0.1605534 -72.66  0.001321778    1.377    0.274
        38 -11.9720     77.3156    156.8873   6.7464736314e+01   3.2629846841e+01     0.429093     0.313729  29.71  0.001274467    1.389    0.280
        39 -13.1803     73.5093    153.2134   6.8008973086e+01   3.4029086708e+01    0.6849812     0.424521  30.41  0.002431558    1.620    0.383
        40 -11.9531    111.3372    155.7070   5.8195908724e+01   2.7493804164e+01    0.4726771    0.2968526  76.24  0.001939173    2.658    0.624
        41 -12.9410      7.9745    150.1713   8.6258120893e+01   4.1903226772e+01    0.7535132    0.3708617  44.77  0.003986527    1.743    0.426
        42 -11.4844    103.5685    149.5754   5.9170847739e+01   3.0154639054e+01    0.2976418    0.2413461 -21.62  0.001179883    1.549    0.354
        43 -11.8609    245.8643    148.0966   2.9578895584e+01   5.5018276701e+00    0.1823139    0.1531262 -26.05  0.001258706    1.272    0.214
        44 -11.6947     60.4818    147.5082   7.0957376682e+01   3.7167748169e+01    0.3426057    0.2335605  -8.88  0.001576868    2.394    0.582
        45 -10.8543     38.4765    145.5299   7.7174181106e+01   4.0264620513e+01    0.1330143    0.1177862  74.20  0.000196281    1.034    0.033
        46 -12.3998    246.8276    135.4191   2.6906850252e+01   6.9845412476e+00    0.3048052    0.2231541  79.50  0.001623457    3.023    0.669
        47 -12.4442     44.9256    132.6774   7.3766252062e+01   4.2734029172e+01    0.3672211    0.2894461  34.14  0.001533949    1.305    0.233
        48 -11.0528      5.4123    128.8369   8.5836684852e+01   4.7237523102e+01     0.239412    0.1352467 -43.55  0.001209143    2.218    0.549
        49 -14.5867    105.8285    104.4749   4.8928432024e+01   4.0099102263e+01     1.304777     1.264536  32.32  0.006088867    1.061    0.057
        50 -13.0867     28.8146    121.8344   7.7704153393e+01   4.7157030085e+01     0.473709    0.3104005 -57.07   0.00241286    1.540    0.351
        51 -11.5571    181.1933    120.6142   3.4529536696e+01   2.0991062381e+01    0.2025711    0.1298531  35.87 0.0009495862    1.631    0.387
        52 -12.2683      4.5628    119.3187   8.5518759903e+01   4.9657953367e+01    0.4996652    0.2881821   9.81  0.002617216    2.165    0.538
        53 -11.9980     42.5783     90.3310   6.7887772091e+01   5.3899176117e+01    0.3594269    0.2727208 -68.86 0.0004639926    1.220    0.180
        54 -12.6523     36.7671     92.9045   7.0697934952e+01   5.3869869902e+01    0.5135458     0.317748  16.57  0.001626379    1.924    0.480
        55 -12.9417     20.1747     86.1754   7.6371025257e+01   5.7120352734e+01    0.6726695    0.4238669  12.80  0.003446223    1.882    0.469
        56 -14.8875     15.5069    107.5928   8.0805316083e+01   5.1912194713e+01     1.647845    0.9782325  69.16  0.007532675    1.669    0.401
        57 -14.1959     22.7075     94.9146   7.6593183455e+01   5.4648516204e+01     1.253798    0.6678203  23.85  0.005477919    2.045    0.511
        58 -12.7088     29.6212     89.4575   7.2981030584e+01   5.5471620435e+01    0.5889647    0.3318048  75.37  0.002583999    2.172    0.540
        59 -11.3998     88.3299    109.1811   5.5523971085e+01   4.2297777558e+01    0.4388015    0.2286759 -67.20  0.001638604    2.403    0.584
        60 -12.8045     84.5078    114.8811   5.8019515333e+01   4.1572389174e+01    0.9417369    0.4215369  38.86  0.003107353    2.171    0.539
        61 -12.2360     78.5321    110.4983   5.9014378027e+01   4.3655768141e+01    0.3727156    0.2880159 -79.11  0.001602532    1.389    0.280
        62 -11.4014    121.8700    111.9679   4.6224277172e+01   3.5137274398e+01    0.2351628    0.2115023  -1.49 0.0006186155    1.250    0.200
        63 -11.9555     62.3713    109.3852   6.4273279309e+01   4.6425702701e+01    0.6976751    0.3987803 -83.98   0.00283058    2.257    0.557
        64 -13.4937      2.2978     96.9317   8.4710746299e+01   5.5455775878e+01    0.8755199    0.2695937 -82.10  0.003349707    2.825    0.646
        65 -12.1095    136.3822    102.9774   4.0077541488e+01   3.3955027140e+01    0.5129896    0.2548147  47.84  0.001905233    2.017    0.504
        66 -13.9692    104.6120    122.1401   5.3485824983e+01   3.6234254880e+01      1.40622    0.9241477  46.09   0.00642423    1.489    0.328
        67 -10.7304     64.5151    101.5258   6.1898441447e+01   4.8114409780e+01    0.2308525    0.2199928  64.90 0.0005441598    1.053    0.050
        68 -12.0779     61.5274     97.5564   6.2116675734e+01   4.9563703605e+01    0.4893516    0.3599426  76.09  0.001839308    1.578    0.366
        69 -12.0859     49.0311     93.4850   6.5980813169e+01   5.2305522765e+01    0.8007428    0.4224429 -55.16  0.003511495    1.761    0.432
        70 -11.7916     42.1704     96.1915   6.9175060655e+01   5.2425614791e+01    0.5497218    0.2708215  57.79  0.001500043    2.591    0.614
        71 -11.2900     48.6806    100.6613   6.7532479077e+01   5.0494354964e+01    0.3558606      0.27175  29.14  0.001846547    1.404    0.288
        72 -11.7847     52.7653     97.4977   6.5375746067e+01   5.0791112381e+01    0.4811265    0.2779111 -29.21  0.001915116    2.620    0.618
        73 -11.3735    163.9505     97.9613   3.2344801944e+01   2.8755139581e+01    0.2270622    0.2175586 -17.04 0.0004207958    1.024    0.023
        74 -12.5862    137.1838     94.8920   3.7664413486e+01   3.5435720716e+01    0.4938713    0.3635825  57.77  0.001478318    1.443    0.307
        75 -13.2147    112.3793    116.6626   5.0007582440e+01   3.6002877644e+01    0.6734398    0.3870619  28.60  0.002669809    2.126    0.530
        76 -10.8449     35.0322     86.3124   7.0183630016e+01   5.5762505784e+01    0.1859671    0.1844458  -0.54   0.00110741    1.125    0.111
        77 -12.6133    188.4790     83.9231   2.3911719387e+01   2.5628515116e+01    0.5769212    0.2827288  41.98  0.002225342    2.372    0.578
        78 -12.5878    237.2085     80.0567   1.6022139989e+01   1.6038279528e+01     0.310394    0.2169676 -87.59  0.001675438    2.094    0.522
        79 -13.0036    163.9738     71.4025   2.4820925358e+01   3.3462291207e+01    0.9645578    0.5400951  51.78  0.004072199    1.813    0.448
        80 -13.7937    169.3538     76.6341   2.5321625777e+01   3.1277675437e+01     1.248531    0.5355251  50.58  0.004180034    2.365    0.577
        81 -11.9163    158.4544     83.5026   2.9490888043e+01   3.2670629514e+01    0.3544244    0.2788664  65.91 0.0008772094    1.389    0.280
        82 -12.6058    161.2331     80.0922   2.7925555168e+01   3.2619964531e+01     0.526567    0.3855164  21.14  0.001546109    1.766    0.434
        83 -12.2651     41.1160     68.0646   6.3370734741e+01   5.9755343133e+01     1.018289    0.2365017  29.35   0.00312292    4.261    0.765
        84 -13.0618     28.7788    245.9015   8.5655568761e+01   2.0708713783e+01    0.3974573    0.2224997  61.74  0.002473497    1.460    0.315
        85 -13.6232     91.5686     58.1043   3.9206481503e+01   5.3388053264e+01    0.6105567    0.5355982 -50.50  0.002942105    1.154    0.134
        86 -13.7490     74.1914     73.7589   5.0996720146e+01   5.3389277397e+01     1.538319    0.8330253  15.31  0.004808222    4.023    0.751
        87 -13.0367     87.4411     65.2522   4.3243269279e+01   5.2756786656e+01    0.5416841    0.4420233  -2.06    0.0010261    1.520    0.342
        88 -12.8311     55.0731     81.1885   6.0734918777e+01   5.4640182096e+01     0.626964     0.438769 -46.30  0.002382915    1.416    0.294
        89 -12.4964     59.5057    246.4998   7.9781110060e+01   1.7365581525e+01    0.3092622    0.1907216  11.25   0.00181616    2.474    0.596
        90 -11.3837     42.6161     79.7745   6.5605970715e+01   5.6613697705e+01    0.4282448    0.2803594 -71.26  0.002074934    1.493    0.330
        91 -11.0949     41.6360     75.7977   6.5095247345e+01   5.7743312690e+01    0.3028817    0.2015557 -58.46 0.0007327924    1.366    0.268
        92 -12.0343    114.2276     79.7710   3.9398339226e+01   4.3804857939e+01    0.4559262    0.3444261 -48.82  0.001187398    1.333    0.250
        93 -12.4150    135.4126     79.3123   3.3533741762e+01   3.8958158803e+01    0.7447063    0.3548492  55.94  0.002686661    2.263    0.558
        94 -13.6916    171.7641    242.3836   5.7778476614e+01   3.8695687058e+00    0.6354659    0.3574639  23.98  0.004029758    1.432    0.301
        95 -14.0856      4.6943     63.4067   8.0060928468e+01   6.3915885404e+01    0.6887681    0.5937167  -6.49  0.003799986    1.343    0.255
        96 -11.4053     27.4965     76.3429   7.1508309242e+01   5.9064640089e+01    0.3079857      0.19136  69.15   0.00117496    1.944    0.486
        97 -12.8972    199.3049     69.8041   1.8418966945e+01   2.5370569872e+01      0.68667    0.4113857  45.86  0.002443488    1.868    0.465
        98 -12.3341    134.4713     66.3822   2.9649122901e+01   4.1637851201e+01    0.6098844    0.3621521  44.56  0.002068488    1.751    0.429
        99 -11.5853    158.5969     63.7779   2.3546667576e+01   3.6067184772e+01      0.37716    0.2158823 -50.95  0.001427092    1.902    0.474
       100 -11.7043    100.1279     64.4369   3.8638649417e+01   5.0193595054e+01    0.4081588    0.3120639 -28.29  0.001743629    1.436    0.303
       101 -13.0695     78.7826     60.0438   4.4595675268e+01   5.5638855320e+01    0.8089889    0.5611129 -57.44  0.003724089    1.561    0.359
       102 -11.1549     34.5717     60.5394   6.4457211392e+01   6.2371647042e+01      0.43177    0.2213008 -47.12  0.001816357    1.823    0.452
       103 -11.8247     38.8028     59.9727   6.2208727055e+01   6.2032469567e+01    0.3156451    0.2143335  63.03  0.001507097    1.922    0.480
       104 -12.0988     36.0171     54.6995   6.2019798699e+01   6.3639039686e+01    0.3353221    0.2003907 -46.53  0.001614513    1.547    0.354
       105 -11.7210     24.7581     59.2694   6.9078755603e+01   6.3646781441e+01      0.40764    0.2304672 -57.34  0.001994332    1.522    0.343
       106 -14.4148    119.1084     54.3800   2.9400326997e+01   4.7632389465e+01     1.148616    0.6720193  47.15  0.002412267    1.713    0.416
       107 -13.1934     65.9882     48.9480   4.5581396966e+01   6.0462347846e+01    0.7425926    0.6320912 -61.75   0.00341535    1.282    0.220
       108 -11.3071     17.7662     55.2516   7.1784630274e+01   6.5208555190e+01    0.3448198    0.1748764 -74.28  0.001577182    1.909    0.476
       109 -11.4011    136.6575     54.3300   2.5061962845e+01   4.3208234452e+01    0.2972057    0.2216507 -56.53  0.001301617    1.448    0.309
       110 -12.0321    136.1688     49.8004   2.3588905835e+01   4.4081930753e+01    0.5416675     0.364482  32.06  0.001952781    1.840    0.457
       111 -13.4570    103.3747     50.4148   3.2410393954e+01   5.2185885757e+01    0.9890425    0.5306814 -49.80  0.002379943    2.088    0.521
       112 -13.2943     97.9661     49.9830   3.3943662076e+01   5.3538843698e+01    0.7264918    0.4016089 -42.90  0.002277717    1.821    0.451
       113 -12.7774    216.1819     80.6373   1.8834425342e+01   2.0130394429e+01    0.3604649    0.2532562 -53.64  0.001902834    1.528    0.346
       114 -13.3256    177.9899     57.4711   1.8195254864e+01   3.2244957428e+01    0.7653818    0.5515115 -47.77  0.002359854    1.345    0.257
       115 -12.9371    156.9656     43.9087   1.7462025018e+01   3.9579274461e+01     0.949918    0.5054882  40.05  0.003696018    2.354    0.575
       116 -10.8077     38.6338     46.1802   5.7790570934e+01   6.5338945813e+01      0.20319     0.113814 -46.96 0.0008052744    1.629    0.386
       117 -13.2865      6.2249     43.0510   7.5567933167e+01   6.8918564443e+01    0.8986808     0.414885  13.85  0.004284412    2.448    0.592
       118 -12.4880      3.0270     34.2667   7.5545141515e+01   7.1182603886e+01    0.3105045    0.2074089 -71.41 0.0007687808    1.338    0.252
       119 -12.3064    147.1777    238.8557   6.1940646991e+01   7.5289537500e+00    0.1743048    0.1309221  39.63 0.0009524736    1.247    0.198
       120 -12.6285     23.4293    216.2553   8.5567387521e+01   2.6451407713e+01     0.659591    0.2425742  43.83  0.003571239    1.875    0.467
       121 -12.7603    212.4935     42.9141   9.5680518197e+00   2.6074252685e+01    0.5749181     0.245827  59.17  0.002429207    2.459    0.593
       122 -13.3261    219.6702     41.5032   8.4627091679e+00   2.4652326458e+01    0.5546299    0.3921229 -80.61  0.001927869    1.577    0.366
       123 -13.7302     26.2651    226.4174   8.5396728346e+01   2.4306388666e+01    0.6327917    0.3780276 -55.81   0.00401869    2.355    0.575
       124 -12.1879    109.9827     42.0069   2.7152097452e+01   5.2043627437e+01    0.4686836    0.2180052  56.67   0.00120748    2.136    0.532
       125 -12.8025    113.6614     37.9076   2.4510995787e+01   5.1775105585e+01    0.4019661    0.3656897 -32.32    0.0011476    1.125    0.111
       126 -13.8364     20.7452    223.9480   8.6421355317e+01   2.5287420763e+01    0.4758562    0.4242788  78.58  0.002254404    1.315    0.240
       127 -12.8671    131.4040     33.3609   1.8584871359e+01   4.7821932462e+01     0.723253    0.4604817 -39.34  0.002596545    1.569    0.363
       128 -12.0982     40.4318     40.2986   5.4560755118e+01   6.6434527859e+01    0.5179099    0.2951795  31.62  0.002456281    1.851    0.460
       129 -12.6270     33.0339     40.1451   5.8652535671e+01   6.7401919136e+01    0.3580279    0.2808408  -6.60 0.0005136722    1.392    0.282
       130 -12.5356     75.9520     37.1062   3.6343387863e+01   6.0831548031e+01    0.4684753    0.3206931  31.39  0.001354353    1.596    0.373
       131 -11.7024     71.1411     36.3624   3.7951533311e+01   6.1970306698e+01    0.3586076    0.2531632  56.37  0.001178294    1.604    0.377
       132 -12.5801    242.4775     36.1836   5.1332818630e+00   2.0497137019e+01    0.4863031    0.2780414  83.93  0.002056654    2.109    0.526
       133 -11.1131    104.5110     36.9817   2.6631695940e+01   5.4226653701e+01     0.235121     0.149399 -33.59  0.001036611    1.602    0.376
       134 -12.9147     43.3396     32.8895   4.9748208202e+01   6.7608785594e+01    0.9733269    0.5592529  31.20  0.004631503    1.836    0.455
       135 -13.7363     65.7212    223.2668   7.7013038224e+01   2.0564402448e+01    0.7961216    0.4871478  35.27  0.004963893    1.334    0.250
       136 -14.2826     62.6159    213.9747   7.6994209510e+01   2.2627561862e+01    0.8562418    0.3953575  36.91  0.004583365    1.685    0.406
       137 -12.7568    140.1597     21.3881   1.2418962522e+01   4.7025558195e+01    0.8683312    0.3317081  65.08   0.00171118    2.424    0.588
       138 -12.3046     94.2390    217.9773   7.0460016530e+01   1.7884903584e+01    0.2307529    0.1466813  36.89  0.001167454    1.251    0.200
       139 -11.1744    249.4937    225.4962   4.2424007756e+01  -3.6994945315e+00    0.1063583   0.07259715   5.07 0.0001990449    1.017    0.017
       140 -13.4240     57.7716     26.7641   3.9239154348e+01   6.6348410477e+01     1.102077    0.3872004  40.54  0.003298567    2.944    0.660
       141 -10.6331     98.0132     27.1992   2.4232206754e+01   5.7339482586e+01    0.2106293    0.1137292  57.15 0.0008700913    1.793    0.442
       142 -12.0390     30.5594     25.4656   5.3855460980e+01   7.0897631379e+01    0.3614692    0.2396861   2.03  0.001628032    1.821    0.451
       143 -12.6481     35.4401     23.2828   4.9671992560e+01   7.0694244934e+01     0.333408    0.2449254 -14.25  0.001153348    1.462    0.316
       144 -12.4631      4.5006    212.1049   8.9377017798e+01   2.8956696384e+01    0.3638732    0.1882763 -78.39  0.002271116    2.017    0.504
       145 -10.5176    136.5236    210.5330   6.0591016177e+01   1.3186653423e+01    0.1254005    0.1015246  33.30 0.0002007959    1.040    0.039
       146 -11.8863    223.3859     20.9328   2.8809031936e+00   2.6221115002e+01      0.23614    0.1873802  70.04 0.0009850094    1.395    0.283
       147 -11.3513     51.5083     20.5135   3.9001453317e+01   6.8606741718e+01    0.3858927    0.2134022  52.17  0.001724165    2.177    0.541
       148 -11.7989     46.2448     20.3068   4.1701242378e+01   6.9571976277e+01    0.3829607    0.2697262  25.02  0.002024731    1.484    0.326
       149 -11.5478     71.0299     16.5551   2.7972066840e+01   6.5251706478e+01    0.2686587    0.2100493 -27.56 0.0006282028    1.292    0.226
       150 -12.5945     72.2435    206.4454   7.4235945411e+01   2.2859328251e+01    0.2767213    0.1915791  42.30  0.001711669    1.162    0.139
       151 -13.2139    219.0078     15.4891   1.8167105465e+00   2.7776057366e+01    0.2892308    0.2399012  80.76  0.001192438    1.279    0.218
       152 -12.5507     57.5615    202.5257   7.7250371115e+01   2.5427828601e+01    0.6228296      0.27165 -83.76  0.002898524    2.902    0.655
       153 -13.4266     17.1236    195.6514   8.6081220828e+01   3.1088446803e+01    0.8698228    0.2111212 -63.15  0.003434228    4.503    0.778
       154 -13.7739     39.7102    195.6667   8.0886155869e+01   2.8836512607e+01    0.7432262    0.3288857  53.14  0.003792285    1.895    0.472
       155 -14.0496     29.9743    169.2572   8.1513263571e+01   3.5552910546e+01     2.223784    0.9214823 -42.27  0.007875033    5.043    0.802
       156 -13.3517     22.2582    166.1117   8.3318044400e+01   3.7006004821e+01    0.4797155    0.3079378  26.27  0.002384755    1.637    0.389
       157 -14.0876     22.2407    180.7075   8.4162449007e+01   3.3761135697e+01    0.8638142    0.4076096 -62.43  0.004451172    2.335    0.572
       158 -13.1362    204.9828     39.8702   9.5624107899e+00   2.8179399427e+01     1.176482    0.5071025 -84.63  0.003531168    5.199    0.808
       159 -15.3980      8.4284    183.1597   8.7589021163e+01   3.4454901458e+01      1.20809    0.9977125  66.30  0.008694527    1.090    0.082
       160 -15.4180     15.6214    174.9702   8.5495346621e+01   3.5615287404e+01     2.286567    0.7374823  55.54   0.01001798    2.614    0.617
       161 -12.1701    164.4231    195.5689   5.2671212020e+01   1.1352634984e+01    0.2713377    0.1928182 -87.28  0.001241823    3.582    0.721
       162 -11.4228    200.7867    191.4322   4.5018142882e+01   6.4595996907e+00    0.2387024    0.1904849  20.79  0.001104738    1.119    0.106
       163 -11.7646     98.0030    187.7564   6.6255571975e+01   2.2974068776e+01    0.1849158   0.09770957  35.40 0.0008930978    1.631    0.387
       164 -11.6138    155.5066    185.0063   5.2823402056e+01   1.4460492908e+01     0.185601    0.1291332 -41.21  0.001038605    1.607    0.378
       165 -12.3331    198.6501    181.4206   4.3672518270e+01   8.1697650037e+00     0.251577    0.2231795  14.96  0.001492898    1.185    0.156
       166 -13.2216    216.8448     28.5567   5.3731121883e+00   2.6824205093e+01     0.395591    0.2167598 -39.51  0.001833875    1.536    0.349
