#   1 NUMBER                 Running object number                                     
#   2 MAG_AUTO               Kron-like elliptical aperture magnitude                    [mag]
#   3 X_IMAGE                Object position along x                                    [pixel]
#   4 Y_IMAGE                Object position along y                                    [pixel]
#   5 X_WORLD                Barycenter position along world x axis                     [deg]
#   6 Y_WORLD                Barycenter position along world y axis                     [deg]
#   7 A_WORLD                Profile RMS along major axis (world units)                 [deg]
#   8 B_WORLD                Profile RMS along minor axis (world units)                 [deg]
#   9 THETA_WORLD            Position angle (CCW/world-x)                               [deg]
#  10 FWHM_WORLD             FWHM assuming a gaussian core                              [deg]
#  11 ELONGATION             A_IMAGE/B_IMAGE                                           
#  12 ELLIPTICITY            1 - B_IMAGE/A_IMAGE                                       
         1 -13.2886    177.3495     41.8236   6.1804710241e+01   3.5902786672e+01     1.489706     1.084108  10.35  0.004513389    1.703    0.413
         2 -13.1756    196.2981     10.8250   4.9123560148e+01   3.4717511385e+01     1.184442     1.014824  32.68  0.005121531    1.258    0.205
         3 -10.4546    228.4209      5.4394   4.3979046711e+01   2.6931822116e+01    0.3613043    0.1350287  44.98  0.001245883    3.568    0.720
         4  -9.6649    154.2922    239.4580   1.0940876631e+02   6.8523741171e+00    0.1654148    0.1036283 -53.01 0.0009595707    2.065    0.516
         5 -19.5415     45.2845    152.8315   1.1961919493e+02   3.8274969199e+01     17.64311     3.180727 -69.69   0.05617894    5.398    0.815
         6  -8.7042    167.4445    226.9095   1.0567775638e+02   6.3786718826e+00    0.1481863    0.1183558 -51.73 0.0008285301    1.584    0.369
         7 -10.4230    248.8961    230.8614   9.2844933470e+01  -7.5897803045e+00    0.2224892    0.1041924  35.88  0.001268403    1.668    0.400
         8  -8.9855    141.3144    188.6550   1.0504547770e+02   1.6912464396e+01    0.1329034    0.0917585  76.35 0.0004777669    1.713    0.416
         9  -8.1780      9.8074    206.4141   1.3002858511e+02   3.1526906795e+01    0.2319609    0.1718557  35.67   0.00190019    1.956    0.489
        10  -9.0115    153.4840    184.5080   1.0207277859e+02   1.5423200880e+01    0.1320007    0.1143529  57.71 0.0008103198    1.022    0.022
        11  -8.6204    147.3453    184.3049   1.0322287965e+02   1.6587587198e+01    0.1259456    0.1011597  16.74 0.0001415175    1.691    0.409
        12 -11.7221     99.6760    179.7429   1.1186701097e+02   2.5543911892e+01    0.5309061    0.2409526 -58.22  0.001625187    2.253    0.556
        13 -12.0865    104.1774    172.8236   1.1004175924e+02   2.6187455377e+01    0.5105796    0.3813519  39.62  0.003058036    1.485    0.327
        14  -9.3886    188.9449    177.9392   9.4182216097e+01   9.7214846511e+00    0.2099213    0.1856025  45.33 0.0006089267    1.051    0.048
        15  -9.7369    192.8296    194.9661   9.6453483169e+01   6.3858451167e+00    0.7276658    0.3383602 -60.88  0.001998845    8.477    0.882
        16 -11.4024     74.7612    193.0905   1.1810775824e+02   2.6605700957e+01    0.4441895     0.246411 -58.90  0.001623092    1.977    0.494
        17 -11.1024    124.8132    171.8457   1.0572894052e+02   2.2923770451e+01    0.4290306    0.2633191  71.87  0.001064003    2.012    0.503
        18  -9.4733    126.6538    179.7010   1.0655567189e+02   2.1114495933e+01    0.1201453    0.1029466  11.90 0.0004442118    1.679    0.405
        19 -10.0475    138.9441    168.3568   1.0229562504e+02   2.1046013590e+01    0.3483921     0.207935 -25.82   0.00137592    3.576    0.720
        20 -10.0067    110.9579    168.4833   1.0803749679e+02   2.5942357700e+01    0.1943458     0.165097 -86.42  0.001081896    1.107    0.097
        21  -8.3173    124.2775    161.6047   1.0419093072e+02   2.5020085511e+01    0.1403492   0.09706773  85.33 0.0005841114    1.748    0.428
        22 -10.4442     99.1985    156.3451   1.0866122497e+02   3.0314361313e+01    0.2467998    0.2368474 -88.97 0.0002487748    1.215    0.177
        23 -11.1847    103.0856    150.4880   1.0689047671e+02   3.0910645215e+01    0.5372109    0.3531272 -41.99  0.001544112    1.924    0.480
        24 -11.8930     88.5549    150.3101   1.1004167039e+02   3.3218074757e+01    0.3304898    0.2764987 -36.58 0.0007865274    1.621    0.383
        25  -9.9115    133.8829    145.2896   9.9201264594e+01   2.6532042628e+01    0.9250209    0.1879241 -54.81  0.001974273    8.661    0.885
        26  -8.8269    174.6998    149.3318   9.1384687802e+01   1.7501457798e+01    0.1428743    0.1129051 -89.49 0.0003367715    1.649    0.394
        27  -8.4992    129.2914    140.3539   9.9253484626e+01   2.8413988576e+01    0.1361321    0.1131133 -13.33 0.0005629577    1.680    0.405
        28  -9.8654    112.4576    136.6233   1.0234060846e+02   3.2259743861e+01    0.3016149    0.2512083 -52.41  0.001728228    1.240    0.193
        29 -10.8850    101.6976    135.9441   1.0469191776e+02   3.4229127424e+01     0.248874    0.2350392 -59.61 0.0003571196    1.184    0.155
        30 -10.1770    105.9869    130.8740   1.0274260642e+02   3.4606186049e+01    0.3338242    0.2925696 -77.67  0.001155741    1.056    0.053
        31  -8.9522    117.9396    128.1086   9.9383006153e+01   3.3096228198e+01    0.2140642    0.1749123 -16.55 0.0009071843    1.703    0.413
        32  -9.2458    106.1111    123.9684   1.0134543747e+02   3.6079486816e+01    0.2050148    0.1898471 -49.59 0.0007654775    1.168    0.144
        33  -8.4539    112.6687    117.7130   9.8435801063e+01   3.6283221999e+01    0.1353098    0.1134474 -10.00 0.0007013899    1.620    0.383
        34  -9.0217    231.2889    113.8699   7.2423871296e+01   1.1046799093e+01    0.2339535    0.2060408  62.58 0.0008657476    1.278    0.218
        35  -9.4988    168.2204    112.9732   8.4413661112e+01   2.5786737660e+01    0.3392426    0.2552487  88.91 0.0009060203    1.822    0.451
        36  -9.0842    205.7589    110.3790   7.6140978161e+01   1.7504869171e+01    0.2160717    0.1364805  42.30 0.0005581846    1.601    0.375
        37 -11.1536     82.4100    107.0162   1.0378493119e+02   4.3573096273e+01    0.4126568    0.2664277  54.67  0.001583034    1.749    0.428
        38  -9.5900     84.5285     76.9933   9.5977542965e+01   4.9758433334e+01     0.189325    0.1868806   8.97 0.0004379253    1.132    0.117
        39 -12.2100    163.5031     56.8327   6.9348377972e+01   3.7162035980e+01    0.5913324    0.5704205  81.24  0.001086069    1.094    0.086
        40 -10.7755     81.7806    194.7680   1.1700176371e+02   2.5326991305e+01    0.3717287      0.29986  86.05  0.001709966    1.107    0.097
        41 -11.6355    247.5508    247.9401   9.5630251865e+01  -8.9656230154e+00    0.4895357    0.2837739  36.07  0.003339622    1.271    0.213
        42 -11.7440    181.7162     35.3837   5.8974607237e+01   3.5647564870e+01     0.530978    0.4673879  12.76  0.001328339    1.221    0.181
        43  -9.6353    150.4942    195.4995   1.0432974927e+02   1.4102143037e+01     0.128018    0.1087092  54.89 5.090145e-05    1.008    0.008
        44 -10.8727     12.5067    243.0925   1.3129135982e+02   2.5213182767e+01    0.1170727   0.09005975 -82.33   0.00107853    1.593    0.372
