#   1 NUMBER                 Running object number                                     
#   2 MAG_AUTO               Kron-like elliptical aperture magnitude                    [mag]
#   3 X_IMAGE                Object position along x                                    [pixel]
#   4 Y_IMAGE                Object position along y                                    [pixel]
#   5 X_WORLD                Barycenter position along world x axis                     [deg]
#   6 Y_WORLD                Barycenter position along world y axis                     [deg]
#   7 A_WORLD                Profile RMS along major axis (world units)                 [deg]
#   8 B_WORLD                Profile RMS along minor axis (world units)                 [deg]
#   9 THETA_WORLD            Position angle (CCW/world-x)                               [deg]
#  10 FWHM_WORLD             FWHM assuming a gaussian core                              [deg]
#  11 ELONGATION             A_IMAGE/B_IMAGE                                           
#  12 ELLIPTICITY            1 - B_IMAGE/A_IMAGE                                       
         1 -14.6396      7.9900    149.6168   1.4331946463e+02   4.2531121836e+01     9.603535     3.510175  67.70   0.05039503    2.694    0.629
         2 -13.4571    192.9815     27.2480   7.1108079621e+01   3.3349282992e+01     1.674424     1.455283   9.27  0.007370369    1.147    0.128
         3 -13.4581    208.6786      7.4307   6.2807116877e+01   3.1210971250e+01     1.520371     1.018001  35.74  0.005292509    1.600    0.375
         4 -13.1018      4.4472     11.3005   1.2407329340e+02   7.2090981351e+01     1.706488    0.4175596 -57.69  0.007461736    2.695    0.629
         5 -10.9900    237.7740    247.2521   1.1294005278e+02  -2.1076819549e+00    0.2155105    0.1351991   4.07  0.001507538    1.627    0.385
         6 -10.2097    249.5864    249.6811   1.1156465998e+02  -3.8645601585e+00    0.1999094   0.09390213  39.35     0.001359    1.584    0.369
         7 -11.3534    139.9771    249.9936   1.2797698168e+02   1.1186780355e+01    0.3188865    0.1576275  54.14  0.002092475    1.851    0.460
         8 -11.5236    124.6103    249.7552   1.3030606673e+02   1.3256672066e+01    0.4486458    0.1166368  44.43  0.002294824    2.663    0.624
         9  -9.2251    216.6651    248.3148   1.1616796606e+02   7.0408895598e-01   0.09226459   0.06865255  50.92  0.000316695    1.690    0.408
        10 -10.8835    139.0000    246.0024   1.2775861312e+02   1.1774757169e+01    0.1551372     0.143815  73.58  0.001428306    1.348    0.258
        11 -10.0744     35.2352    244.0944   1.4331757906e+02   2.4362799264e+01    0.2085884    0.1657729  30.36  0.001831731    1.870    0.465
        12 -10.8514    126.5316    244.2912   1.2953862482e+02   1.3655186781e+01    0.2770179    0.0723827  38.06  0.001222456    3.600    0.722
        13  -9.4373     81.4533    248.6113   1.3675794808e+02   1.8768581099e+01    0.2077103    0.1033379  65.42  0.001169235    1.946    0.486
        14 -12.3764     10.2504    206.8735   1.4560572509e+02   3.2225642003e+01    0.6162859    0.3021499  43.57  0.003729735    1.703    0.413
        15 -10.6224    172.2865    248.0403   1.2283196543e+02   6.9475228542e+00    0.3151698    0.1558545  60.42  0.001580317    3.789    0.736
        16  -9.5239    177.4471    227.2622   1.1963442467e+02   8.4103761782e+00     0.114597    0.1056586 -73.65 0.0009335807    1.569    0.363
        17 -12.9725     51.1996    217.3406   1.3954022565e+02   2.6617367920e+01     1.103932    0.8136369  41.73  0.009115651    1.437    0.304
        18 -10.6931    173.1774    222.0681   1.1968495576e+02   9.6395001812e+00    0.2975517    0.1864261  32.17  0.001534498    1.371    0.271
        19  -8.9334     94.3491    216.3945   1.3231158563e+02   2.1648595595e+01    0.1916711    0.1012076  64.12  0.001098127    1.951    0.488
        20  -9.0205    152.6381    213.0499   1.2200840843e+02   1.3863488212e+01    0.1388493     0.122618  41.34 0.0003463163    1.131    0.116
        21 -11.4812     63.2325    200.5778   1.3638351268e+02   2.7939059729e+01    0.2099127    0.1827064 -74.29 0.0004987549    1.410    0.291
        22 -11.1364     20.8103    200.1751   1.4361050292e+02   3.2378884118e+01    0.2167061    0.1258624  60.07 0.0004338154    1.275    0.216
        23 -10.9508     17.2838    198.0636   1.4409895325e+02   3.3044873014e+01     0.173641    0.1238922  70.45 0.0003838743    1.021    0.020
        24  -9.5229    192.0983    193.2849   1.1244559093e+02   1.0067583557e+01     0.411143     0.228481 -61.17  0.001598995    5.644    0.823
        25 -11.8096     69.3294    192.1311   1.3461554549e+02   2.8628356632e+01    0.2134314    0.1978036  85.85 0.0005276285    1.306    0.234
        26 -12.6500     37.5098    235.2576   1.4260157973e+02   2.5377975336e+01    0.2168968    0.1807176  82.70 0.0007824847    1.373    0.272
        27 -10.7850     79.1639    179.0489   1.3154633097e+02   2.9673441502e+01    0.1991923    0.1763301  68.88 0.0003606938    1.129    0.114
        28 -13.1015     66.0620    177.2899   1.3390899578e+02   3.1608352663e+01    0.3846692    0.2372476 -47.61  0.001750903    2.287    0.563
        29  -8.8559    102.8036    179.0449   1.2695472651e+02   2.6463343477e+01    0.1768931    0.1272051  67.51 0.0005406017    1.352    0.260
        30 -11.6086     86.5756    169.5418   1.2904444336e+02   3.0406470361e+01    0.5063581    0.4668107  36.14  0.003749939    1.317    0.241
        31  -9.9125     98.5858    153.3609   1.2444248309e+02   3.1724744452e+01    0.2463447    0.2239226 -79.56 0.0008135043    1.122    0.109
        32 -11.8747     87.3994    152.6707   1.2676058198e+02   3.3460453511e+01    0.2307961    0.2220158 -39.45 0.0004678287    1.315    0.240
        33 -12.3205     67.1952    143.7894   1.3005915446e+02   3.7865570613e+01    0.6304697    0.3849648  66.22  0.003388021    1.696    0.410
        34  -8.5867    183.5895    146.7503   1.0568430697e+02   1.7973218406e+01    0.1692176     0.126884 -47.63  0.000654961    1.605    0.377
        35 -13.9324     43.2212    227.9039   1.4138320088e+02   2.5866744393e+01    0.8153011     0.419852  52.67  0.003852733    1.391    0.281
        36  -9.8043    110.0152    137.8810   1.1946560494e+02   3.2941257651e+01    0.3459996     0.235099 -17.46  0.001606032    2.732    0.634
        37 -10.3969     97.3945    135.3619   1.2192863249e+02   3.5420079742e+01     0.216335    0.2088597 -32.53 0.0007726487    1.229    0.186
        38  -9.5694     83.7859    134.6208   1.2497827671e+02   3.7552548561e+01     0.226143    0.1754515  69.88  0.001157937    1.269    0.212
        39  -9.1574    101.6168    148.9556   1.2313486058e+02   3.2112430824e+01     0.184304    0.1662697  36.57 0.0004127599    1.226    0.184
        40  -9.8768     55.5977    130.2546   1.3102627345e+02   4.2018793573e+01    0.2959442    0.1761329 -41.11  0.001583328    2.364    0.577
        41  -9.2482    184.6633    237.6744   1.1974776313e+02   6.2411028542e+00    0.1071103    0.0656268  22.45 0.0007051469    1.721    0.419
        42  -9.0601    107.0737    124.3941   1.1769014928e+02   3.6101362030e+01     0.176044     0.150887  48.10 0.0003995529    1.161    0.139
        43 -10.5676     53.6823    120.6644   1.3021661238e+02   4.4264145845e+01     0.437135    0.1137365 -71.36  0.001365684    5.163    0.806
        44 -10.8484    150.0419    229.6554   1.2435609536e+02   1.2162716253e+01    0.3432734   0.07861061  39.36  0.001367504    3.808    0.737
        45  -9.8377    167.8812    112.9413   1.0132222574e+02   2.6638568947e+01    0.2954224    0.2548417 -69.08  0.001085574    1.450    0.310
        46  -9.4588    203.4192    111.7525   9.4036447073e+01   1.9157373996e+01    0.1991772    0.1321679 -14.36 0.0007937669    1.606    0.377
        47  -9.7791    156.9338     75.8581   9.3600051558e+01   3.5504372982e+01     0.244186     0.202882  13.40  0.000666945    1.282    0.220
        48  -9.9687     10.1925     64.3650   1.3444146956e+02   6.0413575817e+01    0.1408305   0.09988852  43.68 0.0006533661    1.711    0.415
        49  -9.8071     26.7165     59.9998   1.2784917497e+02   6.0250878752e+01     0.317828    0.1194545  41.62  0.001451601    3.291    0.696
        50  -9.7877     19.1887     57.0877   1.2995256146e+02   6.1453116207e+01    0.2080127    0.1309428  60.14 0.0007763033    2.060    0.514
        51 -11.3949      2.1023     46.7740   1.3437047998e+02   6.4709969232e+01    0.5088201   0.06274088 -66.53  0.001798223    4.024    0.752
        52 -10.4777    152.9967    248.9809   1.2588551881e+02   9.5272435036e+00    0.1591799    0.1141549  43.17 0.0004979056    1.012    0.012
        53 -10.9714    101.8307    247.0161   1.3356815276e+02   1.6508513174e+01    0.2402912     0.122171  58.14  0.001674014    1.714    0.417
