#   1 NUMBER                 Running object number                                     
#   2 MAG_AUTO               Kron-like elliptical aperture magnitude                    [mag]
#   3 X_IMAGE                Object position along x                                    [pixel]
#   4 Y_IMAGE                Object position along y                                    [pixel]
#   5 X_WORLD                Barycenter position along world x axis                     [deg]
#   6 Y_WORLD                Barycenter position along world y axis                     [deg]
#   7 A_WORLD                Profile RMS along major axis (world units)                 [deg]
#   8 B_WORLD                Profile RMS along minor axis (world units)                 [deg]
#   9 THETA_WORLD            Position angle (CCW/world-x)                               [deg]
#  10 FWHM_WORLD             FWHM assuming a gaussian core                              [deg]
#  11 ELONGATION             A_IMAGE/B_IMAGE                                           
#  12 ELLIPTICITY            1 - B_IMAGE/A_IMAGE                                       
         1 -14.2780     21.5130     26.4214   8.3883644721e+01   6.8984494483e+01     2.041514    0.6490805 -35.00  0.008534753    3.080    0.675
         2 -13.7634      3.8455     37.1138   9.7338622308e+01   6.8527131490e+01     1.020802    0.8233424 -28.57  0.005658338    1.083    0.077
         3 -13.1097    233.4009     29.9172   3.3624314499e+01   2.4979371645e+01    0.7303728    0.6203226 -59.72   0.00232325    1.134    0.118
         4 -13.3763     38.3449     24.0312   7.4394586625e+01   6.7339553633e+01     0.754913    0.5387588  31.16   0.00474528    1.412    0.292
         5 -12.2951    192.1421     17.8951   3.4905509438e+01   3.5258999141e+01    0.6595059    0.2912579  67.81  0.003199136    2.011    0.503
         6 -12.8161    111.7078     16.6802   4.6802898732e+01   5.4202116484e+01    0.8418375    0.6114859 -17.92  0.004898857    1.578    0.366
         7 -12.8513    192.9448      4.9819   3.1805439054e+01   3.6395973703e+01    0.6601635    0.4853898  65.25  0.004266155    1.333    0.250
         8 -12.3086    187.3006     10.6872   3.3687516535e+01   3.7107761605e+01    0.4299651    0.3455402 -57.97  0.002612544    1.206    0.171
         9 -13.3998    177.1801      7.7426   3.4022327784e+01   3.9712093724e+01    0.9704713    0.7243621  67.49  0.006127987    1.222    0.182
        10 -13.4083    135.9034      6.1810   3.8891487076e+01   4.9523510503e+01    0.9623132     0.631106  58.88   0.00555625    1.291    0.225
        11 -12.3489      4.0628      2.6794   8.2876666060e+01   7.4160167176e+01    0.4354193    0.2733936  21.88  0.002992829    1.569    0.363
        12 -13.2560    115.6471      4.1274   4.1652559085e+01   5.4403988808e+01     1.458347    0.5129271  62.45   0.00629667    2.289    0.563
        13 -10.6080    220.9240      8.4282   3.0230023503e+01   2.9992610358e+01     0.324886    0.1954702 -75.00  0.001965851    1.486    0.327
        14  -9.9577    245.4628      6.9687   2.8247238259e+01   2.5223503213e+01    0.2274252    0.1234594 -77.97  0.001384095    1.658    0.397
        15 -11.5331    208.5539     10.1051   3.1580136910e+01   3.2447608329e+01    0.3385542    0.1172199 -38.26   0.00158869    2.580    0.612
        16 -11.1704     54.3367    199.8505   1.0947945022e+02   2.5536474896e+01    0.2853741    0.2641421  62.22 0.0008916529    1.095    0.087
        17 -10.9862     59.5183    246.0321   1.1271832666e+02   1.4865836195e+01    0.2123542    0.1138411 -79.54  0.000684439    2.062    0.515
        18 -12.5876     34.2927    249.0648   1.1795747665e+02   1.7230358150e+01    0.8202888    0.1711991  35.21  0.003299502    3.533    0.717
        19 -12.4951     29.4664    244.3974   1.1859622773e+02   1.8680083495e+01    0.4028547    0.2328857  35.79  0.002441006    1.637    0.389
        20 -14.9322     21.8441    225.7480   1.1892582913e+02   2.3327142383e+01     2.950568      2.33284 -47.02   0.01963031    1.694    0.410
        21 -15.1657     10.6007    154.7343   1.1593159157e+02   4.0920810519e+01     7.001555     2.240045  88.34   0.01914889    6.174    0.838
        22 -15.2583      7.1120    126.8154   1.1392382914e+02   4.8092002778e+01      9.24276     3.231861  86.44   0.02429596    6.991    0.857
        23 -13.5772      8.8639    207.2445   1.2045042075e+02   2.8601496291e+01    0.5814589    0.4606205 -14.46  0.001270158    1.929    0.482
        24 -14.7711     15.2700    201.8292   1.1870053858e+02   2.9248792686e+01     1.115233    0.8053331  66.93  0.003567385    1.201    0.167
        25 -11.4301     42.5980    180.3091   1.1022658657e+02   3.1616017072e+01    0.2825306    0.2479237 -38.32 0.0005672873    1.350    0.259
        26 -11.6288     50.3688    173.8324   1.0742193949e+02   3.2334568928e+01    0.2765096    0.2506527 -58.86 0.0004750952    1.151    0.131
        27 -10.5613     63.4384    163.6365   1.0242903571e+02   3.3279828250e+01     0.246759    0.2235752 -54.28 0.0004289979    1.119    0.107
        28 -12.8922     48.5261    160.1721   1.0610266239e+02   3.5992912591e+01    0.5335094    0.3133236 -35.21  0.001447875    2.218    0.549
        29  -9.3052    133.2133    160.1356   8.2696599310e+01   2.2730790854e+01    0.2052252    0.1792361 -81.91  0.000427732    1.337    0.252
        30 -11.7785     72.5946    156.7984   9.8726861752e+01   3.3770734102e+01    0.5427067    0.4942326   9.74  0.003019073    1.231    0.187
        31 -13.6689      2.7399    182.2974   1.2016618229e+02   3.4836187438e+01     2.420067     0.524419 -77.22  0.008413581    3.930    0.746
        32 -12.7269     34.2765    143.3916   1.0786646330e+02   4.1777923053e+01    0.7285395    0.4926468 -79.54  0.003439854    1.411    0.291
        33 -12.2162     67.7847    143.4208   9.7769540504e+01   3.7854741816e+01    0.7325636    0.4329418  59.58  0.002787899    2.227    0.551
        34 -10.0251     88.9447    143.9795   9.1552096587e+01   3.4541776673e+01    0.2366147    0.2272497 -44.16 0.0007761521    1.032    0.031
        35 -11.5581     76.4341    141.7838   9.4846013561e+01   3.7036866296e+01    0.3080049     0.260853 -53.75 0.0003797991    1.121    0.108
        36  -9.6375     92.7649    140.4424   8.9686910737e+01   3.4800019055e+01    0.2021931    0.1508655  17.74  0.000389709    1.554    0.356
        37 -12.3971     24.0911    131.7952   1.0932759695e+02   4.5631673798e+01    0.5845349    0.2207008 -57.81   0.00246501    2.116    0.527
        38 -11.6097     27.8926    129.1272   1.0774884622e+02   4.5985640203e+01    0.3526921    0.2503337  72.39  0.001874032    1.624    0.384
        39 -10.4422    105.0760    131.0735   8.3962466316e+01   3.4954012115e+01    0.4024703    0.3117232   5.29  0.001855347    1.596    0.374
        40 -11.8966     89.2234    129.4443   8.8342064531e+01   3.8126226303e+01    0.5802079    0.4016064 -32.32  0.002149848    1.621    0.383
        41 -12.6163     82.2648    119.9396   8.8325629659e+01   4.1606341616e+01    0.6308805     0.506761   1.76  0.002867089    1.446    0.308
        42 -13.5946     27.1205    112.8592   1.0537222526e+02   5.0130478925e+01     1.031284     1.008175  40.53  0.006489408    1.181    0.153
        43 -12.0660     31.5221    101.0882   1.0159460356e+02   5.2636940849e+01    0.5257841    0.4184569 -49.77  0.002147841    1.078    0.072
        44  -9.5534    102.8612    119.7063   8.1869647162e+01   3.8090583776e+01    0.2071358      0.19599  41.59 0.0002934928    1.097    0.088
        45 -11.7487     83.6646    109.0444   8.5194930143e+01   4.4003739005e+01     0.328696    0.2631311 -26.98  0.001642299    1.300    0.231
        46 -12.1413     45.1229     94.1275   9.5000069791e+01   5.2930431796e+01    0.8344968    0.4676212 -69.79  0.003630407    2.185    0.542
        47 -11.8291     45.7148    106.0533   9.7523699019e+01   5.0006422803e+01    0.5937524    0.4368296 -70.54  0.002483755    1.422    0.297
        48 -11.6644     44.2023    101.0836   9.6966249415e+01   5.1377253180e+01    0.4642183    0.2981916  31.01  0.002043592    1.698    0.411
        49 -13.7346     64.1450    101.7530   8.9971465067e+01   4.8728555491e+01    0.9725698    0.9077674  84.33  0.005541125    1.254    0.202
        50 -11.9306     21.3237    103.9408   1.0582690808e+02   5.2781733062e+01    0.6117861    0.3007672   2.99  0.002711875    2.745    0.636
        51 -10.4095     84.9871     95.1352   8.1016978724e+01   4.6981593090e+01    0.3579108    0.2243148  35.27  0.001616036    1.634    0.388
        52 -11.0723     25.3262     92.3405   1.0209608141e+02   5.5257855505e+01    0.4057446    0.2353064 -45.99  0.001988304    1.465    0.317
        53 -10.3579     28.9668     90.0000   1.0019226112e+02   5.5504142729e+01    0.3712749     0.190439  26.12  0.001782916    2.134    0.531
        54 -12.5559     62.8357     86.7018   8.6428207900e+01   5.2373886570e+01    0.7305129    0.5654331 -68.68  0.003770495    1.592    0.372
        55 -12.0898     63.7421     77.9473   8.3523594473e+01   5.4141140271e+01      1.16899    0.4530967  22.93  0.003754981    3.978    0.749
        56 -12.3256     79.1238     84.6081   7.9959275316e+01   5.0283001182e+01    0.7465966    0.6384614 -49.77  0.004049241    1.225    0.184
        57 -11.7613     50.7340     88.8694   9.1556567062e+01   5.3492312122e+01    0.3330928    0.2985238  32.46  0.001959022    1.253    0.202
        58 -11.9536     24.8501     76.9426   9.8779229177e+01   5.8843705384e+01    0.6157059    0.4526812  12.85  0.002956708    1.475    0.322
        59 -10.8366      3.4777     75.0060   1.0721090694e+02   6.0666416047e+01     0.368759    0.2068025 -33.90   0.00176671    1.620    0.383
        60 -12.2238      3.6446     68.5107   1.0579290056e+02   6.2102939166e+01    0.6489757    0.2759239 -48.86   0.00241284    1.750    0.429
        61 -10.7028     20.9520     63.5901   9.6970236174e+01   6.2063453996e+01    0.2730723    0.2199014   7.89  0.001739028    1.311    0.237
        62  -9.7018     13.9307     59.1188   9.8918568872e+01   6.3519823816e+01    0.2178794    0.1134657 -32.06   0.00113106    1.736    0.424
        63 -11.5096    244.8606    248.9427   7.5541196287e+01  -1.0986351622e+01     0.266821    0.1729898  22.19  0.001781965    1.405    0.288
        64 -12.1634    161.4174    247.1033   9.1345400517e+01   2.8893741827e-01    0.4234781    0.3313828  23.57  0.002647983    1.076    0.071
        65 -12.4889      2.3826     48.3950   1.0146595877e+02   6.6409491385e+01    0.8163899    0.1149965 -58.21  0.002806164    4.282    0.766
        66 -13.1736      8.5266     49.4593   9.8757028946e+01   6.5847126158e+01    0.9722832    0.4667481 -27.02  0.004320639    1.994    0.499
        67 -11.4576     90.8706     45.8608   6.2977759953e+01   5.5167941531e+01    0.4108274    0.3536137  10.39  0.001652007    1.114    0.102
        68 -11.7110     33.9562     42.2539   8.3996429587e+01   6.4975548650e+01    0.6250808     0.346758  21.86  0.003073231    1.797    0.443
        69 -12.4599     82.3864    247.9059   1.0815724621e+02   1.1534865230e+01    0.4781416    0.3074428  24.22  0.002354399    1.722    0.419
        70 -13.0088    205.8970     25.8867   3.5336570430e+01   3.1284393882e+01    0.6228364    0.3004043 -66.93  0.002862614    2.424    0.587
        71 -10.9973    132.0534    247.5039   9.7584496215e+01   4.5400788099e+00    0.2030419    0.1098899  33.83  0.000612539    1.576    0.365
        72 -15.2395    100.4715    227.1246   1.0190549369e+02   1.3144401768e+01     2.944452    0.9215596  38.29   0.01121798    2.685    0.628
        73 -14.0949     66.3559    224.1504   1.0924665999e+02   1.8524987118e+01     1.495785    0.8235784 -73.01  0.007612553    1.918    0.479
        74 -12.6110     76.3029    221.8683   1.0676578342e+02   1.7694106178e+01    0.7865898    0.4111143  29.52  0.003682718    1.962    0.490
        75 -13.8475     85.9119    230.5899   1.0558055829e+02   1.4516793503e+01    0.9755026    0.5330809  46.68  0.004377286    1.638    0.390
        76 -12.3722     51.4541    216.5889   1.1184227615e+02   2.2053424826e+01    0.4974027    0.3499975  78.19  0.002213136    1.372    0.271
        77 -10.8141     86.2611    211.2851   1.0319550695e+02   1.8628469681e+01    0.2981736    0.2552203 -17.91  0.001083054    1.476    0.322
        78 -10.6414     90.0492    207.6232   1.0181471966e+02   1.8898991277e+01    0.3707378    0.2722185  47.32  0.001750407    1.271    0.213
        79 -10.9906     73.0642    209.9801   1.0615963004e+02   2.0770728470e+01    0.3153654    0.2697296  50.62 0.0009545056    1.083    0.076
        80 -10.7497     50.6802    200.3506   1.1040897413e+02   2.5861209702e+01    0.3108338    0.1597666  62.43  0.001175575    2.182    0.542
        81 -11.7294     58.1379    202.1392   1.0881775454e+02   2.4529167915e+01    0.4679168    0.3583055  67.06  0.002126719    1.238    0.192
