#   1 NUMBER                 Running object number                                     
#   2 MAG_AUTO               Kron-like elliptical aperture magnitude                    [mag]
#   3 X_IMAGE                Object position along x                                    [pixel]
#   4 Y_IMAGE                Object position along y                                    [pixel]
#   5 X_WORLD                Barycenter position along world x axis                     [deg]
#   6 Y_WORLD                Barycenter position along world y axis                     [deg]
#   7 A_WORLD                Profile RMS along major axis (world units)                 [deg]
#   8 B_WORLD                Profile RMS along minor axis (world units)                 [deg]
#   9 THETA_WORLD            Position angle (CCW/world-x)                               [deg]
#  10 FWHM_WORLD             FWHM assuming a gaussian core                              [deg]
#  11 ELONGATION             A_IMAGE/B_IMAGE                                           
#  12 ELLIPTICITY            1 - B_IMAGE/A_IMAGE                                       
         1 -14.3494    166.2520     54.0397   7.1209112121e+01   3.6737193456e+01     2.410125     1.545128  12.92  0.007183867    2.277    0.561
         2 -14.0278    180.3249     37.8938   6.3245523758e+01   3.5436961287e+01    0.9687356    0.8884703 -50.63  0.002542708    1.107    0.096
         3 -13.7141    184.7234     31.3286   6.0353753571e+01   3.5128109479e+01    0.6922955    0.6578863  -4.24  0.001343304    1.056    0.053
         4 -13.4980    189.4886     14.0345   5.3926008999e+01   3.5854650387e+01    0.7715179    0.4393275 -46.95  0.002324197    1.805    0.446
         5 -14.6044    200.7085      6.1320   5.0096923487e+01   3.3665270862e+01     1.415496     1.137191  -9.29  0.005030944    1.311    0.237
         6 -11.4704     69.4899      8.3359   7.7178625371e+01   6.5383208743e+01    0.2435014    0.2299559  22.27 0.0006995509    1.254    0.202
         7 -11.2815    114.4324      3.9601   6.2290387223e+01   5.6380604350e+01    0.2689291    0.2101091  57.65  0.000541499    1.314    0.239
         8 -10.8450    204.4917    175.8117   9.4685762055e+01   8.2463739454e+00    0.3619232    0.1981003 -54.91  0.001573443    3.322    0.699
         9 -12.5382    248.8123    247.8936   9.9066231307e+01  -6.3073540212e+00    0.3003135    0.2151408 -11.79  0.002470697    1.528    0.345
        10 -14.4208     68.0578    212.7389   1.2419455942e+02   2.4195460893e+01     1.507462    0.6670834  45.56  0.005837348    1.831    0.454
        11 -17.6680     58.3769    237.9150   1.2746206381e+02   2.1357946831e+01     7.311532     5.561152  78.93   0.06334499    1.213    0.176
        12 -10.6544     57.8153    201.1354   1.2507793487e+02   2.7449880000e+01    0.1458778    0.1059864  68.85 0.0002693894    1.033    0.032
        13 -10.3047    165.7942    172.6278   1.0117265037e+02   1.5806215067e+01    0.2097575    0.1814762 -62.75 0.0005152118    1.350    0.259
        14 -11.6740    203.6842    166.6538   9.3109854457e+01   9.6719659752e+00    0.5163923     0.379098   1.48  0.002139003    1.539    0.350
        15 -11.5821    189.3667    155.0777   9.3437015496e+01   1.4143993160e+01     0.416539    0.3867381   8.00  0.001915857    1.057    0.054
        16 -11.8175    193.5738    166.0613   9.4810222417e+01   1.1654913110e+01    0.3155015    0.2825376 -40.98 0.0007421264    1.279    0.218
        17 -10.9274    190.4252    161.2767   9.4466545181e+01   1.2976001653e+01    0.3047313    0.2479278  58.43  0.001455121    1.371    0.270
        18  -9.8235    163.6447    168.3055   1.0082910444e+02   1.6908978203e+01    0.1320176   0.09964997  75.53  0.000435703    1.717    0.418
        19 -11.2843    229.9810    166.0109   8.8486291999e+01   4.9301943802e+00    0.1803599    0.1634847 -74.18 0.0008955189    1.692    0.409
        20 -10.5610     13.4974    160.2146   1.3045024837e+02   3.9906347499e+01    0.2115699    0.1348986  68.51 0.0008096562    1.249    0.199
        21 -10.5895    157.5078    199.5214   1.0691329207e+02   1.3082672396e+01    0.1205672     0.100666  47.27 -4.243713e-05    1.017    0.017
        22  -9.3258      8.6752    160.7052   1.3142955886e+02   4.0219766200e+01   0.09530797   0.07166525 -62.56 0.0004566411    1.622    0.383
        23 -10.1080    160.2788    197.6444   1.0614934987e+02   1.2896421740e+01    0.1161839   0.08868175  75.63 0.0007011424    1.656    0.396
        24 -12.0954    133.8081    145.2215   1.0268304911e+02   2.6642132435e+01     1.198571    0.2978678 -55.17  0.003128615    6.239    0.840
        25 -10.6009    129.5080    140.0867   1.0263657886e+02   2.8454302213e+01    0.2689453    0.2008527  46.84 0.0005908647    1.309    0.236
        26 -10.4518    163.6348    151.3082   9.7661746016e+01   1.9813278850e+01    0.2085844    0.1624584  84.77 0.0009705202    1.711    0.416
        27 -11.4026    148.6781    149.3415   1.0032585320e+02   2.3057326045e+01     0.287423    0.1734112  61.63 0.0008249436    1.979    0.495
        28 -10.6216    174.7718    148.9052   9.4975518101e+01   1.8034336335e+01    0.2397145      0.22139  69.60 0.0006231504    1.190    0.159
        29 -11.3255    143.5554    145.5968   1.0067414869e+02   2.4737738126e+01    0.3422197    0.1725091 -58.62  0.001420978    2.478    0.596
        30 -12.7398    111.0147    138.4731   1.0647918930e+02   3.2085940709e+01    0.6497502    0.4821747 -22.06  0.003274655    2.130    0.530
        31 -11.9561    105.9567    130.8377   1.0622881787e+02   3.4564790299e+01    0.4343385    0.3206081 -76.85  0.001428965    1.414    0.293
        32 -11.2951    105.4794    125.1096   1.0522827885e+02   3.5879157682e+01    0.2483999    0.2236639 -39.57  0.001460731    1.277    0.217
        33 -12.5245    100.2945    138.0301   1.0885900750e+02   3.3969674761e+01    0.2740037    0.2589308  82.98 0.0003848132    1.111    0.100
        34 -11.4875    135.6096    127.0118   9.8585990658e+01   2.9926767581e+01    0.5794247    0.1917307 -51.71  0.001926259    3.307    0.698
        35 -10.8501    160.5390    127.6158   9.3275617787e+01   2.4748719994e+01     0.329134    0.2589853 -67.17  0.001373797    1.514    0.339
        36 -10.5703    121.1322    123.7270   1.0121386790e+02   3.3373598133e+01    0.2583896    0.1824083 -25.83 0.0007006174    2.012    0.503
        37 -11.2010    117.2509    129.1309   1.0324613616e+02   3.2948074074e+01    0.2812028    0.2310106 -31.16 0.0007413583    1.489    0.328
        38 -10.3745    111.9445    118.6023   1.0231208498e+02   3.6149409546e+01    0.2253353    0.1864116 -46.70 0.0005491871    1.241    0.194
        39 -10.8863    167.8213    112.6684   8.8158768663e+01   2.5973268667e+01    0.3650683    0.2817374 -85.10  0.001334331    1.787    0.440
        40 -12.6695    152.1571    192.1439   1.0682202915e+02   1.5102938212e+01    0.3306698    0.2558283  74.27  0.001163668    1.512    0.339
        41 -10.6930    205.5012    110.1574   8.0203715674e+01   1.7970762470e+01    0.3201012    0.2042183  41.21 0.0009375957    1.594    0.373
        42 -11.2351    155.0043    187.6916   1.0563624482e+02   1.5314679030e+01    0.2264465    0.1813169  32.23  0.001361324    1.252    0.201
        43  -9.8207     79.6120    105.2506   1.0776605548e+02   4.4458462471e+01    0.1916175    0.1140686 -51.84 0.0008311783    1.557    0.358
        44 -10.3367     65.9667     98.9035   1.1021927588e+02   4.7832257973e+01    0.2164981    0.1802983 -76.88  0.001307499    1.074    0.069
        45  -9.4409    127.2533     94.3651   9.2609748311e+01   3.8356289444e+01    0.1488572    0.1160813 -16.19 0.0006961141    1.625    0.385
        46 -10.6758     81.7004     75.9744   1.0000182895e+02   5.0739837542e+01    0.2303687    0.2008937  57.29 0.0003431358    1.297    0.229
        47 -12.3678    173.3589     72.1831   7.5646908000e+01   3.1961457281e+01    0.9445727     0.549431 -78.93   0.00130623    4.305    0.768
        48 -19.0524     34.6951    101.5615   1.1951811466e+02   5.0772953865e+01     15.10613    0.8260686 -67.39   0.02682579   14.227    0.930
        49 -11.2687    168.1289    233.2637   1.0949860210e+02   6.8664156318e+00    0.2660556    0.1556795  54.96  0.001248374    1.690    0.408
        50 -11.4785    151.0909    182.8230   1.0562286362e+02   1.6771780260e+01    0.2515261    0.1968138  84.85 0.0005576127    1.586    0.369
        51 -10.3161     13.3957     59.8551   1.1900387141e+02   6.2029332518e+01    0.1705836     0.143912 -85.72 0.0004341879    1.217    0.178
        52 -11.9107    192.9568    194.7036   9.9944166434e+01   7.7366911724e+00    0.8114159    0.4376421 -62.59  0.002932665    5.912    0.831
        53 -10.0001    168.7323    177.5163   1.0145389462e+02   1.4493700171e+01    0.1969666    0.1551669 -79.06 0.0007151124    1.747    0.428
        54 -10.1403    108.8882     20.1977   7.1032128279e+01   5.5780527969e+01    0.2808742    0.2035209  74.47  0.001118121    1.825    0.452
        55 -10.7584     89.3152     13.1950   7.3205358832e+01   6.0925457143e+01    0.2294144    0.1992881  51.49 0.0005071441    1.320    0.242
        56 -10.3298     78.2181     10.4091   7.5285178082e+01   6.3489489716e+01    0.1684584    0.1333688  62.44 0.0007349398    1.656    0.396
        57  99.0000     12.3220    206.0032   1.3307740240e+02   3.1433073162e+01    0.3722564    0.1523972  42.31  0.002446251    2.096    0.523
