#   1 NUMBER                 Running object number                                     
#   2 MAG_AUTO               Kron-like elliptical aperture magnitude                    [mag]
#   3 X_IMAGE                Object position along x                                    [pixel]
#   4 Y_IMAGE                Object position along y                                    [pixel]
#   5 X_WORLD                Barycenter position along world x axis                     [deg]
#   6 Y_WORLD                Barycenter position along world y axis                     [deg]
#   7 A_WORLD                Profile RMS along major axis (world units)                 [deg]
#   8 B_WORLD                Profile RMS along minor axis (world units)                 [deg]
#   9 THETA_WORLD            Position angle (CCW/world-x)                               [deg]
#  10 FWHM_WORLD             FWHM assuming a gaussian core                              [deg]
#  11 ELONGATION             A_IMAGE/B_IMAGE                                           
#  12 ELLIPTICITY            1 - B_IMAGE/A_IMAGE                                       
         1 -14.0288    185.2394     31.5908   6.7318107848e+01   3.5326125434e+01    0.9163933    0.8335593 -87.11  0.003100978    1.060    0.056
         2 -14.3255    192.3599     20.8484   6.3709005049e+01   3.4905052093e+01     0.728509     0.701886 -31.88  0.001378019    1.289    0.224
         3 -13.7894     62.6465    210.2953   1.3575050193e+02   2.2921811492e+01     0.812797    0.5189047  55.65  0.001485334    1.431    0.301
         4 -16.2005    122.9294    237.2202   1.2667425862e+02   7.8678263744e+00     8.033798     2.467463  38.87   0.02951367    3.065    0.674
         5 -11.8292    107.7795    204.0193   1.2519881746e+02   1.7342600503e+01    0.3703848    0.2779413   6.97  0.001788348    2.176    0.540
         6 -12.9738     69.0046    197.0133   1.3281499633e+02   2.5041657184e+01    0.7963876    0.5839705 -83.65  0.002682483    1.242    0.195
         7 -12.7981     73.4192    197.2113   1.3186685794e+02   2.4359181137e+01    0.7457714    0.3167903 -65.91   0.00304587    2.252    0.556
         8 -12.7534    196.1408    196.4043   1.0462407553e+02   2.4715485241e+00     1.107864    0.7721958  82.12  0.004669125    2.806    0.644
         9  -9.8361     52.2259    208.4731   1.3770320962e+02   2.4719234504e+01    0.1674497    0.1143674  48.37 0.0009780565    1.425    0.298
        10 -14.0061     53.1219    232.0010   1.3980939897e+02   1.9543011474e+01     1.103048    0.7109835 -41.77  0.005875564    2.725    0.633
        11  -9.7988    157.5265    192.5223   1.1212050771e+02   1.0677817869e+01    0.1464623    0.1392764  58.96 0.0001320706    1.033    0.032
        12 -11.2631     61.1050    190.5065   1.3374393396e+02   2.7649680502e+01    0.3595559    0.2024082 -70.53  0.001802639    1.617    0.382
        13 -11.3831    208.0095    185.9747   1.0014932756e+02   2.2141064915e+00     0.315903    0.2471934   9.80  0.001513015    1.428    0.300
        14 -11.7629    212.5659    182.1343   9.8464500682e+01   2.0808183156e+00    0.4235339    0.2818147  -4.92  0.001518021    2.159    0.537
        15 -10.9514     79.5178    185.4960   1.2887018986e+02   2.6190883109e+01    0.2498444    0.1993012  76.17 0.0006686148    1.186    0.157
        16 -10.7951     89.8526    175.6000   1.2488623808e+02   2.6935895458e+01    0.3422973    0.2132096  69.76 0.0009677947    1.966    0.491
        17 -12.0758     81.9252    180.8275   1.2761003319e+02   2.6933111284e+01    0.4424084    0.2561462 -44.66  0.001995431    2.085    0.520
        18 -12.1474     85.1849    175.3658   1.2597569251e+02   2.7735497031e+01    0.3530923    0.2609125 -50.43   0.00101832    1.425    0.298
        19 -10.0036     90.4717    184.1205   1.2610379100e+02   2.4803732334e+01    0.2745417    0.1590173  70.66   0.00114583    2.275    0.560
        20 -19.2948     17.9088    132.3824   1.3654338540e+02   4.6164729904e+01     18.98511     1.759087 -68.41   0.03637714   11.932    0.916
        21 -10.5405    197.8527    176.9416   1.0034285683e+02   5.9195107693e+00    0.2772274    0.2086729 -62.07   0.00134706    1.615    0.381
        22 -10.3104     47.8059    211.9805   1.3895518087e+02   2.4507535218e+01     0.357675   0.09096204  53.47  0.001166647    4.655    0.785
        23 -11.2562    137.6991    170.9631   1.1248361397e+02   1.9359771037e+01    0.2199136    0.1988061 -64.29 0.0006612493    1.102    0.092
        24 -15.9388     77.1656    155.0205   1.2454623537e+02   3.3913364641e+01     4.982293     2.620068  80.79  0.008557672    4.354    0.770
        25 -10.2035      2.2231    169.9599   1.4445790094e+02   3.8706365316e+01     0.184038    0.1222354  85.21 0.0007747426    1.255    0.203
        26 -11.0293    184.9190    168.2088   1.0120355854e+02   1.0306974701e+01    0.3204846    0.2575532 -77.44 0.0009796669    1.577    0.366
        27  -9.6311     68.2532    234.5948   1.3718033832e+02   1.6941580685e+01    0.1324499   0.07769778  75.73 0.0006948307    1.714    0.417
        28 -12.3739     97.3856    158.3030   1.1995044460e+02   2.9874718624e+01    0.6300195    0.3810596 -35.50  0.002623301    2.228    0.551
        29  -9.8242     92.5846    206.7144   1.2892730782e+02   1.9257564871e+01    0.1823641    0.1229678 -79.77 0.0007444458    1.532    0.347
        30 -10.1038     42.4925    208.9936   1.3972999424e+02   2.5825953053e+01    0.2952075     0.102259  52.72 0.0009503302    2.822    0.646
        31 -11.3392    133.8262    144.7672   1.0784089109e+02   2.6245814018e+01    0.9802284    0.2475949 -55.39  0.002099793    6.497    0.846
        32 -11.5724    108.5483    141.6855   1.1365305902e+02   3.1919271001e+01    0.6097871    0.3116925 -35.47  0.002168875    2.742    0.635
        33 -12.4275     96.8629    142.5663   1.1694540781e+02   3.3790262491e+01    0.2837988    0.2640416 -36.47 0.0004935797    1.161    0.139
        34 -11.0816     81.1748    138.1450   1.2027789400e+02   3.7425008184e+01    0.4153794    0.2656798 -25.46  0.001209261    2.388    0.581
        35 -11.1122    115.4249    131.7244   1.0957250705e+02   3.2989184066e+01    0.3065782    0.2574674  -8.06   0.00064615    1.489    0.328
        36 -11.3565    160.9562    126.8715   9.7014216311e+01   2.4442387073e+01    0.3669942    0.2639221 -56.07  0.001643296    1.445    0.308
        37 -11.1061     41.0837    220.0412   1.4102715628e+02   2.3592138492e+01    0.3215879    0.1552686  43.13  0.001114761    1.960    0.490
        38 -11.6068    104.2159    129.1623   1.1199492655e+02   3.5702079051e+01    0.5026835     0.361902  86.88  0.001470273    1.928    0.481
        39 -10.1949    110.8071    120.1655   1.0803067895e+02   3.6570738474e+01    0.2195093    0.2026123 -84.66  0.000387313    1.144    0.126
        40  -9.9153     67.5530    115.5138   1.1934400321e+02   4.4817287175e+01    0.1415434    0.1247943 -49.06 0.0001589287    1.031    0.030
        41 -11.9950     45.5208    215.9273   1.3978943492e+02   2.3931327284e+01    0.5313779    0.1879452  54.60  0.002271453    2.803    0.643
        42 -10.8501    167.7629    112.6996   9.1902354246e+01   2.5907141510e+01    0.3907751    0.2558659 -89.24   0.00144308    2.615    0.618
        43 -10.1964    205.7001    110.0110   8.3583120953e+01   1.7676707675e+01    0.2172613    0.1897522 -47.40 0.0006111895    1.087    0.080
        44 -10.8057     66.4066    104.7562   1.1719279238e+02   4.7443864474e+01    0.2066856    0.1142231 -45.13 0.0009508697    1.645    0.392
        45  -9.6085     73.4368    102.4322   1.1445401057e+02   4.6966337301e+01    0.1403314    0.1262235 -39.45 0.0001789891    1.020    0.019
        46 -13.8885    174.3474     41.8698   7.1660773989e+01   3.6629746041e+01    0.7815839    0.6338821  15.83  0.001902386    1.638    0.390
        47 -11.8356     87.6973    240.9178   1.3409178826e+02   1.2808907966e+01    0.2524134    0.1906462  82.73 0.0003953175    1.235    0.190
