#   1 NUMBER                 Running object number                                     
#   2 MAG_AUTO               Kron-like elliptical aperture magnitude                    [mag]
#   3 X_IMAGE                Object position along x                                    [pixel]
#   4 Y_IMAGE                Object position along y                                    [pixel]
#   5 X_WORLD                Barycenter position along world x axis                     [deg]
#   6 Y_WORLD                Barycenter position along world y axis                     [deg]
#   7 A_WORLD                Profile RMS along major axis (world units)                 [deg]
#   8 B_WORLD                Profile RMS along minor axis (world units)                 [deg]
#   9 THETA_WORLD            Position angle (CCW/world-x)                               [deg]
#  10 FWHM_WORLD             FWHM assuming a gaussian core                              [deg]
#  11 ELONGATION             A_IMAGE/B_IMAGE                                           
#  12 ELLIPTICITY            1 - B_IMAGE/A_IMAGE                                       
         1 -11.6275     80.0650     23.4473   9.0547444417e+01   5.9763483010e+01    0.6958316    0.2446385  37.83  0.002882604    2.818    0.645
         2  -8.7561     46.2668     20.6177   1.0121436606e+02   6.5291207095e+01    0.3448657    0.1344174 -35.82  0.001316179    2.399    0.583
         3  -9.3199    128.4026     15.6984   7.5403635172e+01   5.0708731209e+01    0.3999633     0.268194  20.86  0.001444058    1.732    0.423
         4  -9.3672    134.0375     13.5775   7.3597658665e+01   4.9623995328e+01    0.2541631    0.1982188  28.99  0.000221217    1.323    0.244
         5  -7.9199    137.4298     10.4978   7.1982251430e+01   4.9127651232e+01    0.1682507    0.1236976  -0.01 8.983032e-05    1.642    0.391
         6  -8.6175    125.0624     10.3282   7.4304878528e+01   5.1973001381e+01    0.2183867    0.1628333  23.54 0.0004546015    1.409    0.290
         7  -8.0022    134.2786      3.0134   7.0182511146e+01   5.0509358045e+01     0.195221    0.1445013  41.69 0.0003158185    1.252    0.201
         8  -9.6301    130.1629      7.0879   7.2241923928e+01   5.1106899079e+01    0.4014173    0.3257641  48.29  0.001046399    1.062    0.058
         9  -9.2891     79.3693     12.8326   8.6591797195e+01   6.1057070800e+01    0.5607572    0.2182824  38.95  0.002590929    2.325    0.570
        10  -8.9447     74.4684     13.5041   8.8368689824e+01   6.1849755937e+01    0.2927302    0.1940242  15.12 0.0009875434    1.453    0.312
        11  -9.2908     64.3059     14.1366   9.1952693866e+01   6.3466778437e+01    0.3537454    0.1946398  20.44  0.001908243    1.927    0.481
        12  -8.7557    232.5982     13.2697   6.0277140151e+01   2.6061222065e+01    0.2796473    0.2025507 -36.89   0.00122153    1.532    0.347
        13  -8.2222     96.0775     13.4202   8.2111060841e+01   5.7841505195e+01    0.3179178    0.1765961  10.92  0.001527749    2.366    0.577
        14  -9.2975     31.4198     11.2400   1.0328096923e+02   6.8272142919e+01     0.326062     0.173106  12.96 0.0007032342    2.011    0.503
        15  -8.6338    155.6894      7.7465   6.8084892667e+01   4.5059779478e+01    0.2940169    0.1695563 -19.19  0.001013108    2.132    0.531
        16  -9.1910    119.2826      6.9451   7.4348356212e+01   5.3559604683e+01    0.2289379    0.1853514  38.51 0.0002075736    1.097    0.089
        17  -9.1664     41.0934      5.8957   9.6947029618e+01   6.7724179233e+01    0.3465529    0.1783642  -9.97  0.001678498    2.144    0.534
        18  -9.7018     46.5570      6.5069   9.5089788888e+01   6.6926189556e+01    0.2867673    0.1925919  19.89 2.514364e-06    1.267    0.210
        19 -10.1911      7.7126      5.3608   1.1144606118e+02   7.1288539163e+01    0.5231352    0.2136316  10.66  0.002736941    3.159    0.683
        20  -8.6230    100.8360      6.4756   7.8318900896e+01   5.7524209177e+01    0.2384617    0.1460848  12.51 0.0008793199    1.865    0.464
        21  -9.1668     76.1773      6.3645   8.4942909125e+01   6.2254933894e+01    0.2681471    0.2093382 -20.81  0.001808176    1.381    0.276
        22  -8.9759     32.0978      5.9146   1.0064348904e+02   6.8832186335e+01    0.1907586    0.1260909 -14.28 0.0003981935    1.239    0.193
        23  -9.4149    110.7956      3.2713   7.4873267468e+01   5.5709752526e+01     0.317574    0.2072428 -18.47  0.001717755    1.715    0.417
        24  -7.8310    176.0682      2.2855   6.3748743943e+01   4.0642472810e+01    0.2546675    0.1621536   8.26  0.000891142    2.481    0.597
        25  -8.4606    143.2988      2.2650   6.8420912422e+01   4.8476967852e+01    0.2046472    0.1603193  48.07 0.0003015115    1.161    0.139
        26  -8.3156     56.3417      3.1322   9.0014241794e+01   6.5843524381e+01    0.2149434    0.1499605  37.61  0.001448193    1.370    0.270
        27  -9.4844     71.1198      8.7170   8.7469463451e+01   6.2909820862e+01    0.3721701    0.1818217  32.12  0.001372239    1.911    0.477
        28  -7.6399     91.3192      4.9954   8.0154543552e+01   5.9553633482e+01    0.1682157    0.1383206  23.49  0.000587386    1.059    0.056
        29  -8.0137      2.7804      1.3926   1.1211540094e+02   7.2182634874e+01    0.1359392   0.07570955   2.36 0.0004574683    1.683    0.406
        30  -8.8259      2.6025    109.4282   1.4006594259e+02   5.2306612986e+01    0.2931623    0.1226772 -39.52   0.00145316    2.707    0.631
        31  -8.8659    218.3380    249.5080   1.1319180796e+02  -9.5705504533e+00    0.2811083    0.1681045  61.73  0.001242516    3.598    0.722
        32  -9.7767    189.2284    249.5536   1.1859626413e+02  -4.8210513185e+00    0.4093374    0.1322914  45.19  0.001649726    2.742    0.635
        33  -9.9777    197.0047    249.2880   1.1709968752e+02  -6.0812012548e+00    0.3198392    0.2348608  44.69  0.001789933    1.269    0.212
        34  -7.3600     76.2769    107.3220   1.1822810333e+02   4.5374480306e+01    0.1410419    0.1017884 -28.58 0.0002380698    1.580    0.367
        35  -7.6389    109.1771    106.5864   1.0859712377e+02   3.9943600355e+01    0.2140932     0.142995  27.85 0.0009472934    1.792    0.442
        36  -7.3376     61.6362    106.2830   1.2233646769e+02   4.7627855194e+01    0.1327152    0.1020768  75.31  0.000390938    1.684    0.406
        37  -9.2700     14.4848    105.1646   1.3608633561e+02   5.2481860057e+01    0.3862217    0.1733725 -35.62  0.001852153    2.737    0.635
        38  -9.7328    247.8339    102.9299   7.8337746451e+01   9.2695367595e+00    0.4767809     0.239627 -65.50  0.001625599    3.699    0.730
        39  -7.6474     93.7545    103.4112   1.1214165507e+02   4.3447891458e+01    0.2014617    0.1401073  24.33 0.0009520536    1.718    0.418
        40  -6.9196    140.3292     99.3025   9.8399560096e+01   3.4973279456e+01    0.1567016    0.1239706   8.01 0.0005393799    1.648    0.393
        41  -8.1309     66.8369    105.1485   1.2052105211e+02   4.7199133354e+01    0.1914855    0.1530484 -27.78 0.0008204933    1.344    0.256
        42 -10.4335     16.0320     95.0396   1.3388921291e+02   5.4584156928e+01    0.5089377    0.3062516 -28.64  0.001603655    1.915    0.478
        43  -9.1396     12.4139     93.7430   1.3475911754e+02   5.5107372611e+01    0.2747709    0.1540575 -46.08 0.0009248024    1.517    0.341
        44  -7.1969    201.6703     95.7377   8.4205015484e+01   2.1039249648e+01    0.1476518     0.119553  23.81 0.0002565862    1.569    0.363
        45  -8.6760     43.7338     92.1963   1.2465410770e+02   5.2813750631e+01    0.2894278    0.1846435 -17.34  0.001509733    2.053    0.513
        46  -8.3029     96.9002     90.0293   1.0761114692e+02   4.5756271074e+01    0.4018299    0.2311872  19.42  0.001563685    2.754    0.637
        47  -7.8259    110.3912     90.3959   1.0383602269e+02   4.3144992997e+01    0.2831143    0.1304274  30.44 0.0009486617    3.195    0.687
        48 -10.3517     37.1419     81.4195   1.2426251196e+02   5.5755865665e+01    0.6681871    0.3385744 -19.29  0.002869402    3.254    0.693
        49  -8.0513    126.4534     83.8542   9.7570596383e+01   4.1123867747e+01     0.305169    0.1913013  31.26  0.001043483    1.886    0.470
        50  -7.7954     66.2098     84.5561   1.1554235031e+02   5.1741866597e+01    0.1782241    0.1278702  13.05 0.0004980536    1.650    0.394
        51  -8.8988    240.5104     82.9972   7.4884583738e+01   1.4249262654e+01    0.2181605    0.1285731 -40.36 0.0007681684    1.570    0.363
        52  -8.8620     87.6816     79.1446   1.0724074333e+02   4.9559874544e+01    0.4624303    0.2740383  13.60  0.001564606    2.727    0.633
        53  -9.8187      8.0347     77.4850   1.3308141830e+02   5.8795011062e+01    0.4313197    0.1728648 -37.41  0.002113101    2.445    0.591
        54  -7.6959    184.3076     78.0731   8.2857429169e+01   2.8468719608e+01    0.2094914    0.1886064 -51.54 0.0004917572    1.110    0.099
        55  -8.8705     49.2437     77.2236   1.1914013371e+02   5.5360304172e+01    0.3769852    0.2166984  -0.56  0.001741357    2.715    0.632
        56  -9.3347     36.7828     59.4197   1.1851742879e+02   6.0144251387e+01    0.3807705    0.2127078 -30.64   0.00209123    1.710    0.415
        57  -9.0772     32.3553     62.1968   1.2092671465e+02   6.0039111644e+01    0.4856595    0.1726465 -52.94  0.002201831    2.398    0.583
        58  -9.9610     25.1209     72.5108   1.2618546676e+02   5.8631234733e+01    0.7670996    0.2786295 -31.92  0.002912741    4.037    0.752
        59  -8.2468     23.4678     69.4643   1.2601684631e+02   5.9371322203e+01     0.199596    0.1650212 -26.40 0.0006168493    1.157    0.135
        60  -7.8167     74.8980     74.1628   1.0978406407e+02   5.2581770007e+01    0.1846779    0.1830728  16.50 0.0005221022    1.186    0.157
        61  -7.3605    116.4826     68.5055   9.5593103491e+01   4.6083109766e+01    0.1444919    0.1358877   9.19 0.0008102329    1.029    0.029
        62  -9.1229     83.8112     64.0494   1.0379175996e+02   5.3049525583e+01    0.4294062    0.2716786  -1.12  0.001509634    2.346    0.574
        63  -8.7909     16.4561     64.0488   1.2717205123e+02   6.0952941061e+01    0.2310612    0.1128462 -22.10  0.000890589    2.543    0.607
        64  -9.9438    241.4299     62.1838   7.0054871303e+01   1.7392386433e+01    0.3122466    0.2297332  51.70 0.0004108008    1.572    0.364
        65  -7.4570    148.3528     63.2784   8.6088479949e+01   3.9786129562e+01    0.1528531     0.111153  26.77 0.0002955804    1.649    0.393
        66  -8.5199     58.1640     62.3827   1.1178831206e+02   5.7161628669e+01     0.335818    0.1468558  42.65  0.001482259    2.835    0.647
        67  -9.4137     63.0285     61.2492   1.0975433740e+02   5.6720434974e+01    0.5944474    0.3173073  16.74  0.002533614    2.608    0.617
        68  -9.3906     26.9699     59.8870   1.2225091689e+02   6.0950004787e+01    0.2832476     0.143052   4.83  0.001421515    2.747    0.636
        69  -7.9774    111.1085     58.5538   9.3892162103e+01   4.8887301430e+01    0.2772037    0.1597926  34.61  0.001108299    1.848    0.459
        70  -7.7863     96.3115     59.3439   9.8405985667e+01   5.1655676320e+01    0.1440991    0.1027398   2.02 0.0003841827    1.704    0.413
        71  -8.1003     98.8137     56.1628   9.6609958585e+01   5.1712081107e+01    0.1986024     0.156342   5.92 0.0007184237    1.352    0.260
        72  -7.9987     72.4754     54.4702   1.0432980020e+02   5.6535728152e+01    0.2076963    0.1644084 -37.86 0.0007746753    1.252    0.201
        73 -10.0428     75.2160     50.0986   1.0192552880e+02   5.6830560431e+01    0.2998046    0.2414499  -3.00 0.0002712624    1.175    0.149
        74  -7.8124    242.6629     51.3044   6.7489898083e+01   1.8753044682e+01    0.1441351   0.08931803 -69.54 0.0003863464    1.670    0.401
        75  -8.3095    118.3915     51.1088   8.9503807972e+01   4.8526982616e+01     0.236826    0.1734616  39.36 0.0005068941    1.302    0.232
        76  -9.0654     45.4734     49.0257   1.1205057373e+02   6.1085869248e+01    0.3499767    0.2154733  -6.25  0.001524309    1.933    0.483
        77  -7.3629    107.3551     48.2710   9.1516856939e+01   5.1262579275e+01    0.1428555   0.09877361  20.14 0.0006997682    1.639    0.390
        78  -9.8886     11.5279     45.8529   1.2417766799e+02   6.4688150348e+01    0.6679664    0.3157822 -17.88  0.002995679    2.599    0.615
        79  -8.9985     56.1924     35.0477   1.0312596363e+02   6.1971728390e+01    0.2905795    0.2166779 -10.08 0.0008882738    1.190    0.160
        80  -9.7213     57.6116     41.8697   1.0511288303e+02   6.0741067649e+01    0.8175739    0.3856201 -13.60  0.002627989    5.528    0.819
        81 -10.6531     83.1785     40.0761   9.5794322683e+01   5.7034561244e+01    0.4014041    0.2533751 -12.02 0.0002402654    1.815    0.449
        82  -8.9254     87.5921     38.1493   9.3724343433e+01   5.6522983939e+01    0.2735559    0.2054575   3.06 0.0007205559    1.353    0.261
        83  -8.5742      2.1035     45.1006   1.2770188513e+02   6.5383442753e+01    0.1721034    0.1440335   1.64  0.001366191    1.385    0.278
        84  -8.0215    112.7696     42.8162   8.8207532804e+01   5.0930166294e+01    0.2369997     0.133292  19.31 0.0009444085    2.760    0.638
        85  -8.7863     92.4697     38.2921   9.2304734998e+01   5.5604492119e+01    0.4408077    0.2178084 -35.46  0.001252799    2.063    0.515
        86  -8.9411      3.5854     39.8030   1.2562648431e+02   6.6242904319e+01    0.3045576   0.07136181 -53.68  0.001352898    3.036    0.671
        87  -9.3834      6.4482     33.6539   1.2257194291e+02   6.7126145548e+01    0.3562994    0.2338342 -16.80   0.00236623    1.378    0.274
        88  -8.2148      2.0526     31.5243   1.2377194005e+02   6.7744298562e+01    0.1495714    0.1189723 -26.11  0.001185893    1.130    0.115
        89  -8.7503      1.4576     28.0454   1.2291718572e+02   6.8352514304e+01    0.4015968   0.09883895 -40.91  0.001907061    2.799    0.643
        90  -7.7640    123.9911     39.9216   8.4410767323e+01   4.8894244431e+01    0.2209096     0.153053  20.92 0.0006637271    1.686    0.407
        91  -8.9759     35.5999     37.8139   1.1199342274e+02   6.4026285853e+01    0.3293039    0.1533276 -41.58  0.001371708    1.841    0.457
        92  -8.5708     38.7139     35.4235   1.0990873124e+02   6.4071932164e+01    0.2226408    0.1538373  13.00 0.0007444354    1.428    0.300
        93 -10.1505    137.8733     37.2028   8.0364024550e+01   4.6080059317e+01    0.2448556    0.2310612  42.26 0.0002858751    1.036    0.035
        94  -9.9315     69.3316     36.1556   9.8898569741e+01   5.9885393745e+01    0.5815136    0.3281779  21.12  0.002942667    2.022    0.506
        95  -8.0574    106.4661     36.4677   8.7698626143e+01   5.3101340231e+01     0.135164    0.1184081  22.52 0.0008085924    1.033    0.032
        96  -8.0843     19.2954     35.7124   1.1786642549e+02   6.5868986498e+01    0.1824981    0.1092193 -37.43  0.000494216    1.304    0.233
        97  -9.1512     22.9977     35.6976   1.1633600037e+02   6.5564270815e+01    0.2549244    0.2165256  27.45  0.001598431    1.542    0.351
        98  -9.0949     22.0002     32.2651   1.1555672270e+02   6.6204103598e+01    0.2614519    0.1590258  14.04 0.0003043801    1.712    0.416
        99  -9.4137     41.7575     27.0396   1.0554705641e+02   6.4975446340e+01    0.3416701    0.1611227 -43.74 0.0008049133    2.262    0.558
       100  -8.9822     61.7477     26.9633   9.8020270678e+01   6.2306722048e+01    0.2667817    0.1600353   5.87 0.0004468363    1.964    0.491
       101  -8.6174     63.2860     23.0355   9.5924357223e+01   6.2579245049e+01    0.2719944    0.1567624  36.48  0.001553997    1.644    0.392
       102  -8.4551     25.4096     25.7822   1.1175220304e+02   6.6899029559e+01    0.3070387    0.1236484 -27.39  0.001291444    2.685    0.628
       103  -8.7367     28.7059     21.0839   1.0852903497e+02   6.7257465144e+01    0.2848077    0.1789966 -18.23  0.001878125    1.356    0.263
       104  -9.8556    170.3719    246.5382   1.2171921214e+02  -1.1495959954e+00    0.4146554    0.2301536 -63.69  0.001942469    2.985    0.665
       105  -8.2355    144.8400     23.4199   7.4637715532e+01   4.6078254726e+01    0.1999172     0.161588  40.41 0.0003750366    1.203    0.169
       106  -8.1393    129.1242     22.5976   7.7522651057e+01   4.9831026632e+01     0.249625    0.1437719  50.68 0.0009893186    1.506    0.336
       107  -8.9369    161.9869    249.0000   1.2366474551e+02  -9.5096681010e-02    0.2215596   0.06086476  42.22 0.0008104336    2.998    0.666
       108  -7.2414    156.5076     20.4837   7.1668666489e+01   4.3593781772e+01    0.1368813    0.1178858  55.88 0.0001041988    1.065    0.061
       109  -8.4864    140.2017     19.9815   7.4448511948e+01   4.7544324976e+01    0.2222082    0.1715493  58.81 0.0004582482    1.145    0.127
       110  -8.0926    101.9635     25.5368   8.5017203124e+01   5.5368383441e+01    0.2013197   0.08586379  34.80 0.0008095098    2.641    0.621
       111  -7.9051     92.9921     20.3498   8.5551231124e+01   5.7726445639e+01    0.1829063    0.1454489  33.41 0.0004998241    1.096    0.087
       112  -8.4935      9.8799     19.6555   1.1621908795e+02   6.9115751061e+01    0.2532824    0.1302624  -7.49  0.001180875    2.149    0.535
       113  -7.3507    146.8254     19.3638   7.3025567091e+01   4.6041051586e+01    0.1851397     0.105227  52.85 0.0002595978    1.525    0.344
       114  -8.1630      5.1157     18.8465   1.1808117100e+02   6.9571989180e+01    0.1480519    0.1186113 -28.43 0.0003548769    1.216    0.178
       115  -7.6761    124.3428    107.3077   1.0467799274e+02   3.6753000801e+01    0.1560839    0.1227176  -0.04 0.0003509861    1.692    0.409
       116  -7.6804    115.5059    244.0368   1.3185663129e+02   8.6485264400e+00    0.1609651    0.1213747 -67.99 0.0004811781    1.482    0.325
       117  -7.7994    120.8619    239.1475   1.3024317497e+02   8.6456249593e+00    0.1602123    0.1475055  36.14 0.0008550605    1.307    0.235
       118  -7.3069     40.3095    238.2858   1.4493374859e+02   2.0707670252e+01   0.09434009   0.08531478 -72.22 0.0003663939    1.572    0.364
       119  -9.3404    188.1639    234.2242   1.1640884530e+02  -2.3046846338e+00      0.25171    0.2153349 -76.33  0.000948677    1.594    0.373
       120  -7.4904     25.8605    231.1471   1.4688374177e+02   2.3806699415e+01    0.1333028    0.1107746  78.89 0.0002911646    1.260    0.207
       121  -7.5059     45.5420    209.0219   1.4154072269e+02   2.6005034089e+01    0.1731916    0.1013363 -76.99 0.0003070949    1.494    0.331
       122 -10.1235    171.1807    206.6095   1.1515560812e+02   5.6029309829e+00    0.2370021    0.2314187 -86.32 0.0003921363    1.120    0.107
       123  -8.6527     11.8871    207.1217   1.4765259561e+02   3.0141451915e+01    0.1848729    0.1166408  74.92  0.001011991    1.252    0.201
       124  -7.2932    117.7649    151.0527   1.1668990709e+02   2.8077332342e+01     0.190258    0.1232945 -56.05 0.0003146334    1.517    0.341
       125  -9.1201     67.2171    144.6245   1.2835594255e+02   3.7936486059e+01    0.4216452    0.2857507  72.79   0.00212507    1.742    0.426
       126  -7.9807    105.3390     14.3251   8.0092848149e+01   5.5871627486e+01    0.1381975   0.08235349  28.51 0.0007051324    1.725    0.420
       127  -7.5345    183.1525    143.8261   9.9718206140e+01   1.5791071949e+01    0.2046668    0.1820842   5.03 0.0002889107    1.281    0.219
       128  -7.3637    166.6777    139.6693   1.0238771250e+02   2.0372157706e+01    0.1600042    0.1271424   1.58 0.0007049551    1.697    0.411
       129  -9.9811    229.4492    136.9162   8.9021197502e+01   7.0223734967e+00     0.263773    0.2605596 -60.62 0.0003175139    1.069    0.064
       130  -7.6775    139.6819    138.6730   1.0853681385e+02   2.6513428332e+01    0.1568318    0.1265967  -5.50 0.0007046018    1.678    0.404
       131  -7.0209    144.3159    126.3180   1.0444778891e+02   2.8286253857e+01    0.1576933    0.1273788  -1.28 0.0007038891    1.653    0.395
       132  -8.9089     12.1203    121.4867   1.3917459758e+02   4.9016106158e+01    0.2093561    0.1285401 -55.35  0.001278675    1.370    0.270
       133  -6.9393     84.6815    121.6975   1.1912379433e+02   4.0793008548e+01    0.1430248    0.1093429 -23.89 0.0005904628    1.624    0.384
       134  -7.3253    180.4664    120.5124   9.4680144404e+01   2.1249289050e+01    0.1553066    0.1529939  -5.83 0.0001903988    1.072    0.067
       135  -9.3740    247.6624    118.2771   8.1792031448e+01   6.6231850513e+00    0.2579696    0.2460546 -42.79 0.0004239226    1.063    0.059
       136  -7.7326    100.2512    118.7878   1.1412236476e+02   3.8849302251e+01    0.2215254     0.120524  28.58 0.0008657833    2.401    0.584
       137  -7.5308    159.0220    117.4736   9.8705038272e+01   2.6890025220e+01    0.2221071    0.1370568  25.79 0.0006849612    2.443    0.591
       138  -7.4848    203.6763    113.7078   8.8299093003e+01   1.7160371336e+01    0.1514358     0.122343  12.89   0.00016978    1.614    0.380
       139  -7.9347    142.4150    112.0989   1.0130885122e+02   3.1814660894e+01    0.3848569     0.241297   5.16   0.00116997    4.092    0.756
       140  -7.7382    119.6736    118.6647   1.0883356977e+02   3.5196134743e+01    0.2375444    0.1857144  -7.36  0.001089395    1.740    0.425
       141  -8.5828    133.7224    107.2308   1.0221544251e+02   3.4772849923e+01    0.5628299    0.2102033 -38.40  0.001774918    3.054    0.673
