#   1 NUMBER                 Running object number                                     
#   2 MAG_AUTO               Kron-like elliptical aperture magnitude                    [mag]
#   3 X_IMAGE                Object position along x                                    [pixel]
#   4 Y_IMAGE                Object position along y                                    [pixel]
#   5 X_WORLD                Barycenter position along world x axis                     [deg]
#   6 Y_WORLD                Barycenter position along world y axis                     [deg]
#   7 A_WORLD                Profile RMS along major axis (world units)                 [deg]
#   8 B_WORLD                Profile RMS along minor axis (world units)                 [deg]
#   9 THETA_WORLD            Position angle (CCW/world-x)                               [deg]
#  10 FWHM_WORLD             FWHM assuming a gaussian core                              [deg]
#  11 ELONGATION             A_IMAGE/B_IMAGE                                           
#  12 ELLIPTICITY            1 - B_IMAGE/A_IMAGE                                       
         1 -15.1037    220.2741     40.5109   5.4589387954e+01   2.4854203426e+01     5.836078     1.774927 -31.77   0.01065126    2.958    0.662
         2 -16.4640    245.8867     50.7744   5.4004716436e+01   1.7072043920e+01     7.924972     1.716919  51.92   0.02309419    4.520    0.779
         3 -13.7716    249.0167     16.9862   4.4977210107e+01   2.0564902199e+01     1.451644    0.8325072 -62.52  0.001849448    1.872    0.466
         4 -14.7650    231.4268     40.3555   5.3066285661e+01   2.2034785586e+01     1.935459    0.8408575 -21.56  0.004735181    2.666    0.625
         5 -15.8674    248.3315     32.8496   4.9080038201e+01   1.8826965450e+01     2.939573     1.160637 -58.23  0.005973963    3.963    0.748
         6 -10.6079    166.9146     34.0586   6.1200497328e+01   3.9685837787e+01    0.9390445    0.3432715 -24.09  0.003100445    3.077    0.675
         7 -10.8310    179.1186     24.2706   5.5839241813e+01   3.7746869917e+01    0.7324345    0.4417911  62.13  0.002679992    1.584    0.369
         8 -10.5148    134.1233     22.3412   6.3765059966e+01   4.9361773266e+01    0.4790422    0.1868978 -16.44  0.001552914    3.617    0.724
         9 -10.2150    126.2452     14.6912   6.2599456868e+01   5.2119244091e+01    0.3085528      0.20593 -11.44 0.0009676604    1.560    0.359
        10  -9.6864    155.3329     13.1837   5.6146202557e+01   4.5190933739e+01    0.5312783    0.2391575 -12.85  0.001778667    2.791    0.642
        11 -15.0886    249.1264     92.3220   6.4208403369e+01   1.0337830252e+01     7.838331     2.835422 -21.10    0.0226626    4.368    0.771
        12  -9.8581    206.2425      7.2879   4.6857419419e+01   3.2466491072e+01    0.2604193    0.1934166  30.25 0.0007290783    1.575    0.365
        13  -8.6953    180.7652      5.5150   4.9544196372e+01   3.9358325696e+01    0.3409125    0.1853097   6.83  0.001349047    2.694    0.629
        14  -8.8380    113.3398      3.3183   6.0969044558e+01   5.6243860129e+01    0.1476099   0.08870994  26.96 0.0007049292    1.710    0.415
        15 -11.2516    249.1738      4.5968   4.1877764040e+01   2.1892765211e+01    0.2217658    0.1995227 -55.47 0.0002583977    1.057    0.054
        16  -7.9957    178.9767      1.2346   4.8416027137e+01   4.0234166359e+01    0.1782005    0.1114848  69.33 0.0002197666    1.495    0.331
        17 -14.2071    248.5263     56.6610   5.5196627849e+01   1.5632900994e+01    0.5669227    0.4299736 -35.25  0.001226457    1.219    0.180
        18  -9.5504    244.9997    244.0807   9.5459654192e+01  -8.2358906576e+00    0.1672814    0.1186154  28.09 0.0003479585    1.025    0.024
        19  -8.1198    213.1571    164.1830   8.7022082024e+01   7.0354241825e+00    0.1696562    0.1565329  65.25 0.0002471353    1.278    0.218
        20 -10.6333     38.0267    157.5405   1.2158379616e+02   3.8074478101e+01    0.3924374    0.1690463  84.24  0.001801714    2.916    0.657
        21  -8.4588     88.8728    154.6221   1.1061638768e+02   3.2262769643e+01    0.1659283    0.1403445  66.95 0.0004404403    1.115    0.103
        22 -11.2147     49.9774    151.7018   1.1851516525e+02   3.7988010990e+01     0.283861    0.2699018 -52.76 0.0008988289    1.461    0.315
        23 -13.2639     62.1358    145.7055   1.1517150779e+02   3.7814987603e+01     1.262464     1.041129  17.89  0.005328539    1.807    0.446
        24 -10.1349    138.8495    230.5445   1.1094258918e+02   1.0595557606e+01    0.1891555    0.1672023  74.51  0.000326786    1.197    0.164
        25  -9.9191    177.9944    141.0054   8.8934761957e+01   1.8320320001e+01    0.3593548    0.2753561  85.86 0.0005448079    1.769    0.435
        26 -10.8986    189.0220    138.5881   8.6172547302e+01   1.6358533813e+01    0.5083099    0.3401571  44.05  0.001721711    1.430    0.301
        27 -14.9005    247.8432     68.8856   5.8439894862e+01   1.4068376805e+01     2.670847     1.373864  47.82  0.009032279    2.090    0.522
        28  -8.3684     11.3026    219.3188   1.3042738076e+02   2.9170431231e+01    0.0815963   0.06477947 -76.03 0.0004613202    1.625    0.385
        29  -8.5618    191.8799    132.0680   8.4116644430e+01   1.6885604901e+01    0.2150487    0.1988015 -78.62 0.0003959595    1.232    0.188
        30  -9.1933    160.4522    128.1269   8.9744690361e+01   2.4559425324e+01    0.3277667    0.2504264 -63.00  0.001610107    1.480    0.324
        31 -10.0862    208.9386    126.3022   7.9456720954e+01   1.4056057675e+01    0.3808683    0.2770849  21.08  0.001084853    1.591    0.371
        32 -10.6357    183.2294    122.7625   8.3661972071e+01   2.0519615962e+01      0.81043    0.2876405  43.47  0.002668902    2.914    0.657
        33 -10.1019    185.7679    119.9734   8.2465438265e+01   2.0452496889e+01     0.358857    0.3353548  86.01  0.001234847    1.173    0.148
        34 -10.5528    162.6222    120.4094   8.7459488590e+01   2.5597641777e+01    0.4492903    0.3073913 -65.22  0.001414128    1.870    0.465
        35  -9.0067    191.9209    144.0558   8.6810032433e+01   1.4766946572e+01    0.2101933    0.2024827  36.20 0.0004315923    1.035    0.034
        36 -11.9302    215.5074    115.9965   7.5736130609e+01   1.4289455743e+01     1.846998    0.5238561  55.71  0.005221221    4.263    0.765
        37 -10.7095    209.9863    112.4456   7.5869888464e+01   1.6162900453e+01    0.6001241    0.2952903 -41.03  0.002378205    2.052    0.513
        38 -11.0679    206.3560    109.7044   7.5857266748e+01   1.7480347519e+01    0.6326492     0.364559  38.72    0.0023983    1.866    0.464
        39  -9.2936    227.0257    115.5381   7.3568190487e+01   1.1741356808e+01    0.2750301    0.1946386 -47.92 0.0007279149    1.571    0.364
        40 -10.2440    167.8914    114.0341   8.4750611024e+01   2.5656884835e+01    0.4646958    0.3817295 -15.54  0.001407486    1.413    0.292
        41  -9.1604      7.3309    116.3140   1.2404743640e+02   4.9383635787e+01    0.1083467   0.06606287 -53.42 0.0005925774    1.678    0.404
        42  -9.2470    133.4318    100.6240   8.9251425340e+01   3.5885277568e+01    0.5242474    0.2742985 -65.62  0.001723169    3.482    0.713
        43  -8.9281    135.0000    111.9682   9.1719365444e+01   3.3208485936e+01     0.395517    0.1821015 -46.01  0.001170651    2.137    0.532
        44  -8.9517    134.7541    107.5224   9.0686341659e+01   3.4183341164e+01    0.5469642    0.2056802 -54.34  0.001732623    3.364    0.703
        45  -8.3174    127.7085    105.0013   9.1767342169e+01   3.6139517213e+01    0.2167731     0.194375 -57.87  0.001180294    1.080    0.074
        46 -11.4429    202.2107    101.4920   7.4521632689e+01   1.9881372186e+01    0.6652267    0.4899794  79.53  0.001399918    1.804    0.446
        47  -9.6419    165.5940    100.5296   8.1761813134e+01   2.8787322536e+01    0.3188016    0.2699975   2.67 0.0006379561    1.387    0.279
        48 -11.1390    168.1420     92.7787   7.9095314347e+01   2.9659926919e+01    0.6008271     0.566667  33.84  0.001618552    1.074    0.069
        49  -9.5027    154.5282     99.6729   8.4012795391e+01   3.1494344880e+01    0.4127632    0.2790304  37.76  0.001850358    1.603    0.376
        50  -8.0462    128.2924     99.2674   9.0162684260e+01   3.7219955983e+01    0.1398204    0.1171142  -0.53 0.0006914617    1.508    0.337
        51  -8.6011    145.7083    104.0799   8.7213664313e+01   3.2570257353e+01    0.2110526    0.1917601 -38.77 0.0004751207    1.106    0.096
        52  -9.3532    138.7782     94.5505   8.6337591566e+01   3.5996528753e+01    0.3227503    0.2464746  68.23 0.0008351861    1.533    0.348
        53  -9.9328    151.9112     91.2689   8.2319854967e+01   3.3735508280e+01    0.2769679    0.2340145 -46.47   0.00037079    1.176    0.149
        54  -9.7393    224.9322    214.6688   9.4140589652e+01  -1.9549875506e+00    0.2127934    0.1662884  42.08 0.0004047556    1.203    0.169
        55  -8.4851    209.5219     88.5300   6.9715560945e+01   2.0302804466e+01    0.1514974    0.1481311 -31.36 6.535627e-05    1.030    0.029
        56 -10.2166    211.4078     96.7580   7.1571692138e+01   1.8472040753e+01      0.54536    0.3185726 -66.92  0.001625402    3.281    0.695
        57  -8.7126     89.3184    169.9921   1.1265614499e+02   2.9039354304e+01    0.1630709    0.1345714 -84.57 0.0002454546    1.105    0.095
        58 -10.0015    174.7893     89.7112   7.6816798501e+01   2.8632720917e+01    0.2899623    0.2623782  28.82 0.0003039963    1.144    0.126
        59  -8.8076    213.5267    168.4049   8.7802681945e+01   6.3235652341e+00    0.2242294    0.1865573  43.48  0.000334658    1.148    0.129
        60  -8.8161    108.9836     80.9287   9.0187883092e+01   4.4779872343e+01    0.2101905    0.1950639 -45.41            0    1.008    0.008
        61 -10.5440    140.3618     63.2297   7.6647282810e+01   4.1643062931e+01    0.3041601    0.2781485  -7.96  0.001080831    1.107    0.097
        62 -10.8981    123.5560     59.7691   7.9751151830e+01   4.5979881601e+01    0.4734753    0.3391023 -71.55            0    2.085    0.520
        63 -10.1332    202.9300    166.3340   8.9344470613e+01   8.7685665922e+00    0.2473805    0.2179425  47.23 0.0003292915    1.124    0.110
        64 -10.5478    181.9525     46.7617   6.2531267832e+01   3.3990232640e+01    0.4686371    0.2968441   0.25  0.001219167    2.260    0.558
        65 -10.1708    177.0000     48.9568   6.4140565644e+01   3.4951712983e+01    0.3538415    0.2282479 -23.54  0.001546313    1.641    0.390
        66  -9.1423    134.4884     56.4773   7.5871501763e+01   4.4164592357e+01    0.1485275    0.1424619 -11.15 -8.414462e-05    1.006    0.006
        67 -12.5836    146.6875     42.8154   6.8341563270e+01   4.3515556590e+01     1.104585    0.6972892  85.83  0.004273079    2.717    0.632
        68 -11.7157    139.6248     44.0295   7.0379026388e+01   4.5019218592e+01    0.4780764    0.4652766  -3.09  0.002708791    1.040    0.038
        69 -11.1389    133.8678     41.6729   7.0917937670e+01   4.6725772466e+01    0.6185419    0.3044536  40.28  0.002456349    2.187    0.543
        70  -8.3889    182.3720     41.7475   6.0878397051e+01   3.4601120991e+01    0.2036024    0.1462719 -15.09 0.0006354676    1.540    0.351
        71 -10.2873     10.1653    206.5347   1.2997960196e+02   3.1472394933e+01    0.2139779    0.1061931  71.88  0.001510326    1.514    0.340
        72 -11.1072    159.4297     34.1062   6.2661346212e+01   4.1596940986e+01    0.6368113    0.2825235 -25.36  0.001670198    2.380    0.580
        73 -10.6866    154.6733     35.5298   6.4110443291e+01   4.2601740648e+01     0.393003     0.256926   1.98 0.0007857599    2.001    0.500
        74 -10.1624    122.0890     36.1902   7.1853939194e+01   5.0211285129e+01    0.2681395    0.2125342 -40.87  0.001415883    1.320    0.243
        75  -8.2774    172.4698     34.4477   6.0302832947e+01   3.8193169663e+01    0.1476791    0.1450195  61.17 4.544153e-05    1.027    0.026
        76 -10.6018    144.7665     30.1534   6.4303989721e+01   4.5789383440e+01    0.4299786    0.2055662 -14.83  0.001555068    2.786    0.641
        77  -9.5991    133.5166     31.2916   6.7240971475e+01   4.8325866173e+01      0.26794     0.133957 -33.19  0.000766571    1.956    0.489
        78  -8.5169    247.9614    201.6763   8.8119023202e+01  -4.3828546377e+00    0.1699751    0.1281932  29.81 0.0004436449    1.101    0.092
        79 -10.5392    150.2389     27.0119   6.2036888093e+01   4.4849287999e+01    0.4863647    0.1340903  48.28  0.001509738    3.357    0.702
        80  -8.7917    197.8835     25.6259   5.3392445235e+01   3.2619674865e+01    0.2508164    0.2013928  -5.05 0.0006280112    1.408    0.290
        81  -9.0570    159.7782     23.7822   5.9044761205e+01   4.2840462168e+01    0.3515021     0.232676 -76.59  0.001506889    2.174    0.540
        82  -9.4375    191.4743    192.3413   9.6255018014e+01   7.0256148623e+00    0.4605097    0.2446351 -63.67  0.001678448    4.719    0.788
        83  -8.5522    191.0735     16.0102   5.1413887933e+01   3.5540198319e+01    0.2405059    0.1637911 -66.92 0.0008628492    1.712    0.416
        84  -9.2929    245.6507    183.3053   8.5113825691e+01  -1.8049930418e+00    0.2494457    0.2166836 -79.23  0.001085395    1.931    0.482
        85 -10.0748    233.7075    178.5602   8.6224194332e+01   9.8948852213e-01    0.2586877    0.2161484  50.69 0.0007845124    1.354    0.262
        86 -12.7979     23.0842    164.3405   1.2509254213e+02   3.8174671532e+01    0.7704623    0.5942916  88.16  0.003876166    1.094    0.086
        87  -9.8548    143.5203     21.5171   6.1435489601e+01   4.7196604162e+01    0.2603143     0.144597  74.50  0.001036396    2.419    0.587
        88 -11.9812      9.8803    174.4133   1.2821284638e+02   3.7395854517e+01    0.8828318    0.3657009  62.64  0.005273914    2.137    0.532
        89 -12.6811      6.8480    158.5247   1.2770644750e+02   4.0749025019e+01     1.123307    0.4818594  88.51  0.006507219    1.988    0.497
        90  -9.0572      3.4101    248.1872   1.3269279533e+02   2.5313591101e+01    0.1249782   0.05627108  81.04 0.0006460914    1.643    0.391
        91 -14.4888    238.4372     43.4821   5.3019268496e+01   1.9871426596e+01     0.810712     0.726762  -3.46  0.002186784    1.227    0.185
