#   1 NUMBER                 Running object number                                     
#   2 MAG_AUTO               Kron-like elliptical aperture magnitude                    [mag]
#   3 X_IMAGE                Object position along x                                    [pixel]
#   4 Y_IMAGE                Object position along y                                    [pixel]
#   5 X_WORLD                Barycenter position along world x axis                     [deg]
#   6 Y_WORLD                Barycenter position along world y axis                     [deg]
#   7 A_WORLD                Profile RMS along major axis (world units)                 [deg]
#   8 B_WORLD                Profile RMS along minor axis (world units)                 [deg]
#   9 THETA_WORLD            Position angle (CCW/world-x)                               [deg]
#  10 FWHM_WORLD             FWHM assuming a gaussian core                              [deg]
#  11 ELONGATION             A_IMAGE/B_IMAGE                                           
#  12 ELLIPTICITY            1 - B_IMAGE/A_IMAGE                                       
         1 -13.2572    236.8251     26.3197   3.4815082059e+02   2.6547270565e+01    0.7719556    0.5752743 -48.46  0.003995261    1.096    0.087
         2 -10.2641    249.7565     10.9939   3.4454480782e+02   2.6034524781e+01    0.1546013   0.09956914 -47.87 0.0004889274    1.096    0.088
         3 -10.2413     16.7179     11.2206   3.0607703816e+01   7.5902928391e+01    0.2838416    0.1518994  48.15 0.0008925335    2.310    0.567
         4  -8.7204    113.6971    241.6942   5.0333875483e+01   9.3590387442e+00     0.121883   0.08393762  -9.81 0.0003352434    1.599    0.374
         5 -10.6250    100.9231    247.3728   5.3745835002e+01   9.7786731189e+00    0.4715202    0.2559433 -72.83  0.002415046    2.838    0.648
         6 -10.3871     76.0537    245.4393   5.9131588902e+01   1.2814592674e+01    0.3322348    0.1851598 -55.11 0.0008712374    2.071    0.517
         7 -15.5308     69.1172    144.6087   4.8644637084e+01   3.6907813347e+01     10.05469     5.289869  70.44   0.03217728    3.536    0.717
         8  -9.7972    175.4771    179.4771   2.7994842691e+01   1.2811144421e+01    0.2436413    0.1579037  32.96  0.001114529    1.629    0.386
         9 -11.1036    171.7200    175.1103   2.7940596054e+01   1.4127114787e+01    0.4022169    0.3247165  20.14  0.001064318    1.261    0.207
        10 -10.4211    173.3981    171.1811   2.6887341897e+01   1.4607248731e+01    0.3048231    0.2547397 -88.50  0.001211285    1.917    0.478
        11 -18.4111      5.7248    219.8150   7.4182666300e+01   2.4822503223e+01     6.745985     4.473198 -84.37   0.02084461    1.546    0.353
        12 -10.2302    192.2612    193.8971   2.7366592565e+01   8.1730051869e+00    0.4852639     0.266387 -61.85  0.001806327    5.181    0.807
        13 -11.7226    159.5669    223.9956   3.8350299149e+01   7.1200872071e+00    0.3893385    0.2631894 -26.97  0.002390809    1.406    0.289
        14 -10.5547    110.9821    167.2153   4.0427144923e+01   2.4942383063e+01    0.3818218    0.2496328 -72.51  0.001306839    2.017    0.504
        15 -10.9389    104.4225    171.2169   4.2857822039e+01   2.5014751528e+01    0.3842513    0.2953854 -72.82  0.001206491    1.517    0.341
        16  -9.4530     71.6943    226.6971   5.8472076541e+01   1.6950729643e+01    0.2035441    0.1928682  -2.10 0.0003988231    1.149    0.130
        17  -9.1495     74.2277    193.9092   5.4319358408e+01   2.3846715071e+01     0.180595    0.1704572 -69.31 0.0004453796    1.130    0.115
        18  -9.7322     71.7325    223.6408   5.8172916499e+01   1.7576882022e+01    0.2251483    0.1714306 -42.02  0.000643777    1.510    0.338
        19 -10.8059    134.2679    148.3956   3.0905756217e+01   2.5374623261e+01    0.6736172    0.2420668 -53.56   0.00226828    3.061    0.673
        20 -10.5725    133.0000    141.4523   2.9748217025e+01   2.7113018924e+01    0.6136385     0.199444 -53.04  0.001925087    3.409    0.707
        21 -10.5439     80.8731    150.0668   4.5904899286e+01   3.3756354148e+01    0.2603539    0.2357631 -42.81 0.0003209089    1.131    0.116
        22  -9.2637    194.3443    225.1615   3.1942605429e+01   3.1102293145e+00     0.154967    0.1215589 -18.88 0.0007632099    1.133    0.118
        23 -11.6058     87.9743    144.2137   4.2648854226e+01   3.4144069158e+01    0.7328309    0.4794966 -34.62  0.003189089    1.796    0.443
        24 -10.8976     32.4520    144.0082   6.0962787275e+01   4.1580865706e+01    0.4849742     0.343316   7.80  0.002339361    1.634    0.388
        25  -9.2304    147.5000    142.4796   2.6589469886e+01   2.4354697721e+01    0.1435193    0.1319249 -27.97 0.0001056259    1.023    0.023
        26 -10.3973    102.8850    237.9970   5.2327156878e+01   1.1236493187e+01    0.2749843    0.1692291 -51.73  0.000566171    1.832    0.454
        27 -10.8124    102.6511    132.6430   3.5888398873e+01   3.4544608794e+01    0.5687435    0.3516352 -30.16  0.002302284    2.110    0.526
        28 -11.6064     89.4675    131.8284   3.9667232777e+01   3.7028751972e+01    0.2978958    0.2763427 -37.03 0.0004268086    1.102    0.092
        29 -10.9220     43.0380    130.1334   5.5217095907e+01   4.4263861637e+01    0.4909564    0.3001728  55.04  0.002081939    1.799    0.444
        30  -9.9436     22.6681    129.2026   6.2696769329e+01   4.6618024441e+01    0.2409418    0.1900634  39.05 0.0005998284    1.284    0.221
        31  -9.7037    162.4365    127.1428   2.0056733592e+01   2.4803632989e+01    0.4202623    0.2411884 -59.82  0.001793579    2.253    0.556
        32 -10.1674    135.8628    129.0562   2.6304771151e+01   2.9295575364e+01    0.3629451   0.09589684 -47.36  0.001068899    3.588    0.721
        33 -10.1372    111.6016    126.0685   3.1858418821e+01   3.4492188762e+01    0.3547969    0.2891344   3.97 0.0008998764    1.503    0.335
        34  -8.5817    234.4817    191.4472   2.0090929103e+01   3.7573839909e+00    0.1120688    0.0832758 -21.02 0.0001040997    1.020    0.019
        35 -10.4364     75.0751    121.5455   4.2112276839e+01   4.2058664066e+01    0.5011007    0.3766858  67.09    0.0023055    1.567    0.362
        36 -10.8071    116.5526    121.9427   2.9530184860e+01   3.4519252152e+01    0.2949309    0.2220791  17.41  0.001356471    1.656    0.396
        37 -10.5325     98.6543    121.0510   3.4419398986e+01   3.8080010015e+01    0.4282618    0.3093376 -11.18  0.001567651    1.997    0.499
        38  -8.9718     70.0826    185.3270   5.4396905701e+01   2.6405564295e+01    0.1978209    0.1744702  41.74 0.0006348871    1.068    0.064
        39  -9.7864     26.5523    120.6460   6.0057105780e+01   4.8656643890e+01    0.3807637    0.2753657  57.48  0.001444274    1.447    0.309
        40 -11.5713    143.3118    227.2764   4.2156832288e+01   8.4582243349e+00    0.2867131     0.156841  21.32  0.001533617    1.671    0.402
        41 -10.6946    105.9164    214.1582   4.8812640059e+01   1.5451018174e+01    0.3818927    0.1962803 -57.53   0.00115642    2.158    0.537
        42 -10.6063    123.0453    116.0918   2.6392857607e+01   3.4586103900e+01    0.2301765    0.2240237 -55.63 0.0004896143    1.018    0.017
        43  -9.9053    107.6208    115.9973   3.0559908268e+01   3.7602751227e+01    0.2634227    0.2219174  52.35 0.0003630637    1.238    0.193
        44  -9.0649     80.9509    214.7116   5.4978962345e+01   1.8388159794e+01    0.1831601    0.1513652  32.30 0.0003781948    1.078    0.072
        45 -16.1661      4.7296    244.1791   7.5221207723e+01   1.9810647098e+01     1.273506    0.3926285  44.15   0.00614004    2.230    0.552
        46  -9.4876     59.7198    181.3188   5.6847975107e+01   2.8665267610e+01    0.3233102    0.1849447  31.54   0.00148526    1.619    0.382
        47 -11.6173    115.1656    109.3211   2.6765222413e+01   3.7656061389e+01    0.4512362    0.3206376  51.54  0.001714335    1.491    0.329
        48 -11.4085    115.8240    100.7537   2.4319257661e+01   3.9418765650e+01     0.401412    0.2685893  23.21  0.001688927    2.112    0.526
        49 -10.9705     37.7904    102.3845   5.2249860460e+01   5.2514814506e+01    0.4590887     0.313071  33.20   0.00197146    1.496    0.331
        50  -9.3559     95.3041    101.8178   3.0567101540e+01   4.3318249397e+01    0.2419454    0.2029534  58.85 0.0004694523    1.260    0.206
        51 -11.0613     61.6783    101.0671   4.2166389319e+01   4.9537664914e+01    0.4026842    0.2618169  43.96  0.001781574    1.585    0.369
        52 -10.7554     61.1852     97.3230   4.1403151418e+01   5.0578014080e+01    0.5394189    0.2274504  50.69   0.00172964    3.202    0.688
        53 -11.0031     58.8676     93.4331   4.1302707765e+01   5.1939797294e+01    0.5415952    0.3984914 -30.02  0.002514953    1.567    0.362
        54 -10.9248    179.6844    166.3733   2.4778375951e+01   1.4574003460e+01    0.7318999    0.4220901 -39.17  0.003803732    1.539    0.350
        55 -10.0923    134.4594    104.7752   2.0713222797e+01   3.4726265255e+01    0.4306324    0.1322332 -49.51  0.001304684    3.425    0.708
        56  -9.2892    102.8834     92.1296   2.5543969261e+01   4.3992335449e+01    0.4227364    0.2612647  86.75  0.001392954    3.550    0.718
        57 -10.9046     15.3749     89.5900   5.9995161973e+01   5.8205713173e+01    0.4650862    0.2064537  35.67  0.001881829    2.302    0.566
        58  -8.4933    160.3103     87.6695   1.0919424190e+01   3.2661133707e+01    0.1466339    0.1023862 -68.72 0.0003575601    1.668    0.401
        59  -9.1538     74.6906     82.0339   3.1832809349e+01   5.1928539590e+01    0.2889713    0.2070915  66.59  0.001286623    1.761    0.432
        60  -8.5171    124.3132    214.3165   4.4539715427e+01   1.3111218238e+01    0.1336926   0.09175917 -12.92 0.0004199377    1.643    0.391
        61 -10.0479    184.1199     77.1443   4.4867105547e+00   2.9583972928e+01    0.1928171     0.179351 -21.99 0.0008550782    1.256    0.204
        62  -8.5610    165.0000    210.9263   3.5313018881e+01   8.6630792124e+00    0.1873799   0.06562649 -46.59 0.0007880202    2.843    0.648
        63  -9.6793     71.9245    232.9279   5.8989675264e+01   1.5667408154e+01     0.276115    0.1502095  31.23  0.001211128    1.521    0.343
        64 -12.7281    188.1973     64.3041   8.2058741875e-01   3.0737449707e+01     1.315264    0.8762568  30.45  0.004979875    2.551    0.608
        65 -13.4705    205.0684     52.6582   3.5621081540e+02   2.9071965777e+01    0.8683916    0.8066437 -36.63  0.004427185    1.281    0.219
        66 -12.7584    211.1311     47.8744   3.5456405869e+02   2.8555962503e+01    0.5389188    0.4174314 -54.75  0.001137007    1.018    0.018
        67  -8.6343    132.5140     68.5269   1.0991442124e+01   4.2130661462e+01    0.1474766    0.1316278 -71.63 3.612528e-05    1.072    0.067
        68 -10.4129     35.8339     52.7738   3.9152561698e+01   6.5180792919e+01    0.2423994    0.2321429  58.97 0.0004618918    1.172    0.147
        69 -10.7385     69.2651    243.6686   6.0531452774e+01   1.3865449633e+01    0.3470643    0.2208018 -46.70  0.002017525    1.879    0.468
        70  -9.8429    210.9054    198.8317   2.4977146274e+01   5.2290785731e+00    0.1935994    0.1473063 -17.25  0.000459536    1.020    0.020
        71  -9.6710     61.1030     21.5510   1.2508791996e+01   6.6002206494e+01    0.2400354    0.2033713 -87.46  0.001385001    1.409    0.290
        72  -8.5781    189.4920     15.4360   3.4867598514e+02   3.6704119469e+01    0.1209465   0.09535523 -63.03 0.0002045162    1.009    0.009
        73  -9.1825    125.0000    243.5740   4.8106623487e+01   7.7780624812e+00    0.2265013   0.06824051 -54.72 0.0009249839    3.856    0.741
