#   1 NUMBER                 Running object number                                     
#   2 MAG_AUTO               Kron-like elliptical aperture magnitude                    [mag]
#   3 X_IMAGE                Object position along x                                    [pixel]
#   4 Y_IMAGE                Object position along y                                    [pixel]
#   5 X_WORLD                Barycenter position along world x axis                     [deg]
#   6 Y_WORLD                Barycenter position along world y axis                     [deg]
#   7 A_WORLD                Profile RMS along major axis (world units)                 [deg]
#   8 B_WORLD                Profile RMS along minor axis (world units)                 [deg]
#   9 THETA_WORLD            Position angle (CCW/world-x)                               [deg]
#  10 FWHM_WORLD             FWHM assuming a gaussian core                              [deg]
#  11 ELONGATION             A_IMAGE/B_IMAGE                                           
#  12 ELLIPTICITY            1 - B_IMAGE/A_IMAGE                                       
         1 -12.0418    183.8714     38.6816   5.8887257197e+01   3.4624186812e+01     1.274648     1.065438  19.29  0.004645507    1.324    0.245
         2 -11.3878    203.1764      8.4832   4.6890872854e+01   3.3143067163e+01    0.9966054    0.5603645 -77.46  0.004197137    2.251    0.556
         3 -11.3196    206.5853      3.3288   4.5012547277e+01   3.2772469978e+01     1.071742    0.6846998 -80.74  0.004642101    1.716    0.417
         4  -7.4590    143.3730     11.1926   5.6924229713e+01   4.8365473913e+01    0.1813034    0.1280949 -32.21 0.0001620696    1.483    0.326
         5  -8.6536    120.1103      8.7205   6.0879648067e+01   5.4143774117e+01    0.3072479    0.2373122  40.27  0.001264805    1.189    0.159
         6  -7.8674      8.3340      8.6582   1.0086567237e+02   7.1019641986e+01   0.09352937   0.08069706 -73.63 0.0001735962    1.756    0.431
         7  -7.4604    145.0000      4.9628   5.4325684994e+01   4.8584024982e+01    0.2236252   0.07947066 -20.90 0.0008057649    2.966    0.663
         8  -8.0312      2.9481      6.0000   1.0239105046e+02   7.1797973285e+01    0.1410501   0.05749094  18.40 0.0008080759    2.982    0.665
         9  -8.7863      6.9976      2.9989   9.9177269387e+01   7.2036041292e+01    0.1341957   0.09381518 -33.95  0.001006693    1.011    0.011
        10  -9.2497     96.4018    189.4866   1.1313203464e+02   2.4137281446e+01    0.5159491    0.2656189 -89.59  0.002329123    2.915    0.657
        11 -10.4811    139.6040    248.9159   1.1221002799e+02   7.7581167373e+00    0.5387002    0.3566671  66.90  0.003697539    1.498    0.332
        12 -13.0392     10.5709    207.8048   1.2957633159e+02   3.1150412462e+01     2.581954    0.7314048  38.14   0.01406619    3.452    0.710
        13 -13.5668     57.7153    242.2931   1.2439008999e+02   2.0243219844e+01    0.2944567    0.2026226  83.30  0.001003865    1.222    0.182
        14 -17.6286     28.0207    246.1027   1.2889014496e+02   2.3044314135e+01     3.806782     2.962065  82.90   0.01390051    1.353    0.261
        15 -10.4658    100.8110    201.4301   1.1370090979e+02   2.1265268512e+01    0.6904774    0.3410689 -82.90  0.003194239    3.000    0.667
        16  -9.7332    117.8171    198.2807   1.1018151826e+02   1.9149769107e+01    0.3096657    0.2075146  85.72  0.001174023    1.701    0.412
        17  -7.2264     10.9845    199.5709   1.2908216552e+02   3.2577405134e+01    0.1211086   0.08532473  76.05  0.000984184    1.064    0.060
        18  -8.0648     19.5508    198.9159   1.2766087778e+02   3.1880141735e+01    0.1346262   0.07653558 -86.38 0.0004513451    1.380    0.275
        19  -9.0753    192.5812    194.5284   9.5685542353e+01   6.4011378609e+00    0.5126657    0.2454417 -59.59  0.001766186    5.217    0.808
        20  -8.1783    111.2646    198.4297   1.1142036411e+02   2.0178499677e+01    0.1775549   0.09537282  54.48 0.0009489822    1.629    0.386
        21  -8.7217     81.3381    195.1260   1.1658278640e+02   2.5268916505e+01    0.2942627    0.1883154 -81.47  0.001397865    1.499    0.333
        22  -8.3418    155.2080    189.9370   1.0191622192e+02   1.4101916067e+01    0.2451514    0.1307959 -64.34 0.0008279052    2.770    0.639
        23  -9.4289    132.7450    191.4903   1.0644523192e+02   1.7848106195e+01    0.3508752    0.2283012  86.29  0.001395747    2.058    0.514
        24  -8.7880    108.6225    191.2414   1.1102124301e+02   2.1910834466e+01    0.2666431    0.1752899  73.76 0.0008943808    1.565    0.361
        25 -11.2059     75.6887    185.0409   1.1656531831e+02   2.7973180878e+01    0.6977063    0.5769058 -72.88  0.003971264    1.296    0.228
        26  -9.1379     69.0002    174.5410   1.1670460262e+02   3.0944214322e+01    0.4885285    0.2564841  71.45  0.002400889    2.105    0.525
        27  -7.8851     25.0093    190.5897   1.2622231118e+02   3.2878939922e+01    0.1333989    0.0906291  47.76 0.0008461811    1.535    0.348
        28 -10.0297    244.4254    185.7690   8.4979322732e+01  -1.9651994745e+00    0.3296663    0.2895541 -65.15  0.001401114    1.789    0.441
        29  -8.2580     15.2377    188.2415   1.2773202251e+02   3.4263388076e+01    0.1386464   0.09904267  82.10 0.0005504017    1.042    0.040
        30  -7.5968    157.4171    183.7496   1.0049794506e+02   1.4752108210e+01    0.1616555    0.1282271 -34.53 0.0003710649    1.544    0.352
        31  -9.1207     17.6361    184.1517   1.2706393998e+02   3.4809586869e+01    0.2261605    0.1353866  32.28 0.0007532512    2.247    0.555
        32  -9.3624    232.6447    180.7035   8.6018563360e+01   8.3130638278e-01    0.3097168    0.2338579  47.28 0.0009236765    1.362    0.266
        33  -9.2097    233.3187    175.9350   8.4974887112e+01   1.3482320252e+00    0.2598032    0.2101995  22.89  0.000186868    1.084    0.078
        34  -9.6714    233.5061    171.0337   8.3970066766e+01   1.9849900457e+00    0.2648977    0.2285768  58.60 0.0003249301    1.434    0.302
        35  -8.1807    222.8441    179.8437   8.7569545666e+01   2.7892674874e+00    0.1729495      0.14955  52.16 0.0006782966    1.306    0.234
        36  -7.8261     14.4836    179.7307   1.2732461298e+02   3.5943823985e+01    0.1460024    0.0855688  38.40  0.001012158    1.973    0.493
        37  -7.9860    204.5309    177.0152   9.0341321159e+01   6.7357172421e+00    0.1907797    0.1329904 -34.96 0.0009017702    1.580    0.367
        38  -9.3321     96.6252    197.2953   1.1400120943e+02   2.2648923848e+01    0.3536088    0.1844078  65.22  0.001443315    2.014    0.503
        39  -8.4711     30.0619    175.6717   1.2423890560e+02   3.5236274390e+01    0.3077768    0.1567024  28.29  0.001747395    2.948    0.661
        40 -10.6219     34.0076    171.4049   1.2315363596e+02   3.5677659657e+01    0.3028334    0.2017987  73.76 0.0005798754    1.231    0.188
        41 -11.2637     86.3169    170.5134   1.1275400467e+02   2.9355634910e+01    0.5667043    0.5231553  31.07  0.002418953    1.467    0.318
        42  -8.6331    104.8436    173.0831   1.0933379295e+02   2.5999408578e+01    0.2343766    0.1724109  53.16  0.001102531    1.250    0.200
        43  -8.0908    242.8517    170.8324   8.2324104077e+01   2.4973547404e-01    0.1585677    0.1515357  32.18 0.0002811075    1.270    0.213
        44  -8.4687    154.1281    170.9763   9.8977712837e+01   1.7646418763e+01    0.1958426    0.1791293  56.18 0.0003382504    1.021    0.020
        45 -10.2517    201.5416    168.3066   8.9212597549e+01   8.6783910601e+00    0.2581367    0.2257707  45.23 0.0002908157    1.109    0.098
        46  -8.2593    110.7437    169.0469   1.0753747803e+02   2.5838720320e+01    0.1815204    0.1588485  86.66 0.0005872081    1.056    0.053
        47  -9.3175     71.4846    167.9970   1.1545303173e+02   3.1941486564e+01    0.4510005    0.1557547  50.29  0.001957319    2.782    0.641
        48  -8.0750     31.3486    166.1565   1.2321019803e+02   3.7000965014e+01    0.1593774    0.1379633  55.86 0.0005416743    1.389    0.280
        49  -8.4560      1.7780    163.5392   1.2855311188e+02   4.0158392502e+01    0.1901662    0.1089478 -73.78 0.0009811948    1.434    0.303
        50  -9.9738     88.2459    201.7903   1.1602190311e+02   2.3059224342e+01    0.3242936    0.2291923  55.96 0.0008712235    1.204    0.169
        51  -8.8696     94.6485    159.6716   1.0951984158e+02   3.0328969571e+01    0.2220675    0.1826046  82.78 0.0003797221    1.085    0.079
        52  -9.6641    246.5686    203.6882   8.7907418215e+01  -4.4732370807e+00    0.2608763    0.1808515  36.56 0.0003847535    1.244    0.196
        53  -8.5748    117.4331    154.7357   1.0382572853e+02   2.7597406170e+01    0.2810343    0.1946984  77.26 0.0007516782    1.670    0.401
        54 -10.1170     99.9334    153.0472   1.0736151446e+02   3.0882048366e+01    0.5097263    0.4385292 -34.24    0.0022954    1.545    0.353
        55  -8.5056    135.3293    152.1561   9.9486727018e+01   2.4857238187e+01    0.4459121    0.1969535 -57.29  0.001765694    2.592    0.614
        56  -8.9240    133.8268    146.4232   9.8725697560e+01   2.6302294233e+01    0.3935961    0.1752213 -57.72  0.001511506    2.589    0.614
        57  -7.1455    154.6505    152.3421   9.5397226916e+01   2.1038960239e+01    0.1492507     0.109212  83.56 0.0002625016    1.801    0.445
        58  -8.7032    221.2496    151.1230   8.2001845306e+01   7.3430492960e+00    0.2247698    0.1892882  46.16 0.0002748588    1.202    0.168
        59  -7.9401    149.3570    148.0733   9.5674860460e+01   2.2931903220e+01    0.1915064     0.177838 -75.61 0.0003594372    1.100    0.091
        60  -9.4196    104.6910    146.8400   1.0528168981e+02   3.1417679651e+01    0.3635353    0.2129388  71.40  0.001220174    2.292    0.564
        61  -7.5879    154.2361    143.4175   9.3675968137e+01   2.2856013115e+01    0.1418544    0.1121234 -13.46 0.0006899664    1.706    0.414
        62  -8.0130    124.4629    142.2204   9.9997932935e+01   2.8926759119e+01    0.2978557    0.2034266 -18.98  0.001220199    2.722    0.633
        63  -9.9381     27.8760    152.3684   1.2265763827e+02   4.0158711476e+01    0.2551029    0.1685182  63.99  0.001740638    1.394    0.283
        64  -9.9938     98.7036    138.8442   1.0525260947e+02   3.4107147159e+01     0.269502    0.2321091 -51.90 0.0005979302    1.257    0.205
        65  -9.5250    109.7743    138.6235   1.0265893092e+02   3.2309333532e+01    0.4786044    0.3498783  -6.09  0.002208961    2.607    0.616
        66  -8.5508     40.6491    137.3159   1.1833143050e+02   4.2079376693e+01    0.1251937   0.07456509  73.77 0.0004828752    1.732    0.423
        67  -9.0920    106.3518    132.3322   1.0226468348e+02   3.4248335152e+01    0.4088946    0.2369011  74.48    0.0011502    2.787    0.641
        68  -8.4591    116.4672    129.9825   9.9413916610e+01   3.2978724758e+01    0.2491139    0.2024695  24.44 0.0008158502    1.545    0.353
        69  -8.8775    104.2882    125.9987   1.0151349629e+02   3.5973651815e+01    0.2429382    0.2142702 -38.58 0.0005630691    1.295    0.228
        70  -9.8876     25.8432    126.4766   1.2041085828e+02   4.5817398022e+01    0.2384468    0.1109817 -58.53  0.001323279    1.870    0.465
        71  -7.4008    239.3026    126.2725   7.3211146687e+01   7.3721122866e+00     0.142849    0.1038844  15.32 0.0002113049    1.535    0.349
        72  -7.2789    177.5368    125.5482   8.4710553635e+01   2.1277075042e+01    0.1481201    0.1445561  53.34 3.438898e-06    1.026    0.025
        73 -10.2716     30.8745    109.1749   1.1697248525e+02   4.9132512146e+01    0.2939981    0.2005384 -69.53  0.001495906    1.151    0.131
        74 -11.3459     35.2132    117.9231   1.1711453463e+02   4.6825737943e+01     0.434516    0.3515047  77.14  0.002663394    1.216    0.177
        75  -7.9293    111.2313    119.2159   9.8409252922e+01   3.6241999575e+01    0.1891079    0.1564355  88.89 0.0003392996    1.292    0.226
        76  -8.9172     70.0675    117.0671   1.0828219564e+02   4.3103141907e+01    0.2101508    0.1437871  81.25  0.001126333    1.699    0.411
        77  -9.5846     66.1673    116.8751   1.0923429484e+02   4.3649902326e+01    0.2055805    0.1951436  72.68  0.001385846    1.186    0.157
        78 -10.6458     45.1529    115.1521   1.1425108576e+02   4.6452921693e+01    0.3246126    0.2674638  83.14  0.002203158    1.174    0.148
        79  -7.3698    167.6310    113.3202   8.3833693428e+01   2.5854036584e+01    0.1596955    0.1213659 -86.06 0.0007036051    1.793    0.442
        80 -10.8807     59.7840    110.5209   1.0974260921e+02   4.5848566222e+01    0.3547459    0.2561126 -54.27  0.002129219    1.279    0.218
        81  -8.4292      2.3279    106.3078   1.2372663189e+02   5.1861752563e+01    0.1088299   0.06397882 -52.98    0.0004879    1.657    0.396
        82  -8.8377     11.9409    109.0153   1.2168209670e+02   5.0657198093e+01    0.1333472    0.1043115 -79.79 0.0004376899    1.056    0.053
        83  -8.7343    164.1399    102.6295   8.1840952381e+01   2.8725634874e+01    0.2584556    0.2150754 -33.13 0.0003130221    1.225    0.184
        84  -7.8760    126.8827    100.8389   9.0160837465e+01   3.7201743707e+01    0.1922521    0.1687505 -87.31 0.0003214591    1.252    0.201
        85  -8.3356     55.3050    100.0949   1.0900785267e+02   4.8683239492e+01    0.1833009    0.1745855 -11.95 0.0004523838    1.307    0.235
        86  -9.5084    220.5468     96.4901   6.9066472825e+01   1.6335384238e+01    0.2721319    0.2551078   6.38 0.0006374256    1.063    0.059
        87  -7.4810    225.1951     92.6256   6.7268767417e+01   1.5854357011e+01    0.2007862    0.1352984  43.41 0.0002888026    1.536    0.349
        88  -8.6062    107.9942     82.1798   9.0059471253e+01   4.4742174405e+01    0.2265709    0.1912261 -46.61 0.0003058982    1.108    0.097
        89  -7.1058    247.2906     79.6854   6.0494621978e+01   1.2664131176e+01    0.1466088    0.1060404 -58.32 0.0002796698    1.592    0.372
        90  -7.9854    165.2361     76.0422   7.4108701257e+01   3.3444753737e+01    0.2121602    0.1926706 -39.91  0.000286926    1.098    0.089
        91  -7.9150    139.0179     65.0686   7.6766994987e+01   4.1630125148e+01    0.1789538    0.1694134 -22.86 0.0003785874    1.027    0.026
        92 -10.3878    121.9839     60.6874   7.9680615140e+01   4.6161357458e+01    0.2499823    0.2191813 -30.77 0.0002401762    1.088    0.081
        93 -10.7857    169.3729     53.5799   6.6307815252e+01   3.6194565863e+01    0.5366213    0.4756224 -33.61  0.001108034    1.131    0.116
        94  -8.6866    217.9474     48.2207   5.6337200480e+01   2.4413563663e+01    0.3899867     0.227926 -24.50  0.001234786    1.789    0.441
        95  -9.8664    243.6020    246.4428   9.5271113971e+01  -8.3965115523e+00    0.2838649    0.1586282  49.04  0.001753613    1.883    0.469
        96 -11.0844    188.5580     32.9596   5.6324356312e+01   3.4154062021e+01    0.6477867    0.5588812 -25.64  0.001588797    1.193    0.162
        97  -7.4013     21.3140     41.9831   1.0648448105e+02   6.4071795568e+01    0.1778163   0.08769837 -76.87  0.000704498    4.241    0.764
        98  -9.0381    107.2908    244.2036   1.1689744905e+02   1.3294920927e+01    0.3138045    0.1374906  61.09  0.001706824    2.224    0.550
        99 -13.8350     21.3405    237.5050   1.2942474111e+02   2.5099235159e+01    0.2319677    0.1972357  57.34  0.001081858    1.623    0.384
       100  -8.6916    168.2737    233.7559   1.0576375480e+02   5.1763958147e+00    0.2432302    0.1625265  52.88 0.0009635601    1.265    0.209
       101  -8.2605    156.4847    229.4875   1.0721989316e+02   7.7262585125e+00    0.1188311   0.09299696  50.52 4.620349e-05    1.002    0.002
       102  -9.9477    109.3960    213.7649   1.1353547209e+02   1.7797756241e+01      0.53176    0.2903085  69.95  0.002864277    2.077    0.518
       103  -9.3893    184.2535    214.3954   1.0034351213e+02   5.0692077324e+00    0.2331188    0.2225334  39.87  0.001679924    1.176    0.149
       104  -8.8707     94.9961    200.9580   1.1470902146e+02   2.2223923856e+01    0.2757542       0.1758  79.26  0.001062714    1.584    0.369
