#   1 NUMBER                 Running object number                                     
#   2 MAG_AUTO               Kron-like elliptical aperture magnitude                    [mag]
#   3 X_IMAGE                Object position along x                                    [pixel]
#   4 Y_IMAGE                Object position along y                                    [pixel]
#   5 X_WORLD                Barycenter position along world x axis                     [deg]
#   6 Y_WORLD                Barycenter position along world y axis                     [deg]
#   7 A_WORLD                Profile RMS along major axis (world units)                 [deg]
#   8 B_WORLD                Profile RMS along minor axis (world units)                 [deg]
#   9 THETA_WORLD            Position angle (CCW/world-x)                               [deg]
#  10 FWHM_WORLD             FWHM assuming a gaussian core                              [deg]
#  11 ELONGATION             A_IMAGE/B_IMAGE                                           
#  12 ELLIPTICITY            1 - B_IMAGE/A_IMAGE                                       
         1 -14.8456    106.5996    105.3630   6.0225160937e+01   4.0738283312e+01     1.582968     1.318013 -79.10  0.007887231    1.511    0.338
         2 -14.6075     24.7575     92.9668   8.8739092791e+01   5.5967590665e+01     1.396811     1.126726  -6.75    0.0067017    1.343    0.255
         3 -13.9828     56.3130     65.2883   6.7019165137e+01   5.9025063138e+01     1.443076    0.9218919 -19.08  0.006058821    2.189    0.543
         4 -14.9020      6.5301     71.0375   9.4234363987e+01   6.2882112929e+01     1.245205    0.7429069 -54.31  0.005667137    1.496    0.332
         5 -12.2335    194.7729     23.2516   1.9699592331e+01   3.3707613963e+01    0.5913028    0.2464406 -20.88  0.002593532    2.636    0.621
         6 -13.6749    188.1375     23.8060   2.0425639682e+01   3.5111870202e+01     1.887282    0.4661793 -49.00   0.00618639    4.319    0.768
         7 -13.2992    187.5942     11.1900   1.7079784468e+01   3.6452714820e+01    0.9450262     0.487784 -44.78  0.004957341    1.692    0.409
         8 -14.2397    122.2446     36.0263   3.3563065978e+01   4.9682025389e+01     1.111431     0.618001  34.00  0.004533434    2.367    0.578
         9 -12.5053      7.7922      2.5908   7.0013895369e+01   7.8700881486e+01    0.6113341    0.3208878  35.37   0.00312201    2.033    0.508
        10 -15.8465     11.4422     23.7036   7.8512433032e+01   7.4077320683e+01     2.010226     1.068551 -36.98  0.009842241    1.781    0.438
        11 -14.5589     27.0200     11.5481   5.8957051083e+01   7.4558824989e+01    0.9775422    0.6601636   4.30  0.005101475    1.704    0.413
        12 -14.4438    166.7047     28.5021   2.3978258590e+01   3.9559217767e+01    0.9915271    0.8357975  64.17  0.004548964    1.211    0.174
        13 -14.5962    147.4564     29.6248   2.6873652778e+01   4.4123113099e+01     1.312521    0.6699916  69.83  0.004738378    1.931    0.482
        14 -13.5422    141.3711     21.5877   2.5060512030e+01   4.6533012981e+01     1.178129    0.3789949  71.67  0.002399135    3.174    0.685
        15 -13.3710    119.6358     26.6360   3.0550839924e+01   5.1518660076e+01     1.000764    0.5664016  36.66  0.004312333    2.135    0.532
        16 -13.7094    216.4979     28.0117   1.9161700783e+01   2.8704769006e+01     0.681066    0.3602382 -54.05  0.003741456    1.764    0.433
        17 -14.6085    219.8917     14.2011   1.5691839893e+01   2.9375339447e+01     1.194329    0.8112735  -2.53  0.007226466    1.961    0.490
        18 -13.3596     55.9180     26.9144   5.0767562620e+01   6.6749157645e+01    0.6857052    0.4320124  44.36  0.002263389    1.502    0.334
        19 -13.2810    214.8632      9.3537   1.4846516802e+01   3.0818287763e+01    0.5248501    0.4104131 -83.69  0.003378904    1.262    0.207
        20 -13.5573     87.5514     15.0987   3.2956019514e+01   6.1023715243e+01    0.9183489    0.5504933 -57.06  0.004076259    2.205    0.547
        21 -15.4362     98.8073     11.3964   2.8496478450e+01   5.8536000560e+01      1.60971    0.9589354  62.92  0.005416384    1.498    0.332
        22 -11.7979     70.9277     16.1428   3.8655838370e+01   6.4971337128e+01    0.3134683    0.2368569 -25.12 0.0008345165    1.420    0.296
        23 -12.5319     60.2377     15.1390   4.2252226134e+01   6.7563788247e+01    0.5678355     0.328178  34.80  0.002446776    1.794    0.443
        24 -12.1300     47.0507     12.7734   4.7054924148e+01   7.0714509468e+01    0.3354172    0.2635574  35.06  0.001429634    1.155    0.134
        25 -10.9694     40.6031     12.7593   5.0655041481e+01   7.1991567506e+01    0.2193162    0.1657896 -41.04 0.0005509295    1.487    0.328
        26 -13.8368     42.0304      3.9248   4.3781459471e+01   7.2913301132e+01    0.6871168    0.5136813  36.34  0.003281468    1.192    0.161
        27 -11.9945     75.5721      9.2953   3.3420041151e+01   6.4627557525e+01    0.3218959    0.2626958 -10.67  0.001811732    1.341    0.254
        28 -11.8819    152.6837      8.6476   1.9380399153e+01   4.4942877339e+01    0.2894131    0.1966619  41.28   0.00153573    1.713    0.416
        29 -10.9612     80.2561      7.2643   3.0985382806e+01   6.3666815628e+01    0.1869362        0.159 -72.30   0.00105215    1.345    0.257
        30 -12.1552    119.0197      2.4600   2.1170641688e+01   5.4058482741e+01    0.4000415    0.2209726 -77.44  0.001787177    2.087    0.521
        31 -12.2902     76.6317      2.4035   2.9361805078e+01   6.5023226999e+01    0.8647713    0.1061838  57.11  0.002520398    4.160    0.760
        32 -11.2703    232.9170      1.7986   1.2251911739e+01   2.7977271593e+01    0.1525568    0.1442044 -59.87  0.001215749    1.229    0.186
        33 -11.6809     61.3517      1.4448   3.3530704034e+01   6.8852835895e+01    0.3621206    0.1207532  61.22  0.001186103    2.693    0.629
        34 -11.4825    123.6064     10.6111   2.3688424335e+01   5.2171062481e+01    0.3830489    0.1963682 -72.54  0.001537707    2.595    0.615
        35 -11.8410    245.0013    147.9991   4.1820090111e+01   9.4070716973e+00    0.1442701      0.10913 -15.31  0.001027874    1.010    0.010
        36 -12.6913     51.2630    248.3214   9.5155066592e+01   1.8525219975e+01    0.3705546     0.319369  17.20  0.002881705    1.230    0.187
        37 -12.3618      2.8050    249.4968   1.0535932322e+02   2.2424857789e+01    0.3796885    0.2118721  42.64  0.002304746    1.271    0.213
        38 -13.8331      9.8953    245.9750   1.0382448655e+02   2.2484745916e+01    0.8191869     0.289861  41.37  0.003828057    1.871    0.465
        39 -12.0479     60.7232    147.3079   8.3485289964e+01   3.8250375661e+01    0.3854133    0.2406669  -3.84   0.00167283    2.248    0.555
        40 -12.0033     42.9907    139.0269   8.8218669059e+01   4.2333633298e+01    0.2711903    0.2075053  36.87  0.001459249    1.238    0.192
        41 -12.3690    136.0672    131.7751   5.8557912650e+01   2.9629538027e+01    0.5328526    0.2737085  34.80  0.002245382    1.947    0.487
        42 -12.3657    134.0026    126.3114   5.7830509493e+01   3.1092117984e+01    0.5383583    0.3072233 -25.42  0.002184576    2.320    0.569
        43 -14.0730    104.8742    122.0074   6.4825728481e+01   3.7412235396e+01     1.421909     1.059172  36.41  0.007011958    1.290    0.225
        44 -12.5132    109.1120    249.1251   8.2854527933e+01   1.2392823328e+01     0.364041    0.1634047  32.82   0.00203668    1.665    0.399
        45 -11.6718     86.6823    114.8417   6.8900184794e+01   4.2254977901e+01    0.3917911     0.273987   4.98  0.001221351    1.883    0.469
        46 -12.4469     82.2107    115.3920   7.0525951245e+01   4.2876652228e+01    0.3541165    0.2660804  42.49   0.00173088    1.313    0.238
        47 -12.7171     42.3323     90.5272   8.0396399588e+01   5.4827744342e+01     0.320693    0.2863514 -65.99 0.0001895569    1.120    0.107
        48 -12.1063     19.0131     86.1715   9.0294604089e+01   5.8193055776e+01    0.3174291    0.2166318 -49.31 0.0003942164    1.395    0.283
        49 -13.5194      2.3201     97.0144   9.9201861431e+01   5.6306581304e+01     0.877719    0.3231689 -85.56  0.003394027    2.692    0.629
        50 -13.2526     28.7037    245.6407   9.9854776220e+01   2.1013201033e+01    0.3988642    0.2349822  51.06  0.002679218    1.421    0.296
        51 -12.8497     28.5544    121.9028   9.1248763847e+01   4.8093009082e+01    0.3296718    0.3159214 -44.95  0.001996907    1.090    0.082
        52 -12.2378    177.4800    110.0656   4.4468738029e+01   2.5639277335e+01    0.3756193    0.2885469  36.91  0.002093521    1.349    0.259
        53 -11.6984     63.2086    110.7436   7.6274508821e+01   4.6957831163e+01     0.325762    0.2118128  62.24  0.001408073    1.968    0.492
        54 -11.5465     88.1090    109.2243   6.7093729922e+01   4.3319364591e+01    0.3507963    0.2115508 -65.78  0.001435159    2.109    0.526
        55 -12.1419     36.8185     92.8379   8.3319351909e+01   5.4854485056e+01    0.3900218    0.2676297  -2.92  0.001261864    1.721    0.419
        56 -11.0763     42.5039    106.5356   8.3503652502e+01   5.0689361112e+01     0.252216    0.1417816   6.13  0.001026596    2.279    0.561
        57 -12.5019    136.2520    102.6686   5.1409382706e+01   3.5257237713e+01    0.6106679    0.2608465  46.96  0.002140796    2.358    0.576
        58 -11.7736      5.7005    119.5740   9.9608852617e+01   5.0297679819e+01    0.3776026    0.2398573 -14.40  0.001924293    1.875    0.467
        59 -12.1507     61.3242     97.8684   7.4117858946e+01   5.0435562508e+01    0.5320612     0.335769  65.08  0.002025032    2.261    0.558
        60 -11.7098     46.4958     98.5080   8.0309302794e+01   5.2285282291e+01    0.2774529    0.2245302  25.05  0.001195333    1.243    0.196
        61 -12.2741     52.5997     97.6009   7.7582424724e+01   5.1733641130e+01    0.4623926    0.2801291  -9.13   0.00157475    2.504    0.601
        62 -13.6925    136.9210     94.7081   4.9096646602e+01   3.6614443084e+01    0.5606127    0.4772736  81.96  0.002446672    1.454    0.312
        63 -11.5892    163.3637     96.8925   4.3899406156e+01   3.0627969457e+01    0.2799513    0.2253056 -84.83 0.0009899916    1.699    0.411
        64 -12.3351     49.1068     93.2360   7.8061559694e+01   5.3297810631e+01    0.3998246    0.2937544  69.08  0.001910346    1.673    0.402
        65 -14.0690     18.5118    110.6554   9.3822231134e+01   5.1815687219e+01    0.8770869    0.6765994 -47.53  0.003879978    1.314    0.239
        66 -13.1285    188.5610     83.8213   3.6143771629e+01   2.7490702371e+01    0.5384086    0.3228354  39.35  0.002666936    1.926    0.481
        67 -14.0183    163.7392     71.5000   3.6970081389e+01   3.4605630764e+01     1.224055    0.9418588  58.36  0.006598754    1.352    0.260
        68 -13.6587    161.8388     79.6030   3.9572473240e+01   3.3772743519e+01    0.8266625    0.5150094  22.85  0.003534676    2.397    0.583
        69 -14.7072    169.3689     77.0815   3.7523798615e+01   3.2517959278e+01     1.100122    0.6605546  42.67  0.003917612    1.819    0.450
        70 -11.0501      1.5425    119.4939   1.0115059116e+02   5.0527827782e+01    0.1866697    0.1237221 -10.68 0.0009785809    1.764    0.433
        71 -13.7810     91.7251     57.6850   5.0053978315e+01   5.3634275005e+01    0.6098701    0.5197341  42.95  0.003176118    1.130    0.115
        72 -13.1899    170.3638    242.6234   6.9827236299e+01   6.4159913678e+00    0.2309679    0.1484675  -9.79  0.001546548    1.504    0.335
        73 -13.7431     87.4657     65.3149   5.4307028702e+01   5.3094729802e+01     1.071475     0.663061  16.82  0.003829231    2.614    0.617
        74 -12.8075     55.0227     81.2079   7.2474789152e+01   5.5466752311e+01     0.676278    0.5666646 -82.97   0.00350344    1.387    0.279
        75 -13.9646     61.2189     75.4553   6.8093309255e+01   5.5872382006e+01    0.8594275    0.6268972 -32.87   0.00305517    1.477    0.323
        76 -13.3118     71.1217     75.0807   6.3832597958e+01   5.4245828525e+01    0.6113762    0.4395145   0.02  0.001047453    1.867    0.464
        77 -12.1166     77.2252     73.4496   6.0891979794e+01   5.3467768519e+01    0.6188114    0.3113669 -37.73  0.002156089    2.245    0.555
        78 -11.3021    127.1257     83.1243   4.8207012685e+01   4.0910506342e+01    0.3908829    0.1762144  35.42 0.0009136886    2.934    0.659
        79 -12.2120    114.0509     79.9194   5.0746021322e+01   4.4422848088e+01    0.4314927    0.3469009 -47.32  0.001573537    1.293    0.226
        80 -13.1256    212.1261     77.7078   3.1403849966e+01   2.3741037612e+01    0.7420884    0.4524493 -76.56  0.003505811    2.852    0.649
        81 -12.6782    135.3926     79.3913   4.5069346941e+01   3.9728319189e+01    0.6643746    0.3657483  52.39  0.002595894    1.832    0.454
        82 -12.5685    237.1229     79.9328   2.9060731547e+01   1.9038452629e+01    0.2579235    0.1748742  80.83   0.00156476    2.128    0.530
        83 -13.4647     65.9431     49.0473   5.6521611632e+01   6.0741643577e+01    0.9636412    0.7167375 -48.43  0.004818171    1.440    0.306
        84 -14.0406     97.2954    239.4692   8.4467212353e+01   1.5190202116e+01    0.6755932    0.3766377  30.32  0.004029377    1.362    0.266
        85 -14.0896      3.8792     63.2124   9.4512835632e+01   6.5010455131e+01    0.6776201    0.6027004 -42.59  0.001655316    1.059    0.056
        86 -12.2925     78.5218    109.7998   7.0517602151e+01   4.4821123089e+01    0.5612509    0.3659338  88.08  0.002204491    2.586    0.613
        87 -14.2119     11.2148    102.7460   9.5954989137e+01   5.4359080793e+01    0.8714903    0.7738226  81.08  0.004495422    1.095    0.087
        88 -12.5498    214.5067     71.4997   2.9663582782e+01   2.4093056963e+01    0.2656005    0.2196501  64.97  0.001448226    1.397    0.284
        89 -12.2250    196.6635     72.6794   3.2187759591e+01   2.7416390293e+01    0.2454409    0.1849153  32.33 0.0009915929    1.569    0.363
        90 -13.6728    199.4223     68.9978   3.0908137821e+01   2.7352437781e+01    0.6368285     0.346122  58.63  0.003015709    2.014    0.503
        91 -13.3077    133.5185     65.8059   4.1319902639e+01   4.2477051544e+01    0.9097975    0.6978877   6.37  0.004061511    1.675    0.403
        92 -11.0676    118.0760     72.1457   4.7173553594e+01   4.4976156445e+01    0.2312256    0.2034585  14.96 0.0006034657    1.234    0.190
        93 -12.0511     39.3719     68.1611   7.6186452377e+01   6.0793273475e+01    0.5089969    0.1967023  35.32  0.001912456    2.517    0.603
        94 -11.7984     99.7795     64.8118   5.0020426174e+01   5.0496400037e+01    0.3140524    0.2533093 -70.68   0.00152913    1.541    0.351
        95 -12.1679    200.0276     61.4327   2.8947334037e+01   2.8210307125e+01    0.2861501    0.2518409 -27.95  0.001370556    1.088    0.081
        96 -13.2781     79.6238     59.3026   5.4990637920e+01   5.5941450151e+01    0.9252834    0.6137896 -18.52  0.003960522    2.045    0.511
        97 -13.7811    177.7482     56.3749   3.0532232568e+01   3.3618244947e+01    0.9687473    0.4833769 -42.50  0.004001489    1.879    0.468
        98 -11.6145     34.8642     59.8735   7.6089315651e+01   6.3351860595e+01    0.5128139    0.1113559 -50.87  0.001550846    3.774    0.735
        99 -12.2558     37.2855     52.7494   7.2379448375e+01   6.4722776862e+01     0.491532    0.1805041 -43.72  0.001763943    2.783    0.641
       100 -10.9913     38.8216     59.9842   7.3983472197e+01   6.2831485483e+01    0.2381894    0.1701735  79.18  0.001092848    2.067    0.516
       101 -11.7802     24.8840     59.1870   8.1495090710e+01   6.4595140941e+01     0.422832    0.2291301 -55.65  0.001947794    1.685    0.406
       102 -14.6244    119.8018     54.0754   4.0640115466e+01   4.7659669218e+01    0.9974722    0.6890094  43.06  0.004754217    1.468    0.319
       103 -12.7296    248.4060     49.1617   2.1497613824e+01   2.0649649895e+01    0.3532648    0.2529912  12.23  0.002281951    1.987    0.497
       104 -11.5030     17.7267     55.6628   8.4780636513e+01   6.6088722405e+01    0.3209317    0.1758216 -68.26  0.001483195    1.806    0.446
       105 -13.6800    103.2442     50.5420   4.3760255604e+01   5.2220228617e+01    0.6616633    0.3849172 -29.31  0.001222069    1.903    0.475
       106 -13.9695     98.3049     49.6996   4.4901906580e+01   5.3531503225e+01     1.033942    0.5472388 -31.97  0.003611566    2.055    0.513
       107 -12.4177    248.0081     54.7291   2.2697673407e+01   2.0117486646e+01    0.3437676    0.1578603 -42.78  0.001935209    1.767    0.434
       108 -12.2382    135.7545     49.8183   3.5625978120e+01   4.4410133363e+01    0.4268842    0.2716983  37.19  0.001668886    1.827    0.453
       109 -10.3974     23.6681     49.7242   7.9425217463e+01   6.7006311117e+01    0.1450367   0.09567461 -25.89 0.0003364156    1.599    0.374
       110 -13.1593    157.4845     43.5257   2.9778602266e+01   3.9983853863e+01    0.7958803    0.5228192  33.27  0.003822703    1.930    0.482
       111 -11.3596     38.9589     46.0145   6.8893056688e+01   6.6008406308e+01    0.2136839    0.2017431 -13.20 0.0005054709    1.036    0.035
       112 -12.2104     11.9061     43.4454   8.5211058608e+01   6.9500354829e+01    0.5902475    0.2317128   7.00  0.002279947    2.991    0.666
       113 -12.6897      3.6189     42.8250   9.0808663521e+01   7.0125185318e+01    0.5636606    0.3767441  -6.55  0.003073119    1.537    0.349
       114 -14.1000     91.4420    232.3995   8.5097723063e+01   1.7002551405e+01    0.5010375    0.3421526  70.79  0.003016507    2.109    0.526
       115 -12.6487     23.9987    216.6439   9.9680378701e+01   2.6681332415e+01    0.6735206    0.1855284  41.32  0.003056362    2.486    0.598
       116 -13.9191     26.2241    226.5141   9.9601616869e+01   2.4621759868e+01    0.6689845    0.3849851 -49.51  0.003957761    2.322    0.569
       117 -13.9801    217.3534     42.0092   2.2410724406e+01   2.7051208036e+01    0.8829694    0.4587823  63.97  0.004674626    2.116    0.527
       118 -13.0121    205.1567     40.2301   2.3092625360e+01   2.9695217778e+01    0.6942251    0.3355944 -78.37  0.002926281    3.276    0.695
       119 -11.9470    135.4091     39.3747   3.2155961379e+01   4.5934232219e+01    0.5453334    0.2990547  75.76  0.001853286    2.128    0.530
       120 -12.6209    109.8694     41.9451   3.8669363904e+01   5.1954241946e+01    0.4967265    0.1990056  55.46 0.0007384444    2.314    0.568
       121 -12.9561    113.7548     37.7117   3.6088002313e+01   5.1591503409e+01     0.426332    0.3471414  46.41  0.001397161    1.202    0.168
       122 -14.0220     20.7610    224.0155   1.0074579238e+02   2.5545536681e+01    0.6754073    0.4580298  27.31   0.00451707    1.262    0.208
       123 -13.2003    131.6307     33.1618   3.0683499167e+01   4.7675184645e+01    0.5658587    0.4439931  12.46  0.001899751    1.570    0.363
       124 -11.1119     35.1452     34.8581   6.6383851152e+01   6.8935216596e+01    0.5141082    0.2487006  17.39  0.001942371    2.906    0.656
       125 -12.7332     33.0531     40.4346   7.0147252055e+01   6.8044267300e+01    0.3988995    0.2852139  10.79 0.0006135862    1.468    0.319
       126 -12.3812     41.2920     40.0572   6.5045795245e+01   6.6934167255e+01    0.5107781    0.3645635   3.49  0.002031415    1.628    0.386
       127 -13.0269     45.7874     33.8086   5.9579961354e+01   6.7440729351e+01     0.737936    0.6499045  75.86  0.004127879    1.511    0.338
       128 -12.6439     75.8425     36.9674   4.7180301620e+01   6.0828689864e+01    0.5057654    0.3171157  42.32  0.001338499    1.523    0.343
       129 -11.8300     70.7608     35.9995   4.8724857171e+01   6.2112560641e+01    0.3007829     0.268534 -81.77 0.0008394493    1.383    0.277
       130 -13.0172    242.6791     36.0006   1.9111464691e+01   2.3001901992e+01    0.5172143    0.2722546  82.01  0.002659353    2.345    0.574
       131 -13.9568     66.4991    223.1626   9.0023398014e+01   2.1366542374e+01     0.867997    0.6708606  19.85  0.005764727    1.183    0.155
       132 -13.8571     64.5921    214.1576   8.9737295420e+01   2.3250304903e+01     0.475564    0.3272355  31.70  0.002637527    1.179    0.152
       133 -13.3296     59.6647    212.4635   9.0799455418e+01   2.4101862582e+01    0.6415558    0.3769605 -10.51  0.003098668    2.689    0.628
       134 -11.6882    104.4626     36.0071   3.7719008378e+01   5.4150799761e+01    0.2193024      0.14512 -30.91 0.0005256148    1.594    0.373
       135 -12.6078     94.3362    218.0779   8.3000393531e+01   1.9133861687e+01    0.2603323    0.1504441  33.39  0.001456339    1.395    0.283
       136 -12.7078     72.1669    206.7691   8.7207569924e+01   2.3832725215e+01    0.3123022    0.2407897  42.93  0.001957468    1.166    0.142
       137 -12.3289     57.4486    202.7883   9.0550348590e+01   2.6247753975e+01    0.4796217    0.2448625  85.16  0.002208391    2.877    0.652
       138 -11.8703     27.3267     32.3752   7.0366780356e+01   7.0519035769e+01    0.3314756    0.2313822 -47.36  0.001137836    1.397    0.284
       139 -12.2811     41.1500    205.8914   9.4903117017e+01   2.7269568037e+01    0.2062907    0.1379007  48.59  0.001242163    1.307    0.235
       140 -12.5993     17.0686    195.4063   1.0042085082e+02   3.1545888540e+01    0.3718564    0.2207088 -67.42  0.002144658    1.858    0.462
       141 -12.6823     40.3833    195.1616   9.4356805187e+01   2.9557757032e+01    0.3982065    0.2308446  75.92  0.002098253    1.981    0.495
       142 -12.2318     36.5221    194.4975   9.5321825092e+01   3.0064176457e+01    0.3152759    0.2204273  85.52  0.001721512    1.545    0.353
       143 -12.6177     63.0350     25.4138   4.6720852311e+01   6.5487816975e+01    0.5318317    0.3300108  35.33  0.002004344    1.624    0.384
       144 -11.6535    245.5768     28.7569   1.7386499537e+01   2.3220629167e+01    0.1680062   0.07487094 -38.57 0.0009527466    1.674    0.403
       145 -13.4348     29.9010    169.3660   9.5351396714e+01   3.6251756959e+01    0.9272055    0.5469366 -29.78  0.004458261    2.339    0.572
       146 -11.7009     30.7675     25.3172   6.4509380270e+01   7.1484567248e+01    0.3852264    0.2008038  19.11  0.001640662    2.330    0.571
       147 -11.9850     36.2722     23.5785   5.9907420454e+01   7.0958094104e+01    0.3558554    0.1977275 -39.72  0.001683918    1.816    0.449
       148 -13.6628     22.1426    180.7896   9.8315629078e+01   3.4311383511e+01    0.8571379      0.41233 -56.69  0.004197581    2.320    0.569
       149 -15.2467      8.1999    183.4747   1.0222648775e+02   3.4776896216e+01     1.231227     1.071583  52.24  0.008528598    1.033    0.032
       150 -12.4090     49.1186     20.0338   5.0377912008e+01   6.9218908489e+01    0.6946546     0.207233  48.77  0.002325558    3.372    0.703
       151 -14.9220     15.4138    174.6424   9.9844623824e+01   3.6224447370e+01     1.982232      0.55421  43.05  0.008013274    2.776    0.640
       152 -11.5569     48.9255    181.3633   9.0929198851e+01   3.1683604861e+01    0.2501104    0.1938667 -60.84  0.001480847    1.428    0.300
       153 -11.9397    198.8749    181.3222   5.5178742431e+01   1.1166722673e+01     0.179107    0.1455521  31.51  0.001143698    1.431    0.301
       154 -12.8692    124.2967    166.5371   6.8457467692e+01   2.4763124825e+01    0.5633982     0.389378 -61.52  0.002856445    1.876    0.467
       155 -12.4499     22.0973    165.8388   9.7393313778e+01   3.7735453242e+01    0.2211429    0.1807695  87.64 0.0009593021    1.216    0.177
       156 -10.3999     55.3488     11.2853   4.2082339221e+01   6.9146932183e+01     0.146385   0.09502406  27.39 0.0007020073    1.654    0.396
       157 -12.1317    164.1652    195.3265   6.4256476663e+01   1.3836734114e+01    0.2351348    0.1577244 -67.24  0.001100349    3.461    0.711
       158 -11.8573    112.3290    156.6798   6.9797212083e+01   2.8644725672e+01    0.2605935    0.1849975  87.62  0.001168808    2.406    0.584
       159 -11.9667     76.9701    156.6993   7.9845213392e+01   3.3911378398e+01    0.3629337    0.2576575  22.01  0.001129112    1.378    0.274
       160 -12.9907     73.4677    153.1637   8.0367649923e+01   3.5204735556e+01    0.6390997    0.4409283  19.78  0.002380684    1.467    0.318
       161 -10.6291     61.2065    151.8539   8.3967960994e+01   3.7099003840e+01    0.1818738    0.1578723 -28.52 0.0003292167    1.279    0.218
       162 -11.4702    103.4150    149.8707   7.0999497131e+01   3.1516530597e+01    0.3553759    0.2356255 -28.52  0.001406489    1.824    0.452
       163 -12.5093      8.0992    149.6127   1.0066953436e+02   4.2628928330e+01    0.4228117    0.2484252  25.15  0.002237468    1.634    0.388
