#   1 NUMBER                 Running object number                                     
#   2 MAG_AUTO               Kron-like elliptical aperture magnitude                    [mag]
#   3 X_IMAGE                Object position along x                                    [pixel]
#   4 Y_IMAGE                Object position along y                                    [pixel]
#   5 X_WORLD                Barycenter position along world x axis                     [deg]
#   6 Y_WORLD                Barycenter position along world y axis                     [deg]
#   7 A_WORLD                Profile RMS along major axis (world units)                 [deg]
#   8 B_WORLD                Profile RMS along minor axis (world units)                 [deg]
#   9 THETA_WORLD            Position angle (CCW/world-x)                               [deg]
#  10 FWHM_WORLD             FWHM assuming a gaussian core                              [deg]
#  11 ELONGATION             A_IMAGE/B_IMAGE                                           
#  12 ELLIPTICITY            1 - B_IMAGE/A_IMAGE                                       
         1 -14.4620    151.7646     56.0949   2.9037235203e+02   6.2441464669e+00   0.05174354   0.04929457 -37.58  0.001034094    1.053    0.051
         2 -14.9158    163.0986     41.2464   2.9015441257e+02   6.3499146041e+00   0.06487717   0.04340491 -50.84  0.003624602    1.456    0.313
         3 -14.5809    176.8462      8.2767   2.8980050508e+02   6.6506009419e+00   0.05013506   0.04719898 -36.02  0.003755771    1.071    0.067
         4 -12.8017    196.2956      5.8501   2.8956429800e+02   6.5657192600e+00   0.02357436    0.0130295  56.89  0.002087434    2.367    0.578
         5 -11.3466     21.9173    244.0070   2.9296913159e+02   4.8201162081e+00   0.01123694  0.008666771 -65.66 0.0008887218    1.285    0.221
         6 -19.9854     74.7457    173.2437   2.9194812313e+02   5.3349124820e+00    0.9122624    0.3602634 -65.46    0.0727409    2.633    0.620
         7 -12.6331    207.3741    178.3046   2.9046796637e+02   4.5102892491e+00   0.02257057   0.01520521  -6.61  0.002244319    1.954    0.488
         8 -12.3168    209.7672    175.9949   2.9042698954e+02   4.5231252600e+00   0.02292883   0.01454019 -81.70  0.001550078    1.917    0.478
         9 -10.9160     36.7219    186.2148   2.9245846052e+02   5.4037239858e+00   0.02149155   0.01273984 -14.42  0.001402559    2.603    0.616
        10 -11.4116     25.9391    184.9043   2.9257360700e+02   5.4808761893e+00  0.009980033  0.009593928  -8.63 0.0003610409    1.072    0.067
        11 -11.9631     30.9480    183.0941   2.9250578339e+02   5.4730273788e+00   0.02167153   0.01127403  25.69   0.00158344    1.987    0.497
        12 -11.9002    154.1053    185.6100   2.9111761152e+02   4.7339430977e+00   0.01136173  0.009364965 -82.36 0.0009403724    1.293    0.226
        13 -11.4600    108.0663    182.3347   2.9162243410e+02   5.0376525838e+00   0.01494924   0.01029795  56.42 0.0007666588    1.657    0.397
        14 -11.8453      4.2539    179.0728   2.9278629238e+02   5.6729136282e+00   0.01720901   0.01415519  11.53  0.001380775    1.307    0.235
        15 -10.7338     28.2277    179.3194   2.9251442566e+02   5.5323381801e+00   0.01152557  0.008241868  17.86  0.001237032    1.506    0.336
        16 -10.5715    131.7867    235.7845   2.9166969214e+02   4.2826291665e+00  0.008620514  0.007238036  79.88 0.0002919089    1.314    0.239
        17 -13.4834    195.5300    170.8389   2.9055823988e+02   4.6651221976e+00   0.03952899   0.02126253 -75.53  0.002980381    2.260    0.557
        18 -13.0506    177.6440    171.6019   2.9076632015e+02   4.7597927626e+00   0.02593029   0.01545502 -85.11  0.002365679    2.252    0.556
        19 -14.0752    138.7740    171.5647   2.9120864327e+02   4.9849219385e+00   0.06013785   0.02112463  30.69  0.004735568    2.720    0.632
        20  -9.7606    135.1842    234.6195   2.9162411752e+02   4.2764962525e+00  0.008316627   0.00798052  31.78 0.0003450905    1.061    0.058
        21 -11.7983    203.0740    172.3480   2.9048140100e+02   4.6040163023e+00   0.01292727  0.009827721 -77.09 0.0009739627    1.404    0.288
        22 -10.9082    166.9841    173.5058   2.9089898879e+02   4.7994356919e+00  0.009882388  0.006432401  29.06 0.0007211709    1.551    0.355
        23 -13.0842    140.4729    167.0000   2.9116214193e+02   5.0278857704e+00   0.03902986  0.008324604  34.96  0.002546848    3.917    0.745
        24 -10.4255     34.6161    169.6606   2.9238433313e+02   5.6073558908e+00   0.01093676  0.008024232   6.27 0.0005836588    1.576    0.366
        25 -12.2139    230.2458    167.1232   2.9014124189e+02   4.5070319776e+00   0.02004387  0.009569603 -76.37  0.001584843    2.863    0.651
        26 -11.8512    122.6824    165.9093   2.9135830190e+02   5.1432494177e+00   0.01961109  0.009884547  47.03  0.001214669    2.214    0.548
        27 -11.4690    200.9901    164.9711   2.9046116296e+02   4.7013281157e+00   0.01361946  0.009811435  88.55 0.0008097629    1.671    0.401
        28 -10.5613     25.1447    165.1765   2.9246574535e+02   5.7136857206e+00    0.0098428  0.008385628 -24.90 0.0005116517    1.261    0.207
        29 -10.8270    222.6866    162.1555   2.9019758709e+02   4.6082148334e+00   0.01459109   0.00834901 -79.10  0.001032699    2.195    0.544
        30 -12.4922    164.4479    157.4101   2.9083204362e+02   5.0001648408e+00   0.01370884   0.01215347 -32.44 0.0009657043    1.166    0.142
        31 -14.6030    134.2368    146.3839   2.9111049770e+02   5.3022748935e+00   0.07288615   0.02651007 -73.37  0.004567412    4.543    0.780
        32  -9.3566     13.4719    233.4412   2.9300286775e+02   4.9908777320e+00  0.006445276  0.006349354 -61.22 0.0003315606    1.006    0.006
        33 -11.0853     22.9376    155.8550   2.9243564337e+02   5.8342088302e+00   0.01341526   0.01034417 -41.99 0.0006380618    1.323    0.244
        34 -12.0698    174.0260    149.0797   2.9067337484e+02   5.0410461840e+00   0.01657472   0.01460301 -86.07  0.001521872    1.190    0.160
        35 -13.8748    143.5557    143.6857   2.9098826642e+02   5.2796123213e+00    0.0423956   0.02146738 -82.42  0.003317223    3.075    0.675
        36 -10.9519     29.0590    227.4220   2.9278974600e+02   4.9709864473e+00   0.01018492  0.008143706 -46.23 0.0003943308    1.244    0.196
        37 -11.4083     25.1543    225.3016   2.9282168061e+02   5.0179582771e+00   0.01649757  0.007645553 -52.26  0.001235059    2.047    0.511
        38 -10.5204    219.1594    224.1800   2.9060703627e+02   3.9119568689e+00  0.008960308  0.007538819  73.32 0.0002705022    1.310    0.236
        39 -10.8017     23.7687    214.2041   2.9277181615e+02   5.1543295041e+00   0.01765588  0.007700795 -48.99  0.001500817    2.256    0.557
        40 -11.6617      6.1681    138.4285   2.9252359562e+02   6.1321367176e+00   0.01848221   0.01063139  40.33  0.001810275    1.761    0.432
        41 -11.5058    125.1094    243.5267   2.9179159752e+02   4.2316160520e+00   0.01039574  0.008020259 -61.13 0.0003729071    1.264    0.209
        42 -14.2074    135.7667    127.3122   2.9097950280e+02   5.5139047696e+00   0.06422633   0.01860037 -67.37  0.004004418    4.367    0.771
        43 -11.5589     27.2779    136.2531   2.9226982791e+02   6.0360004520e+00   0.01731568   0.00941549  15.17  0.001557744    2.238    0.553
        44 -10.8513    156.4811    132.5559   2.9077473156e+02   5.3335254804e+00  0.006483233  0.006332632 -44.34 1.255537e-05    1.018    0.018
        45 -12.4843    160.4327    128.0303   2.9070275076e+02   5.3629707242e+00   0.01841199   0.01421746 -83.37  0.001988871    1.428    0.300
        46 -13.2496     11.7579    205.9393   2.9285977123e+02   5.3189559417e+00   0.02900519   0.01750639  13.67  0.002266585    1.965    0.491
        47 -12.3257    140.5040    120.6101   2.9088558872e+02   5.5639869215e+00   0.01697211   0.00926522  52.56  0.001025733    2.213    0.548
        48 -11.7794    157.8826    202.8277   2.9117699141e+02   4.5130451047e+00   0.02944823   0.01303671  53.50  0.002199491    3.292    0.696
        49 -12.1406    163.8197    203.2172   2.9111174133e+02   4.4742354843e+00    0.0153597   0.01261351  89.11 0.0007147823    1.341    0.254
        50 -12.8123    161.4557    198.2379   2.9110903963e+02   4.5454652512e+00   0.01957346   0.01519842 -88.77  0.001689983    1.454    0.312
        51 -11.7037    168.8458    202.5405   2.9105052490e+02   4.4530124243e+00   0.01387366  0.009284032  66.19 0.0006503907    1.886    0.470
        52 -10.5907    137.7451    198.5677   2.9138089243e+02   4.6786194098e+00   0.02852124   0.01472335  63.26  0.002205315    3.227    0.690
        53 -10.5514     11.1673    240.6782   2.9307187537e+02   4.9203691872e+00  0.006116214  0.004677418 -88.00 0.0006507311    1.480    0.325
        54 -10.9237    205.3993    110.1763   2.9008423041e+02   5.3088567413e+00   0.01416251  0.009861328  11.79  0.001004854    1.640    0.390
        55 -10.8440     13.8146    238.6531   2.9302976297e+02   4.9286023127e+00  0.006571367  0.004410034 -44.34 0.0006667386    1.519    0.342
        56 -11.5453    154.4326    196.0396   2.9117590297e+02   4.6114639877e+00   0.01988204   0.01228631  81.76   0.00180298    2.353    0.575
        57 -10.7599    112.4442    196.3753   2.9165596396e+02   4.8500052445e+00   0.02462689   0.01316323 -16.13  0.001836823    3.578    0.721
        58 -11.0382    139.4650    249.8173   2.9166557779e+02   4.0760536809e+00   0.01223556   0.01153265  18.74 0.0009111502    1.088    0.081
        59 -13.6905    210.4898    187.8618   2.9048944683e+02   4.3818103739e+00   0.06655758   0.03287972  85.06  0.004004996    5.536    0.819
        60 -10.5064    144.0088     80.2755   2.9060513286e+02   6.0097761425e+00  0.009159872  0.008627032  24.13  0.000529914    1.084    0.078
        61 -10.1739    159.9909    247.7382   2.9141976637e+02   3.9816184695e+00  0.008941814  0.008541523 -50.69 0.0007453622    1.030    0.029
        62 -11.9028    133.7641    247.2485   2.9171519702e+02   4.1386507830e+00   0.01048042  0.008822499 -62.72 0.0004193359    1.165    0.141
        63 -12.9862    166.7724     33.0682   2.9006364195e+02   6.4230102510e+00   0.01946584   0.01593258 -48.21 0.0008843844    1.206    0.171
        64 -10.7862     13.4056     59.8734   2.9197426402e+02   6.9987686975e+00   0.01064783  0.008761271  45.17 0.0004267673    1.250    0.200
        65 -10.4851    144.7003     34.0521   2.9032122434e+02   6.5395104747e+00   0.01092855  0.008507255  41.76 0.0002440394    1.309    0.236
        66 -10.8113    150.7951    245.6188   2.9151178275e+02   4.0592106215e+00  0.009793539  0.008262269 -52.51 0.0004014896    1.158    0.136
