#   1 NUMBER                 Running object number                                     
#   2 MAG_AUTO               Kron-like elliptical aperture magnitude                    [mag]
#   3 X_IMAGE                Object position along x                                    [pixel]
#   4 Y_IMAGE                Object position along y                                    [pixel]
#   5 X_WORLD                Barycenter position along world x axis                     [deg]
#   6 Y_WORLD                Barycenter position along world y axis                     [deg]
#   7 A_WORLD                Profile RMS along major axis (world units)                 [deg]
#   8 B_WORLD                Profile RMS along minor axis (world units)                 [deg]
#   9 THETA_WORLD            Position angle (CCW/world-x)                               [deg]
#  10 FWHM_WORLD             FWHM assuming a gaussian core                              [deg]
#  11 ELONGATION             A_IMAGE/B_IMAGE                                           
#  12 ELLIPTICITY            1 - B_IMAGE/A_IMAGE                                       
         1 -12.1123      3.2560     39.3047   1.3947984510e+02   6.7927718091e+01     0.794466      0.27973 -79.16   0.00332681    2.923    0.658
         2 -13.6163      4.8661     11.7390   1.3097824261e+02   7.3917133428e+01     2.034665    0.7976145 -54.92   0.01038458    1.869    0.465
         3 -13.7545    204.7265      6.6405   6.6447709177e+01   3.2155570119e+01     1.578566     1.045273  48.21  0.008054923    1.628    0.386
         4 -13.7195    190.2495     25.8604   7.3846764951e+01   3.3884323146e+01     1.513996     1.352385  42.87   0.00646768    1.164    0.141
         5 -10.1879    237.6029    247.2088   1.1429129330e+02  -2.5082763508e+00     0.128743   0.07720889  -4.52 0.0006127563    1.662    0.398
         6 -10.4261    174.8610    250.1940   1.2456667041e+02   5.3121234904e+00    0.1849621    0.1134247  46.48 0.0007943277    1.579    0.367
         7 -11.2675    139.6052    249.8406   1.3044202032e+02   1.0035923232e+01    0.4554079   0.09640081  37.48  0.001901579    3.490    0.713
         8 -10.3645    122.9914    250.0000   1.3329095689e+02   1.2185454690e+01    0.2200314   0.09933866  31.69  0.001287621    1.969    0.492
         9  -8.6388     89.5092    250.4673   1.3905652052e+02   1.6307683702e+01    0.1036694   0.07198439  47.37 4.579522e-05    1.019    0.018
        10 -10.0428     67.2417    250.4586   1.4283418983e+02   1.8896642188e+01    0.1965331   0.09025002  44.32 0.0007137526    1.481    0.325
        11  -9.9252     63.5235    250.5453   1.4346469635e+02   1.9298742547e+01    0.1804311   0.07563318  34.84 0.0005352296    1.965    0.491
        12 -14.1035      7.3428    209.4322   1.5152601787e+02   3.1318758442e+01     2.047041    0.6552677 -75.41  0.009414688    3.047    0.672
        13 -15.1358     13.5926    158.4041   1.4816479077e+02   4.0358178717e+01     5.989586     1.657787  86.61   0.02241691    4.536    0.780
        14 -10.0132     95.4991    241.6748   1.3737974952e+02   1.6780523607e+01    0.1964324    0.1039019 -71.43 0.0008744542    2.561    0.609
        15 -11.6033     12.5357    240.8273   1.5154320691e+02   2.5835531449e+01    0.4142888    0.0966879  61.27   0.00214921    3.332    0.700
        16 -10.1228     19.2571    242.1045   1.5047898089e+02   2.5034361033e+01    0.2063158   0.06070431  52.15  0.001254925    2.142    0.533
        17 -11.3654    185.6026    238.7446   1.2145088499e+02   5.0729605627e+00     0.313763    0.2519423 -82.73  0.002181535    2.676    0.626
        18 -13.2188      3.8540    178.5418   1.5117267469e+02   3.7165784445e+01     1.885452    0.4433485 -79.30  0.008558513    3.704    0.730
        19  -9.9906    177.8646    227.7055   1.2139075712e+02   7.3801329263e+00    0.1787604    0.1449359  78.71  0.001232372    2.201    0.546
        20 -14.0222     47.1461    228.5661   1.4513177659e+02   2.4350703068e+01    0.8929899    0.8191891  82.31   0.00650873    1.391    0.281
        21 -10.9684      7.2401    249.5842   1.5261328942e+02   2.5009298052e+01    0.2149115    0.1436057  32.07  0.001356032    1.640    0.390
        22 -10.6356    173.2210    222.3046   1.2151084402e+02   8.6879327485e+00    0.2736495       0.1256  34.80  0.001528603    1.711    0.416
        23  -9.4961    198.3262    246.3082   1.2028758517e+02   2.5914445026e+00     0.107093    0.0620442  17.62 0.0005653298    1.654    0.395
        24  -9.7190     85.2288    246.0681   1.3948886110e+02   1.7423034190e+01    0.1666183   0.08718817  63.44  0.001076355    2.010    0.503
        25  -9.0288    152.6282    212.9579   1.2404368053e+02   1.2927090911e+01    0.1457391    0.1275107  33.74 0.0003891785    1.128    0.113
        26 -13.0091     41.7376    236.5284   1.4647319436e+02   2.3683718596e+01    0.4321342    0.3080943 -38.80  0.000791263    2.672    0.626
        27 -12.3508     24.3918    202.0177   1.4805207842e+02   3.1080594573e+01    0.4220985    0.1519552  50.70  0.002098497    2.012    0.503
        28 -11.5794     66.3975    201.2264   1.3970029459e+02   2.6719477302e+01    0.2433214    0.2074641 -50.67 0.0006030766    1.594    0.373
        29 -11.9111     72.0669    192.8270   1.3783277173e+02   2.7516670883e+01    0.2235195    0.2093554 -77.29 0.0004242727    1.308    0.236
        30 -10.2059    193.1073    195.1761   1.1408373313e+02   9.0318030226e+00    0.6389716    0.3476985 -59.81  0.002211733    7.235    0.862
        31 -11.4329      2.4818    249.3766   1.5335393211e+02   2.5448121452e+01     0.658837    0.1740241 -87.16  0.003753199    3.892    0.743
        32 -13.3452     68.6617    177.7696   1.3716337804e+02   3.0745498831e+01    0.4299563    0.2674074 -43.78  0.001833509    2.317    0.568
        33  -8.7867    105.8812    181.6090   1.2943577287e+02   2.4918127692e+01    0.1740533   0.09314329  48.79 0.0004535813    1.654    0.395
        34 -11.0089     81.4289    179.6636   1.3453905958e+02   2.8731084411e+01    0.2132416    0.1858438  54.62 0.0003262103    1.075    0.070
        35 -12.0149     88.4010    169.8802   1.3185738176e+02   2.9638775123e+01    0.5602981     0.532238  45.64  0.003919412    1.179    0.152
        36 -14.3115     56.2201    215.9160   1.4273194566e+02   2.5401093484e+01     7.239978          nan  40.23   0.02183235    6.860    0.854
        37 -10.1543    100.0334    153.5431   1.2690957502e+02   3.1135136923e+01    0.2651878     0.224743  46.39 0.0007459671    1.084    0.077
        38 -12.1160     88.9808    153.0321   1.2950699767e+02   3.2908354273e+01     0.248431     0.238051  -3.30 0.0005232157    1.278    0.218
        39 -12.6848     67.0320    143.6920   1.3373460100e+02   3.7908812676e+01    0.7232447    0.4260894  61.23  0.003502007    1.761    0.432
        40  -9.0387     76.9997    245.4931   1.4087146842e+02   1.8476874070e+01     0.152361   0.04980868  50.68  0.000808748    2.411    0.585
        41  -9.2636    103.0206    149.1676   1.2551117439e+02   3.1544922752e+01    0.1911594    0.1735513  -2.89  0.000577147    1.352    0.260
        42  -8.4777    192.0271    143.9606   1.0500378787e+02   1.6317069298e+01    0.1593827    0.1408896  13.82 0.0003798354    1.016    0.015
        43  -9.7257    175.1319    138.3818   1.0715740945e+02   2.0436857757e+01    0.3752595    0.2659599  88.88  0.001202603    2.935    0.659
        44  -9.7979    110.7474    138.1082   1.2173482971e+02   3.2517802455e+01    0.3347919    0.2206755 -29.68  0.001435875    2.159    0.537
        45 -11.7471     57.7768    132.4661   1.3471668668e+02   4.1528957360e+01    0.5949739     0.270243 -85.77  0.002389778    3.093    0.677
        46 -12.0918     26.3410    138.0123   1.4368119852e+02   4.3591165907e+01     0.495175     0.145812  40.43  0.002234831    2.787    0.641
        47 -10.7608     98.4239    135.4980   1.2438835510e+02   3.5103244123e+01    0.2411559    0.2198708 -10.83 0.0004861791    1.336    0.252
        48  -8.4257     70.3396    124.6660   1.3011989723e+02   4.1661298689e+01    0.1428079   0.09248461  68.86  0.000705149    1.750    0.429
        49  -8.4212    169.6439    133.3183   1.0720699288e+02   2.2356427956e+01    0.1380023    0.1126687  83.91 0.0007045515    1.752    0.429
        50  -9.1405    107.9020    124.6163   1.1989869477e+02   3.5808881427e+01    0.1878509     0.157875  45.06  0.000442724    1.143    0.125
        51 -10.1892    168.0946    113.1067   1.0290590539e+02   2.6138018137e+01    0.3256127    0.2749789 -82.21  0.001070703    1.577    0.366
        52 -10.0446     66.7000    243.1749   1.4250687960e+02   1.9993070313e+01    0.2022909    0.1065014  57.55 0.0007870625    1.562    0.360
        53  -9.7687    203.3131    111.5371   9.5677451304e+01   1.8939608863e+01    0.2381181    0.1621326  -3.84 0.0006661208    1.711    0.416
        54 -10.1461     34.5768     93.0085   1.3610211082e+02   5.3160095500e+01    0.3978598    0.1836095  43.81  0.001892641    2.260    0.558
        55  -8.7023    184.5226     77.4919   9.0242990848e+01   2.8317465685e+01    0.1491351    0.1392495   6.93 5.521496e-05    1.049    0.047
        56  -9.2638    155.5354     75.4535   9.5489507680e+01   3.5552611550e+01    0.1510711    0.1453906  12.66 0.0001587532    1.022    0.021
        57 -10.1813     16.1413     66.1290   1.3857387530e+02   6.0992984088e+01    0.2387007    0.1765427  23.97  0.000825115    1.597    0.374
        58 -11.9430      4.0568     61.4384   1.4279848285e+02   6.2774917498e+01    0.5440099    0.3407383  66.58  0.002369587    1.751    0.429
        59  -8.6556     32.6800     62.2797   1.3102692687e+02   6.0590876269e+01    0.1251052   0.09310943  70.30  0.000217468    1.582    0.368
        60 -12.3105      4.2500     51.9489   1.4128858546e+02   6.4974162595e+01    0.7150058    0.4221004  66.32  0.003993135    2.002    0.500
        61  -9.7608     81.9341    248.9619   1.4024875054e+02   1.7414243898e+01    0.1705967   0.08529217  56.06  0.001106684    1.718    0.418
        62  -9.5618     46.8925    249.1883   1.4617737762e+02   2.1278015305e+01    0.1555329   0.08859114  54.06 0.0005138235    1.238    0.192
        63 -10.4108    147.1326    247.6758   1.2894913496e+02   9.2938593852e+00    0.1579234    0.1353372  56.85  0.001285888    1.387    0.279
