#   1 NUMBER                 Running object number                                     
#   2 MAG_AUTO               Kron-like elliptical aperture magnitude                    [mag]
#   3 X_IMAGE                Object position along x                                    [pixel]
#   4 Y_IMAGE                Object position along y                                    [pixel]
#   5 X_WORLD                Barycenter position along world x axis                     [deg]
#   6 Y_WORLD                Barycenter position along world y axis                     [deg]
#   7 A_WORLD                Profile RMS along major axis (world units)                 [deg]
#   8 B_WORLD                Profile RMS along minor axis (world units)                 [deg]
#   9 THETA_WORLD            Position angle (CCW/world-x)                               [deg]
#  10 FWHM_WORLD             FWHM assuming a gaussian core                              [deg]
#  11 ELONGATION             A_IMAGE/B_IMAGE                                           
#  12 ELLIPTICITY            1 - B_IMAGE/A_IMAGE                                       
         1 -15.0811      6.2957    148.3990   1.4437780770e+02   4.3273117906e+01     5.948308     1.714167 -77.98   0.02341513    3.363    0.703
         2 -13.2396    194.7851     29.3996   6.9140643461e+01   3.3049959880e+01     1.297624     1.203828  75.15  0.006734686    1.101    0.092
         3 -13.4357    210.4261     10.1391   6.2513858138e+01   3.1472510168e+01     1.196733    0.9223109  36.83  0.007032233    1.720    0.419
         4 -11.9093      2.5301     11.5346   1.1717601363e+02   7.0662612259e+01    0.5733631     0.164281 -43.43  0.002982153    2.583    0.613
         5 -11.6343      2.6720      3.6251   1.1384902530e+02   7.1748469524e+01    0.3385792    0.2920719   9.69  0.002915971    1.581    0.368
         6 -10.4275     97.9955    248.2271   1.3638736473e+02   1.0800074126e+01    0.2667129    0.1847057  71.85 0.0009861154    1.303    0.233
         7 -12.2345    247.3453    246.8839   1.0867930709e+02  -1.3603962065e+01    0.5912265    0.4682129  -4.51  0.004177104    1.165    0.141
         8  -9.6077    111.9233    250.5689   1.3411889812e+02   8.1754249912e+00     0.189305     0.100017  45.16 0.0007039923    1.578    0.366
         9  -9.8791     29.0180    249.9607   1.4820853245e+02   1.9936755916e+01    0.2005984    0.1576535  77.76 0.0007603201    1.219    0.180
        10 -11.3972     34.5803    245.9348   1.4706289747e+02   2.0018174946e+01    0.5482232    0.3507451 -68.25  0.003799898    1.700    0.412
        11  -9.6551     16.8048    250.4056   1.5012244369e+02   2.1240674105e+01    0.1262103   0.09154855  43.85 0.0009516929    1.701    0.412
        12 -10.2882      2.9201    248.1707   1.5208798421e+02   2.3111895782e+01    0.2620846    0.1689587 -72.83  0.002000854    1.639    0.390
        13 -10.5411    100.8520    245.8427   1.3561946672e+02   1.0781724058e+01    0.2080676    0.1708537 -75.74 0.0004240181    1.334    0.250
        14  -9.7198     46.8535    249.2063   1.4529482823e+02   1.7894890411e+01    0.1773004    0.1109441  70.28 0.0003223008    1.224    0.183
        15 -10.9121    198.8219    247.1804   1.1748793798e+02  -5.9978872683e+00    0.2856373    0.1857188 -47.08  0.001654799    1.945    0.486
        16 -10.0217    107.0188    248.0264   1.3473203049e+02   9.4105139663e+00    0.2050507    0.1226551  68.04 0.0008034107    1.690    0.408
        17 -10.4033     21.1725    243.9155   1.4907114335e+02   2.1945560161e+01    0.3386142    0.1293386  64.39  0.001815091    2.281    0.562
        18 -10.3207     12.6660    240.7167   1.5021570253e+02   2.3466083037e+01     0.203602    0.1332182  67.90  0.001286134    1.137    0.120
        19 -10.0228      5.8602    240.8738   1.5127431139e+02   2.4144958044e+01    0.1449263    0.1102517  85.77 0.0003739777    1.241    0.194
        20 -10.2259    183.5301    238.7055   1.1904927154e+02  -2.1224730905e+00    0.2151166     0.126693 -37.96 0.0007412168    2.029    0.507
        21 -10.7633    119.9171    238.2821   1.3119871520e+02   9.0477506142e+00    0.2791958    0.1746777 -82.77  0.001470488    2.040    0.510
        22 -11.4816    139.6769    250.0832   1.2895501736e+02   3.6557472867e+00    0.4453657    0.1766389  43.38  0.002043814    2.068    0.516
        23 -11.2087    124.4462    249.7510   1.3173413747e+02   6.2674324806e+00     0.534724    0.1306317  42.76  0.001950506    3.379    0.704
        24 -12.7868      9.2835    207.1576   1.4869026539e+02   3.0372522861e+01    0.6803696    0.5769412  44.96  0.003461166    1.570    0.363
        25 -10.3200    172.8169    222.2697   1.1851747626e+02   2.5016820867e+00    0.3823972    0.1450536  35.01  0.001396334    2.973    0.664
        26  -8.8857    152.4947    212.9422   1.2111324156e+02   7.9804081611e+00    0.1823022    0.1379086 -56.52   0.00040526    1.474    0.321
        27 -11.4740     61.3499    198.3715   1.3801980112e+02   2.6234027176e+01    0.2753963    0.2254511 -59.34 0.0005414318    1.429    0.300
        28  -9.8216    192.0918    193.4859   1.0947662353e+02   3.9840170043e+00    0.6946259    0.3545026 -65.89  0.001839498    6.728    0.851
        29 -11.0452     17.1026    198.1391   1.4662420381e+02   3.1474834102e+01    0.2548962     0.166531  62.86 0.0005555148    1.350    0.259
        30  -9.0559     50.0293    196.3396   1.4009121904e+02   2.8155652793e+01    0.1639597    0.1321522  70.61  0.000283262    1.119    0.107
        31 -12.6213     34.8129    232.3021   1.4607002838e+02   2.2580439826e+01    0.2832636    0.2274429 -85.04 0.0007873871    1.293    0.227
        32 -11.8027     67.5263    190.1874   1.3576762274e+02   2.7191891127e+01    0.2889154    0.2323733 -60.35 0.0005132294    1.358    0.264
        33 -10.6325     77.5765    177.4411   1.3185783845e+02   2.8632015432e+01    0.2439597    0.2134172 -85.59 0.0002645092    1.056    0.053
        34 -13.1033     64.3517    175.4817   1.3455942052e+02   3.0966463597e+01    0.4959115    0.2742997 -46.94  0.001466519    2.219    0.549
        35 -10.1579     98.0129    174.5898   1.2674287924e+02   2.6051431776e+01    0.3137911    0.1963251 -62.81 0.0002989313    1.547    0.354
        36 -11.6853     85.1758    168.1831   1.2869667975e+02   2.9619070766e+01    0.6137024    0.5836485 -82.44  0.003769335    1.153    0.133
        37  -9.8669     97.7746    152.2926   1.2286586889e+02   3.1300866209e+01    0.2689419    0.2627407  14.25 0.0008320147    1.213    0.176
        38 -11.8894     86.3182    151.3904   1.2555547848e+02   3.3393141389e+01    0.2994892    0.2403004 -47.15 0.0006640449    1.324    0.244
        39  -9.0856    100.9004    148.0161   1.2125563537e+02   3.1772285288e+01    0.2201697    0.1755537 -24.76 0.0004658228    1.654    0.395
        40 -12.2907     67.3955    143.7204   1.2897383778e+02   3.7995875948e+01    0.6968769    0.4587294  70.30  0.003475626    1.825    0.452
        41  -8.4766    191.9777    143.9920   9.8960585898e+01   1.3701260597e+01     0.182412    0.1696405 -41.23 0.0003976506    1.068    0.064
        42 -14.5722     40.3375    224.6769   1.4452882875e+02   2.3419847359e+01     5.101469     1.614528  38.95  0.006446288    3.132    0.681
        43  -9.6445    109.5477    137.1738   1.1679854106e+02   3.2769952371e+01    0.4210273    0.2450858 -30.98   0.00160994    2.593    0.614
        44 -10.3211     96.6319    134.4525   1.1957715504e+02   3.5705476080e+01    0.2632045     0.226772 -32.21 0.0006684913    1.312    0.238
        45 -11.1442     57.2889    132.5775   1.2964845216e+02   4.1935527591e+01    0.5331805    0.2742657 -81.78  0.002147418    2.794    0.642
        46  -9.4640     89.9022    130.6220   1.2054917772e+02   3.7728918630e+01    0.2244268    0.1821207  86.37 0.0005882316    1.370    0.270
        47  -9.0865     78.9911    131.2473   1.2360215567e+02   3.9288071400e+01    0.2098823    0.1727698  77.65  0.000543021    1.324    0.245
        48 -11.2965     22.4316    126.5691   1.3783480218e+02   4.6912805055e+01    0.3289728    0.1824434  50.95  0.001791592    2.155    0.536
        49  -9.0117    106.6482    123.9196   1.1456477087e+02   3.6383073622e+01      0.20095    0.1741816 -57.54  0.000382237    1.099    0.090
        50 -10.5331     32.9800    132.3694   1.3596574271e+02   4.4641732931e+01    0.2527523     0.167649  60.68  0.001451463    1.734    0.423
        51 -10.1018    167.6990    112.8322   9.6577215123e+01   2.5742738488e+01    0.3566264    0.2793697 -76.32 0.0008387777    1.545    0.353
        52  -9.1714    203.4752    111.5014   8.8826175736e+01   1.7519283972e+01    0.1522989    0.1480063 -53.69 4.161271e-05    1.025    0.024
        53  -8.6686     38.5678     94.8074   1.2762862401e+02   5.2585718426e+01    0.1681313    0.1081754 -68.01 0.0003397024    1.533    0.348
        54 -10.6056    242.7231     92.0149   7.7563910274e+01   1.2070804427e+01    0.2127002    0.1792339 -47.32  0.001186142    1.083    0.077
        55  -8.5561    184.3558     77.3242   8.3629816701e+01   2.8490499386e+01    0.1577758    0.1191024  22.89 0.0007045849    1.768    0.434
        56  -9.3082    157.5260     76.5312   8.8925884965e+01   3.5230931017e+01    0.1508077    0.1470367  53.77 0.0001246051    1.019    0.019
        57  -9.7189     43.6027     67.8843   1.1933750175e+02   5.7659182089e+01    0.2108629    0.1713535  37.72 0.0008126139    1.513    0.339
        58  -9.0769     36.6886     64.3142   1.2075650216e+02   5.9049267991e+01    0.2068249    0.1698456  47.81 0.0007999785    1.653    0.395
        59  -9.5784     32.9724     62.6447   1.2161123501e+02   5.9719098050e+01     0.195799    0.1764331 -74.06 0.0008446798    1.438    0.305
        60 -10.6567     15.8282     55.6957   1.2595516039e+02   6.2413803590e+01     0.215316    0.1877949  33.11 0.0009862659    1.524    0.344
        61 -11.5531      2.0602     38.0291   1.2638209053e+02   6.6462354169e+01    0.5439956    0.1076713 -57.47  0.001980987    4.846    0.794
        62 -11.5150    233.7511    237.2791   1.0946214942e+02  -1.0329402660e+01    0.5313255    0.3075602 -59.46  0.002074831    5.184    0.807
        63  -9.8786    185.9828    249.7535   1.2026463096e+02  -4.2054649559e+00    0.1735188   0.08903623  40.95 0.0008885602    1.603    0.376
        64 -10.2238    162.1584    248.4601   1.2453573505e+02   6.8655690757e-02    0.2336321    0.1557952  76.37  0.001205913    2.299    0.565
