#   1 NUMBER                 Running object number                                     
#   2 MAG_AUTO               Kron-like elliptical aperture magnitude                    [mag]
#   3 X_IMAGE                Object position along x                                    [pixel]
#   4 Y_IMAGE                Object position along y                                    [pixel]
#   5 X_WORLD                Barycenter position along world x axis                     [deg]
#   6 Y_WORLD                Barycenter position along world y axis                     [deg]
#   7 A_WORLD                Profile RMS along major axis (world units)                 [deg]
#   8 B_WORLD                Profile RMS along minor axis (world units)                 [deg]
#   9 THETA_WORLD            Position angle (CCW/world-x)                               [deg]
#  10 FWHM_WORLD             FWHM assuming a gaussian core                              [deg]
#  11 ELONGATION             A_IMAGE/B_IMAGE                                           
#  12 ELLIPTICITY            1 - B_IMAGE/A_IMAGE                                       
         1 -14.2350      5.5614     75.5644   1.1718222622e+02   5.9354695116e+01     2.987715     1.769414  72.21   0.01648016    2.332    0.571
         2 -14.5193     24.0735     49.4894   1.0409901890e+02   6.3758050400e+01     3.372827     1.458118 -24.12   0.01390343    3.551    0.718
         3 -15.4869      9.2359     26.4148   1.0331590814e+02   6.9307746664e+01     2.714485     1.054175 -49.37   0.01444336    1.878    0.468
         4 -13.4139     30.8921     10.2998   8.5663735405e+01   7.0072224659e+01     1.522509    0.4911009 -37.31  0.006910285    2.654    0.623
         5 -16.0020     57.6454     70.7064   9.7441085046e+01   5.5826220256e+01     3.655832     2.596862  16.56   0.02002112    1.661    0.398
         6 -14.6374     79.5199     69.8733   8.9626231306e+01   5.2823078865e+01     2.905675     1.701275  -4.41   0.01025833    3.750    0.733
         7 -14.9100     70.4498     56.1935   8.8214351569e+01   5.7002803124e+01     2.652592     1.979399 -86.96   0.01270589    2.489    0.598
         8 -13.5406    138.2886      4.3898   4.9696476872e+01   4.9830720417e+01     2.603549    0.5131034  68.28  0.006641679    5.868    0.830
         9 -13.1390     80.6029     31.8211   7.5264973552e+01   5.9504516501e+01    0.7916883    0.6161711  48.31  0.001955211    1.463    0.316
        10 -11.9702     73.2067      1.5594   6.3986961674e+01   6.4614474080e+01    0.3300674    0.1893348  55.69  0.000560575    1.919    0.479
        11 -13.5008     83.4667     22.6523   7.0400179323e+01   6.0258067133e+01    0.8228845    0.5635099  45.63 0.0004862614    1.475    0.322
        12 -14.3535     86.3199     11.9200   6.4748094959e+01   6.0991735356e+01     2.391019    0.5660002  45.62  0.008266662    3.583    0.721
        13 -14.1578     86.6501      3.5944   6.0865279958e+01   6.1771158924e+01     2.182984    0.3855032  54.61  0.006876002    4.548    0.780
        14 -14.2532    121.5132     10.5898   5.5221066082e+01   5.3350021660e+01     2.285302    0.8826349  63.74 0.0008640992    2.579    0.612
        15 -12.7987    185.9588     12.8636   4.5479152654e+01   3.6860607042e+01    0.8226917    0.6013978 -18.42   0.00439347    1.567    0.362
        16 -12.1906    192.8001      5.7610   4.2669164169e+01   3.5838626949e+01    0.5514909    0.3836706 -48.44  0.002990903    1.431    0.301
        17 -10.9899    188.2250      5.5715   4.3121860879e+01   3.7017728758e+01    0.2933661    0.1879433  47.18  0.001005636    1.665    0.400
        18 -11.8723    175.4418     13.7067   4.7093048236e+01   3.9475882534e+01    0.3999955    0.3082712  12.33  0.001935253    1.609    0.379
        19 -11.9322     64.8218     17.7550   7.4709181243e+01   6.4251497086e+01     0.461132    0.3071182  22.80  0.001597878    1.463    0.316
        20 -10.9508    170.0042     10.4969   4.6852988633e+01   4.1202718315e+01    0.2705922    0.1730573 -44.83 0.0009309702    1.644    0.392
        21 -11.6297    150.0707      8.4695   4.9159913557e+01   4.6500475892e+01    0.4043049    0.3122322 -76.08  0.002186952    1.465    0.318
        22 -12.7692     75.8331     13.4310   6.8781086577e+01   6.2850626351e+01    0.5102035    0.3553841 -26.15  0.001607751    1.415    0.293
        23 -10.5928     49.2347      4.2869   7.4247793590e+01   6.8420648842e+01    0.2252568    0.1954324  15.89 0.0009045977    1.247    0.198
        24 -11.1673    122.1334    127.3750   9.2679782552e+01   3.2248410715e+01    0.4455408    0.3779355  53.39  0.001656569    1.200    0.167
        25 -12.2167    219.0700    121.2811   6.9767154062e+01   1.2213314152e+01    0.3033948    0.2412553  38.08  0.001565747    1.315    0.240
        26 -10.4543    190.5042    112.4780   7.2993350064e+01   2.0253868674e+01    0.1545381    0.1485572  -9.71 -5.552504e-07    1.032    0.031
        27 -10.0069    123.9997    205.9904   1.0647004892e+02   1.5104432473e+01     0.180569    0.1563413  55.82            0    1.008    0.008
        28  -9.4736    246.4724    183.5007   7.8602059164e+01  -2.9530399675e+00    0.1306962     0.107434   1.73 0.0008099953    1.016    0.015
        29 -10.6332     34.4159    177.1439   1.2200798542e+02   3.3805670971e+01    0.2268749    0.1513914   8.85  0.001238943    2.767    0.639
        30 -10.3130    100.9914    175.9966   1.0709894007e+02   2.5061392328e+01    0.1899523    0.1704513  74.96  -0.01509786    1.010    0.010
        31 -14.6673     96.7968     71.4559   8.4562482211e+01   4.9465018229e+01     1.596169     1.198716  16.27  0.002946686    1.575    0.365
        32 -11.2167    203.0927    172.6376   8.4359665187e+01   6.5279515734e+00    0.3321769    0.1844821 -35.71  0.001523329    1.853    0.460
        33 -11.0180    114.3642     97.1043   8.7071937777e+01   4.0610090365e+01    0.3451686    0.2639925 -51.45 0.0009186186    1.285    0.222
        34 -10.9916    189.2377     94.8098   6.8563249139e+01   2.3857128480e+01    0.5030423    0.3310791  78.23  0.002024298    2.195    0.544
        35  -9.9524    185.5123    167.4641   8.6831462215e+01   1.0898789721e+01    0.1432676    0.1346783  24.39 6.544512e-05    1.026    0.025
        36 -11.7919    135.7652     98.0923   8.1599399070e+01   3.5857066241e+01    0.5843278    0.4440237  29.66  0.001810953    1.481    0.325
        37 -11.9055    118.1231     90.4020   8.4111469441e+01   4.1290484181e+01    0.4213478    0.3056702  47.01  0.001983445    1.435    0.303
        38  -9.2224    152.5006     88.4834   7.4695734713e+01   3.3954460652e+01    0.1565247    0.1535068 -59.61 0.0008102129    1.035    0.034
        39 -10.5963    249.1453     86.1035   5.6491176410e+01   1.1550119640e+01    0.3137912    0.2587302  79.94  0.001773155    1.420    0.296
        40 -12.6824    116.8620     67.8416   7.7438942408e+01   4.6111009280e+01    0.8780574    0.4865431 -18.39  0.003120294    2.899    0.655
        41 -12.8210    126.1676     72.6933   7.6471856292e+01   4.3139420162e+01    0.6516502    0.3826182  63.50  0.002554211    2.296    0.565
        42 -12.5953    128.0938     81.9869   7.8873583306e+01   4.0885954907e+01    0.5267972    0.4279303 -62.20  0.002168215    1.396    0.284
        43 -11.2829    112.9346     81.9878   8.3062707159e+01   4.4130338392e+01    0.3570506    0.2781406  48.22  0.000791411    1.353    0.261
        44 -12.9393    121.4424     81.0423   8.0384002042e+01   4.2532868102e+01    0.6890678    0.4759485  30.67  0.001894966    1.648    0.393
        45 -13.0513    115.7481     77.1575   8.0762610503e+01   4.4530580504e+01    0.6403074    0.4771588 -38.84  0.003103808    1.299    0.230
        46 -11.3164    120.0006     72.9830   7.8242895248e+01   4.4445112974e+01    0.3237101    0.2807247 -33.09 0.0003406911    1.123    0.109
        47 -10.5936    148.2085     80.8274   7.3435520216e+01   3.6462004850e+01    0.2950372     0.249569  38.37 0.0007404268    1.212    0.175
        48 -12.7937    144.4940     75.5599   7.2712474039e+01   3.8346207527e+01    0.6829654    0.5490264 -80.89  0.002412451    1.582    0.368
        49 -12.8018    141.5992     95.1520   7.9283215753e+01   3.5156550221e+01    0.9443409     0.729286  71.72  0.003620642    1.578    0.366
        50 -11.4320    152.0612     73.0767   7.0154972116e+01   3.6975606009e+01    0.3786895    0.3215176  40.42  0.001887205    1.196    0.164
        51  -9.8340    171.3434     72.8930   6.5913764249e+01   3.2221041006e+01    0.2831717    0.2187545  70.55  0.001326771    1.421    0.296
        52  -9.2301    182.6646     71.7594   6.3352494751e+01   2.9567971331e+01    0.1529495    0.1162763  29.74  0.000690358    1.546    0.353
        53 -10.9145    146.7551     65.8947   6.9123762167e+01   3.9553424186e+01    0.3719398    0.2798627 -18.41   0.00152698    1.485    0.327
        54 -11.5049    198.9928    154.4035   8.1301654194e+01   1.0543157395e+01    0.3713553    0.2848359 -88.44  0.001724484    2.113    0.527
        55 -10.9597    214.3940     61.0924   5.5065978721e+01   2.3370115679e+01    0.3878009    0.2563326 -26.86  0.001202424    1.575    0.365
        56 -10.6222    169.0430     63.0245   6.3402061929e+01   3.4477290696e+01    0.5640827    0.2055686  56.74  0.001878121    2.712    0.631
        57 -12.0281    124.8174     57.2950   7.1706191649e+01   4.6245776839e+01    0.3599507    0.3086168  32.85 0.0006215191    1.164    0.141
        58 -11.2034    226.9069     56.9584   5.2248237981e+01   2.0976883242e+01    0.2663239    0.2184135  78.61 0.0003536282    1.270    0.212
        59 -11.7796    174.7069     56.5513   6.0334991663e+01   3.4072862537e+01    0.2709113    0.2587074 -62.69 0.0003069293    1.047    0.045
        60 -10.1400    137.4823     55.5128   6.7909652665e+01   4.3568982377e+01    0.3716222    0.1916745  37.37   0.00141049    2.265    0.559
        61 -11.6772    132.9754     53.6588   6.8376732734e+01   4.4951803450e+01    0.4069595    0.2894617  47.67 0.0009387997    1.378    0.274
        62 -13.6867     42.5892     42.3461   9.4011186644e+01   6.3376001938e+01     1.000639    0.5507413   9.55  0.003989979    2.484    0.597
        63 -10.8861    154.3136     52.7071   6.3178897539e+01   3.9865087293e+01    0.4772477    0.2729703  33.40  0.001146516    2.220    0.550
        64 -11.3552    145.3318     50.6172   6.4441976725e+01   4.2435383364e+01    0.3329561    0.3068088 -36.73 0.0007741802    1.109    0.099
        65 -11.8188     99.1521     50.1706   7.6464525018e+01   5.2996891732e+01    0.6012348    0.2843747  36.66  0.002403839    2.335    0.572
        66 -13.4774     42.2997     47.7749   9.6041721517e+01   6.2367347729e+01    0.7139451    0.4925897  17.20  0.002342854    1.620    0.383
        67 -11.2577     89.1209     48.1924   7.8903417937e+01   5.5283470263e+01    0.2596814    0.2206536 -83.37  0.001393798    1.723    0.420
        68 -11.1709    137.4014     48.0836   6.5395405312e+01   4.4773975066e+01      0.39903    0.3110533 -70.44  0.001924481    1.642    0.391
        69 -11.0247    139.9446     43.5466   6.3245436449e+01   4.4835238229e+01    0.4645946    0.2713668  59.12  0.002021861    1.721    0.419
        70 -10.0577    126.9260     48.7918   6.8194569092e+01   4.7162226123e+01    0.2275362    0.1912653  23.84 0.0005327254    1.219    0.180
        71 -10.3117    119.5100     49.0628   7.0220249338e+01   4.8825350417e+01    0.2215888     0.142819 -32.46 0.0008291366    1.547    0.354
        72 -10.7138    175.6422     45.6847   5.6852102256e+01   3.5461871676e+01    0.4785121    0.3598849   8.51  0.002264634    1.718    0.418
        73 -11.6852    157.4671     43.5185   5.9540263990e+01   4.0442303109e+01    0.3777586    0.2708643  44.85 0.0007697337    1.392    0.281
        74 -11.3294    122.3306     43.9388   6.7630057962e+01   4.8984706037e+01    0.2965069    0.2674841 -21.75 0.0007183899    1.109    0.098
        75 -10.2596    181.7052     43.4768   5.5155713997e+01   3.4210982651e+01    0.2726511    0.2061554  63.41 0.0006509863    1.288    0.223
        76 -10.3321    203.7357     43.5622   5.1828560910e+01   2.8569753622e+01    0.2802024    0.1266369  58.06  0.001121732    2.137    0.532
        77 -12.2214    216.0749     38.9115   4.8938484567e+01   2.6128378650e+01    0.7493842    0.2841336  59.32  0.002906891    2.525    0.604
        78 -10.9215    204.3797     37.5821   5.0088625993e+01   2.9217968107e+01    0.4331537    0.2557956  64.86  0.002010753    1.653    0.395
        79 -10.7474    196.9928     40.8582   5.2032005877e+01   3.0649560677e+01    0.2604137    0.2053305 -53.81 0.0007327218    1.254    0.202
        80 -10.3971    159.9794     36.2591   5.6692454772e+01   4.0802972428e+01    0.2183926    0.2094877 -16.13 0.0002893769    1.094    0.086
        81 -11.5308    233.5851    153.8865   7.4688627514e+01   3.7774482089e+00    0.2645592    0.2087969  47.42  0.001339277    1.418    0.295
        82 -11.2593     28.9304    153.8765   1.2099120913e+02   3.9566752148e+01    0.3054807    0.2143162 -13.13  0.001714968    2.547    0.607
        83 -11.3337     18.5149    153.8155   1.2338472106e+02   4.0537396418e+01    0.2037462    0.1639695  49.04  0.001422044    1.377    0.274
        84 -10.0245    138.7789    152.4100   9.4044853263e+01   2.3364058091e+01    0.2084498    0.1405269  33.49 0.0006003043    1.605    0.377
        85 -11.7989    247.4565    146.4505   7.0697304691e+01   2.3594372628e+00    0.6006967    0.4175752 -63.19  0.002858943    2.421    0.587
        86 -11.7867     51.5628    141.6748   1.1396763947e+02   3.9995859113e+01    0.6145066    0.2270022 -66.47  0.002552515    2.366    0.577
        87 -11.1071    176.6210     33.3341   5.2908183520e+01   3.6888502079e+01    0.2922339    0.2505278  69.58 0.0005216299    1.117    0.105
        88 -10.4665     97.0706     33.6197   7.0725640147e+01   5.6041281926e+01    0.2798751    0.2173131  19.81 0.0007818142    1.279    0.218
        89 -10.6508    150.9758     32.1211   5.7023784115e+01   4.3643438224e+01      0.51601    0.1871371  57.28  0.001863938    2.470    0.595
        90 -12.7517     46.7784    142.2214   1.1526220631e+02   4.0415705392e+01    0.4755808    0.4328091   1.72  0.003076213    1.483    0.326
        91  -9.8329    109.0569     27.9563   6.5054839473e+01   5.4254618628e+01    0.2382788    0.1547286  23.78  0.001132228    1.720    0.419
        92 -11.5281    241.8507     22.7692   4.2156978623e+01   2.2047643710e+01     0.363995    0.2655952 -73.37  0.001016392    1.288    0.223
        93 -10.3977    235.7138     21.5501   4.2430577795e+01   2.3608416833e+01    0.3113182    0.1264396  74.62  0.001296358    2.559    0.609
        94 -11.5684    149.2800     21.3263   5.3672326649e+01   4.5373675952e+01    0.4562804    0.2828652  60.41  0.001560554    1.485    0.327
        95 -10.9965    153.5194     21.4625   5.2963291542e+01   4.4278761137e+01    0.2580992    0.2151441  33.68 0.0006762355    1.239    0.193
        96 -10.3421    139.3335     20.9050   5.5404330168e+01   4.7923627996e+01    0.2817323    0.1903037  53.31  0.000704833    1.352    0.260
        97  -9.9642    215.1701     20.1776   4.4133707812e+01   2.8692020569e+01    0.1911703    0.1770865  64.39 0.0003240432    1.176    0.149
        98 -10.7180    208.8171     18.9364   4.4495521145e+01   3.0407392920e+01    0.3314807    0.2232777 -56.07  0.001538383    1.448    0.309
        99  -9.7574     90.3747    145.7917   1.0468492458e+02   3.3639501421e+01    0.2076028    0.1213999 -50.85 0.0009524697    1.710    0.415
       100 -11.5443    213.4538    142.1801   7.5737315381e+01   9.7359132545e+00    0.6459259    0.3664838  60.86  0.002618203    2.491    0.599
       101 -11.6691     76.1593    140.9912   1.0750320260e+02   3.6937900560e+01    0.4164754    0.1930461 -74.09  0.001579162    2.757    0.637
       102 -11.4831     57.9645    143.9601   1.1266438790e+02   3.8681657824e+01     0.663667    0.3577989  60.28  0.003102802    2.153    0.536
       103 -11.9306     35.2690    135.6368   1.1733182954e+02   4.3180982406e+01    0.4195221    0.2145978  20.31  0.002032007    2.792    0.642
       104 -11.3986     82.1318    134.1301   1.0469653381e+02   3.7682373270e+01    0.2723781    0.1880944 -67.84  0.001374331    1.383    0.277
       105 -10.7884    224.8794    134.2456   7.1807245653e+01   8.7480259605e+00    0.2845214    0.1823267  41.68  0.001353839    1.620    0.383
       106  -9.8013    240.5075     34.4611   4.5068109168e+01   2.0897041483e+01    0.1336957    0.1187832 -62.19 8.045448e-05    1.027    0.027
       107 -13.0317    203.3371    126.2517   7.3906759933e+01   1.4767500934e+01    0.8964655    0.5129012 -19.71  0.003465959    2.361    0.576
