#   1 NUMBER                 Running object number                                     
#   2 MAG_AUTO               Kron-like elliptical aperture magnitude                    [mag]
#   3 X_IMAGE                Object position along x                                    [pixel]
#   4 Y_IMAGE                Object position along y                                    [pixel]
#   5 X_WORLD                Barycenter position along world x axis                     [deg]
#   6 Y_WORLD                Barycenter position along world y axis                     [deg]
#   7 A_WORLD                Profile RMS along major axis (world units)                 [deg]
#   8 B_WORLD                Profile RMS along minor axis (world units)                 [deg]
#   9 THETA_WORLD            Position angle (CCW/world-x)                               [deg]
#  10 FWHM_WORLD             FWHM assuming a gaussian core                              [deg]
#  11 ELONGATION             A_IMAGE/B_IMAGE                                           
#  12 ELLIPTICITY            1 - B_IMAGE/A_IMAGE                                       
         1  -8.6996    150.2895     44.4356   1.7322786560e+01   4.1284688080e+01    0.2212442    0.1072055 -36.72  0.001064479    2.049    0.512
         2  -9.8079     16.4373     42.3496   6.1555584862e+01   6.9315985572e+01    0.6701289    0.2083882 -45.03  0.002484826    3.163    0.684
         3  -9.5681     97.8211     12.2403   1.5713708771e+01   5.7082890757e+01    0.3064552    0.1891376 -11.30  0.001321735    2.296    0.565
         4 -10.3255     41.1339     13.7322   3.3071460381e+01   6.9884442312e+01    0.2638549    0.1815268  42.17 0.0001907727    1.226    0.184
         5  -8.3318     80.4603     12.4586   1.9363027456e+01   6.1190896850e+01    0.2064057    0.1083046 -42.42  0.001018674    2.158    0.537
         6  -8.8517      3.2095     12.0749   5.7433421979e+01   7.6441184166e+01    0.1743312    0.1486294  73.81  0.001083783    1.970    0.492
         7  -9.2700     63.1160      9.3447   2.2577126388e+01   6.5538441867e+01     0.293246   0.07975896  55.22  0.001117604    2.703    0.630
         8  -8.4512     97.7670      4.9505   1.3076803074e+01   5.7744268473e+01    0.1385589    0.1074973 -25.69  0.000457435    1.559    0.359
         9  -8.4683     65.1363      4.8682   1.9896327198e+01   6.5479347548e+01    0.1717322    0.1261602  45.19 0.0002790036    1.276    0.217
        10  -8.0078     52.0075      3.0003   2.2946487988e+01   6.8642861824e+01    0.1508674    0.1232401  54.30            0    1.001    0.001
        11  -8.4648      2.8316      3.1520   5.2076827623e+01   7.7881991343e+01     0.166904    0.1188335   6.04 0.0003797027    1.276    0.216
        12  -9.6018     67.5226      1.3803   1.7655187189e+01   6.5212368535e+01    0.2317192    0.1011304  65.69 0.0001626806    1.864    0.464
        13  -8.6669    100.9818    246.9973   6.9466272401e+01   9.8652092065e+00    0.1546105    0.1267372  11.08 0.0004045209    1.007    0.007
        14 -10.6553    247.1097    248.3410   4.1578900613e+01  -3.7658713589e+00    0.3143376    0.1973184 -13.70 0.0008844913    1.113    0.101
        15  -9.6272    250.5797    241.7313   4.0177150795e+01  -3.2044843479e+00    0.2225467   0.09600724 -32.25 0.0009613856    1.675    0.403
        16 -10.4796    248.7449    237.9895   3.9917421756e+01  -2.6120435615e+00    0.3048987    0.1305725 -32.81  0.001654494    1.699    0.411
        17  -9.4187    213.9541    250.1457   4.6954206801e+01  -1.5175903802e+00    0.1855753    0.1155085   3.78 0.0008701741    1.338    0.252
        18  -9.8023    204.9739    249.8284   4.8423074179e+01  -7.4251999366e-01    0.2282961     0.124151  24.29  0.001489218    1.830    0.454
        19 -11.5359    166.7070    248.0654   5.5243454671e+01   2.9459774411e+00    0.7699754    0.2965615  23.98  0.003845006    2.294    0.564
        20 -11.5060    173.6612    245.1954   5.3492084048e+01   2.7207360411e+00    0.6155195    0.3989834 -38.47  0.003991264    1.539    0.350
        21 -11.2938    167.2529    242.0471   5.4312649392e+01   3.8293419464e+00    0.5224692    0.3292975  13.59  0.001845429    1.368    0.269
        22 -10.9098    169.7881    224.9366   5.1350246707e+01   6.3308584930e+00    0.5096422    0.3137709  22.80  0.003032182    1.532    0.347
        23 -11.0911    169.4216    233.3927   5.2660923160e+01   4.9888889917e+00    0.5677436    0.4566827 -51.31  0.003052997    1.701    0.412
        24 -11.9520    162.2160    227.5797   5.3267671447e+01   6.7009921367e+00     1.006536    0.4896792 -42.36  0.002918867    1.959    0.490
        25 -10.7901     54.1040    248.7963   8.1019322398e+01   1.4292707233e+01    0.5278365    0.3084949  -8.96  0.002065937    2.181    0.542
        26  -9.3419      2.4805    243.6929   9.3373371845e+01   1.9772857233e+01    0.3087919    0.1901827  -2.43   0.00169819    1.947    0.486
        27 -10.1754     12.9813    250.0913   9.1108430192e+01   1.7651440721e+01    0.3385056    0.1699615  32.99  0.001726693    1.542    0.351
        28 -11.3081     19.1342    247.6384   8.9518041344e+01   1.7656681189e+01    0.5957174    0.3511231  45.83  0.003401973    1.459    0.314
        29  -9.5172     12.3147    244.4029   9.1025395569e+01   1.8874636208e+01    0.3059708    0.1958555  29.89 0.0008551801    1.278    0.217
        30 -10.2964      8.0006    241.6686   9.1961388598e+01   1.9782585375e+01    0.3540871    0.2434482 -85.46  0.002155362    1.607    0.378
        31  -9.7894      4.0765    249.0759   9.3182388413e+01   1.8544114537e+01    0.2873197    0.1730419  46.56 0.0008426839    1.379    0.275
        32 -10.7231     73.6424    244.5338   7.5831915598e+01   1.3196919411e+01    0.2866018    0.2345563   5.85 0.0005607129    1.133    0.117
        33  -9.4942     30.7835    244.5732   8.6497183311e+01   1.7301348112e+01    0.1898764   0.09026626  33.16 0.0008469981    1.655    0.396
        34 -10.2498    239.9869    242.4843   4.1812999785e+01  -2.5322826429e+00    0.3464817    0.1384152   4.46  0.001699691    3.783    0.736
        35 -11.1852    236.7592    239.9751   4.1942997406e+01  -1.9719875992e+00    0.4122894    0.2120319  -5.45  0.001946594    1.900    0.474
        36 -10.6681     98.0727    241.5717   6.9554603782e+01   1.1196239913e+01    0.4530381    0.2479299  13.82  0.001029446    1.692    0.409
        37  -9.3495    221.3355    240.0722   4.4345677681e+01  -7.7064735130e-01    0.1942307    0.1357615  -8.99 0.0007627602    1.080    0.074
        38  -9.3829     16.1506    238.0898   8.9789267553e+01   1.9902390189e+01    0.4657702    0.1545348  46.09  0.001971071    2.548    0.608
        39  -9.1081    226.7343    238.4156   4.3256815198e+01  -9.8626191282e-01    0.1393711   0.07937592   3.17 0.0008488922    1.619    0.382
        40 -10.3826    231.1304    234.5544   4.2027040668e+01  -8.2784683196e-01    0.2632134     0.181082 -20.74 0.0008243669    1.064    0.060
        41 -11.9896    126.2933    223.3327   6.0525641410e+01   1.1512300030e+01    0.7830911    0.6263774 -60.63  0.002437245    1.607    0.378
        42  -9.9430    242.8712    224.0721   3.8774157259e+01  -3.8799957628e-01    0.2273609    0.1437068 -37.34  0.001236935    1.463    0.317
        43  -7.9752    202.3203    230.6674   4.6155788712e+01   2.1974977874e+00   0.09252913   0.08954374  -3.13 0.0005375835    1.697    0.411
        44  -9.3947    144.9974    227.9230   5.6954143638e+01   8.5290643222e+00    0.2953657    0.1800108 -31.19  0.001185719    1.577    0.366
        45 -10.0753    117.6580    227.6613   6.3150010114e+01   1.1684459414e+01    0.4201751    0.2690462  39.83  0.001356477    1.691    0.408
        46  -8.2624    195.5405    227.9438   4.6945395536e+01   3.2413086351e+00    0.1635036   0.09321219 -35.51 0.0004342797    1.511    0.338
        47 -10.6920    182.4075    226.3329   4.9114480025e+01   4.7899955557e+00    0.4497401     0.231151  34.75  0.002466732    2.233    0.552
        48  -9.8586    249.3864    226.9157   3.8261298249e+01  -1.2653423086e+00    0.2550887    0.1421417 -21.06  0.001847462    1.354    0.262
        49  -8.0926     73.4585    224.4697   7.3862313810e+01   1.7366904154e+01    0.1363225    0.1187395  16.05 0.0002445421    1.017    0.017
        50  -9.5504     66.7635    223.7944   7.5556928451e+01   1.8241705353e+01    0.2242472    0.2044226   4.66 0.0006735035    1.081    0.075
        51  -9.3750    157.5762    221.4916   5.3326698343e+01   8.2515185958e+00    0.2397284    0.1784056  -6.03 0.0008105899    1.163    0.140
        52  -9.0464    213.7276    220.9534   4.2786989229e+01   2.5556502755e+00    0.2207901    0.1503294  28.61  0.001529195    1.751    0.429
        53  -9.9653    132.8523    220.8133   5.8650419411e+01   1.1221139408e+01    0.3660432    0.1931059 -51.45    0.0014431    2.061    0.515
        54 -10.4883    130.9227    214.6546   5.8198149792e+01   1.2628558973e+01    0.3819614    0.3534895 -62.88  0.001645081    1.414    0.293
        55  -9.2633    128.0692    211.9479   5.8465992175e+01   1.3506273205e+01     0.202811    0.1869901  57.93 0.0003735241    1.439    0.305
        56  -9.7903    114.9597    220.8779   6.2884294011e+01   1.3325823020e+01    0.2354157    0.1798555  23.88 0.0006936482    1.191    0.160
        57  -9.4340    219.2689    219.1519   4.1619378996e+01   2.3051636876e+00    0.2894988    0.1649524 -20.97  0.001866145    1.477    0.323
        58  -8.6860    149.1075    219.6961   5.4861228683e+01   9.5322813571e+00    0.2422425     0.176266 -18.76 0.0008161105    1.248    0.199
        59  -9.3471    151.5060    216.0389   5.3792433030e+01   9.9128698942e+00    0.2956539    0.1730804  -0.71 0.0009540837    1.930    0.482
        60  -9.4923     75.2318    219.3610   7.2833787682e+01   1.8280926406e+01    0.2915064    0.1991142  32.65  0.001009636    1.310    0.237
        61  -8.1918    226.9807    219.3079   4.0434211115e+01   1.5912026466e+00    0.1453924     0.103797 -18.16  0.001085666    1.012    0.011
        62  -9.9480    190.2463    216.5017   4.6168363112e+01   5.5392120328e+00    0.4595492    0.2296547 -39.05  0.002225306    1.751    0.429
        63  -9.4962     61.2702    218.5215   7.6492882611e+01   2.0001307271e+01    0.2903137    0.1416412 -49.80  0.001292117    2.217    0.549
        64  -9.7462    176.0569    216.1503   4.8784118782e+01   7.1110734224e+00    0.2761141    0.1545115 -40.16  0.001201655    1.641    0.391
        65  -8.3385    143.5989    217.2179   5.5697967116e+01   1.0626048446e+01    0.1782926    0.1079236 -35.23 0.0007392528    1.585    0.369
        66 -10.6432     84.2795    215.7742   7.0013409462e+01   1.8028262916e+01    0.4400115    0.2702158 -54.18  0.002205337    1.751    0.429
        67 -10.2972    170.7497    215.1926   4.9678479040e+01   7.8588266808e+00    0.2724391    0.2088875  -7.79 0.0007105789    1.094    0.086
        68  -9.8928     23.0176    216.5031   8.6781791294e+01   2.4166434996e+01     0.374633     0.119485  19.52  0.001392335    2.844    0.648
        69 -11.2437    238.8742    230.1761   4.0237249827e+01  -8.6892767605e-01    0.4485166    0.2391358  -3.20  0.002156973    1.896    0.473
        70  -9.7379    113.0377    212.8309   6.2235204215e+01   1.5183781191e+01     0.678987    0.3504177  -8.08  0.002554607    3.187    0.686
        71  -8.9613    228.4838    214.0611   3.9414937410e+01   2.1914206915e+00    0.2065978    0.1043285 -33.03  0.001243108    1.521    0.342
        72  -8.8572    229.6725    210.6605   3.8718572231e+01   2.5623469583e+00    0.1454297   0.09085183  -2.02 0.0008359727    1.571    0.364
        73  -9.8268     64.0457    213.2464   7.5186301919e+01   2.0896574691e+01    0.4656244    0.1901118  37.14  0.001902557    2.158    0.537
        74  -9.3175    202.6911    211.8495   4.3243781471e+01   4.9853637678e+00    0.4291198    0.1523475 -44.51  0.002037437    2.614    0.617
        75 -10.8133    212.2713    206.8633   4.0858979447e+01   4.7775403897e+00    0.6190112     0.338818 -36.50  0.003816447    1.493    0.330
        76 -10.8477     78.0911    211.1374   7.1107806110e+01   1.9779187178e+01    0.4862156     0.326393  -5.01  0.002388497    1.682    0.405
        77  -9.9440    237.9471    210.2604   3.7437737285e+01   1.8786752966e+00    0.1817198    0.1399896  28.52  0.001348829    1.758    0.431
        78  -8.7053    135.3922    208.6796   5.6259942012e+01   1.3238269456e+01    0.2695833     0.142964  39.01 0.0009311657    2.051    0.513
        79 -11.8618     14.9928    197.5283   8.7821783624e+01   2.9405894383e+01     1.535651     0.345629 -54.53  0.003525397    4.471    0.776
        80 -10.9767     29.6402    171.3017   8.1100843763e+01   3.4930031381e+01      1.28554    0.3142342 -55.42  0.004010604    3.608    0.723
        81 -11.1239     22.7436    172.2836   8.3463906587e+01   3.5284086127e+01     1.413824    0.4779351  58.14  0.004047003    4.578    0.782
        82 -10.9868     20.0621    181.1911   8.5095392040e+01   3.3163725654e+01    0.7147362    0.3345895 -50.17  0.002960923    2.268    0.559
        83 -10.1046     11.0387    187.3888   8.8340393434e+01   3.2269030646e+01    0.4600212    0.2543598  21.57   0.00149403    1.708    0.414
        84 -11.7993     12.9251    179.8889   8.7242099837e+01   3.4067198546e+01    0.9143097    0.7127556 -38.23  0.004947829    1.409    0.290
        85 -11.5237      5.7223    176.4365   8.9281104208e+01   3.5485145935e+01    0.7288221    0.3693938 -65.67 0.0006007412    1.923    0.480
        86 -11.2089      3.3053    169.8716   8.9636101948e+01   3.7375601619e+01    0.9246021    0.3644911 -50.40  0.003132345    2.662    0.624
        87  -9.3908    124.0660    205.9401   5.8518229175e+01   1.5209498982e+01    0.1961914    0.1688973  -3.08            0    1.026    0.025
        88  -8.3419    224.1923    205.2417   3.8717167844e+01   3.8491813601e+00    0.1361747    0.1107001 -31.04 0.0004679711    1.307    0.235
        89  -9.7426    130.1543    201.8856   5.6429769639e+01   1.5248002532e+01    0.4438038     0.323361  74.23  0.002120854    2.552    0.608
        90 -11.9161    178.4776    196.6530   4.5188727738e+01   1.0143585243e+01     1.062887    0.4440351 -39.55  0.003799128    2.123    0.529
        91 -11.7032    172.8939    195.6007   4.6098332984e+01   1.1005011686e+01     1.268541    0.2849088 -40.98  0.004275972    4.090    0.755
        92 -10.1754    166.7525    198.6021   4.7825626058e+01   1.1225448401e+01    0.4276659    0.1831826 -41.39  0.001338236    2.123    0.529
        93  -9.0821     59.3420    200.4619   7.5103421798e+01   2.4417392961e+01     0.428809    0.2053549  22.79  0.001800173    1.918    0.478
        94  -9.1093     57.8303    196.0789   7.5043495119e+01   2.5648725128e+01    0.3404062    0.1674423 -58.73  0.001453004    2.081    0.520
        95  -8.8676    212.6606    199.0301   3.9552571698e+01   5.9257665004e+00    0.1642436    0.1135342 -28.49 0.0004230074    1.134    0.118
        96  -9.5472    105.2956    197.4664   6.1958261365e+01   1.9436906442e+01    0.3128683    0.2367636 -21.88  0.001061099    1.368    0.269
        97  -8.4928     44.5166    199.3312   7.9297596085e+01   2.6280950401e+01    0.2558545    0.1222235  21.93  0.001071835    1.927    0.481
        98  -8.2805    144.4889    198.5207   5.2572777463e+01   1.4056201436e+01    0.1357371    0.1150832  -8.58 -2.001863e-05    1.027    0.026
        99  -9.0625    112.7746    198.0551   6.0114296448e+01   1.8322334522e+01    0.4214445    0.2236166  54.71  0.001580865    3.290    0.696
       100  -8.8456    113.0545    194.2993   5.9456777453e+01   1.9095053930e+01    0.2077639    0.1722852  -7.64 0.0003400036    1.162    0.139
       101  -9.1138     51.5258    197.8871   7.7093958381e+01   2.5899905160e+01    0.3176523    0.1467731  38.78  0.001153355    1.974    0.493
       102  -9.7013    126.8420    196.5307   5.6372114775e+01   1.6775034350e+01    0.3150474    0.2270388   5.45  0.001154355    1.392    0.281
       103  -9.3566    124.5108    192.9976   5.6368619239e+01   1.7823505892e+01     0.340258    0.1889538 -35.42  0.001136079    1.884    0.469
       104  -9.5174    131.7980    195.0720   5.4944447946e+01   1.6412741104e+01    0.1958762    0.1854122  38.59 0.0007003291    1.270    0.212
       105  -8.5054     66.1859    194.5070   7.2411252017e+01   2.5067297424e+01    0.2588087    0.1627511  75.25  0.000845862    2.265    0.559
       106 -10.3901    109.4643    184.6951   5.8841932759e+01   2.1703826431e+01    0.5474228    0.3564049  18.79  0.002561082    1.534    0.348
       107 -11.9264     97.9735    188.8060   6.2591965161e+01   2.2358837543e+01    0.7039004    0.4762694  56.60  0.001582297    1.928    0.481
       108 -10.0650    104.0460    189.4539   6.1051538583e+01   2.1386223547e+01     0.300112    0.2373717  25.43  0.001002641    1.188    0.158
       109 -10.7260     93.8768    181.5048   6.2579321278e+01   2.4615944330e+01    0.4836342    0.3390386 -37.81  0.001260543    1.482    0.325
       110  -8.1368    116.9754    191.0150   5.7929783777e+01   1.9272768952e+01    0.1713634    0.1466451  13.24 0.0003440449    1.082    0.075
       111  -9.2372    185.3411    189.9428   4.2771236092e+01   1.0469241666e+01     0.234339    0.2260854  35.12   0.00146196    1.442    0.306
       112  -9.7377    183.4728    185.8911   4.2425418851e+01   1.1395541205e+01    0.2340352    0.1826365 -56.41  0.001052866    1.657    0.396
       113  -8.9112     91.0216    189.9348   6.4682956375e+01   2.3029718119e+01    0.2206714    0.2030763   0.65 0.0007674407    1.028    0.027
       114  -9.0825    248.6264    195.5321   3.3709646852e+01   2.9481219157e+00    0.2061887    0.0906624 -24.07  0.001137499    2.333    0.571
       115  -9.5943    203.8865    187.8262   3.9158431139e+01   8.6367362153e+00    0.2664692    0.2206639  53.05   0.00178003    1.915    0.478
       116  -8.5192    198.9868    185.4673   3.9588660823e+01   9.5871671834e+00    0.2094305     0.111697  25.10 0.0009390595    2.108    0.526
       117  -8.7480    155.3148    187.1405   4.8274379366e+01   1.4820267781e+01    0.2189973     0.148899 -28.31 0.0009360056    1.396    0.284
       118  -8.4414     54.8116    186.4485   7.4812011105e+01   2.8377882994e+01    0.3197685    0.1476346  68.40 0.0009564858    4.404    0.773
       119 -10.1845     46.3015    182.2007   7.6938305981e+01   3.0399380448e+01    0.8750847    0.2667139 -65.92  0.002937344    3.211    0.689
       120  -8.7365     47.2995    176.3350   7.5931066824e+01   3.1806880234e+01     0.241971    0.2180778  52.80 0.0007318033    1.116    0.104
       121  -9.3693    250.1367    185.6958   3.1989892655e+01   4.1577724709e+00    0.2441233    0.1086672 -41.91  0.001478468    1.805    0.446
       122  -9.7575    228.3135    184.0854   3.4731121849e+01   6.5444203462e+00    0.2329639      0.18272  -9.27  0.001241171    1.193    0.161
       123 -10.1964    210.6284    184.1180   3.7435604791e+01   8.4611232544e+00    0.3517512    0.1952993 -15.53  0.001879941    2.181    0.542
       124  -8.5341    217.7515    182.6408   3.6072082959e+01   7.8962162368e+00    0.1342262    0.1049758  33.65 0.0009417722    1.622    0.383
       125 -10.3649    180.9235    179.4772   4.1784645674e+01   1.2840066427e+01    0.3949727    0.2875755 -73.03  0.002047812    2.565    0.610
       126 -10.9630    204.0751    175.4911   3.7028913452e+01   1.0610071745e+01    0.4464862    0.3300702 -28.43  0.002957487    1.097    0.088
       127 -11.1543    207.8810    168.9978   3.5287183740e+01   1.1199524269e+01     0.513346    0.3354797 -43.08  0.003195176    1.367    0.269
       128  -9.2597    138.8012    180.1110   5.0739367596e+01   1.8504536312e+01    0.3037709    0.1827396  45.61  0.001422928    2.006    0.501
       129  -9.9646    104.9871    174.4940   5.8321450648e+01   2.4665681436e+01    0.7333757    0.4330823  88.69  0.002299716    4.681    0.786
       130  -9.7004    104.2943    179.5339   5.9369969473e+01   2.3606126346e+01    0.4758981    0.2507939 -57.43  0.001703204    2.047    0.512
       131  -9.3347    100.9584    177.7635   5.9988432882e+01   2.4492428493e+01    0.3165425    0.2223226  19.21  0.001097506    1.407    0.289
       132  -9.6634    158.0486    176.9406   4.5888294604e+01   1.6400469038e+01     0.429767    0.2321142 -39.07  0.001703389    1.719    0.418
       133  -8.9234    112.3936    179.1721   5.7138368543e+01   2.2522864051e+01    0.2617269    0.1879206  14.71  0.001299966    1.412    0.292
       134  -8.8146    240.3636    177.7201   3.2015362779e+01   6.2309244551e+00    0.1776815    0.1299124 -37.28 0.0007050908    1.208    0.172
       135  -8.4874    219.1999    178.1790   3.5106930749e+01   8.4225076969e+00    0.1436484    0.1185542 -39.87 0.0004624658    1.295    0.228
       136 -10.9148    150.5857    174.5537   4.7065417120e+01   1.7928931455e+01    0.5257534    0.4097526  21.71  0.002023299    1.288    0.223
       137  -9.3931     88.9894    177.2108   6.3285272597e+01   2.6316432929e+01    0.3320437    0.2483111 -88.14 0.0009873777    1.796    0.443
       138  -8.7842     87.9910    173.0341   6.2895070369e+01   2.7464885696e+01    0.2321983    0.2133624  14.75 0.0006425791    1.029    0.028
       139  -9.3970     92.0002    172.2780   6.1601016723e+01   2.7075697217e+01    0.3872874    0.2347466  33.43  0.001003481    1.568    0.362
       140  -8.1872    117.9903    176.0069   5.5125839071e+01   2.2410055023e+01    0.1736536    0.1587567 -23.24 0.0004690195    1.059    0.056
       141  -8.6442     77.4896    175.7908   6.6455836364e+01   2.8236542220e+01    0.2888147    0.1632385  54.78  0.001142676    2.298    0.565
       142  -8.7150    223.9626    172.2382   3.3403240583e+01   8.7977825993e+00    0.1532575    0.1274001 -16.93 0.0004157599    1.130    0.115
       143  -8.6184    193.2520    172.5590   3.8338889977e+01   1.2446719990e+01    0.1564351    0.1099357  10.99 0.0006288021    1.594    0.373
       144  -8.1706    179.6637    169.7055   4.0270457598e+01   1.4743485242e+01     0.131545    0.1158267 -29.65  0.000327713    1.102    0.092
       145  -8.7818    176.8136    167.8095   4.0459329468e+01   1.5477521028e+01    0.2017864    0.1730728 -25.69 0.0006047405    1.022    0.021
       146  -8.8455    135.2107    171.4185   5.0013720408e+01   2.0833839417e+01     0.194768    0.1276915  41.48  0.000947068    1.652    0.395
       147  -8.8439    121.4724    169.8377   5.3118055672e+01   2.3250847733e+01     0.275263    0.2263294  67.46  0.001426856    1.619    0.382
       148  -8.6454     55.2837    169.7095   7.2504699821e+01   3.2615591912e+01    0.3570522    0.1586581  58.32  0.001105205    3.710    0.730
       149  -9.6509    199.8714    167.1816   3.6262773795e+01   1.2502429515e+01    0.2685791    0.1626656 -22.49 0.0005253084    1.726    0.421
       150  -9.1913    160.3092    166.1938   4.3434265549e+01   1.8143591395e+01    0.4992938    0.2297031 -56.79  0.001942253    3.035    0.671
       151 -11.7708    249.3956    154.1378   2.7027150134e+01   8.6426197404e+00    0.7425299    0.2574368 -44.27  0.003853098    2.329    0.571
       152 -10.9415    150.0736    163.6393   4.5139667659e+01   2.0178908162e+01    0.4556659    0.3522657 -15.71  0.001539555    1.338    0.253
       153  -9.3049     98.2017    165.4745   5.8629772781e+01   2.7790266926e+01     0.435769    0.2613747  59.44  0.001640303    2.515    0.602
       154  -8.2662     80.7005    164.8966   6.3722993005e+01   3.0503177941e+01    0.3094988    0.1877018  82.76  0.001121089    2.994    0.666
       155  -8.7482     37.9050    164.7775   7.7614318498e+01   3.5861947223e+01    0.2946385    0.1759625  66.14  0.001047219    2.044    0.511
       156  -8.3193    130.3136    164.7096   4.9941964363e+01   2.3006342330e+01    0.1355753    0.1139391  69.80 0.0004745645    1.590    0.371
       157  -8.7979      1.4086    162.2644   8.9769340288e+01   3.9523933954e+01    0.2488962    0.1271685 -75.14  0.000684106    1.874    0.466
       158  -9.5836    232.2070    160.3744   3.0245927330e+01   9.6506249621e+00    0.2086118     0.101516  41.89  0.001209961    2.674    0.626
       159 -10.5002     23.5035    159.9721   8.2005464172e+01   3.8527683376e+01    0.7878195    0.3286836   0.44  0.002574372    3.484    0.713
       160  -9.9519     99.9989    159.0835   5.6939245256e+01   2.9036173568e+01    0.3486829    0.3288838 -43.12 0.0009725498    1.090    0.083
       161  -9.2428     99.7718    153.5559   5.5947714079e+01   3.0389175249e+01    0.4278237    0.2628785 -72.15  0.001408759    2.290    0.563
       162  -8.7159     92.6869    160.1472   5.9269500630e+01   2.9907191829e+01    0.2333699    0.1921989  83.03  0.001150551    1.534    0.348
       163  -8.9366    220.2309    159.4132   3.1747566495e+01   1.1209474216e+01    0.1307525    0.1121433  48.93 0.0009113155    1.611    0.379
       164 -10.3819    143.3384    158.5453   4.5664264574e+01   2.2257843474e+01    0.6025075    0.2276521  43.14  0.002239767    2.963    0.663
       165  -9.3149    166.4176    157.1372   4.0465964428e+01   1.8960239421e+01    0.3984848    0.2586448  60.18  0.001893653    2.504    0.601
       166  -9.3349    105.1423    157.5856   5.5193659256e+01   2.8580679853e+01    0.2843347    0.2292934  80.87 0.0009386468    1.657    0.397
       167  -9.8003    224.7004    157.1850   3.0727364834e+01   1.1013131248e+01    0.1644201    0.1617651 -46.93  0.001310483    1.377    0.274
       168  -9.5668    208.2105    156.7340   3.3062523851e+01   1.3144713667e+01    0.3050138    0.1790847  42.95  0.001777212    2.113    0.527
       169 -11.3022    206.2227    150.1326   3.2170256548e+01   1.4482432913e+01     0.614265    0.3883863 -51.40  0.003404857    1.631    0.387
       170  -9.6806    206.9620    142.0405   3.0565593935e+01   1.5700057540e+01    0.2444906    0.1482956 -35.83 0.0005845217    1.389    0.280
       171  -8.8519    138.8918    164.9641   4.7932891501e+01   2.1623619778e+01    0.2851939    0.1974333 -76.98  0.001121694    2.454    0.592
       172  -8.7559    127.6306    156.8217   4.9077697322e+01   2.5136869468e+01    0.2281028    0.1682515 -32.51 0.0005352373    1.365    0.268
       173  -9.0204     49.7404    155.2133   7.2282828854e+01   3.7108949940e+01     0.411887    0.1857441  46.59  0.001488168    2.451    0.592
       174  -9.4974    233.7748    154.2957   2.9005106774e+01   1.0374471970e+01    0.2054922    0.1321773 -35.41  0.001385169    1.186    0.157
       175 -10.1659    134.5829    153.7331   4.6760398271e+01   2.4670311471e+01    0.4960258    0.3426979  63.57  0.001541951    2.176    0.541
       176  -8.6425    119.3517    154.6779   5.0769064008e+01   2.6955845076e+01    0.3080316    0.2223766 -84.99  0.001366877    2.183    0.542
       177  -9.4933     81.8316    154.4230   6.1530482221e+01   3.2960902088e+01    0.3670816    0.2522241  67.16  0.001342407    2.000    0.500
       178  -9.0060     81.9615    149.9121   6.0650908651e+01   3.4073464545e+01    0.3287327    0.1952962  -2.43  0.001192208    2.681    0.627
       179  -9.8578     68.5529    154.0606   6.5739174141e+01   3.4974249527e+01    0.4625599    0.2951622  57.77  0.001374517    1.943    0.485
       180  -9.7071      4.8678    152.0179   8.7833358401e+01   4.2087539990e+01    0.4138469      0.21808  63.00  0.001300825    2.081    0.519
       181 -10.5798    223.4658    148.4505   2.9370775440e+01   1.2505797979e+01    0.3600276    0.3135656 -14.32  0.001749098    1.192    0.161
       182  -8.8392    190.0106    150.7959   3.4908790486e+01   1.6626274661e+01    0.1760772    0.1659878 -65.58  0.001196851    1.303    0.233
       183  -8.7376     88.5010    151.0198   5.8821871384e+01   3.2787644448e+01    0.3568015    0.1958765  23.67  0.001428343    1.944    0.486
       184  -9.2109     28.3576    149.3495   7.9077561539e+01   4.0988638346e+01     0.479146     0.205363  61.71  0.001515731    3.567    0.720
       185  -9.3685    125.1623    143.1367   4.6904229682e+01   2.8535348876e+01    0.5028418    0.3012396 -75.31  0.001791775    3.393    0.705
       186  -9.3598    107.4006    138.3899   5.0649198288e+01   3.2684141330e+01    0.5951839    0.4055023  70.82  0.002476866    2.299    0.565
       187 -10.1338    122.8533    146.5489   4.8208435198e+01   2.8180663549e+01    0.6172611     0.466705  -2.72  0.002683833    1.602    0.376
       188  -9.8790    117.2840    144.2201   4.9178852315e+01   2.9648695322e+01     0.776637    0.2855113  51.16  0.002110226    5.006    0.800
       189  -9.7166     39.6663    147.1634   7.4670601699e+01   4.0435637491e+01    0.6391979    0.2883789  59.47  0.002044345    3.437    0.709
       190  -8.8813     77.2949    147.2521   6.1645810250e+01   3.5453520727e+01    0.2683774    0.1888128 -52.64  0.000940763    1.432    0.302
       191  -9.0842    158.5364    146.1109   3.9879576669e+01   2.2306569497e+01    0.3613025    0.2058068 -14.87  0.001356009    3.380    0.704
       192  -9.8828     56.1437    145.3013   6.8470929032e+01   3.8953626694e+01    0.5762666    0.2720529  48.22   0.00171503    2.467    0.595
       193  -9.3910     60.9820    145.0000   6.6724728482e+01   3.8386584819e+01    0.4690486   0.09780588  26.72  0.001172048    4.669    0.786
       194 -10.9489    217.9320    165.2343   3.3093407753e+01   1.0579078354e+01    0.4103399    0.3181106  13.38  0.002305842    1.457    0.313
       195 -10.6931    245.5233    138.4795   2.4870040050e+01   1.1301301320e+01    0.2318774    0.1375222 -32.89  0.001157107    1.362    0.266
       196  -9.7344    148.8521    144.7858   4.1663291801e+01   2.4161119286e+01    0.4294221    0.3024243 -85.81  0.001900412    2.605    0.616
       197  -8.8745    143.0295    146.0194   4.3215717523e+01   2.4883500427e+01    0.2267022    0.1665303  -8.54 0.0009145891    1.688    0.407
       198  -8.2754    134.2822    146.6575   4.5390613128e+01   2.6221504551e+01    0.1391106    0.1149793 -88.67 0.0004623923    1.634    0.388
       199  -9.4772    106.9705    144.8490   5.2136222789e+01   3.1259078398e+01    0.5002081     0.307284  73.50   0.00170672    3.561    0.719
       200  -8.2864     13.7186    146.5425   8.4134981621e+01   4.2987844847e+01    0.2116071    0.1235046  33.07 0.0009439972    1.661    0.398
       201 -10.7271     70.5158    142.4055   6.2975888616e+01   3.7707369905e+01    0.5900177    0.4659241 -82.63  0.002601067    1.492    0.330
       202  -8.0513    165.4638    143.9780   3.8055898067e+01   2.1596411053e+01    0.1811872    0.1129778 -64.93 0.0008073056    2.397    0.583
       203  -8.9420     88.0621    143.8604   5.7551061554e+01   3.4623162267e+01    0.3212888    0.2102671  64.74  0.001301936    2.202    0.546
       204  -8.8866      3.3156    143.2059   8.7684483652e+01   4.4594424609e+01    0.2930526    0.1432595  70.53  0.001008596    2.382    0.580
       205  -9.0354    195.4091    145.8059   3.3068197399e+01   1.6706592999e+01    0.2363062    0.1031116 -45.50 0.0008431277    2.021    0.505
       206  -9.3247    192.5757    133.7797   3.1207526121e+01   1.9167422466e+01    0.2031313    0.1627366 -60.53  0.001268606    1.391    0.281
       207 -10.9275    197.7009    136.2135   3.0872589556e+01   1.7987965362e+01    0.4661237    0.3466152  -8.81  0.002373481    1.650    0.394
       208  -9.4522    202.9672    136.2333   3.0071838345e+01   1.7214530124e+01    0.1858255    0.1732884  -0.87 0.0003913027    1.203    0.169
       209 -10.4045     41.0970    135.5690   7.2359414136e+01   4.3428938689e+01     1.031887    0.8033864  53.52  0.004114642    1.374    0.272
       210  -9.5083     46.3132    133.6456   7.0054399102e+01   4.3327343268e+01    0.3186608    0.2284794  77.95  0.000981598    1.729    0.422
       211 -10.0152     43.7994    129.3925   7.0269782466e+01   4.4781207160e+01    0.5280026    0.3063177  64.14  0.002022231    2.411    0.585
       212  -9.4038     23.9047    138.5131   7.9379770650e+01   4.4375786399e+01    0.5581862    0.2624606  58.77  0.001990652    2.799    0.643
       213  -9.4007     28.6132    117.1731   7.4303456270e+01   4.9783534747e+01    0.6152159    0.1970643 -38.88  0.001672531    4.499    0.778
       214  -9.8156     28.5213    122.8110   7.5276792334e+01   4.8258528174e+01    0.5409786    0.3730727  53.72   0.00250348    1.612    0.380
       215  -9.4047     22.2423    131.5331   7.9112454984e+01   4.6447146673e+01     0.822317    0.3110617 -32.68  0.002447462    3.984    0.749
       216  -8.8584     24.6936    126.0266   7.7346419799e+01   4.7743507719e+01    0.2550395    0.1991068  33.43 0.0005400341    1.284    0.221
       217  -9.7353    234.2491    136.9207   2.5944118743e+01   1.2893444038e+01     0.283646    0.1853971 -26.25  0.001238795    1.469    0.319
       218  -9.1469     81.6606    136.7290   5.8136856468e+01   3.7425449320e+01     0.365079    0.1746349 -42.36  0.001340957    2.294    0.564
       219  -8.5506    161.5538    136.9836   3.7394436178e+01   2.3564276186e+01    0.2116922    0.1812284  34.96  0.001252527    1.266    0.210
       220  -8.2121     91.5966    135.8029   5.4777405074e+01   3.6011318684e+01    0.1947234    0.1493463 -68.27 0.0002464172    1.485    0.327
       221  -9.6490    132.1676    131.2272   4.2588855176e+01   2.9852258410e+01     0.386631    0.2421555 -64.48  0.001252368    2.108    0.526
       222 -10.0370    109.9625    131.5379   4.8423521533e+01   3.3802068438e+01    0.6496524     0.441377  35.32  0.002234229    1.481    0.325
       223  -9.8565    118.1970    118.5190   4.3173887565e+01   3.5154036334e+01    0.5564482    0.2623886 -49.02  0.001955792    2.114    0.527
       224 -10.8904    116.5704    124.9016   4.5106050886e+01   3.4075236175e+01     0.835635    0.5834652  43.20  0.003858258    1.453    0.312
       225 -11.0110    107.8037    113.2332   4.4717258959e+01   3.8297631265e+01     1.158305    0.5603384 -47.05  0.004585879    2.065    0.516
       226  -9.3344    105.1905    123.5991   4.7958717808e+01   3.6475779838e+01    0.3009607    0.2371083  20.84  0.001012581    1.390    0.280
       227 -10.1228    109.1109    121.1135   4.6258268652e+01   3.6306327542e+01    0.4449025    0.2995621 -49.44    0.0007985    1.485    0.327
       228  -9.7448     83.7256    131.8328   5.6426439870e+01   3.8303226295e+01    0.4502779    0.3152261  72.81  0.001275143    2.061    0.515
       229  -9.5281    209.4663    131.8465   2.8294145655e+01   1.6990152779e+01    0.2138396    0.2084166 -25.77 0.0009205609    1.205    0.170
       230  -8.3038    143.3014    131.6560   4.0102125399e+01   2.7765123449e+01    0.1404105    0.1118618 -83.01 0.0007038299    1.680    0.405
       231  -9.4563     13.0924    129.4426   8.2518440349e+01   4.7754005312e+01    0.4730543    0.2219841  59.10  0.001740458    2.706    0.630
       232 -11.0459    245.3225    127.6921   2.3054968571e+01   1.2857992932e+01    0.4587115    0.2899734 -69.18  0.002750662    2.636    0.621
       233  -9.7901     99.5019    128.1715   5.0683021296e+01   3.6454715462e+01    0.5292456    0.3499453  80.80  0.002012524    2.751    0.636
       234  -9.2761     73.2463    129.4043   5.9424265536e+01   4.0616595926e+01    0.3077781    0.2210332  59.20 0.0009009115    1.669    0.401
       235  -8.6916    153.0659    129.1329   3.7450634293e+01   2.6533470180e+01    0.3464987    0.1631683 -61.60  0.001125756    4.084    0.755
       236 -10.1600    228.0085    125.7709   2.4729463683e+01   1.5358016494e+01    0.3041254    0.2102493 -53.87  0.001099204    1.428    0.299
       237  -9.9230     60.0028    124.4614   6.3138384861e+01   4.3912364598e+01     0.626132     0.345847  67.54  0.002048306    3.407    0.706
       238 -10.1708     44.4214    123.0879   6.8869613910e+01   4.6397609440e+01    0.7141966    0.3906531  66.65  0.002307179    2.977    0.664
       239  -9.3464    181.2236    120.7570   3.0427988212e+01   2.3216129655e+01    0.5579236    0.2979942 -22.55  0.002274271    3.164    0.684
       240  -9.2231    135.0644    124.3975   4.0364915688e+01   3.0740502643e+01    0.2876878    0.1873054  21.08  0.001273101    2.100    0.524
       241  -9.7533    141.5855    120.1581   3.7912098993e+01   3.0382871969e+01    0.4352397    0.3228589 -42.29  0.002053125    1.289    0.224
       242  -8.8036     84.0450    121.9743   5.4115401350e+01   4.0662130205e+01    0.2563067    0.1872726 -15.98  0.001131941    1.749    0.428
       243  -8.1668    158.5458    121.4890   3.4675863247e+01   2.7018166815e+01    0.1359736    0.1236921 -55.06 0.0002338384    1.086    0.079
       244 -10.9473     15.4697    113.2542   7.9375817329e+01   5.2024612466e+01    0.8868821     0.427426 -65.70  0.003650945    1.939    0.484
       245 -10.8129     23.6251    102.3981   7.3860086883e+01   5.4241900588e+01    0.9612808    0.4009192  56.44  0.002840745    4.375    0.771
       246 -10.1861     22.5462    109.8530   7.5692294253e+01   5.2348259773e+01    0.4087739    0.2974798 -88.16  0.001033795    1.557    0.358
       247 -11.2349     16.8774    104.5784   7.7376190401e+01   5.4260383118e+01    0.6587322    0.4038312 -40.67  0.002180013    1.615    0.381
       248  -9.1898    131.0756    118.6492   3.9979336428e+01   3.2669805903e+01    0.3221488    0.2214731 -77.02  0.001410725    2.201    0.546
       249  -9.6551      2.4975    116.3201   8.5446137912e+01   5.2037153569e+01    0.5325318     0.252756  72.15  0.002005209    2.730    0.634
       250 -10.1249    184.8976    113.6577   2.8356731372e+01   2.3810991533e+01    0.3887434    0.2863397 -77.46  0.001687701    1.796    0.443
       251  -9.8162     79.1899    112.4038   5.3471316485e+01   4.3821568352e+01    0.4752575    0.3276595  83.34  0.001575702    2.306    0.566
       252  -9.7736     66.0912    110.0710   5.7619265269e+01   4.6623527810e+01    0.4687137    0.2933214  74.73  0.001704936    2.857    0.650
       253  -8.5741     59.4135    109.2572   5.9982615704e+01   4.7892714563e+01    0.2105548    0.1517293 -72.76 0.0009452539    1.636    0.389
       254  -9.8258     61.6662    105.8488   5.8280142275e+01   4.8386315639e+01    0.2926201    0.2282591  19.14 0.0006287085    1.318    0.241
       255  -9.7529    133.9393    108.1550   3.6803339409e+01   3.4226804309e+01    0.5249584    0.2009241 -45.49  0.001946322    2.532    0.605
       256 -10.0402    248.3853    116.4203   2.0795071165e+01   1.4056988055e+01    0.2430581    0.2096901 -71.07  0.002000175    1.401    0.286
       257 -10.7771    250.1829    101.1146   1.7985948335e+01   1.5916977500e+01    0.6457863    0.1620834 -35.50  0.002577247    3.997    0.750
       258  -9.6171     92.8675    112.7377   4.9046227246e+01   4.1252632059e+01    0.4334097    0.3158709  88.20  0.001358099    2.017    0.504
       259  -8.9374     71.1968    119.9853   5.8073443274e+01   4.3319696013e+01    0.2524903    0.1800206  81.62  0.001064551    2.009    0.502
       260  -9.0846    121.6311    112.0612   4.0725207826e+01   3.5855646113e+01    0.3243421    0.2450922  89.29   0.00123275    1.829    0.453
       261 -10.1989     45.8932    102.3018   6.3871312611e+01   5.1644269779e+01       0.8126    0.4046975  60.83  0.002489917    3.992    0.749
       262  -8.7121    150.5295    103.9539   3.2263052272e+01   3.1775702238e+01    0.2887225    0.1600996 -58.51  0.001251937    2.167    0.538
       263  -8.5067    139.8055    104.5788   3.4630455951e+01   3.3761308215e+01    0.1935638    0.1330178  63.30 0.0007199117    1.695    0.410
       264  -8.8622     93.9434    103.5809   4.6365802523e+01   4.3116497345e+01    0.4766071    0.1963353  29.99  0.001451071    3.601    0.722
       265  -9.6711     35.2238    103.0414   6.8707837773e+01   5.2826087403e+01    0.3772008    0.2577823  63.91  0.001113048    1.877    0.467
       266 -10.2707     29.4985    100.9137   7.0854453640e+01   5.4032617653e+01    0.5688668    0.2441591  42.81   0.00140862    2.577    0.612
       267 -10.9147    131.1579    101.6533   3.5837997609e+01   3.6052794357e+01     0.708132     0.380817  32.58   0.00282709    2.579    0.612
       268  -8.5132     82.4500     99.9510   4.9147558690e+01   4.6135313440e+01    0.2093223    0.1372555 -79.53 0.0008077524    2.474    0.596
       269 -10.1601     64.2424     96.5167   5.4871472361e+01   5.0219443332e+01    0.5596657     0.366197 -89.37  0.002118975    2.677    0.626
       270  -8.6469     95.0537     97.0065   4.4258837842e+01   4.4332628977e+01    0.2356068    0.1845741  86.35 0.0005696133    1.663    0.399
       271 -10.5118     22.3771     92.2955   7.2442087741e+01   5.7010518061e+01    0.4867653    0.3906122 -24.23  0.001636491    1.239    0.193
       272  -8.6897    118.0118     94.0000   3.7027658196e+01   4.0243652971e+01    0.2404162   0.08147633  47.55 0.0008026867    2.944    0.660
       273  -9.3743      7.0157    103.0112   8.1739653351e+01   5.5393818598e+01    0.2333172    0.1586948  53.64 0.0005702997    1.664    0.399
       274  -8.5410    107.6283     91.6937   3.9135430205e+01   4.2864643357e+01    0.2223557    0.1772345   5.52 0.0007860353    1.677    0.404
       275  -9.3988     45.2506     91.5854   6.1502238862e+01   5.4414605827e+01    0.6109414    0.2500793  21.74  0.002056551    2.886    0.654
       276  -9.6780      5.1054     91.7701   8.0983574631e+01   5.8505293316e+01    0.3709947    0.1799834  47.11  0.001361718    2.462    0.594
       277  -9.0225    124.7649     90.8669   3.4549489865e+01   3.9434943549e+01    0.3125241    0.2245838  89.39  0.001385113    1.901    0.474
       278 -10.0183    108.7923     98.4058   4.0632784114e+01   4.1259086447e+01    0.5448399    0.3726466  81.18  0.001941734    2.287    0.563
       279  -9.6291     34.8918     89.5038   6.5744652158e+01   5.6326688039e+01    0.4930822    0.3009676  80.50  0.001826951    2.850    0.649
       280  -9.4970     36.7246     81.2732   6.2713687142e+01   5.8104847887e+01    0.6539419    0.3318968 -15.44  0.002022534    4.078    0.755
       281  -9.2459     86.5432     86.6472   4.4037243461e+01   4.8241380931e+01    0.3556083    0.2490694  73.95  0.001358686    2.029    0.507
       282  -9.3340     48.3052     84.0302   5.8075388216e+01   5.5772250449e+01    0.3752811    0.2442856  60.97  0.001252674    2.146    0.534
       283  -9.5563      7.5076     84.4900   7.8497515015e+01   6.0251421786e+01    0.3244292    0.2237373 -50.30  0.001256622    1.339    0.253
       284  -9.5254      8.3451     80.7012   7.7328431720e+01   6.1164929070e+01    0.2730521    0.1898252  35.79 0.0007491275    1.530    0.346
       285  -8.9180    116.8502     82.9240   3.4298083145e+01   4.2602381069e+01    0.2041534    0.1923892   6.74  0.000288263    1.214    0.176
       286  -8.9134    104.7934     82.9475   3.7450929950e+01   4.5182843185e+01    0.2709008    0.1988698 -68.08 0.0008439861    1.641    0.390
       287 -10.2546    187.2122     80.3970   2.0919872749e+01   2.8719429880e+01    0.4881694    0.3834241  47.09  0.001978127    1.559    0.359
       288  -9.4356     24.7347     80.6644   6.8587097879e+01   5.9711237490e+01    0.4316235    0.2625825  68.60  0.001441104    2.639    0.621
       289  -8.8723     86.4700     80.5311   4.2238295698e+01   4.9514590672e+01    0.2788548    0.1351174  34.26  0.001029491    2.440    0.590
       290  -8.3224     74.9838     80.5296   4.6191818021e+01   5.1826948118e+01    0.2095824    0.1239706  61.90 0.0006504737    2.398    0.583
       291  -9.0165     49.6872     76.7465   5.5295220830e+01   5.7226375937e+01    0.3523889    0.1991363  16.22  0.001008028    2.305    0.566
       292  -8.8515    176.0056     76.2112   2.1501211254e+01   3.1458132023e+01    0.1955599    0.1170005 -56.33 0.0007094663    1.625    0.385
       293  -8.3208    105.3621     76.3052   3.5353186011e+01   4.6312818526e+01    0.1471997    0.1140627  16.99 0.0007038398    1.734    0.423
       294  -8.4523    128.0203     75.0454   2.9538154385e+01   4.1584516014e+01    0.2297407    0.1618839 -76.63  0.000729639    1.766    0.434
       295  -8.1537     13.6792     74.2857   7.2999872180e+01   6.2359496234e+01    0.1481025    0.1294697 -22.89 0.0002426682    1.058    0.054
       296  -9.5940     10.0297     74.1035   7.5013885422e+01   6.2700166440e+01    0.2340515    0.2084275   5.69 0.0003569405    1.102    0.092
       297  -9.1663     82.5026     72.3520   4.0997916107e+01   5.1955897714e+01     0.304883    0.2256913 -85.31 0.0009350531    1.933    0.483
       298  -9.7252     28.8632     70.1880   6.3560929408e+01   6.1741965101e+01    0.8457355    0.3900685 -16.65  0.002201673    6.032    0.834
       299  -8.6043     95.4977     71.4523   3.6644689854e+01   4.9352871783e+01    0.2585129     0.132132 -54.60 0.0009376585    2.397    0.583
       300  -9.4136     51.5312     69.3908   5.2113025341e+01   5.8527176686e+01    0.4624417     0.265951 -70.24  0.001747869    3.013    0.668
       301  -9.8477      5.3745     70.1844   7.6838823621e+01   6.4001581564e+01    0.3981919    0.1327805 -69.94  0.001411566    3.146    0.682
       302  -8.7147     16.4036     69.4962   7.0269040675e+01   6.3278583195e+01    0.3208898    0.1453198 -71.20  0.001230705    2.766    0.639
       303  -9.0113      1.6183     68.8980   7.8791729022e+01   6.4550762638e+01    0.2326341    0.1454696 -45.81 0.0009888265    1.443    0.307
       304  -8.8877     83.7686     64.4716   3.8001151194e+01   5.3165529723e+01    0.4519201     0.272653  13.46  0.001516676    3.976    0.748
       305  -8.8075     37.4102     64.1569   5.7166780681e+01   6.1925687853e+01    0.1906997    0.1416808 -68.89 0.0009426079    1.708    0.415
       306  -9.6612     18.4809     61.3897   6.6783543284e+01   6.4970237125e+01    0.3213409    0.2316062 -23.07 0.0009212897    1.391    0.281
       307  -9.3120     73.4909     59.6648   3.9850778531e+01   5.6218520177e+01    0.2962553    0.2234049 -81.23 0.0008808802    1.875    0.467
       308  -8.4059    111.1852     58.0184   2.8334857812e+01   4.8142989175e+01    0.2115874    0.1630132   6.64 0.0006690098    1.936    0.483
       309  -9.7416     39.0593     57.3313   5.3936328682e+01   6.3112978373e+01    0.2587675    0.1920811 -18.52  0.001318974    1.523    0.343
       310  -9.9187      7.3451     57.1441   7.2443534557e+01   6.6977689016e+01    0.2999403     0.224565  70.62  0.001156545    1.831    0.454
       311  -9.8555      2.2497     56.2177   7.5510022410e+01   6.7558894110e+01    0.3465555    0.2752873 -69.73  0.001894869    1.387    0.279
       312  -8.5548     62.9074     54.5593   4.1998514318e+01   5.9315159785e+01      0.26281      0.18853 -64.87   0.00067773    1.876    0.467
       313  -9.1718     25.7612     54.8215   6.0345790075e+01   6.5563837923e+01    0.2383394    0.1302294 -18.55 0.0009121802    2.696    0.629
       314  -7.9995    100.7066     54.6400   2.9824255248e+01   5.1062650339e+01    0.1392652     0.109022  19.59 0.0007030244    1.699    0.411
       315  -8.6119     54.2165     53.8078   4.5363556361e+01   6.1152582100e+01    0.2273709    0.1570227  83.45 0.0009424295    2.777    0.640
       316  -8.7400     20.4215     53.1561   6.2961149052e+01   6.6583918760e+01    0.1802634    0.1368305 -73.49 0.0009442638    1.719    0.418
       317  -8.7290     92.5196     50.5422   3.0630333283e+01   5.3567715741e+01    0.2380628    0.1241555 -50.03  0.000746229    2.217    0.549
       318  -9.0564     30.9050     51.1909   5.6062263055e+01   6.5608428812e+01    0.2076617    0.1843572  48.27  0.000659582    1.290    0.225
       319 -11.2850     45.5665     48.8670   4.7439054973e+01   6.3663816282e+01    0.2881267    0.2602115 -27.93 0.0005226822    1.181    0.153
       320  -8.5566     81.8670     46.8548   3.2431259345e+01   5.6545665950e+01    0.1850589    0.1603931 -88.06  0.000447546    1.283    0.220
       321  -8.5741     64.6132     46.7760   3.8348394131e+01   6.0308948709e+01     0.310216    0.1512172  26.11 0.0009589387    4.368    0.771
       322  -8.9335     22.5518     46.6280   5.9272615249e+01   6.7689502411e+01    0.3018676    0.1568736  20.34  0.001349983    1.925    0.480
       323  -9.3317     54.9789     45.8195   4.1890853860e+01   6.2430381749e+01    0.2375304    0.1529196  20.05 0.0008931422    2.017    0.504
       324 -10.2189    196.0806    248.6004   4.9805354945e+01   1.8233789329e-01    0.2645237    0.1734987  15.49  0.001242831    1.393    0.282
       325  -9.0163    148.2372    248.9603   5.9126078182e+01   4.6166998893e+00    0.2375783    0.1751298  29.42  0.001347049    1.458    0.314
       326 -10.1495      4.9656     40.5456   6.8937854349e+01   7.0854579827e+01    0.5026073    0.2399392 -77.52  0.001882795    3.988    0.749
       327  -8.8495    113.9226     41.1405   2.2441290350e+01   4.9969931167e+01    0.1974371    0.1739114  69.74 0.0003102898    1.060    0.056
       328  -8.2834     69.3596     41.1822   3.4389172258e+01   6.0182106280e+01    0.1843046    0.1273175 -50.51 0.0004242244    1.698    0.411
       329  -8.4496     36.8657     40.8538   4.8564026461e+01   6.6639140982e+01    0.1832054    0.1576274  52.86 0.0005753784    1.331    0.249
       330  -9.0293    123.4276     40.0917   2.0320417942e+01   4.7902264219e+01    0.2109898    0.1634689  60.79 0.0004235847    1.235    0.191
       331  -8.6005     84.0807     39.8727   2.9187054509e+01   5.7078425164e+01    0.2224586     0.155282  30.11  0.001114886    1.749    0.428
       332  -8.4410    106.6509     36.6986   2.2491278212e+01   5.2253849192e+01    0.2055025     0.146749  35.44 0.0007510093    1.726    0.421
       333  -8.8128     25.9637     36.3474   5.2883794022e+01   6.9197280674e+01    0.2080206    0.1912691 -57.86  0.001038604    1.370    0.270
       334  -9.0499    218.4783     35.5581   8.5969331778e+00   2.9045860533e+01    0.1083565    0.0815694 -59.80 1.860323e-05    1.007    0.007
       335  -8.6452     37.8954     35.3719   4.5576259433e+01   6.7407689900e+01    0.1988631     0.112767  29.76  0.000475318    1.748    0.428
       336  -8.7233      1.5893     45.9707   7.3141581310e+01   6.9937853058e+01    0.1793682    0.1495688 -42.44 0.0003731411    1.158    0.136
       337  -8.6679    119.4941     33.5026   1.8993629581e+01   4.9647455605e+01    0.2218414    0.1058436 -46.02 0.0008023453    2.149    0.535
       338  -9.6746      6.5491     33.2352   6.4990172634e+01   7.2213938979e+01    0.2458498    0.1688787  16.54 0.0009873165    1.311    0.237
       339  -8.7989    222.4808     32.4896   7.7432770485e+00   2.8715590139e+01    0.1074785   0.07950819 -58.93 0.0008102891    1.002    0.002
       340  -8.2337     60.4979     32.5523   3.4051091384e+01   6.3367484234e+01    0.1365544    0.1202943  51.68 0.0001360907    1.058    0.054
       341  -8.8249     12.6460     30.8586   5.9393074806e+01   7.2012113497e+01    0.2352123    0.1949718  60.97  0.001066882    1.720    0.419
       342  -7.9447    130.4820     45.5420   2.0696140279e+01   4.5559929993e+01    0.1309569    0.1185641  83.13  9.44044e-05    1.054    0.051
       343  -8.7211      1.5989     27.8723   6.6710837643e+01   7.3732612258e+01    0.2028932    0.1347329 -28.35 0.0006084284    1.410    0.291
       344  -8.2433     81.6463     27.3157   2.5048109612e+01   5.9294014833e+01    0.1379642   0.09861312 -81.36 0.0007046053    1.739    0.425
       345  -7.9546     62.2856     26.6840   3.0810923107e+01   6.3774748299e+01    0.1274924    0.1024283 -85.05 0.0004112204    1.585    0.369
       346  -9.7171     44.4049     25.2303   3.7481343864e+01   6.7736182597e+01    0.2275913    0.1883419  45.90  0.000317309    1.107    0.097
       347  -7.7115    118.6728     24.6649   1.6363440852e+01   5.0869088970e+01    0.1295681   0.09176584  40.71 0.0007051735    1.721    0.419
       348  -8.4205    110.4786     24.1215   1.7568498934e+01   5.2858066507e+01    0.1672679     0.129164 -34.19 0.0004097146    1.466    0.318
       349  -8.6925     67.2069     23.9213   2.7915066422e+01   6.3022867213e+01    0.1578915    0.1081607 -33.45 0.0004606622    1.677    0.404
       350  -8.3402     58.7934     22.1338   3.0010927798e+01   6.5116768579e+01    0.1797706    0.1375555  32.96 0.0003896784    1.316    0.240
       351  -9.9901     13.0991     21.0342   5.4236225077e+01   7.3708439889e+01    0.2861065    0.2125071  18.33 0.0006832631    1.157    0.136
       352  -9.5306    188.9016     20.4085   7.5914109900e+00   3.6115955836e+01    0.1960846    0.1518037 -40.75 0.0007699472    1.339    0.253
       353  -8.4616     84.8864     21.1997   2.1813662811e+01   5.9242634470e+01    0.1968861    0.1605918 -88.00  0.000493802    1.268    0.211
       354  -7.8232     48.3028     21.6688   3.3965134054e+01   6.7421644249e+01    0.1252158    0.1026149  90.00  0.000387509    1.653    0.395
       355  -8.8897     40.9983     21.0408   3.7005212728e+01   6.8987451881e+01    0.1982232    0.1644443  35.90    0.0012134    1.028    0.027
       356  -8.0729     63.3375     20.6555   2.7740767914e+01   6.4284321573e+01    0.1331492   0.09950534 -81.72 0.0007048979    1.773    0.436
       357  -9.6323     29.9892     18.7075   4.1632005106e+01   7.1392393526e+01    0.3074045    0.1889158  57.20   0.00116042    2.068    0.516
       358  -7.9150      1.6738     19.6921   6.2915861898e+01   7.5277393554e+01    0.1331828   0.08215523 -15.48  0.000703757    1.653    0.395
       359  -8.8727     50.6986     15.0219   2.9645500441e+01   6.7720776347e+01    0.2373389    0.1492993  37.80 0.0005071254    1.516    0.341
       360 -11.7192    106.3586    224.1101   6.5419693336e+01   1.3692325504e+01     1.344183    0.5797786 -30.86  0.005066181    3.326    0.699
       361 -10.0216    107.3339    246.8085   6.7951753145e+01   9.2287220895e+00     0.375235    0.2868569 -71.57   0.00227129    1.854    0.461
       362  -9.2626     27.4222     13.7118   4.0318421688e+01   7.2540408201e+01    0.1672538    0.1175339 -14.39 0.0009499528    1.660    0.398
       363 -10.6129    107.5090    237.9236   6.6867210564e+01   1.0864074871e+01    0.5762823    0.4255009  45.11  0.003151885    1.582    0.368
       364 -11.8489     89.7835    230.5326   7.0339815885e+01   1.4284372159e+01     1.444205    0.5058178 -61.93  0.005654332    3.403    0.706
       365  -8.5639     31.7917     11.5990   3.6580460663e+01   7.1996309625e+01    0.1770962    0.1089159  53.75 0.0003288491    1.605    0.377
       366 -11.4771     98.7321    225.5194   6.7494094598e+01   1.4291536414e+01    0.5316523    0.4273688 -22.97  0.001634726    1.258    0.205
       367 -11.7663     95.7534    217.9303   6.7291788153e+01   1.6213441906e+01    0.6214316    0.4108876  35.19  0.002125437    1.432    0.302
       368 -10.4231     99.9986    217.4758   6.6147696669e+01   1.5803735646e+01    0.3241833    0.2293805  35.50 0.0007620652    1.372    0.271
       369  -9.0617    188.4842    248.5384   5.1165111017e+01   8.5872935589e-01    0.1152478   0.08297969  -8.49 4.873434e-05    1.025    0.025
       370  -8.7361     36.4907    247.9461   8.5294888180e+01   1.6102012798e+01    0.1652957    0.1254837 -80.14  0.001020713    1.554    0.357
