#   1 NUMBER                 Running object number                                     
#   2 MAG_AUTO               Kron-like elliptical aperture magnitude                    [mag]
#   3 X_IMAGE                Object position along x                                    [pixel]
#   4 Y_IMAGE                Object position along y                                    [pixel]
#   5 X_WORLD                Barycenter position along world x axis                     [deg]
#   6 Y_WORLD                Barycenter position along world y axis                     [deg]
#   7 A_WORLD                Profile RMS along major axis (world units)                 [deg]
#   8 B_WORLD                Profile RMS along minor axis (world units)                 [deg]
#   9 THETA_WORLD            Position angle (CCW/world-x)                               [deg]
#  10 FWHM_WORLD             FWHM assuming a gaussian core                              [deg]
#  11 ELONGATION             A_IMAGE/B_IMAGE                                           
#  12 ELLIPTICITY            1 - B_IMAGE/A_IMAGE                                       
         1 -13.4647     22.4566      2.2528   3.2616084853e+01   7.6580303360e+01     1.209328    0.5408345  23.46  0.004611097    3.682    0.728
         2 -13.5926     13.2488     12.6552   4.7525421789e+01   7.6119340974e+01    0.7683078    0.2799005 -37.89  0.003147897    2.808    0.644
         3 -12.7582      2.3210      4.0726   5.1967676008e+01   7.8829701904e+01    0.6334658     0.350134 -45.78  0.003554813    1.589    0.371
         4 -14.3506      7.0297     11.2681   5.2093161737e+01   7.7029662522e+01     2.609719    0.3043367 -48.17  0.008002116    5.015    0.801
         5 -13.0604     13.8102     22.2261   5.2537356322e+01   7.4181208408e+01    0.4774292    0.1881227 -46.44  0.002113224    2.189    0.543
         6 -12.4569     19.8229     12.1887   4.1941553249e+01   7.5388236497e+01    0.3170526    0.1965097 -18.11  0.001639322    1.845    0.458
         7 -12.4412     25.3190      7.2190   3.4375352665e+01   7.5395047095e+01    0.2576365    0.1778537  -6.02   0.00143105    1.591    0.372
         8 -11.0423     84.2046    244.4087   6.7926153522e+01   1.3602544719e+01    0.1787247   0.07938226  39.43 0.0009521347    1.733    0.423
         9 -11.4044     51.1725    249.9318   7.5107195197e+01   1.6327919248e+01    0.3020094   0.09940781  38.31  0.001531893    2.072    0.517
        10 -11.9971     19.5968    249.3718   8.1407011841e+01   1.9539970357e+01    0.3300178    0.1374868  40.47  0.001950281    1.656    0.396
        11 -11.7267     13.8362    248.1029   8.2498681871e+01   2.0286380680e+01    0.2306494    0.1172874  49.74  0.001030827    1.420    0.296
        12 -11.8892      9.5186    248.9521   8.3368156416e+01   2.0518650206e+01    0.2795847    0.1277543 -76.73  0.001692811    2.427    0.588
        13 -12.8505      6.2520    236.2101   8.3657993941e+01   2.3111707118e+01    0.4065239    0.1997434  55.49  0.002519036    1.538    0.350
        14 -11.4871      4.1417    248.6676   8.4403097267e+01   2.1032814259e+01     0.311271    0.1284019  45.42  0.001895278    1.630    0.387
        15 -12.8462      3.3051    242.3898   8.4411566940e+01   2.2226039655e+01    0.5453818    0.1957606  65.41  0.002913625    2.399    0.583
        16 -13.0289     15.2653    240.6915   8.1971872704e+01   2.1490864155e+01    0.3248225    0.1583733  58.51   0.00197785    1.653    0.395
        17 -10.8801     38.1964    240.7861   7.7271923478e+01   1.9280020499e+01     0.208657   0.06759731  54.40 0.0009487214    2.789    0.641
        18 -11.9976     65.7689    248.8017   7.2061235423e+01   1.4951295598e+01    0.3289648    0.1271116  40.32  0.001734747    1.890    0.471
        19 -10.9494     73.6677    240.3284   6.9801000598e+01   1.5521830896e+01    0.1253988   0.06949633  53.25 0.0005044437    1.717    0.418
        20 -12.1561    225.6521    241.3654   4.0903529118e+01  -2.5205261283e+00    0.2171339    0.1054008 -24.75   0.00138098    1.898    0.473
        21 -10.5637     45.0491    237.0071   7.5628892759e+01   1.9266611044e+01     0.202252    0.1005486  53.78  0.001141141    1.731    0.422
        22 -11.5099     34.0248    248.4998   7.8497906757e+01   1.8319710102e+01    0.2135872    0.1225675  65.56  0.001373299    1.625    0.385
        23 -11.1721     54.3202    240.1260   7.3863315425e+01   1.7714704520e+01     0.245092    0.1073991  67.44  0.001159545    2.958    0.662
        24 -12.0851    249.0758    232.2793   3.5998923740e+01  -3.8741694758e+00    0.2656648    0.0985999 -20.35  0.001349951    3.019    0.669
        25 -11.2707     64.0112    232.5190   7.1266737723e+01   1.8026701448e+01    0.2585703    0.1023405  61.70  0.001047441    3.643    0.725
        26 -10.3108     20.3578    233.6719   8.0665649909e+01   2.2329634632e+01    0.1293852   0.05661508  53.17 0.0007043877    1.784    0.439
        27 -11.0695     11.5989    231.7728   8.2423032876e+01   2.3483044966e+01    0.1548833   0.08484729  73.13 0.0008616454    1.658    0.397
        28 -10.6442     26.7994    249.2819   7.9976933955e+01   1.8881581031e+01    0.1884819   0.09391069  45.97  0.001172207    1.451    0.311
        29 -13.0293      7.3360    206.7252   8.2478018388e+01   2.8882940857e+01    0.6255463    0.1642013  66.91  0.002284064    4.145    0.759
        30 -13.4758      5.8449    228.0262   8.3504790344e+01   2.4700314414e+01    0.5422792    0.1769379 -86.58  0.002587218    3.141    0.682
        31 -12.5177      2.6849    220.6211   8.3956884845e+01   2.6418142541e+01    0.5407135    0.1780861  61.49  0.002598328    2.523    0.604
        32 -11.3777    218.4037    245.7633   4.2681459144e+01  -2.2622022394e+00    0.1436282   0.07868016 -19.76 0.0009541947    1.684    0.406
        33 -10.9849      1.5844    227.2434   8.4371620661e+01   2.5208591834e+01    0.1983436   0.09157799  84.29 0.0009302433    2.067    0.516
        34 -12.1865     11.0262    226.4036   8.2361642570e+01   2.4567904183e+01    0.2778823    0.1198595  53.36  0.001407957    1.773    0.436
        35 -11.5863    248.5103    224.0188   3.4842761039e+01  -2.9289687553e+00    0.1538806   0.08077074 -26.52  0.001033408    1.594    0.373
        36 -11.1662    240.2605    219.5851   3.5396950094e+01  -1.5845032546e+00    0.1946829    0.1008677 -14.52  0.001198081    1.800    0.444
        37 -12.0638    247.3774    217.0350   3.3933534786e+01  -2.0367404306e+00    0.2527425     0.104581 -31.66  0.001486864    2.082    0.520
        38 -12.7329      2.7707    212.8358   8.3707519731e+01   2.7986860492e+01    0.5093586    0.2416404  72.60   0.00283286    1.864    0.464
        39 -10.7941    250.4749    211.0032   3.2528190601e+01  -1.6733067646e+00    0.1608082    0.0828053 -28.42  0.001039106    1.612    0.380
        40 -11.2305      1.7164    205.4601   8.3714990672e+01   2.9610854880e+01    0.3269635    0.1321111 -75.01  0.001461286    2.456    0.593
        41 -12.1814     12.8500    204.3691   8.1114361349e+01   2.8911978067e+01     0.282791    0.1337717  61.44  0.001491682    1.817    0.450
        42 -10.3235    250.0000    200.0208   3.0817351421e+01  -3.4265802522e-01    0.1745989   0.04972097 -34.17 0.0008058586    2.966    0.663
        43 -12.5525      3.8420    197.2951   8.2948516413e+01   3.1197047274e+01    0.5068463    0.1836648  68.30  0.002291791    2.560    0.609
        44 -13.1172      3.7543    188.6503   8.2648929150e+01   3.3124001515e+01    0.5454752     0.243744  68.64  0.002722104    1.990    0.498
        45 -13.0374      2.2965    178.6665   8.2621600346e+01   3.5525234285e+01    0.5074567    0.2090943  85.62  0.002356423    2.259    0.557
        46 -12.6280      5.5217    174.4950   8.1605335339e+01   3.6259663753e+01    0.2497013    0.1577475  77.84 0.0009724619    1.376    0.273
        47 -12.9348      3.4227    153.2787   8.1138893224e+01   4.1588665828e+01    0.4941934    0.1878858  70.68  0.002008054    2.633    0.620
        48 -12.5575      4.4372    136.7615   7.9856240990e+01   4.5734642123e+01    0.4122314   0.09988347 -76.01  0.001412388    3.360    0.702
        49 -11.7870    248.0769    129.2324   1.8088328300e+01   9.1329773990e+00    0.2810577    0.1383956 -36.81  0.001525166    1.624    0.384
        50 -12.0527      2.5766    126.2544   7.9759911345e+01   4.8596789553e+01    0.3411687    0.1088482 -77.42   0.00129959    2.632    0.620
        51 -12.2017    239.5572    123.9804   1.8118216390e+01   1.1139166787e+01    0.4251234    0.1866662 -39.44  0.002101568    1.895    0.472
        52 -12.3088    247.7891    118.7137   1.5987763827e+01   1.0633271055e+01    0.3534677    0.1831241 -38.61   0.00176743    1.565    0.361
        53 -11.1794    231.4354    114.7180   1.7236094870e+01   1.3770204788e+01     0.257734   0.09782792 -38.25  0.001140318    2.130    0.531
        54 -11.8052    247.4102    112.2404   1.4696350048e+01   1.1589524916e+01    0.2301151    0.1233913 -38.34 0.0008256185    1.491    0.329
        55 -12.3345    241.2531    108.7619   1.4708699384e+01   1.3041671463e+01    0.2920861    0.1397914 -37.83  0.001505071    1.657    0.397
        56 -12.2096    248.4221    106.7225   1.3426778761e+01   1.2196937471e+01    0.3642556    0.1152283 -41.59  0.001545428    2.637    0.621
        57 -10.9073    230.6185    103.2174   1.4833814535e+01   1.5596072383e+01    0.1881196    0.1038022 -26.89 0.0009540195    1.662    0.398
        58 -12.3539    243.2727     98.5978   1.2297534421e+01   1.4144369601e+01    0.2470581     0.117082 -40.74  0.001265087    1.707    0.414
        59 -12.8289    249.6337     86.3571   8.9819564912e+00   1.4779461564e+01    0.5188174   0.09964691 -32.04  0.001658889    4.449    0.775
        60 -12.2910      1.9301     39.9044   6.8106450732e+01   7.1095841921e+01    0.3999576    0.1562015 -66.44  0.001749474    2.164    0.538
        61 -12.6570      9.1750     35.8650   6.1815177660e+01   7.1597759433e+01    0.3954271    0.1259623 -53.29  0.001607819    2.408    0.585
        62 -12.3377    238.0258    245.5783   3.9573039384e+01  -4.2007622339e+00    0.3399993   0.09260007 -27.46  0.001528806    4.163    0.760
        63 -13.8333    242.3646    247.5028   3.9186303796e+01  -4.8115778930e+00    0.5605292    0.3376376  -5.62  0.004277315    1.277    0.217
        64 -13.2930    247.1346    243.8717   3.7964308954e+01  -4.8908434055e+00    0.4299953    0.2480684 -44.95  0.002615305    3.503    0.715
        65 -10.7205    211.3259    246.3230   4.3915698210e+01  -1.5869656180e+00    0.1114207   0.06307216  -0.15 0.0007048224    1.688    0.407
        66 -12.3581    232.9631    244.5287   4.0203318440e+01  -3.5972002116e+00    0.2040541    0.1100368 -13.54  0.001383882    1.648    0.393
        67 -11.0452     45.1243    244.7984   7.6053708219e+01   1.7852723426e+01    0.2607541    0.1072707  41.08  0.001430719    1.750    0.429
