#   1 NUMBER                 Running object number                                     
#   2 MAG_AUTO               Kron-like elliptical aperture magnitude                    [mag]
#   3 X_IMAGE                Object position along x                                    [pixel]
#   4 Y_IMAGE                Object position along y                                    [pixel]
#   5 X_WORLD                Barycenter position along world x axis                     [deg]
#   6 Y_WORLD                Barycenter position along world y axis                     [deg]
#   7 A_WORLD                Profile RMS along major axis (world units)                 [deg]
#   8 B_WORLD                Profile RMS along minor axis (world units)                 [deg]
#   9 THETA_WORLD            Position angle (CCW/world-x)                               [deg]
#  10 FWHM_WORLD             FWHM assuming a gaussian core                              [deg]
#  11 ELONGATION             A_IMAGE/B_IMAGE                                           
#  12 ELLIPTICITY            1 - B_IMAGE/A_IMAGE                                       
         1 -11.2618     81.0277      8.7020   2.4175380442e+01   6.1224311560e+01    0.1707193    0.1333334  41.06 0.0003044114    1.067    0.063
         2 -10.9880     33.4407      7.5718   4.0988983152e+01   6.9498411694e+01    0.1144415   0.08906823   8.18 0.0001469295    1.026    0.025
         3 -11.1194    100.7994      2.1602   1.6814141519e+01   5.7633006494e+01    0.1818041    0.1174965  43.06  0.001065918    1.343    0.256
         4 -11.7551     99.0022    248.5461   7.6441750916e+01   9.1861888890e+00    0.2586397     0.149451 -40.73  0.001288812    2.499    0.600
         5 -11.6161    245.8263    250.1106   4.7684902545e+01  -1.2113979228e+01    0.1597091    0.1347193  -1.46 0.0006533996    1.259    0.206
         6 -11.3918    237.5414    248.5564   4.8884254616e+01  -1.0914932762e+01    0.2962792    0.1038575 -40.95  0.001374381    3.071    0.674
         7 -11.7231    124.1852    250.4853   7.1449522207e+01   5.0637271743e+00     0.184866    0.1350669  26.39            0    1.349    0.259
         8 -11.9507     83.6202    250.6619   7.9815245045e+01   1.0989776931e+01    0.2668657   0.09793492  37.36 0.0006434558    2.305    0.566
         9 -13.2683     70.6251    236.6251   8.1112682116e+01   1.5575303195e+01    0.4043893    0.3492681 -85.87  0.002454546    1.189    0.159
        10 -13.3752     73.3901    230.5258   7.9909454746e+01   1.6461931853e+01    0.4903514    0.2427066 -69.06  0.001015641    2.145    0.534
        11 -12.3808     60.8893    249.4482   8.4263370391e+01   1.4299167979e+01     0.223731    0.1924398  55.93  0.000930528    1.133    0.117
        12 -14.0624     70.0620    246.9533   8.2208949613e+01   1.3575224526e+01    0.5477211    0.4285928  87.06  0.002738225    1.262    0.208
        13 -12.0191     64.5011    245.5306   8.3203356240e+01   1.4598453042e+01    0.2079763    0.1950455 -85.75 0.0006650687    1.264    0.209
        14 -11.8514     55.9105    249.2102   8.5225417754e+01   1.4985847112e+01    0.2491293    0.2021515 -56.69  0.001674737    1.560    0.359
        15 -12.7845     47.5798    201.7091   8.2659998028e+01   2.6243074306e+01     1.373259    0.8616595 -39.60  0.006855998    2.289    0.563
        16 -15.3941     21.6183    170.1975   8.5661985064e+01   3.6564117435e+01     1.897989     1.064487  41.97  0.009070426    1.815    0.449
        17 -17.3575      5.4766    238.7505   9.4130680206e+01   2.2759640754e+01     2.638795    0.9932368 -78.64   0.01381016    2.361    0.576
        18 -17.0110     11.7346    238.9635   9.2989205240e+01   2.2097128780e+01      1.66381     1.221601 -24.91    0.0102769    2.648    0.622
        19 -11.7383    153.0276    246.0897   6.4882746633e+01   1.4110175227e+00    0.1851518    0.1604915  26.93 0.0003477861    1.019    0.019
        20 -15.5570     35.6630    200.3949   8.5256643306e+01   2.7937544339e+01      3.41918    0.4313346 -67.02   0.01004762    5.349    0.813
        21 -10.7854    205.6795    244.3013   5.4072293903e+01  -6.1260190230e+00    0.1096457   0.09550177  51.09 0.0002778161    1.626    0.385
        22 -11.4756    143.0555    242.2215   6.6417599270e+01   3.6363031419e+00    0.2402851    0.1590308  26.95 0.0003047818    1.443    0.307
        23 -12.5610    147.7053    239.0994   6.4995287935e+01   3.4657465433e+00    0.2950317    0.1965699  22.15  0.001226101    1.547    0.354
        24 -11.9581    199.0609    241.1227   5.4841169604e+01  -4.7048266260e+00    0.1846324    0.1552954  18.01 0.0004161241    1.091    0.084
        25 -12.0749    107.1416    240.5555   7.3814088885e+01   9.5056414537e+00    0.2590452    0.1701774 -57.44 0.0007102027    1.720    0.419
        26 -13.2147    102.7022    237.6979   7.4418566187e+01   1.0735977419e+01    0.4295837    0.3004024  20.01  0.002324951    1.735    0.424
        27 -11.3246     97.7792    238.0677   7.5514945319e+01   1.1400361984e+01    0.2014604    0.1573531 -75.50 0.0006136922    1.407    0.289
        28 -15.9599     37.7923    244.8685   8.8425208218e+01   1.8063497357e+01     1.696536     1.300799  59.44   0.01173612    1.071    0.066
        29 -15.4963      8.8835    198.1963   9.1005231897e+01   3.1138183634e+01       1.3931    0.7705116 -53.53  0.007669844    2.075    0.518
        30 -10.7079    239.6906    239.3233   4.6989405745e+01  -9.9356429138e+00   0.09729874   0.09560796  10.54 0.0002494198    1.650    0.394
        31 -11.3169    218.1639    237.8233   5.0652925307e+01  -6.8980838697e+00    0.1694466    0.1487869   7.39 0.0005059151    1.184    0.155
        32 -11.3802     79.8498    237.3195   7.9242158699e+01   1.4153353013e+01    0.2482867    0.1983266  21.38  0.001310134    1.521    0.343
        33 -11.1910    122.2052    236.3359   7.0053989498e+01   7.9991083456e+00    0.2013613    0.1024855  43.87 0.0005673065    1.737    0.424
        34 -10.9704    158.4774    233.4820   6.1886181202e+01   2.7646211099e+00    0.1326647     0.116418  26.02 0.0001881319    1.007    0.007
        35 -12.8458    179.2360    229.2532   5.6885986368e+01   2.1675728923e-01    0.4340903    0.3041257  59.76  0.001466604    2.113    0.527
        36 -12.0483    231.8784    227.7611   4.6427568593e+01  -7.2753803010e+00    0.2463489    0.1767457 -11.10  0.001545396    1.241    0.194
        37 -11.1416    193.9859    228.5036   5.3771842075e+01  -1.9408545959e+00    0.1978556    0.1155978  33.59 0.0006552839    1.572    0.364
        38 -12.3152    114.3303    226.4326   7.0446865092e+01   1.1199952003e+01    0.4660266    0.2696157  12.36  0.001833415    3.233    0.691
        39 -12.0781    105.7213    226.2874   7.2337104013e+01   1.2580065992e+01    0.2430361    0.2240327  22.96  0.001347425    1.197    0.165
        40 -12.2756     91.8133    225.6631   7.5342297554e+01   1.4830983305e+01    0.2779787    0.1925444 -66.47  0.001191552    1.543    0.352
        41 -11.5318    156.3895    225.7333   6.1125190857e+01   4.5148533954e+00    0.1775354    0.1243353 -34.71 0.0009398348    1.592    0.372
        42 -11.3895    222.7879    225.0866   4.7631262908e+01  -5.6238233087e+00    0.2611978    0.1398239 -14.46  0.001202922    2.489    0.598
        43 -13.5398     77.5914    219.9991   7.7839019621e+01   1.8124399360e+01    0.4980229    0.3133634  77.48  0.001655057    1.834    0.455
        44 -12.3485     68.0935    224.8563   8.0464489755e+01   1.8395683773e+01    0.3186505    0.1899772 -75.96 0.0002711654    1.745    0.427
        45 -13.6481     66.0336    215.5075   7.9925781477e+01   2.0722610225e+01    0.7349984    0.3990735  32.49 0.0006059011    1.893    0.472
        46 -11.4382     75.5342    212.4546   7.7424528465e+01   2.0084975119e+01    0.2247423     0.182093  88.39 0.0006224082    1.198    0.165
        47 -12.7368     84.4589    214.9123   7.5681205958e+01   1.8244332543e+01    0.6199424    0.2676143  42.89  0.002688145    2.064    0.516
        48 -11.9586     79.3837    212.4366   7.6539706491e+01   1.9536462236e+01    0.3402079    0.2467791  49.40 0.0005998197    1.254    0.202
        49 -12.0380    159.9240    222.3260   5.9819980692e+01   4.5704110238e+00    0.3309012    0.2138088  42.06  0.001051597    1.467    0.318
        50 -12.7026    124.7367    221.7599   6.7472161631e+01   1.0479321239e+01    0.2747993    0.2026991  43.69  0.001075936    1.230    0.187
        51 -12.2494    246.2639    220.3425   4.2595317933e+01  -8.0844171089e+00    0.2029957    0.1690308 -15.99 0.0002561627    1.151    0.131
        52 -12.3937    237.8271    219.7494   4.3966821124e+01  -6.8836951722e+00    0.3170047    0.1880832 -35.32  0.001814047    1.572    0.364
        53 -13.1193    173.7143    219.1738   5.6359600576e+01   2.8862574112e+00    0.4551155    0.2801523 -28.44  0.002228116    1.889    0.471
        54 -12.2682     87.4737    220.7310   7.5711909628e+01   1.6528389211e+01    0.2322648    0.1651973  41.55 0.0004424504    1.287    0.223
        55 -12.8041    231.9740    218.8067   4.4848258801e+01  -5.9425362816e+00    0.4138968     0.159565 -35.20   0.00185663    2.465    0.594
        56 -11.2438    222.4745    220.0489   4.6809580990e+01  -4.7983497563e+00     0.196656    0.1469897  22.66  0.000810865    1.255    0.203
        57 -11.7393     87.0000    211.4660   7.4662597790e+01   1.8631311392e+01    0.4323022    0.1859503 -64.41  0.001247523    2.474    0.596
        58 -12.5826    145.1918    216.3667   6.2078779227e+01   8.1727246050e+00    0.3708979    0.3335722 -52.66  0.002203319    1.226    0.184
        59 -13.5307    140.1414    212.0115   6.2507534952e+01   9.9032097873e+00    0.5713679    0.4421928 -58.14   0.00272771    1.440    0.306
        60 -12.4688     52.6752    216.5696   8.3001856343e+01   2.2234133899e+01    0.2811497    0.1963982  63.39 0.0009338841    1.289    0.224
        61 -13.0045    108.2308    215.4392   7.0305449569e+01   1.4467908221e+01    0.3557981    0.2716842 -69.76  0.001642942    1.426    0.299
        62 -11.9499    208.0270    215.3534   4.8726301309e+01  -1.9017576198e+00    0.2073843    0.1579239 -18.17 0.0003192599    1.244    0.196
        63 -12.0216    247.8836    213.3855   4.1087063633e+01  -7.2713320069e+00    0.2541006    0.2158054 -55.34  0.001169706    1.803    0.445
        64 -11.4423    193.1371    215.1643   5.1648286543e+01   4.5745986589e-01     0.171466    0.1559061  44.67 0.0003566739    1.312    0.238
        65 -12.1728    118.7521    213.3622   6.7591984476e+01   1.3204841796e+01    0.4123513     0.171146  52.40  0.001188205    3.032    0.670
        66 -11.4798    156.1627    212.8562   5.9074674539e+01   7.0104291371e+00    0.3184209    0.2139391 -67.70 0.0006494586    2.108    0.526
        67 -13.5626    159.5374    206.6788   5.7272638839e+01   7.6493709450e+00    0.4746447    0.3380918  27.82  0.001579219    1.375    0.273
        68 -12.4928    124.9721    212.7425   6.6072796511e+01   1.2306086865e+01    0.2256204    0.2027868 -61.06 0.0004416535    1.202    0.168
        69 -11.9241    113.2296    210.2218   6.8400123807e+01   1.4784465318e+01    0.2363668    0.1888803  42.14 0.0007712533    1.157    0.136
        70 -11.4038     90.8430    210.1398   7.3597982838e+01   1.8346647570e+01    0.2021099    0.1676544  67.61 0.0002626475    1.153    0.133
        71 -12.6764    229.1329    206.5079   4.3150511953e+01  -3.6067488221e+00    0.3503074    0.2351683 -34.91 0.0006459962    1.389    0.280
        72 -10.6297     64.7778    203.1072   7.8813987143e+01   2.3709456010e+01    0.2135195    0.1617896  42.55 0.0006714784    1.284    0.221
        73 -11.2251     63.5342    208.4190   7.9710822209e+01   2.2656672291e+01    0.2252186    0.1690014  23.06  0.001251504    1.614    0.380
        74 -12.9294     59.6552    207.2753   8.0474548388e+01   2.3432482129e+01    0.4000224    0.3084957 -36.97 0.0008672494    1.748    0.428
        75 -11.6337    242.1343    208.0081   4.1111547253e+01  -5.6844652237e+00    0.1871691    0.1496036 -13.21 0.0003398932    1.028    0.027
        76 -13.0150    180.4805    207.8106   5.2953370510e+01   3.8572249210e+00    0.4661677    0.1948143  33.14   0.00185414    2.429    0.588
        77 -12.7365    103.2969    206.8168   7.0223045616e+01   1.7140809545e+01    0.3405038    0.2694236  42.77   0.00131117    1.180    0.152
        78 -11.5417     70.2105    207.4160   7.8054361994e+01   2.1973560660e+01     0.411408    0.2545115  26.51  0.002041965    1.877    0.467
        79 -11.9120    205.0701    206.2844   4.7665588988e+01   1.0319466658e-01    0.2172311    0.1804434 -32.79 0.0002421516    1.209    0.173
        80 -13.9214    145.0459    202.9810   5.9887006966e+01   1.0920767882e+01    0.5774903    0.4446396 -26.09  0.002997712    1.503    0.335
        81 -13.6743    140.1973    197.5208   6.0058310240e+01   1.2925482807e+01    0.5802742    0.2904712  44.35  0.002423552    1.946    0.486
        82 -11.5928    117.1061    205.4371   6.6770714389e+01   1.5185817375e+01    0.2655503    0.2032405  59.00  0.001200648    1.351    0.260
        83 -11.2859    183.4911    212.4814   5.3154312609e+01   2.4982219236e+00    0.1368282    0.1213922   7.61 0.0008102661    1.018    0.018
        84 -12.8100     84.3722    198.8500   7.3608553617e+01   2.1898879486e+01    0.4273114    0.2671767  86.18  0.001279449    2.037    0.509
        85 -12.5372     82.2378    193.5619   7.3393934000e+01   2.3457219567e+01     0.720373    0.2729515  45.26  0.002419901    2.543    0.607
        86 -13.2146     89.7414    201.9404   7.2746439261e+01   2.0370111781e+01    0.6403032    0.3426357 -43.67   0.00114966    2.348    0.574
        87 -13.0451     70.2175    186.8784   7.5445884221e+01   2.6797240792e+01    0.5835152    0.3285933  59.00   0.00177859    1.973    0.493
        88 -13.1562     75.4495    186.1970   7.4040887919e+01   2.6214463646e+01     1.079139    0.3281233 -57.34  0.003797143    3.030    0.670
        89 -14.6871     94.0632    193.1845   7.0435312280e+01   2.1725041851e+01     1.979374    0.8990316  62.86  0.006044915    4.368    0.771
        90 -12.3576    167.3008    202.5639   5.4837068960e+01   7.1162675364e+00    0.3151884    0.1972605 -12.12   0.00125517    2.520    0.603
        91 -12.3954     64.0230    183.7492   7.6577724954e+01   2.8408064450e+01    0.4214717     0.339316 -42.06  0.000964611    1.460    0.315
        92 -11.5174    212.3079    199.8550   4.5064623105e+01   6.9550358003e-02    0.2004988    0.1659009 -52.45  0.001082394    1.492    0.330
        93 -12.4693    219.4331    198.1022   4.3381925130e+01  -7.4956404454e-01    0.2238717    0.1955946  16.46 0.0003119036    1.144    0.126
        94 -11.0676    198.5922    197.2287   4.7268733981e+01   2.7717182602e+00    0.1817302    0.1221127 -29.57 0.0003702489    1.484    0.326
        95 -13.5730    151.6411    195.1187   5.6991143787e+01   1.1397303668e+01    0.4469182    0.3293081  36.03  0.001016541    1.299    0.230
        96 -12.8929    122.6828    196.2640   6.3975592404e+01   1.6264886793e+01    0.4042854     0.270403  56.27  0.001906575    1.633    0.388
        97 -12.0425    120.5920    191.4430   6.3667370601e+01   1.7709602339e+01    0.2588707    0.2344283  68.78 0.0004750457    1.126    0.112
        98 -13.7507    188.7398    193.4721   4.8569922910e+01   5.1471758033e+00     0.486042    0.3717442  35.16  0.001373627    1.293    0.227
        99 -12.8026    193.9767    193.4643   4.7489347776e+01   4.2471491633e+00    0.4021755    0.2540189 -20.46   0.00138261    1.901    0.474
       100 -12.5201    173.0166    195.9844   5.2385353023e+01   7.4119996719e+00    0.2194321    0.2016369  -6.13 0.0005347774    1.051    0.048
       101 -11.6369    166.2406    195.9921   5.3870097912e+01   8.6105746146e+00    0.1983087    0.1866295 -23.05 0.0005602795    1.077    0.071
       102 -13.8165    162.1700    191.8794   5.4009614612e+01   1.0176765420e+01    0.5025196    0.3828092  66.10  0.001935973    1.724    0.420
       103 -11.8515    202.0035    195.0573   4.6174326662e+01   2.5980145560e+00    0.1696607    0.1502533 -13.72 0.0009466644    1.036    0.035
       104 -11.1323     69.7301    193.9459   7.6503201023e+01   2.5175930266e+01    0.1811167    0.1551667 -86.51 0.0002600779    1.096    0.088
       105 -13.1281    179.6002    197.4252   5.1239270106e+01   5.9770214887e+00    0.3693136    0.3099066  65.42  0.001402827    1.544    0.353
       106 -12.3557     50.6790    190.0986   8.0662858908e+01   2.8600383563e+01    0.3073684    0.2109129  28.32 0.0008907875    1.652    0.395
       107 -12.5849    134.1404    190.0613   6.0167381910e+01   1.5627375842e+01    0.3155725    0.2149281  15.22  0.001064135    1.927    0.481
       108 -10.9369    234.3296    189.6908   3.9074613333e+01  -1.6177339373e+00    0.1174008    0.1043872 -72.29 0.0007040587    1.664    0.399
       109 -10.9969    206.2930    188.3238   4.4031280153e+01   3.1061779327e+00    0.1409878    0.1003038  -7.25 0.0002786063    1.616    0.381
       110 -12.4052    173.7821    188.4468   5.0789365119e+01   8.7778588640e+00    0.2801606    0.1346948  43.19  0.001141569    2.094    0.522
       111 -12.8863    156.9822    186.4845   5.4164032641e+01   1.2247413635e+01    0.3441597    0.2190662 -47.08  0.001594724    1.610    0.379
       112 -11.6756    110.0032    187.9855   6.5677782559e+01   2.0322457228e+01    0.2385873    0.1714301  69.80 0.0007487513    1.660    0.398
       113 -12.0130     43.2885    186.8967   8.2093741005e+01   3.0253515949e+01    0.2385851    0.1975444 -78.15 0.0008050603    1.110    0.099
       114 -12.8521    194.5778    186.7416   4.6066504221e+01   5.4104121905e+00    0.2675727    0.2244458  49.68 0.0008573905    1.371    0.271
       115 -12.4556    127.8301    186.3170   6.1016024361e+01   1.7594321682e+01    0.2824935    0.2037804 -83.72  0.001292358    1.861    0.463
       116 -12.9113    120.6078    186.4403   6.2800733962e+01   1.8846550268e+01    0.3708115    0.2625103  29.61 0.0005271956    1.481    0.325
       117 -11.5518    247.6969    185.8242   3.6048098929e+01  -2.9588610653e+00    0.2168909    0.1570553  16.60  0.001294772    1.476    0.323
       118 -12.7035    165.8303    177.0312   5.0306245813e+01   1.2596813341e+01    0.2929848    0.2122733 -82.59  0.001277725    2.208    0.547
       119 -12.9305    164.3719    185.3089   5.2264632313e+01   1.1135278048e+01    0.3058826     0.276278  66.91 0.0008207916    1.279    0.218
       120 -12.9257    167.6036    182.2166   5.0938702099e+01   1.1181175504e+01    0.3400086    0.1938928 -38.82  0.001477098    1.821    0.451
       121 -12.0793     99.4104    185.6027   6.7925459654e+01   2.2649094415e+01    0.2384892    0.2258842  70.45 0.0001679115    1.006    0.006
       122 -10.6120    239.0219    185.0338   3.7366381984e+01  -1.5498121172e+00     0.153081     0.130519 -14.48 0.0003166719    1.027    0.026
       123 -12.9277     93.8873    183.5249   6.8983769958e+01   2.4038929353e+01    0.5250157    0.3158452 -61.69  0.002260423    1.675    0.403
       124 -12.7917     89.6623    182.6610   6.9918944105e+01   2.4917191714e+01    0.4613447    0.2689202 -62.06  0.002094261    1.715    0.417
       125 -12.7422     49.9849    183.2115   8.0023479705e+01   3.0344547095e+01    0.3912528    0.2190462  53.42  0.001697739    1.806    0.446
       126 -13.8068    200.8771    182.1557   4.3890972828e+01   5.1779917879e+00    0.4931534    0.2911887  45.32  0.001836937    1.847    0.459
       127 -13.1717    118.3023    179.6616   6.2167258562e+01   2.0821247335e+01    0.5583666    0.3396409  63.92  0.001878499    2.262    0.558
       128 -12.2935     38.5974    181.8935   8.2688117341e+01   3.1993269147e+01    0.2515802    0.1960284  36.82  0.001148645    1.387    0.279
       129 -12.8843    142.6950    181.1933   5.6489021518e+01   1.6033318730e+01    0.3676496    0.1947363  38.83  0.001522417    1.841    0.457
       130 -10.7134    246.4507    179.5197   3.5053014575e+01  -1.7475278214e+00    0.1297154    0.1064651 -20.54 9.296505e-05    1.028    0.028
       131 -11.6265    210.4502    182.5153   4.2085339425e+01   3.4654256425e+00    0.1383563    0.1226919 -13.84 0.0001174057    1.014    0.014
       132 -13.6251    127.1328    174.0195   5.8912330867e+01   2.0538693601e+01    0.5106328     0.332825 -77.21  0.002108975    2.202    0.546
       133 -11.8935     62.1217    177.2068   7.6174971776e+01   3.0261621540e+01    0.3367252    0.2208832  22.23  0.001316608    1.863    0.463
       134 -13.9611    148.7240    175.1253   5.3875914265e+01   1.6245884315e+01    0.6085253    0.3730134  58.71  0.001864591    2.123    0.529
       135 -12.8675    137.3690    176.8587   5.6938657624e+01   1.7992958554e+01     0.279642    0.2417105  16.93  0.000682437    1.247    0.198
       136 -11.3639    247.8329    175.8546   3.4120202939e+01  -1.3487310151e+00    0.1625389    0.1391238 -44.23            0    1.290    0.225
       137 -11.9546    105.7302    176.0406   6.4705763641e+01   2.3868623571e+01    0.2082356    0.1957406 -64.01 0.0007233581    1.073    0.068
       138 -10.6072    242.5204    175.4431   3.4920184700e+01  -4.7704916068e-01    0.1297299    0.1103957 -23.24 0.0001862449    1.022    0.022
       139 -12.2327    224.2086    174.6673   3.7956567542e+01   2.5758787180e+00    0.2569548    0.2245643 -62.10 0.0006826601    1.444    0.307
       140 -16.0500     58.4165    230.2214   8.3065946213e+01   1.8536854464e+01     3.298516     1.207605  52.34   0.01392454    2.635    0.621
       141 -12.9038     90.5048    172.2779   6.8009158578e+01   2.7303433687e+01    0.5107844    0.2383681 -49.14  0.001569247    2.208    0.547
       142 -12.8197    197.1205    170.8494   4.2360370691e+01   8.0139599118e+00    0.3234395    0.1928644 -36.60  0.001329883    1.629    0.386
       143 -12.1523    166.0646    170.7637   4.8980099239e+01   1.3878823039e+01    0.2045653    0.1855448  25.27 0.0002989159    1.099    0.090
       144 -12.3940    160.3006    168.6881   4.9865734805e+01   1.5435436701e+01    0.2317329    0.1954244  38.54 0.0005565764    1.183    0.155
       145 -13.7401    156.8963    165.7808   5.0050447764e+01   1.6730203732e+01    0.4845277    0.2974268  36.81  0.001024635    1.659    0.397
       146 -13.2500    153.1838    169.6007   5.1709740761e+01   1.6611602542e+01    0.4188555    0.2437744 -48.91  0.001124515    1.738    0.425
       147 -14.0925    151.3392    164.9235   5.1179375756e+01   1.8004262637e+01    0.5472015    0.3901504  16.97 0.0007265701    1.770    0.435
       148 -10.6685    231.3110    170.7074   3.5904815058e+01   2.1080487403e+00    0.1228922    0.1051183 -69.88 0.0002244851    1.589    0.371
       149 -13.3668    131.1605    169.4732   5.7024143164e+01   2.0843453506e+01    0.3672527    0.2787388  44.77   0.00119273    1.306    0.234
       150 -13.5324    124.9786    167.1060   5.8111533265e+01   2.2550219645e+01    0.5756679    0.3189847  32.91  0.002342143    1.931    0.482
       151 -11.7524     54.0919    168.1863   7.7025613505e+01   3.3530549750e+01    0.2087311    0.1798509 -48.77  0.000689754    1.258    0.205
       152 -15.7528     11.9650    185.7997   8.9385229674e+01   3.3719873002e+01     2.078512     1.068165  48.86  0.008747105    1.862    0.463
       153 -13.3405    172.4637    165.7591   4.6509016651e+01   1.3701895130e+01    0.3195364     0.244829 -40.84 0.0009146365    1.283    0.221
       154 -11.9549    106.0780    167.3236   6.3035899781e+01   2.5906474340e+01    0.2118677    0.1889342  45.07 0.0004374272    1.116    0.104
       155 -13.1858    199.3398    165.6398   4.0836945256e+01   8.6196050056e+00    0.3053379    0.2475341 -87.29  0.001371212    1.793    0.442
       156 -12.3237     83.2010    165.5637   6.8812430886e+01   3.0107531665e+01    0.3582388     0.190485 -54.29  0.001000915    1.812    0.448
       157 -12.5756     87.8480    164.9070   6.7447483680e+01   2.9540688424e+01    0.3220194    0.2077699  29.11  0.001469494    1.709    0.415
       158 -12.4415     56.2135    164.4319   7.5925099628e+01   3.4198569735e+01    0.3788252    0.2390314  45.99  0.001876055    1.615    0.381
       159 -11.9747    212.1715    163.9277   3.7997006466e+01   6.6126254405e+00    0.1996347    0.1805916 -48.91 0.0002909125    1.185    0.156
       160 -12.9070     65.9034    163.0224   7.3085334213e+01   3.3269607890e+01    0.4596891    0.2381369  39.07  0.001655522    1.940    0.485
       161 -13.0331     37.5134    161.7432   8.0583509612e+01   3.7056636674e+01    0.4589269    0.2451656  37.18  0.002032353    1.937    0.484
       162 -16.1384     17.5367    211.8625   9.0142367245e+01   2.7252726851e+01     1.487068    0.8259892  69.85  0.008351881    1.638    0.389
       163 -11.5762      3.7227    147.3203   8.7979125590e+01   4.3557559835e+01    0.1987705    0.1341827 -84.31 0.0004193961    1.258    0.205
       164 -13.1929      4.6577    159.1610   8.8861056084e+01   4.0640561439e+01    0.4882704     0.309337 -87.88  0.001608171    1.359    0.264
       165 -13.0643      3.6831    153.3413   8.8571599699e+01   4.2109469959e+01    0.5639624    0.2295971 -62.26  0.002712957    1.982    0.496
       166 -12.8937     47.6531    161.3647   7.7803486616e+01   3.6012605065e+01    0.4747828    0.2535135  58.47  0.002085272    2.215    0.548
       167 -13.1075     29.5673    161.4171   8.2654918279e+01   3.7953336331e+01    0.2852104    0.2601416 -29.73 0.0007010895    1.335    0.251
       168 -13.0905     40.8377    148.5304   7.7868151683e+01   3.9995993756e+01    0.4957483    0.2655008  56.60  0.002208573    2.245    0.555
       169 -13.2687     26.0291    149.3894   8.2144384464e+01   4.1265726315e+01    0.3678412    0.2522731  36.04  0.001193783    1.602    0.376
       170 -12.3044     21.1929    149.1091   8.3444961305e+01   4.1767288169e+01    0.2236647    0.1600133 -69.54 0.0005162307    1.184    0.155
       171 -13.7675     33.1493    147.7689   7.9939108090e+01   4.0986304156e+01    0.6247115    0.2583086  36.44  0.002381552    2.487    0.598
       172 -13.8714    170.6978    159.6089   4.5593133806e+01   1.5347311483e+01    0.4159767    0.3374365  36.27  0.002115432    1.254    0.202
       173 -12.1848     91.8442    166.1752   6.6598749696e+01   2.8584815204e+01     0.221491    0.1933966  72.72 0.0002667486    1.166    0.143
       174 -13.8486    188.6826    157.5204   4.1280238619e+01   1.2250349238e+01    0.4881068    0.3694982 -10.19  0.001293254    1.605    0.377
       175 -11.1024     95.5058    159.0081   6.4301755506e+01   2.9745925798e+01    0.2213769    0.1448073 -58.25 0.0004689705    1.498    0.333
       176 -11.7229    116.9868    158.1443   5.8379893164e+01   2.6159821750e+01    0.2520491    0.1834514   5.95  0.001083309    1.951    0.487
       177 -11.1457    105.5779    158.2554   6.1433824470e+01   2.8196564886e+01    0.2109295    0.1397541 -45.84 0.0005104417    1.546    0.353
       178 -11.8003    141.3824    155.1620   5.1520814320e+01   2.2167325297e+01    0.2248901    0.1457102 -60.50 0.0009476611    1.751    0.429
       179 -12.7609     76.7573    154.7885   6.8707887215e+01   3.3774834631e+01    0.2569273    0.2472938  63.16 0.0004027611    1.071    0.066
       180 -11.6822     20.4507    154.4336   8.4269130574e+01   4.0521374696e+01     0.217896    0.1858603 -77.01 0.0006552489    1.036    0.035
       181 -10.9045    237.4853    154.4046   3.1575210232e+01   3.9502490836e+00    0.1322258    0.1160419 -29.57 9.318152e-05    1.020    0.019
       182 -12.5176    212.3047    153.4531   3.5778430708e+01   8.5627167161e+00     0.259796    0.2383153 -79.02 0.0008359624    1.306    0.234
       183 -11.9976     88.5698    153.3796   6.5146429065e+01   3.2283694057e+01    0.2636507    0.2309895 -43.11 0.0007885334    1.186    0.157
       184 -11.1578     51.1098    153.1913   7.5658661119e+01   3.7648378642e+01      0.19348    0.1526536  68.79 0.0004711937    1.324    0.245
       185 -11.9145    249.1938    151.9422   2.9212220720e+01   2.4567773783e+00     0.189399    0.1756166 -21.51 0.0003348858    1.116    0.104
       186 -13.7704    167.5651    150.6436   4.4335063017e+01   1.7890476221e+01    0.4745109    0.3089115  51.41 0.0003355895    1.662    0.398
       187 -12.2759     84.2190    149.6965   6.5667080614e+01   3.3898224383e+01    0.2660291    0.2384018 -42.36 0.0008729617    1.158    0.137
       188 -11.1261     54.9932    150.5201   7.4142284252e+01   3.7842198231e+01    0.2080676    0.1396089  32.31  0.001038971    1.611    0.379
       189 -12.0041     62.0787    170.2968   7.5209444579e+01   3.1974238065e+01    0.3727132    0.2274206 -71.69   0.00177945    1.593    0.372
       190 -12.3438    146.9769    148.7770   4.8745509810e+01   2.2495793477e+01    0.2676274     0.220853 -46.20 0.0003672787    1.201    0.168
       191 -12.0973     96.1587    149.0358   6.2178413521e+01   3.2095196284e+01    0.2434837    0.2065482 -31.54  0.001236946    1.303    0.232
       192 -11.9788     15.7608    149.6653   8.4992873844e+01   4.2086799126e+01    0.3014779     0.127076  19.48  0.001270646    3.006    0.667
       193 -12.6104     62.4094    153.4216   7.2510676522e+01   3.6152053358e+01    0.3462508    0.2191878 -74.57  0.001626387    1.618    0.382
       194 -12.3462    123.1985    143.5632   5.3629310168e+01   2.8454132038e+01     0.275549    0.2097399 -40.79 0.0006645958    1.348    0.258
       195 -12.5505    121.1530    146.8644   5.4900391360e+01   2.8067870322e+01    0.2748931     0.242792 -40.56  0.001400298    1.151    0.131
       196 -12.4303    118.6766    143.7932   5.4886396695e+01   2.9274388767e+01    0.2754315    0.2657439  67.87 0.0004791713    1.050    0.047
       197 -10.8907     61.3438    147.2883   7.1784362088e+01   3.7836827928e+01    0.1441784    0.1067974 -29.40 0.0003794506    1.650    0.394
       198 -12.9454      9.4721    137.9712   8.5398736332e+01   4.5422373106e+01    0.2982291    0.1813356 -25.46 0.0006463095    2.207    0.547
       199 -12.1392     12.0288    133.2287   8.4095570134e+01   4.6393424948e+01    0.1988509    0.1529786 -52.97 0.0004632369    1.226    0.184
       200 -13.1644      9.3991    146.2334   8.6341009852e+01   4.3417335428e+01     0.352964    0.2250863  88.53  0.001974147    1.477    0.323
       201 -14.3877     14.9549    141.3019   8.4244044456e+01   4.4200195550e+01    0.6176773     0.474587  34.33  0.002278931    1.492    0.330
       202 -10.9383    229.4431    145.5423   3.1087321650e+01   6.9164239785e+00    0.1369976    0.1204727 -37.56  0.000242416    1.032    0.031
       203 -12.7015    108.7215    149.3870   5.8784422985e+01   2.9790605875e+01    0.3826718    0.2826709 -56.18 0.0008832095    1.340    0.254
       204 -13.3582    102.4185    142.8835   5.9149776972e+01   3.2510744494e+01    0.7488806    0.3864634  59.89  0.002526298    3.111    0.679
       205 -13.1341     26.8274    154.5963   8.2570113998e+01   3.9902689132e+01    0.5748665    0.2630071  53.83  0.002498868    2.556    0.609
       206 -12.8929     70.5329    142.7416   6.8293505176e+01   3.7708994691e+01    0.4048568    0.2446491 -50.00  0.000540965    1.588    0.370
       207 -12.1161     51.4973    143.6733   7.4039258210e+01   3.9993630960e+01    0.2723531    0.1895769  23.09  0.001389545    1.666    0.400
       208 -12.2626     14.5256    136.4675   8.3775713484e+01   4.5416926686e+01    0.2306919    0.1805183  66.86 0.0006543822    1.355    0.262
       209 -12.6368    178.3060    142.1510   4.0067625950e+01   1.7486164560e+01    0.2900318    0.2231234  54.44 0.0008620116    1.411    0.291
       210 -13.2713    138.4831    149.4575   5.0997080288e+01   2.4053454123e+01    0.3289933    0.2817992  25.98 0.0008961156    1.242    0.195
       211 -11.6281      2.9647    142.4952   8.7696465311e+01   4.4772608539e+01    0.1613014    0.1260342  21.27 0.0008604917    1.580    0.367
       212 -12.3151    131.9586    140.2522   5.0586354585e+01   2.7491136132e+01    0.2798142    0.2007159 -32.95 0.0006414754    1.556    0.357
       213 -12.0581     82.8525    145.0741   6.5162800441e+01   3.5266550076e+01    0.2397586    0.1952184  73.57   0.00121126    1.371    0.270
       214 -11.6653     30.1541    139.7264   7.9676107712e+01   4.3279072755e+01    0.2052988    0.1550111  58.63 0.0007160532    1.438    0.305
       215 -10.9595     77.2986    139.3156   6.5642908965e+01   3.7563310180e+01    0.1499163    0.1115966 -28.43 0.0002165912    1.610    0.379
       216 -12.6369     45.6155    137.0254   7.4680200008e+01   4.2348352559e+01     0.333115    0.2128431 -45.74   0.00076209    1.560    0.359
       217 -11.6961     43.6768    133.3184   7.4644155509e+01   4.3490666303e+01     0.187664     0.136476  49.68 0.0002024649    1.517    0.341
       218 -12.4298    177.3893    137.8964   3.9291846212e+01   1.8561340898e+01    0.2450318    0.2104643  63.34 0.0003880182    1.285    0.222
       219 -12.3477     36.1444    138.4602   7.7730088750e+01   4.3006445785e+01    0.2259156    0.1399426  17.01  0.001119383    2.003    0.501
       220 -12.3677    151.4784    145.8009   4.6988109641e+01   2.2244219126e+01    0.2607823    0.2160062  42.14 0.0003587268    1.221    0.181
       221 -12.2740      1.6511    137.1800   8.7504707583e+01   4.6138264025e+01    0.2339779      0.12565 -58.94  0.001264441    1.556    0.358
       222 -13.2218    119.4673    135.0555   5.2694406306e+01   3.1192040668e+01    0.4611076     0.346244 -57.98  0.002158664    1.366    0.268
       223 -12.5451    174.8793    133.3725   3.8781964449e+01   2.0030114505e+01    0.2635847    0.1789114 -38.16 0.0006489914    1.463    0.317
       224 -11.4325    139.4847    133.2063   4.7016667597e+01   2.7561222395e+01    0.3011287    0.2313448 -78.67  0.001354193    1.665    0.400
       225 -12.5030    101.6407    134.2396   5.7474900007e+01   3.4750728405e+01    0.4136626    0.2228527  27.65  0.001581746    2.289    0.563
       226 -11.9269     60.8499    133.7674   6.9492073277e+01   4.1293150388e+01    0.2544805    0.1398299 -27.80 0.0009562811    2.905    0.656
       227 -12.5956    128.4034    133.0959   4.9847119601e+01   2.9866548630e+01    0.2805068    0.2232926  51.22 0.0004968625    1.298    0.230
       228 -12.4923     19.5150    132.0586   8.1739170547e+01   4.6106232951e+01    0.2679844    0.2052995 -68.61  0.001608247    1.098    0.089
       229 -13.1990     82.7572    130.7839   6.2247760379e+01   3.8821154662e+01    0.5554026    0.2234243 -50.67  0.002030463    2.318    0.569
       230 -13.0900     80.4809    127.4771   6.2215327275e+01   3.9994611407e+01    0.5299016    0.2658865  25.86  0.001837514    2.471    0.595
       231 -12.8454      7.5749    131.3609   8.5163368736e+01   4.7158392049e+01    0.2066562    0.1923641 -46.77   0.00071106    1.204    0.169
       232 -12.6355      2.5486    131.4392   8.6625058879e+01   4.7464022579e+01    0.2364497     0.189102 -67.49 0.0002428848    1.055    0.052
       233 -13.2645     27.0434    125.0807   7.8422271959e+01   4.7183535961e+01    0.3780416    0.3455496  86.94  0.001816401    1.141    0.123
       234 -13.7692     35.9372    130.3728   7.6520487411e+01   4.5038579066e+01    0.4853913    0.4263847  63.01  0.002951535    1.236    0.191
       235 -11.0154    230.1145    130.5084   2.7809403889e+01   9.5028756584e+00    0.1749397    0.1379632  50.42 0.0003492284    1.442    0.307
       236 -11.4765    101.8512    130.1446   5.6482186809e+01   3.5699207159e+01    0.2078336    0.1808916 -17.38 0.0003413293    1.291    0.225
       237 -12.3953    187.9721    127.9347   3.4797847413e+01   1.8373009852e+01    0.2205812    0.2085343 -39.77 0.0003186589    1.021    0.020
       238 -10.7451    130.5127    128.4684   4.8185762498e+01   3.0497843113e+01    0.1541787    0.1526632 -52.49  6.82915e-05    1.003    0.003
       239 -12.1483    121.9477    127.7822   5.0300972739e+01   3.2398955956e+01     0.285924    0.2266125  20.50  0.001343784    1.464    0.317
       240 -13.6720     60.9623    125.4663   6.7829614435e+01   4.3338285673e+01    0.6805139    0.2972603  44.95   0.00263716    2.636    0.621
       241 -11.9565     45.8518    128.4541   7.3128349755e+01   4.4457654275e+01    0.1871583    0.1378073  29.76 0.0004736028    1.504    0.335
       242 -12.3064    169.1873    126.1461   3.8308042418e+01   2.2754561225e+01    0.2345314    0.2118082   5.02 0.0005955419    1.245    0.197
       243 -12.3247     74.8996    125.0087   6.3387240630e+01   4.1464115567e+01    0.2312198    0.2150606  30.96 0.0003252973    1.140    0.123
       244 -11.3482    125.8393    123.7603   4.8271726937e+01   3.2532300796e+01    0.2119116     0.184145 -87.35 0.0004670392    1.319    0.242
       245 -13.1378     20.5245    122.6857   8.0085785201e+01   4.8317972597e+01     0.282028    0.2598479 -72.87 0.0009748575    1.090    0.083
       246 -11.9388     15.4957    123.4876   8.1762395421e+01   4.8510115187e+01    0.1709746    0.1170228  39.70 -4.125405e-05    1.669    0.401
       247 -12.1913     23.5328    115.7518   7.8032985310e+01   4.9756996153e+01     0.462987    0.2441472 -52.39  0.001300918    1.606    0.378
       248 -13.0991     19.1040    115.1479   7.9369832828e+01   5.0256045148e+01    0.3514298     0.289108 -84.87  0.001852506    1.221    0.181
       249 -13.2614    104.9215    114.1018   5.1699936350e+01   3.8898546614e+01     1.736344    0.3334793  37.21  0.003760724    6.791    0.853
       250 -13.5897    104.2057    121.4044   5.3727878237e+01   3.7339497003e+01    0.6961509    0.2948282  47.96  0.002414465    2.665    0.625
       251 -12.7447    100.0476    118.5421   5.4244276699e+01   3.8783128910e+01    0.4692807     0.316799  87.83  0.001736346    2.540    0.606
       252 -12.5737    113.0143    110.5069   4.8439910698e+01   3.8129708232e+01    0.2893138    0.2707829 -64.65 0.0005201111    1.107    0.097
       253 -13.6494     64.4753    118.5533   6.5261728836e+01   4.4553160854e+01    0.5332638    0.2595992  23.15  0.002110031    2.574    0.611
       254 -12.5625      5.3937    121.8887   8.4639070823e+01   4.9583496099e+01     0.187879    0.1681235  59.99 0.0005370904    1.274    0.215
       255 -11.6215    200.0077    121.4877   3.0995540810e+01   1.7112525254e+01    0.2050921    0.1247247  26.29 0.0008105324    2.595    0.615
       256 -11.7813    189.0550    121.4847   3.3076397182e+01   1.9423627041e+01    0.2118532    0.1482216  50.66 0.0003725385    1.505    0.336
       257 -10.7447    224.2907    120.6818   2.6632311327e+01   1.2373283261e+01    0.1392141    0.1017826 -66.84 0.0005601838    1.600    0.375
       258 -11.0032    179.2465    119.9903   3.4690980239e+01   2.1834155513e+01     0.205543    0.1855088 -46.55 0.0002825115    1.065    0.061
       259 -12.5479     78.3483    119.2711   6.1028096430e+01   4.2323522780e+01    0.2551176    0.2230489  40.33  0.001088945    1.205    0.170
       260 -13.0937     72.4926    118.8353   6.2770348189e+01   4.3328097245e+01    0.3486893    0.2392665  62.46  0.001288885    1.912    0.477
       261 -12.1492    109.6220    112.1660   4.9840413636e+01   3.8429316270e+01    0.2598473    0.2258931  32.40 0.0002173261    1.182    0.154
       262 -11.9626    210.8112    117.0628   2.8066527685e+01   1.5717146508e+01    0.2267429    0.2044818  60.76 0.0003930701    1.203    0.169
       263 -12.5338      8.7114    117.5765   8.3041673064e+01   5.0407366575e+01    0.2131668    0.1270842   5.77  0.001144211    2.161    0.537
       264 -11.1500    196.7674    115.4150   3.0186230022e+01   1.8957167835e+01    0.1912164    0.1396466  39.94 0.0005098321    1.537    0.349
       265 -12.3371    120.3320    114.2709   4.7372619190e+01   3.5805060540e+01    0.2737078    0.2678837  34.62 0.0003897003    1.032    0.031
       266 -13.2224     83.0298    111.1756   5.7622576360e+01   4.3489924932e+01    0.5646783    0.2255709 -51.37 0.0006896291    2.370    0.578
       267 -13.5693     63.6651    113.2240   6.4340570624e+01   4.5951481240e+01    0.5476515    0.3092338  20.51  0.002371325    2.183    0.542
       268 -13.0071     61.9966    108.5008   6.3806806496e+01   4.7306421985e+01    0.4522806      0.21716 -46.27  0.001419404    1.945    0.486
       269 -12.0247     90.0756    111.1859   5.5425036124e+01   4.2288319797e+01    0.2677584    0.2192022 -70.81 0.0008382154    1.375    0.273
       270 -12.2532     53.6883    110.5879   6.7049846466e+01   4.7895051079e+01    0.4356729    0.2307371  29.69  0.001967588    2.045    0.511
       271 -11.9647    161.8159    110.3628   3.6047021644e+01   2.7634800860e+01    0.2189727    0.1409574  39.27 0.0004349761    1.695    0.410
       272 -12.5955     73.6339    109.2387   6.0154698818e+01   4.5443182996e+01    0.3472283    0.2206695 -75.84 0.0009785607    2.251    0.556
       273 -11.7076    221.5055    109.5440   2.4632396792e+01   1.4917822635e+01    0.2697695    0.1380972  53.70  0.001204788    2.160    0.537
       274 -10.9258    216.4715    109.4825   2.5419876311e+01   1.5946205836e+01     0.141049    0.1267795 -52.24  4.77386e-05    1.005    0.005
       275 -12.5383    170.1622    109.1774   3.3938547910e+01   2.6004537585e+01    0.2201081    0.2081817  -0.69 0.0004093001    1.167    0.143
       276 -11.1197    209.6075    107.7872   2.6164195631e+01   1.7669568245e+01    0.2149426    0.1202221 -49.81 0.0009526804    1.722    0.419
       277 -10.7685    155.4976    108.4670   3.6990636003e+01   2.9436458495e+01    0.1528422    0.1483507 -77.22  3.90143e-05    1.025    0.024
       278 -10.4805    121.7261    108.3535   4.5446280946e+01   3.6824493595e+01    0.1554819    0.1226989 -82.69 0.0005591545    1.641    0.391
       279 -10.9266    139.6699    107.3238   4.0483016189e+01   3.3192931862e+01    0.1593838    0.1234939 -87.32 0.0007049987    1.700    0.412
       280 -11.1983     92.4250    107.5237   5.3763654671e+01   4.2715595762e+01    0.1508497     0.140233 -25.16  3.20049e-05    1.069    0.065
       281 -11.7317      1.9650    107.1689   8.3742894443e+01   5.3278956280e+01    0.2082187    0.1108049 -34.49  0.001086818    2.010    0.502
       282 -11.8043    158.2479    106.4191   3.5839271506e+01   2.9235023667e+01    0.2145482     0.146952  61.48 0.0006819545    1.618    0.382
       283 -13.7335      9.8804    104.8168   8.0766542223e+01   5.3364494333e+01    0.4065356     0.274824  77.57  0.002131127    1.814    0.449
       284 -10.7843     19.2532    105.0094   7.7623696594e+01   5.2665940219e+01    0.1671931    0.1400902 -56.69 0.0004238901    1.002    0.002
       285 -12.2118    197.1220    103.9008   2.7411638352e+01   2.1045393805e+01    0.2225684    0.1847728 -68.73 0.0004399469    1.249    0.199
       286 -12.5795     64.5089    122.0286   6.5998421263e+01   4.3701309161e+01    0.3136667    0.2148298  29.97 0.0009747537    1.579    0.367
       287 -12.7942     78.7764    101.4508   5.6515109497e+01   4.6429738986e+01    0.3236439    0.2802598 -81.44 0.0005905658    1.372    0.271
       288 -12.6244     76.5526     97.0344   5.6079499526e+01   4.7783081734e+01    0.2674582    0.2140376  19.58 0.0005782897    1.334    0.250
       289 -12.3531     32.2220     98.7823   7.1906400833e+01   5.3031551538e+01     0.512606    0.2697759 -28.87  0.002307438    2.322    0.569
       290 -11.9544    229.5677    103.1347   2.2010192165e+01   1.4436986312e+01    0.2109101    0.1923965  63.54 0.0003602862    1.225    0.184
       291 -13.1528    163.0957     99.2971   3.2932646462e+01   2.9547293115e+01    0.3610302    0.2805864  41.68  0.001157317    1.358    0.264
       292 -12.5300    153.5409    101.4206   3.5608970486e+01   3.1302403298e+01    0.4754604     0.276941 -60.44    0.0017243    2.242    0.554
       293 -12.3113     94.0109     99.2970   5.1085115795e+01   4.4271803977e+01    0.2089042    0.1977333  26.44 0.0006064096    1.071    0.066
       294 -11.7904     58.4711     97.5287   6.2359270362e+01   5.0336805643e+01    0.3995859    0.2786781  47.42  0.001900753    1.689    0.408
       295 -11.6204     25.7976     97.3206   7.3890801726e+01   5.3944912979e+01    0.3888724    0.1581774 -49.82  0.001733336    2.011    0.503
       296 -12.6592      8.9494     98.0234   7.9971878924e+01   5.5009111874e+01    0.2393269    0.2027861 -71.36  0.001583113    1.137    0.121
       297 -10.4320     45.5155     97.5104   6.6905572141e+01   5.1945963080e+01    0.1387096    0.1203023 -39.39 0.0008100847    1.039    0.038
       298 -13.0328     82.9477     95.2295   5.3487239287e+01   4.7123519089e+01    0.3828075     0.226307 -31.56  0.001632395    1.965    0.491
       299 -12.4015     65.9633     94.5107   5.8990259897e+01   4.9971585361e+01    0.2218875    0.1834896 -45.30 0.0005513059    1.132    0.117
       300 -12.9695    189.7312     92.8190   2.6060504504e+01   2.4703611680e+01    0.4165105    0.2336529 -47.49  0.001834654    1.723    0.419
       301 -12.8643     78.6908     92.7942   5.4215521059e+01   4.8370232167e+01     0.232688    0.2117517  33.23 0.0006210362    1.147    0.128
       302 -11.3987    249.5198     91.9285   1.6981429899e+01   1.2482119117e+01    0.1773296    0.1557348 -63.90 0.0003301342    1.082    0.076
       303 -11.4731     41.0887     91.7458   6.7136464974e+01   5.3756037793e+01    0.1867118    0.1771471  77.24 0.0005197962    1.253    0.202
       304 -10.8067    138.7925     90.5656   3.6166882612e+01   3.6785108359e+01    0.2144927    0.1446936  61.90 0.0009440146    1.655    0.396
       305 -12.1672    121.8700     90.1948   4.0415195108e+01   4.0598081628e+01    0.2331696    0.2067466  81.08  0.001207163    1.286    0.222
       306 -12.1168    149.0932     87.8794   3.2993090109e+01   3.4948739992e+01    0.2351051    0.2041444 -84.53 0.0007420639    1.268    0.211
       307 -11.7657    178.0634     86.8783   2.6717540667e+01   2.8425984330e+01    0.2294328    0.1893365 -77.43 0.0005273686    1.293    0.227
       308 -12.4878     54.3536     85.8377   6.0789189263e+01   5.3491334256e+01    0.4227641    0.3340157  -8.88  0.002281793    1.342    0.255
       309 -12.3272     10.3231     86.8408   7.7460252974e+01   5.7480060413e+01    0.3385186    0.2346072   8.53   0.00112011    1.666    0.400
       310 -13.0610     61.4491     84.0529   5.7730864256e+01   5.2910575076e+01    0.6545925    0.3047733 -30.50  0.002402605    3.039    0.671
       311 -11.2623    159.6458     85.3195   2.9983151886e+01   3.2978964698e+01    0.1573796    0.1154649 -80.78 0.0007046572    1.751    0.429
       312 -11.0385    125.8765     84.8242   3.7808037178e+01   4.0778348953e+01    0.2086272    0.1807279  84.31  0.001067367    1.341    0.254
       313 -10.7943    133.3851     84.2321   3.5718800820e+01   3.9219054715e+01     0.192482    0.1400553 -52.18 0.0001675401    1.466    0.318
       314 -10.4155    232.2907     83.2799   1.7345880360e+01   1.7210648150e+01    0.1171903    0.1046375   3.46 0.0002679072    1.526    0.345
       315 -12.2204    150.1778     82.9335   3.1388742180e+01   3.5615142807e+01    0.2694295    0.2164572  36.32  0.000901057    1.347    0.257
       316 -12.3537     69.4226     83.2691   5.4680297664e+01   5.1893622279e+01    0.1925366    0.1329648 -57.24 0.0008299261    1.594    0.373
       317 -12.6063    182.3732     80.9566   2.4426587529e+01   2.8471747691e+01    0.3539794    0.2626379 -75.61  0.001027583    1.541    0.351
       318 -13.1571      7.6616     77.8980   7.6692491588e+01   5.9626600808e+01    0.6335269    0.1426901 -59.81  0.002450641    3.034    0.670
       319 -11.9600    153.6521     79.0873   2.9566939471e+01   3.5498394927e+01    0.2290689    0.1974679  72.68 0.0003064392    1.181    0.154
       320 -12.0867    112.0835     83.1723   4.1084855700e+01   4.4063407028e+01    0.3617994    0.2093449  45.81   0.00122731    1.709    0.415
       321 -11.6023    112.5652     78.7620   3.9632901696e+01   4.4808442028e+01    0.3164982     0.238103 -77.40  0.001462993    1.917    0.478
       322 -12.3132     88.9889     78.5791   4.6690920321e+01   4.9525494500e+01     0.336268    0.2693051   0.73   0.00127409    1.397    0.284
       323 -12.5325     86.3030     74.3197   4.6247288924e+01   5.0847974122e+01    0.4030799    0.2677249 -39.27  0.001099087    1.492    0.330
       324 -10.9029     51.6869     79.2809   5.9967300137e+01   5.5243886751e+01    0.2002816    0.1704237 -47.47 0.0006073293    1.158    0.136
       325 -11.5770     55.1654     77.8834   5.8270325452e+01   5.5081875448e+01    0.2256505    0.1880845  15.78 0.0004228036    1.224    0.183
       326 -11.5951    161.5039     76.9310   2.7340278842e+01   3.4036217889e+01    0.2195245    0.1438598 -39.64  0.000733378    1.549    0.355
       327 -10.7543    227.5440     76.5608   1.6508467238e+01   1.9254800128e+01     0.132896    0.1147788 -63.08 0.0001014405    1.005    0.005
       328 -12.8975     75.3899     75.1985   5.0189950649e+01   5.2582781063e+01    0.3396726    0.2004036 -34.39  0.001188757    1.738    0.425
       329 -11.0952     70.6703     76.7158   5.2300604983e+01   5.3048144945e+01    0.1426908    0.1037039  -7.90 0.0004193285    1.611    0.379
       330 -10.7637     48.5151     76.4853   6.0374282311e+01   5.6231234002e+01    0.1339465    0.1193504 -27.64 0.0008101845    1.025    0.025
       331 -11.7338    116.0182     75.0443   3.7551384574e+01   4.4762789994e+01    0.2355516     0.186289 -84.29  0.001138819    1.725    0.420
       332 -12.2750    150.5470     73.6011   2.8711211665e+01   3.7183321623e+01    0.2703045    0.2524666 -12.37  0.000773741    1.192    0.161
       333 -11.3400     51.7968     73.5316   5.8268047582e+01   5.6426381058e+01    0.2391514    0.1817376  82.49  0.001200982    2.256    0.557
       334 -11.7743    105.8157     72.4860   3.9644038162e+01   4.7385661622e+01    0.2555559    0.2308976 -56.83 0.0005191042    1.231    0.188
       335 -11.2951    204.3201     72.2892   1.8745339174e+01   2.4926946892e+01    0.1291265    0.1092109  24.69 0.0002959419    1.600    0.375
       336 -11.5284      2.6208     69.9302   7.7031293237e+01   6.1625453393e+01    0.3385094    0.1903836 -84.37  0.001699245    2.530    0.605
       337 -13.6842    241.5566     66.9805   1.2793888988e+01   1.7897590522e+01    0.3022443    0.2518041 -64.53 0.0007977156    1.017    0.016
       338 -10.8789    236.2854     69.3508   1.3889403557e+01   1.8592058135e+01    0.1173057    0.1023727  -1.29 0.0002923327    1.659    0.397
       339 -10.5749    171.7277     69.3482   2.3352554804e+01   3.2903805871e+01    0.1486688    0.1052899 -69.12 0.0004678582    1.626    0.385
       340 -11.1179     72.4276     68.7505   4.9196787936e+01   5.4324818272e+01     0.188627    0.1235329 -31.57 0.0003976636    1.537    0.350
       341 -12.4703     52.9632     68.3718   5.6262428696e+01   5.7310649140e+01     0.232163    0.1841832 -59.23 0.0004779815    1.489    0.329
       342 -12.4535    225.3723     67.2968   1.4764311830e+01   2.1150722461e+01    0.2308968    0.2062213 -67.18 0.0003307913    1.067    0.063
       343 -11.4661     64.7522     68.4103   5.1846750572e+01   5.5610228074e+01     0.188766     0.125197  20.53 0.0009473127    1.617    0.381
       344 -11.2917     98.0598     66.9014   4.0182437114e+01   4.9969156425e+01    0.2032338    0.1894272 -89.82            0    1.293    0.227
       345 -12.1933     60.1093     66.9723   5.3109077546e+01   5.6582523351e+01     0.208894    0.1785309 -15.24 0.0004649362    1.070    0.066
       346 -11.5497    199.0338     65.6719   1.7952588418e+01   2.7159262150e+01    0.1886631    0.1682285  87.62 0.0004251651    1.067    0.063
       347 -11.3183    178.8477     64.1768   2.0759028062e+01   3.2055465074e+01    0.2052999    0.1770939 -76.97 0.0003042481    1.126    0.112
       348 -12.3085     11.8776     62.1948   7.1348291482e+01   6.2690083855e+01    0.4142019    0.2084072 -21.11  0.002094724    2.222    0.550
       349 -11.6547    109.7910     59.8311   3.4503604216e+01   4.8738504415e+01    0.1947792    0.1720281  82.90  0.001074859    1.355    0.262
       350 -12.9581     37.5168     58.0867   5.9227155154e+01   6.1209563438e+01    0.2621336    0.1902791  41.05 0.0007644984    1.710    0.415
       351 -13.6156    192.7420     57.8900   1.6994920751e+01   2.9782015961e+01     0.330692    0.2857837 -48.68 0.0008293405    1.166    0.142
       352 -11.2923    159.9562     57.4947   2.2328066573e+01   3.7557666107e+01    0.2113884    0.1333501  61.60 0.0004497127    1.514    0.339
       353 -12.7268     24.5406     55.1802   6.3875399466e+01   6.3084793706e+01    0.3713444    0.1802068  -1.04  0.001634142    2.987    0.665
       354 -12.2962    116.3063     54.0362   3.0898865591e+01   4.8233228785e+01    0.1882461    0.1848285  22.92 0.0005067905    1.059    0.056
       355 -12.4948    131.3472     51.4623   2.6453594659e+01   4.5204415841e+01    0.4790719    0.3084199 -10.54  0.002149817    2.265    0.558
       356 -11.5274     18.4837     57.4819   6.7208489291e+01   6.3152368536e+01    0.2107376   0.08526213 -45.56 0.0005845615    1.973    0.493
       357 -13.6883     30.8589     49.8316   5.9388227281e+01   6.3472417198e+01    0.3441638    0.2827428  48.45  0.001139263    1.730    0.422
       358 -12.0003     19.0994     48.3553   6.4182738456e+01   6.4855698971e+01     0.298515    0.1230779 -45.89 0.0008259547    1.980    0.495
       359 -11.6721    191.3378     48.0329   1.4786956141e+01   3.1528303224e+01    0.1835479    0.1602599 -66.33 0.0004470854    1.077    0.072
       360 -11.2186     95.3004     45.3372   3.3770306206e+01   5.4013466189e+01    0.1409499    0.0996234  14.62 0.0007035459    1.662    0.398
       361 -11.8201    143.5155     42.3115   2.1129625117e+01   4.3627963641e+01     0.244703    0.1906789 -63.79  0.000722472    1.440    0.306
       362 -13.0181     23.2758     41.0464   5.9810375890e+01   6.5801754469e+01    0.4576057     0.182951 -57.28  0.001878442    3.620    0.724
       363 -13.3100     27.3565     37.5203   5.6637302937e+01   6.5996132185e+01    0.3726937     0.201797  27.81  0.001884481    1.873    0.466
       364 -13.1362     30.9197     32.2826   5.2980907507e+01   6.6455154239e+01    0.3546169    0.2650886  -4.38  0.002219144    1.153    0.132
       365 -13.5264     36.6990     40.1993   5.3403505046e+01   6.4497954101e+01    0.3615115    0.2441915  25.80  0.001176949    1.467    0.318
       366 -11.0157    241.7399     40.0623   7.3090271865e+00   2.1665635427e+01    0.1693702    0.1303645 -58.61 0.0003777701    1.094    0.086
       367 -11.1194    103.6832     40.3322   2.9663920766e+01   5.2960368233e+01    0.1317085    0.1071145 -78.90 0.0007047263    1.688    0.408
       368 -11.6351    225.5067     36.0160   8.0272185884e+00   2.5544861304e+01    0.1830906    0.1458681 -85.26 0.0003593342    1.102    0.092
       369 -11.7535      8.8854     36.4091   6.5130242171e+01   6.7824057585e+01    0.2168141    0.1029178  16.95  0.001060261    2.178    0.541
       370 -11.9399     96.5187     31.2235   2.8406244304e+01   5.5651878048e+01    0.3307987    0.2363079  -3.38  0.001287507    1.640    0.390
       371 -11.8075     96.2953     27.4492   2.7101620109e+01   5.6150078418e+01    0.2209063    0.1716516  70.92 0.0008794902    1.534    0.348
       372 -10.9364     67.7481     33.6293   3.8385392741e+01   6.0894203272e+01     0.158565    0.1133255  45.53 0.0002083534    1.453    0.312
       373 -12.6742     44.6085     32.6862   4.7059867750e+01   6.4658094399e+01    0.3873412    0.1942116  22.17  0.001893263    2.196    0.545
       374 -11.1162    106.5185     32.0770   2.6068416335e+01   5.3407372119e+01    0.1902977    0.1315578 -28.73  0.001029941    1.586    0.369
       375 -12.7739     78.2092     31.2263   3.3889520244e+01   5.9310744812e+01    0.2894231    0.2305577  83.62  0.001609582    2.039    0.510
       376 -11.3441     23.7896     31.2063   5.5925254512e+01   6.7401203515e+01    0.1653178    0.1121161 -13.96 0.0003990995    1.307    0.235
       377 -10.8328     19.5077     28.9735   5.7142691043e+01   6.8184368832e+01    0.1407501    0.1043261 -68.47 0.0008094367    2.549    0.608
       378 -13.7439     88.2779     24.4234   2.8216980190e+01   5.8156298436e+01    0.3991875    0.2772597  48.82 0.0007103574    1.298    0.230
       379 -12.2113     45.6398     25.7783   4.3788459669e+01   6.5498963347e+01    0.2394968    0.2159293  43.31  0.001277571    1.525    0.344
       380 -12.7965      4.5755     24.2701   6.3005079434e+01   7.0197509831e+01    0.2205768    0.1615737 -30.86 0.0004875515    1.116    0.104
       381 -11.0986    167.0218     23.7097   1.2001028382e+01   4.0306774305e+01    0.1805011    0.1469991  75.62 0.0002049025    1.073    0.068
       382 -11.3351     67.5221     24.5205   3.4839243843e+01   6.2114998086e+01    0.1259286    0.1067151  19.09 8.851394e-05    1.020    0.019
       383 -11.9192    131.5900     18.7037   1.6233151373e+01   4.9202146053e+01    0.3236612    0.2027567 -55.02  0.001674266    1.960    0.490
       384 -11.2193     81.4052     19.2374   2.8235571261e+01   6.0106682587e+01    0.1615054    0.1149826 -36.30  0.000893081    1.641    0.391
       385 -10.8870     74.4615     13.5088   2.8056258735e+01   6.2052927547e+01    0.1238193    0.1034893  29.41  0.000164343    1.017    0.017
       386 -10.8154     85.6511     10.3134   2.3537484537e+01   6.0142583072e+01    0.1163273   0.09601866 -81.60 0.0007046544    1.721    0.419
       387 -12.0617    139.6707    247.4984   6.7847887730e+01   3.2256206618e+00    0.3047266    0.1905573 -49.44  0.001554018    1.855    0.461
       388 -12.2709    114.8068    248.5451   7.3160840395e+01   6.8354905576e+00    0.3142847    0.1732769 -43.48  0.001576745    2.334    0.571
