#   1 NUMBER                 Running object number                                     
#   2 MAG_AUTO               Kron-like elliptical aperture magnitude                    [mag]
#   3 X_IMAGE                Object position along x                                    [pixel]
#   4 Y_IMAGE                Object position along y                                    [pixel]
#   5 X_WORLD                Barycenter position along world x axis                     [deg]
#   6 Y_WORLD                Barycenter position along world y axis                     [deg]
#   7 A_WORLD                Profile RMS along major axis (world units)                 [deg]
#   8 B_WORLD                Profile RMS along minor axis (world units)                 [deg]
#   9 THETA_WORLD            Position angle (CCW/world-x)                               [deg]
#  10 FWHM_WORLD             FWHM assuming a gaussian core                              [deg]
#  11 ELONGATION             A_IMAGE/B_IMAGE                                           
#  12 ELLIPTICITY            1 - B_IMAGE/A_IMAGE                                       
         1 -11.5952     80.3924     23.3655   8.3168877731e+01   6.0561974720e+01    0.5618805    0.2647939  34.25 0.0004897941    2.353    0.575
         2  -8.9823    144.7060     23.3239   6.6575394254e+01   4.6239698625e+01    0.2523631     0.222367  23.82 0.0002885184    1.133    0.118
         3  -8.8175     45.8182     20.5010   9.4932148815e+01   6.6438530682e+01    0.3134948    0.1913327 -47.01   0.00158553    1.764    0.433
         4  -9.6369     64.6014     13.9337   8.4398335942e+01   6.4628109548e+01    0.3669052    0.2160364  23.74  0.001249069    1.855    0.461
         5  -9.9504    133.7101     13.5900   6.5141369508e+01   5.0065265151e+01    0.3808467    0.2269839  55.06 0.0003358481    1.536    0.349
         6  -9.8155     77.5976     13.1878   7.9498829663e+01   6.2439203905e+01     0.639093    0.2335705  46.99  0.002671442    2.669    0.625
         7  -8.2794     96.9543     12.3030   7.3245833244e+01   5.8688148306e+01     0.250586    0.1667172  13.62  0.001170823    1.615    0.381
         8  -9.3256     31.5230     11.0220   9.6926720343e+01   6.9662991493e+01    0.4616247    0.2409069   4.30  0.002192013    2.982    0.665
         9  -9.1352     32.0116      6.2268   9.4318254799e+01   7.0330260947e+01    0.2571147    0.1635085 -18.50 0.0003522448    1.390    0.280
        10  -8.9152    125.3241     10.3047   6.5578230408e+01   5.2447464796e+01    0.2600667    0.1874026  30.01 0.0002658034    1.374    0.272
        11  -9.3176    129.9948     10.0049   6.4506762079e+01   5.1343309786e+01    0.2790963    0.1861136  51.81 0.0006747899    1.365    0.268
        12  -8.5271     71.6849      8.9148   7.9456932792e+01   6.4044440037e+01    0.1791605    0.1437106 -11.45 0.0004271067    1.117    0.105
        13 -10.2745      7.8633      5.3569   1.0630622700e+02   7.2774997498e+01    0.4660842    0.2250788  -0.03  0.002492224    2.839    0.648
        14  -8.8101    119.2844      6.8487   6.5471828375e+01   5.4230018367e+01     0.244312     0.186735  38.47 0.0002239044    1.198    0.165
        15  -9.3353     76.5035      6.3891   7.6625516930e+01   6.3450996662e+01    0.3596833    0.2365028 -27.45  0.001622368    1.484    0.326
        16  -8.9931     46.7572      6.2742   8.7683936855e+01   6.8407803309e+01    0.2292574    0.1756536  -4.10 0.0003652949    1.101    0.092
        17  -9.1665     41.0550      5.8233   8.9935646889e+01   6.9255426472e+01    0.3239162    0.2586882  21.19  0.002231775    1.301    0.232
        18  -8.9524     92.2526      5.4061   7.1442510657e+01   6.0420737982e+01    0.4281128    0.1836849  51.39  0.001786943    2.141    0.533
        19  -9.6770     84.8889      5.4968   7.3594892837e+01   6.1919036227e+01    0.2581752    0.2158493  -1.98    0.0016036    1.094    0.086
        20  -8.7409    134.4663      3.4467   6.1137632718e+01   5.0856226399e+01    0.2288403    0.1725098 -61.30 -2.66191e-05    1.623    0.384
        21  -9.0742    111.0180      3.4999   6.5901826341e+01   5.6474578139e+01    0.3497141    0.2339466 -39.22  0.001128715    1.706    0.414
        22  -8.5503    105.5413      1.9337   6.6492208205e+01   5.7864484222e+01    0.3024761    0.2178619  56.59  0.001497812    1.354    0.261
        23  -7.8874    175.9514      3.5265   5.4914432982e+01   4.0212709740e+01    0.2107372   0.08586956  48.02 0.0004640975    2.450    0.592
        24  -8.3029    153.8498      3.2523   5.7864948471e+01   4.5966662633e+01    0.3300397    0.1031119  64.86    0.0009783    2.763    0.638
        25  -8.5581    143.1323      2.2616   5.9201484823e+01   4.8787309328e+01    0.2155574    0.1809155  18.18 0.0002648069    1.231    0.188
        26  -8.1789     57.3925      3.1351   8.1743829634e+01   6.7181867640e+01    0.2112589    0.1457363  27.30 0.0008539873    1.367    0.269
        27  -7.7166    156.3055      7.3082   5.8895257503e+01   4.4965318719e+01    0.1484026   0.09700403  35.88 0.0002264589    1.609    0.378
        28  -8.0303      2.7752      1.4036   1.0730255250e+02   7.3785430621e+01    0.1402244   0.08613966  -7.29 0.0004387735    1.667    0.400
        29  -7.6551      2.3064    109.3653   1.3217495793e+02   5.1704761386e+01    0.1183114    0.0651393 -52.97 0.0007037302    1.745    0.427
        30  -8.4484    123.5962    107.3158   9.8429752936e+01   3.6498519208e+01    0.3382093    0.2281804   7.06  0.001338207    2.648    0.622
        31  -8.2430    115.3899    107.0283   1.0048198904e+02   3.8171888682e+01    0.3338012    0.1997761  79.89  0.001078439    4.011    0.751
        32  -8.9968     14.8815    104.9498   1.2826155495e+02   5.1848569367e+01    0.3271812    0.1476328 -43.17  0.001625782    2.636    0.621
        33  -8.7583    249.8108    104.2437   7.2381946740e+01   8.9674113084e+00    0.3293126   0.07694049 -36.67  0.001033671    3.610    0.723
        34  -7.5441    189.5372    104.9661   8.2836195458e+01   2.2266703461e+01    0.2198941    0.1343604  -8.65 0.0008094828    2.594    0.614
        35  -8.2762     67.2757    104.7122   1.1325568221e+02   4.6575506593e+01      0.24981    0.1696709  -1.47  0.001181782    2.493    0.599
        36  -8.1179     95.7715    102.8328   1.0474784082e+02   4.2654881462e+01    0.3064413    0.1092468  34.54  0.001008273    3.613    0.723
        37  -7.3352    167.3166     99.6751   8.6022738060e+01   2.8430174493e+01    0.1566441    0.1226905 -76.34 0.0003864871    1.670    0.401
        38  -7.9423    140.4984     99.4727   9.2143848733e+01   3.4568609338e+01    0.1524539    0.1458636  -0.62 0.0008087154    1.082    0.076
        39  -8.4641    130.6916     96.8081   9.3854609155e+01   3.7225230127e+01     0.367826    0.1964478  32.58  0.001387799    2.429    0.588
        40  -9.5950     15.9560     94.5249   1.2651995978e+02   5.4101337055e+01    0.3535297    0.1913004 -49.44  0.001139265    1.728    0.421
        41  -9.2605     12.4689     93.9344   1.2746510718e+02   5.4473095039e+01    0.4096718    0.1804846 -71.87  0.002142439    1.807    0.447
        42  -7.8717    150.6578     95.6221   8.8662361509e+01   3.3056284206e+01    0.2420636    0.1863834   9.11  0.001102394    1.673    0.402
        43  -7.7433     31.4665     94.9911   1.2196142802e+02   5.2762368700e+01    0.1894616    0.1016727 -66.50 0.0004359195    1.530    0.346
        44  -9.5037    242.4674     92.8952   7.0710758463e+01   1.2167807766e+01    0.2983207    0.1739953  37.02  0.001350906    1.999    0.500
        45  -7.5834     83.3372     93.3241   1.0596087439e+02   4.6798584342e+01    0.1428085    0.1061677 -21.27 0.0004993074    1.718    0.418
        46  -8.0380     53.9541     93.4565   1.1483254085e+02   5.0800373856e+01    0.1789864   0.09882831  57.77 0.0008087679    2.528    0.604
        47  -8.7602     43.3202     92.5425   1.1790102938e+02   5.2179240026e+01    0.2786626     0.172237 -35.17  0.001472015    1.923    0.480
        48  -9.1239      1.7045     91.8523   1.3034894476e+02   5.5591547564e+01    0.3560153    0.1137934 -76.80  0.001574347    2.697    0.629
        49  -8.3720     96.8344     90.1728   1.0120934738e+02   4.5235074077e+01    0.3522567    0.2278167   5.34  0.001389458    2.929    0.659
        50  -8.7774    174.7391     90.2275   8.1843652681e+01   2.8398886474e+01    0.3037486    0.2160151  60.81 0.0009503347    1.520    0.342
        51  -8.3537    110.1633     90.6097   9.7574754034e+01   4.2680123314e+01    0.2118068    0.1389343  30.79 0.0009509818    1.794    0.443
        52  -8.9426     34.2971     83.3445   1.1889974739e+02   5.5124679623e+01    0.4356607    0.1256079 -53.84    0.0017879    2.604    0.616
        53  -9.8827     38.8113     80.0484   1.1673764159e+02   5.5432132490e+01    0.4452764     0.229378  20.19  0.001164409    2.584    0.613
        54  -7.4964    152.3173     85.6594   8.5443227557e+01   3.4575375470e+01     0.159214     0.122397 -74.44 0.0007048908    1.710    0.415
        55  -7.7371     65.8866     84.1808   1.0897890368e+02   5.1371186551e+01    0.1821307    0.1449877 -32.26 0.0003693572    1.320    0.243
        56  -8.0559    127.2333     83.4505   9.0942466916e+01   4.0658231785e+01     0.285095    0.1446588  41.86  0.001068207    2.074    0.518
        57  -9.0243    230.5439     81.2986   6.9552188533e+01   1.6537356337e+01    0.2495638    0.2255112   6.42 0.0005325433    1.157    0.136
        58  -8.8309     88.2141     78.9238   1.0062468639e+02   4.9120644897e+01    0.4113161    0.2476463  15.28  0.001659498    2.831    0.647
        59  -7.9301    140.2250     79.6085   8.6518774128e+01   3.8516541049e+01    0.2164703     0.140865  39.11 0.0009398223    1.628    0.386
        60  -9.8314      8.2486     77.2603   1.2624446882e+02   5.8426704330e+01    0.4021269    0.1989275 -35.36  0.001477151    2.388    0.581
        61  -8.4866    184.1126     77.9009   7.6475118036e+01   2.8244414115e+01    0.2665678     0.220182 -36.29 0.0005957723    1.192    0.161
        62  -8.6882     48.4989     77.4842   1.1294727161e+02   5.4988528118e+01    0.2029534    0.1433079 -31.12 4.668784e-05    1.556    0.358
        63  -7.3809    121.5744     76.0000   9.0181922997e+01   4.3331565354e+01    0.3310805   0.08568189  47.60 0.0009404502    3.981    0.749
        64  -7.9370     23.4761     69.4612   1.1963718449e+02   5.9101406768e+01    0.2306462    0.1455809  35.82 -1.015955e-05    1.926    0.481
        65  -9.5154     23.8456     73.6739   1.2039166619e+02   5.8151201641e+01    0.5688547    0.1667404 -48.55   0.00238138    2.817    0.645
        66  -9.6753     29.9950     68.2408   1.1708052542e+02   5.8834687699e+01    0.4228283    0.2003233 -28.35  0.001838655    3.216    0.689
        67  -8.0998     74.9382     74.2704   1.0343114112e+02   5.2224851189e+01    0.1807292    0.1694444  10.48 0.0004061692    1.162    0.140
        68  -8.0596    163.1657     69.8140   7.8295291079e+01   3.4798177496e+01    0.2210759    0.1830551  11.92 0.0008221012    1.374    0.272
        69  -7.5340    151.5023     70.5579   8.1081937167e+01   3.7516788894e+01    0.1529924    0.1476451  12.41 0.0001213063    1.032    0.031
        70  -7.9865    129.7997     69.0086   8.5827049323e+01   4.2858030149e+01     0.226246    0.1577755  30.37 0.0009779054    1.633    0.388
        71  -8.2156    105.4372     67.6834   9.2044108563e+01   4.8253085369e+01    0.3605687    0.2244237 -10.81    0.0014021    2.697    0.629
        72  -8.3142     83.9833     63.8621   9.7347812103e+01   5.2924320742e+01    0.3578132    0.2013398  25.27  0.001540047    2.385    0.581
        73  -9.3489     17.4956     62.7339   1.2030756252e+02   6.0995176639e+01    0.4468623    0.1608596 -33.48  0.001701692    4.329    0.769
        74  -9.1902     24.8107     62.5943   1.1761510030e+02   6.0481401948e+01    0.2058072    0.1561293 -70.21  0.001099965    1.263    0.208
        75  -9.5511     27.5340     60.4778   1.1610256330e+02   6.0711881278e+01    0.2098125    0.1220435  22.13 0.0009675666    2.107    0.525
        76  -8.0872    148.9348     63.0000   7.9274606589e+01   3.9441128765e+01    0.2497551   0.08666152  54.13  0.000795308    2.893    0.654
        77  -8.1157    139.2289     62.1652   8.1267439460e+01   4.1906481814e+01    0.2632952    0.1609004  14.62 0.0009470576    2.817    0.645
        78  -8.4621     57.6643     62.3989   1.0573714074e+02   5.7126662305e+01    0.3140294    0.1668861  42.97   0.00151806    2.258    0.557
        79  -9.5131     62.8266     61.2600   1.0358820787e+02   5.6677307468e+01    0.5312229    0.2417419  27.25   0.00205648    2.868    0.651
        80  -7.7183    157.9809     58.9794   7.6002605422e+01   3.7880058579e+01     0.238828    0.1753304 -69.11  0.001062376    1.779    0.438
        81  -8.0072     96.3198     59.3247   9.1980246348e+01   5.1605006749e+01    0.1471487     0.108837  -3.20  0.000704599    1.677    0.404
        82  -8.0663    111.6437     58.1737   8.7097071461e+01   4.8770914107e+01    0.3151188    0.1474543  30.95  0.001060411    3.281    0.695
        83  -9.5874     36.9662     59.0793   1.1224938259e+02   6.0155485429e+01    0.2944443    0.1773803 -23.64  0.001551636    2.058    0.514
        84  -8.1117     99.1593     56.0307   8.9984813289e+01   5.1674520673e+01    0.2427445    0.1570448 -15.35  0.001071963    1.997    0.499
        85  -7.5513     88.3684     54.2947   9.2718857624e+01   5.4005777967e+01    0.1451316    0.1053645   0.43  0.000702854    1.723    0.420
        86 -10.0738     75.1263     50.2559   9.5660828219e+01   5.7008986269e+01    0.4177984    0.3378016 -10.26 0.0002618022    1.274    0.215
        87  -9.2390     45.4039     48.9284   1.0602307563e+02   6.1345690498e+01    0.3980021    0.2156591 -30.78  0.001739206    2.000    0.500
        88  -7.5555    163.5128     51.5138   7.2472079239e+01   3.7653585895e+01    0.1551143    0.1418141  23.76 0.0008075782    1.122    0.109
        89  -9.7503    129.6831     50.4279   7.9624992931e+01   4.6104593486e+01    0.2549228    0.2434973 -23.56 0.0002966442    1.055    0.052
        90  -8.3657    118.5378     51.1938   8.2766610778e+01   4.8502784094e+01    0.2529601    0.1946172  46.86 0.0005218052    1.318    0.241
        91  -7.8975    107.0821     48.4427   8.4946186394e+01   5.1419204843e+01    0.2100319    0.1386463  43.96 0.0006558237    1.541    0.351
        92  -8.9235      3.4059     45.9978   1.2192340437e+02   6.5369134046e+01    0.4618469    0.2099883  40.95   0.00246116    3.101    0.677
        93  -8.8926     10.5135     47.0477   1.1931027193e+02   6.4753798123e+01    0.3419611    0.1535679 -55.25   0.00081618    1.618    0.382
        94  -9.1636     13.6900     45.6817   1.1767288665e+02   6.4833497105e+01    0.2584487    0.1556163 -45.84  0.001034093    1.310    0.237
        95  -8.1539    142.1473     45.4051   7.4933061794e+01   4.3912247373e+01     0.371061    0.2255451   5.27  0.001409968    2.620    0.618
        96  -9.3049     56.4703     42.8712   9.9705355993e+01   6.1143002616e+01     0.646092    0.3097675 -19.13  0.002013423    5.402    0.815
        97  -8.2272     92.1848     37.3335   8.5178450782e+01   5.6231541613e+01    0.2734306    0.2193535  37.85  0.000836582    1.273    0.215
        98 -10.8440     83.1635     40.0415   8.9137625450e+01   5.7464024800e+01    0.3991877    0.2577654 -19.36 0.0002389743    1.680    0.405
        99  -8.9866     87.5033     38.0064   8.6925004243e+01   5.7010498228e+01    0.2739279    0.2285933  -6.30 0.0006938567    1.147    0.128
       100  -8.2639     92.1283     43.4025   8.7546578135e+01   5.5246037886e+01    0.2393572    0.1575638 -40.21 0.0009203987    1.479    0.324
       101  -8.4685     31.7649     43.4047   1.0962659290e+02   6.3856213477e+01    0.2112537    0.1129633  31.32  0.001154805    2.206    0.547
       102  -7.9497    113.0036     42.5229   8.1106065136e+01   5.1124881114e+01    0.2133481    0.1114439  30.29 0.0008093447    2.532    0.605
       103  -8.4209      3.2225     40.1259   1.2057722848e+02   6.6578926654e+01    0.1888564    0.1160036 -45.00   0.00124177    1.285    0.222
       104  -9.2377     68.0047     38.0391   9.3599642137e+01   6.0341350877e+01    0.2582775    0.2007173 -15.06  0.001322406    1.236    0.191
       105  -9.0510     72.5639     34.8514   9.0700280208e+01   6.0152526609e+01    0.4012001     0.231918  30.57   0.00198401    1.906    0.475
       106  -8.6105     35.5981     37.8239   1.0617685256e+02   6.4565701351e+01    0.2135604    0.1351014 -53.28 0.0008966392    1.472    0.321
       107  -9.8820     39.1020     35.4469   1.0386464310e+02   6.4642755945e+01    0.7389452    0.1762739  31.24  0.002669898    4.847    0.794
       108  -8.1312    106.0247     36.7862   8.0857722182e+01   5.3511403567e+01    0.2431616    0.1499569  24.58  0.001077876    1.977    0.494
       109  -9.0784     24.1269     36.2892   1.1050294232e+02   6.5930456895e+01    0.2294828    0.1773055  56.88  0.001471649    1.955    0.488
       110  -8.6304     56.1072     35.3426   9.6991925444e+01   6.2560674257e+01    0.2585899    0.1907342 -17.83 0.0007558696    1.308    0.236
       111  -7.8549     18.9971     35.9938   1.1262303120e+02   6.6399377684e+01      0.14071    0.1111716 -40.32 0.0003364492    1.032    0.031
       112  -9.9706      6.5881     33.7190   1.1738338529e+02   6.7676198523e+01    0.4832862    0.3001988  21.61   0.00318922    1.988    0.497
       113  -9.4862      1.8731     29.7590   1.1835802969e+02   6.8710924079e+01     0.510488    0.1661632 -56.01  0.002590795    2.095    0.523
       114  -8.4995    225.0782     32.8230   5.7506570575e+01   2.4497385153e+01    0.3097669    0.1951397 -22.28  0.001410464    1.669    0.401
       115  -8.5729    192.0120     29.3034   6.0707021208e+01   3.3291872419e+01    0.4061551    0.2413241 -68.05     0.001599    2.189    0.543
       116  -8.7558     22.0389     32.0433   1.0997676151e+02   6.6919861022e+01    0.1811278    0.1369509 -38.52 0.0003295701    1.031    0.030
       117  -9.3688     41.8123     27.0605   9.9452055482e+01   6.5841830447e+01    0.3450876    0.1776244 -49.93 0.0009653728    1.978    0.495
       118  -8.0231    173.7399     27.3911   6.2846907656e+01   3.8280660134e+01     0.211504    0.1259484  54.13 0.0009438343    1.591    0.371
       119  -9.5160     62.8744     26.8469   9.0900301305e+01   6.3001332603e+01    0.4100652    0.2213814  25.29   0.00129371    2.224    0.550
       120  -8.1856    110.5971     26.2322   7.5434769628e+01   5.4017772781e+01    0.1990384    0.1296007 -11.10 0.0008407764    1.685    0.407
       121  -9.9779    209.6208    249.5158   1.0703444917e+02  -3.0954685607e+00    0.3123881    0.1107573  41.11  0.001594121    2.149    0.535
       122  -8.5721     25.6875     24.9681   1.0572917376e+02   6.7911942582e+01    0.3182294    0.1075421 -38.97  0.001411718    2.573    0.611
       123  -8.7646     28.9274     21.0736   1.0266363591e+02   6.8287389910e+01    0.3231112    0.1891905 -39.33  0.001880916    1.368    0.269
       124 -10.6676    198.6381    248.1985   1.0866190085e+02  -1.2988574265e+00    0.3723341    0.2148164  35.75  0.002394772    1.317    0.241
       125  -8.4982     36.0000    247.9441   1.3542307649e+02   2.1532451010e+01    0.1410151   0.04788354 -76.21 0.0008035933    2.950    0.661
       126  -8.3523    140.3585     20.0683   6.6244137870e+01   4.7707445343e+01     0.237888    0.1788052  48.02 0.0003525582    1.246    0.198
       127  -8.3193      9.2771     19.8079   1.1155336710e+02   7.0156691201e+01    0.2011417    0.1327448  -8.12 0.0006756937    1.635    0.389
       128  -8.5335     92.4133     20.8592   7.8289543259e+01   5.8583823162e+01    0.2659076    0.1834356  36.13  0.000796477    1.400    0.286
       129  -8.3904      5.2827     18.9529   1.1321802378e+02   7.0569626458e+01     0.162267    0.1064356 -45.70 0.0003333325    1.136    0.119
       130  -9.3701    199.3918     20.6769   5.7183622230e+01   3.2386648725e+01    0.4144031    0.2295754 -77.00  0.001685768    2.415    0.586
       131  -8.5078    127.6601     16.8607   6.7649337854e+01   5.1190008188e+01    0.2332088    0.1752667  45.35 0.0003254247    1.237    0.192
       132  -8.3524    189.1817     15.7899   5.7020351261e+01   3.5560816808e+01     0.214228    0.1843455 -74.08 0.0006049791    1.171    0.146
       133  -8.9719     44.2131    249.6060   1.3425343465e+02   2.0355869489e+01    0.1290384   0.08120447  39.32 0.0009490353    1.705    0.413
       134 -12.0036    240.3891    243.8552   1.0127390961e+02  -7.0267415429e+00    0.2170867     0.177414  20.66 0.0004575872    1.212    0.175
       135  -9.1756     19.4781    245.0580   1.3778106097e+02   2.3731046911e+01    0.1310205    0.0746114 -89.23 0.0003839929    1.524    0.344
       136  -9.5701      4.5929    237.3020   1.3968850965e+02   2.6427492041e+01    0.1630098    0.1295151  81.74 0.0002424479    1.337    0.252
       137  -8.0838     88.0268     13.0355   7.6143060767e+01   6.0443731780e+01    0.2170431    0.1406011  18.93 0.0005797615    1.644    0.392
       138  -9.5110    188.1106    233.6557   1.0846287521e+02   2.0536719283e+00    0.1663272    0.1638124 -74.87 0.0008997074    1.379    0.275
       139  -9.8052     43.9768    221.5168   1.3260801164e+02   2.5026833574e+01    0.3170191    0.3018599  53.13  0.002686538    1.564    0.361
       140  -7.7131    154.5359    206.5316   1.1067041061e+02   1.1482563695e+01    0.1260413    0.1064208  41.88 0.0003542072    1.033    0.032
       141  -8.3597    192.5112    195.5591   1.0177201873e+02   6.4728181142e+00    0.2483986    0.1274314 -40.22  0.001223772    2.224    0.550
       142  -7.5883    113.6296     10.6825   6.8315538149e+01   5.5168464916e+01    0.1537685   0.09104923  29.39 0.0007035122    1.789    0.441
       143  -8.6805    245.5507    166.0794   8.6785214996e+01   1.0692906599e+00    0.2251293    0.1718115  33.49 0.0003208307    1.256    0.204
       144  -7.3693    147.5068     14.4864   6.2878443681e+01   4.6511407755e+01    0.1419726    0.1330537  46.74 0.0008104966    1.004    0.004
       145  -8.7968    246.3211    161.3565   8.5691510853e+01   1.5626297418e+00    0.2149631      0.19003   3.71 0.0002626081    1.091    0.084
       146  -8.0625    168.0558    159.2852   9.9855883417e+01   1.7055542393e+01    0.1956021    0.1708275  45.27  0.000354941    1.082    0.076
       147  -7.3693    246.3490    156.3164   8.4638537223e+01   2.2387424337e+00     0.140582   0.09071102  11.58 0.0007047674    1.729    0.422
       148 -10.3594    214.5441    154.5568   8.9774962959e+01   8.5302475584e+00    0.2724793     0.243836  27.39  0.001619619    1.079    0.073
       149  -9.4760     67.3667    144.8942   1.2023011440e+02   3.7479906484e+01    0.4652023    0.2820503  66.22  0.002407215    1.829    0.453
       150  -7.5547     35.4642    145.5820   1.2786820538e+02   4.1031348674e+01    0.1205525   0.09485166  84.83 0.0002906918    1.065    0.061
       151  -8.7828    233.9317    136.8869   8.2481829769e+01   7.3696571436e+00    0.2045199     0.186408  -5.45 0.0008729363    1.052    0.050
       152  -7.1545    109.2963     11.3648   6.9636039059e+01   5.6086187062e+01    0.1485313   0.09363553  22.72 0.0007031425    1.718    0.418
       153  -7.2355    166.6564    131.7049   9.4215958627e+01   2.2486743185e+01    0.1522783      0.11574  12.20 0.0007031597    1.664    0.399
       154  -8.4342    153.2561    123.9982   9.5375951782e+01   2.6868850574e+01    0.1990712    0.1287646 -43.11 0.0008905375    1.569    0.363
       155  -7.8599    119.9108    118.5308   1.0208471706e+02   3.4825596326e+01    0.2185498    0.1432967  43.02   0.00101761    1.553    0.356
       156  -7.6501     65.5936    116.5063   1.1603700730e+02   4.4112209714e+01    0.1324351    0.1147704 -69.84 7.453491e-05    1.025    0.024
       157  -9.7148    134.0459    108.4471   9.6090956789e+01   3.4117799788e+01    0.8181922    0.3006506 -47.05  0.002786697    2.738    0.635
       158  -8.2218    142.5378    111.9506   9.4918304374e+01   3.1597221818e+01    0.3037135    0.1859215  13.85  0.001020462    3.450    0.710
       159  -8.7551      9.6475    109.8489   1.3028190695e+02   5.1124563944e+01    0.2808271    0.1553314  83.09  0.001051893    1.820    0.450
       160  -8.4625    250.1687    110.6131   7.3833907034e+01   7.9746585254e+00    0.1875405    0.1221383  38.35 0.0005932755    1.643    0.391
