#   1 NUMBER                 Running object number                                     
#   2 MAG_AUTO               Kron-like elliptical aperture magnitude                    [mag]
#   3 X_IMAGE                Object position along x                                    [pixel]
#   4 Y_IMAGE                Object position along y                                    [pixel]
#   5 X_WORLD                Barycenter position along world x axis                     [deg]
#   6 Y_WORLD                Barycenter position along world y axis                     [deg]
#   7 A_WORLD                Profile RMS along major axis (world units)                 [deg]
#   8 B_WORLD                Profile RMS along minor axis (world units)                 [deg]
#   9 THETA_WORLD            Position angle (CCW/world-x)                               [deg]
#  10 FWHM_WORLD             FWHM assuming a gaussian core                              [deg]
#  11 ELONGATION             A_IMAGE/B_IMAGE                                           
#  12 ELLIPTICITY            1 - B_IMAGE/A_IMAGE                                       
         1 -15.1285      7.6420    147.9093   2.9256213731e+02   6.0233985060e+00    0.3225938    0.1328808 -73.34     0.023234    3.403    0.706
         2 -13.6646    192.8394     28.6372   2.8968869528e+02   6.3367710862e+00   0.06762917   0.06588678 -15.84  0.006748568    1.028    0.027
         3 -13.8251    207.0739      9.3836   2.8940709590e+02   6.4770753922e+00   0.07907869   0.05702934 -20.67  0.008325247    1.646    0.392
         4 -11.6252      2.1309     12.8155   2.9181912115e+02   7.6242520764e+00   0.04090108   0.00960705 -62.33  0.002570741    4.108    0.757
         5 -12.2081      2.4771      2.9779   2.9175612547e+02   7.7363666214e+00   0.03889534   0.02448305  42.90  0.003939704    1.640    0.390
         6 -12.4189      3.2017     21.0370   2.9185585641e+02   7.5227053096e+00    0.1121682   0.01007228 -51.19  0.005480747    6.744    0.852
         7  -9.8396     11.6781    240.4975   2.9306604653e+02   4.9235297062e+00   0.01748321   0.01198516  39.05  0.001284649    1.466    0.318
         8 -12.0878    247.4177    248.7096   2.9037407282e+02   3.4655876129e+00   0.03381985   0.02270846  27.60  0.003553576    1.490    0.329
         9 -11.0685    126.2791    250.1053   2.9178988599e+02   4.1508147362e+00   0.01757802    0.0100214  11.33   0.00158989    2.166    0.538
        10  -9.7780    110.5484    250.6829   2.9197626709e+02   4.2350097564e+00   0.01225546  0.006035126  26.96  0.001087878    2.031    0.508
        11 -11.0678     98.3032    249.5932   2.9211219867e+02   4.3184068789e+00   0.01824832   0.01498231  -4.45  0.002086556    1.341    0.254
        12 -10.5680    101.8353    247.0810   2.9205614930e+02   4.3272090080e+00   0.01176238  0.009205459 -80.81 0.0007355448    1.404    0.288
        13 -11.2807     34.1026    245.6572   2.9283572970e+02   4.7344449882e+00   0.03629851   0.01603211 -46.69  0.003055632    2.316    0.568
        14  -9.9761     29.0128    249.4841   2.9291769787e+02   4.7192556923e+00   0.01596308   0.01145922 -42.19 0.0008819512    1.427    0.299
        15 -10.3769      2.4779    249.5098   2.9322662385e+02   4.8716446842e+00    0.0129761   0.01246445  84.37  0.001618933    1.076    0.070
        16 -10.4707      5.5004    248.5045   2.9318548484e+02   4.8659535495e+00   0.02025924   0.01013319  44.16   0.00179749    2.130    0.530
        17 -10.1657      5.7100    241.1050   2.9313911535e+02   4.9507964294e+00   0.01333221  0.009384305  19.42 0.0003560002    1.486    0.327
        18 -10.2982      1.5301    239.9758   2.9318106104e+02   4.9879671070e+00    0.0202751  0.006145405 -61.53  0.001444995    3.134    0.681
        19 -10.2595    183.2914    238.5804   2.9105832048e+02   3.9548382192e+00   0.01205735  0.007370566 -41.73 0.0006846429    1.726    0.421
        20  -9.5549    120.0000    239.0057   2.9179673552e+02   4.3161138123e+00   0.01105735  0.003740682 -62.83  0.000801211    2.934    0.659
        21  -9.1892    156.6504    249.6970   2.9143433840e+02   3.9799086325e+00  0.007077491  0.004927916 -25.32 0.0007040097    1.697    0.411
        22 -12.0966     56.4139    226.4510   2.9246181753e+02   4.8291900972e+00    0.1312876   0.06382132 -37.00  0.008328459    2.586    0.613
        23 -14.3451      9.5085    206.3260   2.9288821163e+02   5.3333986692e+00    0.7521852          nan  34.38   0.01140173    8.205    0.878
        24 -11.7462    139.5902    249.6359   2.9163230943e+02   4.0793058175e+00   0.02239631   0.01675124  29.86  0.002479525    1.333    0.250
        25 -10.4540      7.7438    226.3355   2.9302771154e+02   5.1108560246e+00   0.01452496  0.009875256  13.01 0.0003331571    1.633    0.388
        26 -10.7457      1.7535    216.5450   2.9303927957e+02   5.2591688227e+00   0.02338791  0.006331808 -66.39  0.001414656    4.486    0.777
        27  -9.3687     94.5563    216.8929   2.9196091762e+02   4.7201780720e+00   0.01232723  0.008487144  54.82 0.0009670762    1.649    0.394
        28 -10.1945    122.2881    226.5842   2.9169603441e+02   4.4472585879e+00   0.01316416  0.005994986  31.58  0.001031388    2.113    0.527
        29  -9.0810    152.5000    212.9568   2.9126324629e+02   4.4308410126e+00  0.009533414  0.006478644 -62.29 0.0003363248    1.460    0.315
        30 -12.1120     19.1440    199.2592   2.9273394083e+02   5.3601224864e+00   0.02640834   0.01362881  48.37   0.00133039    2.221    0.550
        31 -10.5320     10.7494    195.8294   2.9281131571e+02   5.4483233428e+00   0.02431768  0.009762107  40.10  0.001491053    2.500    0.600
        32 -11.6332     64.1626    199.0147   2.9220816620e+02   5.1034996105e+00   0.01936123    0.0118957 -37.88  0.001153194    1.799    0.444
        33 -10.9142    173.5731    222.5361   2.9107542964e+02   4.1975144187e+00    0.0218885   0.01520135  63.11  0.002236434    1.750    0.429
        34  -9.9343    191.8095    192.7163   2.9068509688e+02   4.4382512040e+00   0.02090224   0.01131246  83.78  0.001545224    3.548    0.718
        35  -8.5518     51.0121    196.8026   2.9234813064e+02   5.2050735845e+00  0.008494787  0.005186671  26.42 0.0003247268    1.647    0.393
        36 -10.2086     41.6582    193.8525   2.9243950025e+02   5.2933020136e+00   0.01754439  0.008387991  67.78  0.001016907    5.647    0.823
        37 -11.9251     69.8848    191.0417   2.9209399020e+02   5.1631751584e+00   0.01525002   0.01233458 -35.04 0.0004423834    1.287    0.223
        38 -10.9996     79.5582    178.2159   2.9190480271e+02   5.2564321159e+00   0.01215886   0.01132855 -40.45 0.0003963617    1.067    0.063
        39 -13.3027     66.5763    176.1315   2.9204358366e+02   5.3556145596e+00   0.02742053   0.01356598 -40.79  0.001925934    2.288    0.563
        40  -8.9287    101.9957    178.4749   2.9164503932e+02   5.1237754451e+00  0.009509807  0.006344002  31.94 0.0005357729    1.483    0.326
        41  -8.4997    171.2019    172.9921   2.9080672691e+02   4.7868478625e+00  0.008673446  0.005209285 -62.70 0.0003093015    1.655    0.396
        42 -12.0662     87.1626    168.3582   2.9175737306e+02   5.3270948555e+00   0.03498919    0.0306253  -8.49   0.00417095    1.215    0.177
        43  -8.8811    250.6964    171.6996   2.8987489496e+02   4.3405123853e+00  0.006868234  0.004929973 -27.87 0.0002484068    1.589    0.371
        44  -9.2037     97.9180    172.0000   2.9165385171e+02   5.2226073907e+00   0.01085727  0.003769022  26.41 0.0007966295    2.902    0.655
        45 -10.0667    235.6275    160.1832   2.8998091001e+02   4.5617337614e+00   0.01004575  0.005637196 -51.22 0.0007543332    1.729    0.422
        46 -11.0874     32.7003    155.7458   2.9231672745e+02   5.7879880871e+00   0.03135312  0.006207273 -60.78  0.001889762    4.393    0.772
        47 -10.2689    188.4743    151.8807   2.9047937321e+02   4.9318967837e+00   0.02286591   0.01252461  63.27  0.001871574    2.811    0.644
        48 -10.1749     99.0316    152.5600   2.9152471392e+02   5.4421140478e+00   0.01340086   0.01242195  21.33 0.0007517288    1.087    0.080
        49  -9.2903    102.0430    148.2196   2.9146368235e+02   5.4751426383e+00   0.01309588  0.008407865 -44.88 0.0006825802    1.581    0.368
        50 -12.2220     87.7326    151.8669   2.9165221078e+02   5.5154834099e+00   0.01466448   0.01191462 -29.32 0.0006287236    1.312    0.238
        51 -12.7208     67.1334    144.0208   2.9184538034e+02   5.7256656766e+00   0.03803406   0.02706623  66.34  0.003901174    1.716    0.417
        52 -11.0340     32.7199    143.9990   2.9224641880e+02   5.9244336597e+00   0.03555261  0.005791112 -62.90  0.001833824    6.065    0.835
        53  -9.2453    182.8508    146.0668   2.9050995991e+02   5.0320455720e+00    0.0104332  0.008539909  63.32 0.0007365922    1.356    0.262
        54 -12.7632     38.4837    233.6380   2.9271328266e+02   4.8489680970e+00    0.0200874   0.01497742 -38.38 0.0007312328    1.400    0.286
        55  -8.6613    192.0012    144.0347   2.9039132887e+02   5.0025467913e+00  0.007937086  0.007386684 -58.82  0.000447209    1.066    0.062
        56  -9.8786    110.1572    137.4615   2.9130480520e+02   5.5532200304e+00   0.01862501  0.009991659 -36.68  0.001353072    2.226    0.551
        57 -10.2657     84.3273    135.0368   2.9159129026e+02   5.7307594161e+00   0.01375606  0.009279745  45.35  0.001222029    1.552    0.356
        58 -11.4907     54.3368    121.8295   2.9186196849e+02   6.0574429659e+00   0.03778871   0.01640124 -80.00  0.002417837    4.511    0.778
        59 -11.3862     57.9907    133.4779   2.9188896970e+02   5.9009807001e+00   0.02383261   0.01393467  81.98   0.00199377    2.765    0.638
        60 -11.2033     96.3536    134.3855   2.9144724085e+02   5.6688059581e+00   0.02330541   0.01157484  36.54  0.001132292    1.967    0.492
        61 -12.1512     33.2567    131.4338   2.9216516058e+02   6.0673957605e+00     0.035086   0.01563809 -70.90  0.002799656    2.700    0.630
        62  -9.4834    107.0927    124.0482   2.9126024577e+02   5.7267988528e+00  0.009285305  0.009081258 -21.87 0.0003194302    1.019    0.019
        63 -10.7748     32.8352    117.9745   2.9208970046e+02   6.2262537481e+00   0.03620184  0.006162954 -65.02  0.001615027    8.205    0.878
        64  -8.8644    160.4834    125.4967   2.9064702279e+02   5.4006882147e+00  0.006648534  0.006350354  64.61  2.30367e-05    1.085    0.078
        65 -10.5812    167.9047    113.1145   2.9048639404e+02   5.5014324580e+00   0.01494101   0.01232189  61.98 0.0007276119    1.335    0.251
        66  -9.7266    203.1706    111.8161   2.9006817095e+02   5.3117567351e+00  0.009512691  0.007560949 -31.42 0.0005174943    1.341    0.254
        67 -11.6148    243.0865     84.6491   2.8944081888e+02   5.3948728435e+00   0.01666759   0.01308745  78.71  0.001254344    1.495    0.331
        68  -9.7748     73.0355     86.1603   2.9143050412e+02   6.3638680617e+00   0.01209615   0.00823572  48.13 0.0005997553    1.574    0.365
        69  -8.8017    184.5157     77.4773   2.9007914690e+02   5.8186720029e+00  0.006629078  0.006364585 -29.76 4.628919e-05    1.041    0.039
        70  -9.4018    156.6129     76.1771   2.9039630574e+02   5.9957715815e+00  0.009706712   0.00574639 -50.95 0.0006568352    1.645    0.392
        71 -14.4743     44.2128    225.8406   2.9260021020e+02   4.9066243428e+00    0.1620779   0.09615173  19.81  0.006499222    1.807    0.447
        72 -10.0735     33.4235     62.5739   2.9175156294e+02   6.8664513918e+00   0.01880785   0.01050301  46.86  0.001007796    1.961    0.490
        73 -10.6885     27.8490     60.3561   2.9180337188e+02   6.9243422155e+00   0.02066045   0.01038597  38.06  0.001511202    1.966    0.491
        74  -9.9900     21.0085     57.5294   2.9186632649e+02   6.9965863683e+00   0.01799994  0.007336933  44.64  0.001407418    2.739    0.635
        75 -11.7174      2.6537     39.7134   2.9197408217e+02   7.3091171993e+00   0.02884341  0.008971911 -60.73  0.002104151    3.015    0.668
        76  -9.3292     46.7108    248.9302   2.9270847335e+02   4.6237507515e+00   0.01388181   0.00952113  66.64  0.001388532    1.830    0.454
        77  -9.3999     23.5128    245.8802   2.9296028916e+02   4.7928281465e+00   0.01411239   0.00755883  43.25  0.001297662    1.949    0.487
        78 -11.1936    197.0824    242.4350   2.9092109501e+02   3.8301805276e+00    0.0307809   0.01568348 -87.27  0.002230661    3.635    0.725
        79 -10.0626    161.8586    249.1846   2.9137074064e+02   3.9557231644e+00  0.009632719  0.007754109 -26.71 0.0006164994    1.344    0.256
