#   1 NUMBER                 Running object number                                     
#   2 MAG_AUTO               Kron-like elliptical aperture magnitude                    [mag]
#   3 X_IMAGE                Object position along x                                    [pixel]
#   4 Y_IMAGE                Object position along y                                    [pixel]
#   5 X_WORLD                Barycenter position along world x axis                     [deg]
#   6 Y_WORLD                Barycenter position along world y axis                     [deg]
#   7 A_WORLD                Profile RMS along major axis (world units)                 [deg]
#   8 B_WORLD                Profile RMS along minor axis (world units)                 [deg]
#   9 THETA_WORLD            Position angle (CCW/world-x)                               [deg]
#  10 FWHM_WORLD             FWHM assuming a gaussian core                              [deg]
#  11 ELONGATION             A_IMAGE/B_IMAGE                                           
#  12 ELLIPTICITY            1 - B_IMAGE/A_IMAGE                                       
         1 -11.2768     78.7934     35.6544   3.2460237461e+01   6.0106430786e+01    0.8105988    0.5508708 -35.85  0.004091929    1.526    0.345
         2 -12.1929    104.5092     13.3646   1.5280451542e+01   5.6996338938e+01    0.5177774    0.3798153  -3.73  0.002761249    1.613    0.380
         3 -12.4562    105.7374     20.2511   1.7842918305e+01   5.5943540438e+01    0.4664706    0.4077601 -71.29 0.0003641685    1.281    0.220
         4 -11.7999     26.6502     28.5480   5.4066556967e+01   7.0099249196e+01    0.6125837    0.4251362 -19.29  0.002616044    1.414    0.293
         5 -12.1535     48.7901     12.9526   3.3773379705e+01   6.9327707032e+01    0.8358403    0.2655306  44.94  0.003258934    2.919    0.657
         6 -11.9307     35.5278     19.2234   4.4226847886e+01   7.0581691417e+01    0.6269103    0.3159644 -31.19  0.002640299    2.036    0.509
         7 -11.7393     20.5818     21.8365   5.4756444247e+01   7.2029522515e+01    0.5977708    0.3304214 -32.71  0.001965696    1.705    0.413
         8 -11.5224      6.9333     10.7937   5.8978800022e+01   7.5336735391e+01    0.5390445    0.4725086  25.42  0.003731143    1.404    0.288
         9 -10.9681      9.5578     19.5606   6.1238321758e+01   7.3488749942e+01    0.4167943    0.2207792 -13.15   0.00105338    2.162    0.538
        10 -10.9467     12.9239      8.1376   5.2922891315e+01   7.5246865636e+01    0.3501196    0.2397568 -57.32  0.001407019    1.950    0.487
        11 -11.9239     16.7636     12.7707   5.2716779753e+01   7.4055278642e+01     0.635399    0.2769158 -35.67  0.003068743    2.177    0.541
        12 -11.9815     23.0586     10.8683   4.7297926032e+01   7.3634400583e+01    0.5102922      0.35731   0.85  0.002308303    1.388    0.280
        13 -10.8826     67.9122     19.2495   2.8894481544e+01   6.4762297002e+01    0.3978257     0.327947  74.90  0.002252969    1.579    0.367
        14 -12.0494    165.1479     17.7712   6.7688045911e+00   4.1121045072e+01    0.5253969     0.299486  45.90  0.001793039    2.031    0.508
        15 -11.5390     85.8614     14.1123   2.0396777688e+01   6.1408739356e+01    0.5331041    0.4078499  11.14  0.001439737    1.444    0.307
        16 -10.8385    127.5205     11.4819   1.0056729663e+01   5.1369107257e+01    0.3702189    0.2254366 -50.04  0.001781981    1.803    0.445
        17 -10.9551    127.1529     16.6136   1.1994917618e+01   5.0943161908e+01    0.4203709    0.2111751  45.91  0.001568252    2.043    0.510
        18 -11.5973    132.9949     15.1944   1.0481506430e+01   4.9593829609e+01    0.5073664    0.3037437  43.03  0.001870343    1.798    0.444
        19 -10.8778    137.4856     14.5101   9.5236271375e+00   4.8511196183e+01    0.2872922    0.2456941  56.32 0.0008372824    1.145    0.127
        20 -11.6468    227.7742     15.1753   3.6836117992e-01   2.6835130151e+01    0.4261149    0.2196576 -71.94  0.001313626    1.953    0.488
        21 -11.2556    120.9232     12.2452   1.1495125591e+01   5.2979315992e+01    0.3566423    0.3426208  73.88   0.00182169    1.070    0.065
        22 -11.8318    191.9471      9.5136   1.7258100334e+00   3.5435894161e+01    0.6412126    0.3195575 -13.19  0.002804566    2.986    0.665
        23  -9.7928    114.6885     12.5619   1.2802146297e+01   5.4529673614e+01    0.2504173    0.1702955 -30.33 0.0009006515    1.595    0.373
        24 -12.0889    212.3031      9.1848   6.1516561816e-02   3.0807153387e+01    0.5646425    0.3563815 -20.70  0.002598622    1.886    0.470
        25 -11.4870    206.4816      2.2688   3.5880673550e+02   3.2798201044e+01    0.5480905    0.2446299 -87.79  0.002580016    2.287    0.563
        26 -11.5194    168.8949      9.4678   3.8924611848e+00   4.1037538754e+01     0.514631        0.247  55.66  0.001803478    2.083    0.520
        27 -11.6076    164.1514      6.4803   3.5124495930e+00   4.2508621700e+01    0.5481053     0.328655   1.94  0.002553558    2.596    0.615
        28 -11.7065    152.7783      8.4094   5.3951659917e+00   4.5197280179e+01    0.4402313    0.3451793  -0.86  0.002465181    1.624    0.384
        29 -10.7382    145.3006      8.9293   6.5146885881e+00   4.7055535841e+01    0.3256925    0.2041633   1.17  0.001548553    2.275    0.560
        30 -10.5960     89.5103      8.5612   1.6818468786e+01   6.1124498366e+01    0.3433986    0.2197605 -28.31  0.001082139    1.699    0.411
        31 -10.3016      1.2722      8.4470   6.2315584679e+01   7.6189410986e+01    0.3083338   0.08721399 -55.42  0.001298954    3.142    0.682
        32 -11.8579    184.6751      5.5448   1.2964114725e+00   3.7559207796e+01    0.4817789    0.3368244 -40.38  0.002419566    1.385    0.278
        33  -9.9097     78.0860      7.6420   1.9597842037e+01   6.3880341268e+01    0.2043226    0.1877406 -44.86 0.0005787857    1.274    0.215
        34 -10.8602     73.0534      3.8429   1.9224134344e+01   6.5388114254e+01    0.6648762    0.2141859  48.51  0.002631953    2.540    0.606
        35  -9.8876    231.9523      6.4617   3.5817304822e+02   2.6882270898e+01    0.1716127    0.1298318 -69.05 0.0007969722    1.097    0.088
        36 -10.8117    233.8273      2.8244   3.5727847900e+02   2.6864919912e+01    0.3628586     0.180303 -57.40  0.001145367    1.668    0.400
        37 -10.9614    122.0251      5.6583   8.8117336015e+00   5.3313883549e+01    0.2506482    0.1735371 -20.83 0.0009222983    1.640    0.390
        38 -10.0858     63.0245      6.0983   2.3872484495e+01   6.7346176878e+01    0.3245838    0.2487882  62.14  0.001888976    1.428    0.300
        39  -9.9539     64.2907      2.1266   2.1223689969e+01   6.7476751351e+01    0.1987889     0.156534   6.56 0.0009494559    1.288    0.224
        40 -11.2856    176.8535      5.8075   2.0638755248e+00   3.9428742607e+01    0.3388293    0.1924994 -89.23 0.0005102662    1.697    0.411
        41 -10.9472    243.1510      4.1179   3.5705652678e+02   2.4863052141e+01    0.2828477    0.1415786 -72.38  0.001586213    1.881    0.468
        42 -11.8110    133.2881      2.4773   5.9463291054e+00   5.0708524090e+01    0.4223911    0.3057373  73.01  0.001898105    1.215    0.177
        43 -10.2630    115.6775      4.5017   9.4508704225e+00   5.5028539247e+01    0.3213103    0.2328289  -0.21  0.001327811    1.680    0.405
        44 -11.1579    112.9871      1.9904   8.9316994724e+00   5.5920530705e+01    0.4772618    0.2108794  74.27  0.002002737    2.207    0.547
        45 -10.6575    218.7316      3.6829   3.5834803131e+02   2.9955227933e+01    0.2639818    0.2130743  69.58 0.0009255153    1.380    0.276
        46 -10.6218    223.8240      2.7577   3.5783020522e+02   2.8955776342e+01    0.2411438    0.1929416 -89.07  0.000379552    1.201    0.167
        47  -9.7024     30.0426      3.7893   3.8438742740e+01   7.3698830426e+01    0.2299704    0.1544312 -55.87  0.001188222    2.682    0.627
        48 -10.6468    105.4747      2.0481   1.0342304079e+01   5.7802602599e+01    0.3182043    0.2198603 -80.89  0.001531402    1.690    0.408
        49 -10.4689      2.0814      2.0845   5.8167071599e+01   7.7261376370e+01     0.245463    0.1434455 -27.89  0.001328885    1.483    0.325
        50  -9.8591     13.2246      2.0832   4.8983843843e+01   7.6192559184e+01    0.2194356    0.1404981  -0.51  0.001064194    1.561    0.359
        51 -12.1350    137.8546      4.1879   5.9165587196e+00   4.9392882159e+01    0.7293749    0.2312697  65.22  0.002208841    2.545    0.607
        52  -9.3561    160.3208      1.3261   2.3646287812e+00   4.3936334155e+01     0.133911   0.09131747  44.68 0.0007047199    1.683    0.406
        53  -9.8194    152.2504      1.4234   3.2490012468e+00   4.5962597931e+01    0.2399155    0.1117341  70.39 0.0006009042    1.861    0.463
        54 -11.1280     41.3647      3.9078   3.2130216507e+01   7.1809758858e+01    0.3758577    0.2161479  27.84  0.001584134    1.723    0.420
        55  -9.1996     81.9215      1.0000   1.5219934982e+01   6.3607084179e+01    0.2139484   0.06742135  62.87 0.0005767772    2.823    0.646
        56 -12.3612      2.5462    111.4336   8.4400267912e+01   5.2337111695e+01    0.6143256    0.3824216  57.11  0.002274513    1.667    0.400
        57 -11.4740      4.3789    105.6548   8.3176749457e+01   5.3698717729e+01    0.4049461    0.3667777  33.06  0.002097277    1.258    0.205
        58  -9.9405     18.7818    123.8251   8.0117785694e+01   4.8112764861e+01    0.1915998    0.1633309 -66.67 0.0004708524    1.113    0.101
        59 -10.0959     49.2382    112.1017   6.7728635353e+01   4.8107249613e+01     0.306911    0.1966019  34.67  0.001118824    1.605    0.377
        60 -11.3199     15.4588    109.7104   7.9613604175e+01   5.1974101273e+01    0.4328029    0.2852097  14.87  0.001732486    1.763    0.433
        61  -8.8449     60.7409    110.6688   6.3339894954e+01   4.6963004846e+01     0.148948     0.107237 -35.05 0.0004455772    1.567    0.362
        62 -11.5092     79.7524    108.2074   5.6187025309e+01   4.4634165416e+01    0.5041446    0.3141997  29.22 0.0009793935    1.739    0.425
        63 -11.1783     51.3620    100.2631   6.4547013639e+01   5.0859436209e+01    0.7788626    0.3962398 -31.47  0.002869606    2.935    0.659
        64  -9.6718     85.8909    103.6293   5.2985571263e+01   4.4677332812e+01    0.2516795     0.205136 -41.10 0.0005115526    1.251    0.201
        65 -12.1920    248.0894     96.1718   1.6342401379e+01   1.2344606207e+01    0.5712794    0.2856854 -24.12  0.002689646    2.228    0.551
        66 -11.9706      9.1845     97.0595   8.0372025900e+01   5.5602701189e+01    0.4379639    0.4050137  71.01  0.000675184    1.146    0.128
        67 -11.6055     21.8265    114.4538   7.7934492509e+01   5.0275008017e+01    0.6227061    0.2684453  10.07  0.002477654    3.163    0.684
        68  -9.1702     33.4719     98.4863   7.1085936792e+01   5.3336606449e+01     0.210313    0.1566056  60.15 0.0009053375    1.502    0.334
        69 -10.3750     30.5041     96.4810   7.1885157697e+01   5.4131810637e+01    0.2841128    0.1922223 -84.42 0.0008578119    1.561    0.360
        70  -9.3452     64.6911     98.7026   5.9203429574e+01   4.9391770414e+01    0.2123972    0.1983237  24.48   0.00045998    1.118    0.105
        71 -11.4595     67.9534     95.1027   5.7101957630e+01   4.9774227013e+01    0.5134826    0.2902182  40.43  0.002020583    1.811    0.448
        72  -9.1702    210.4202     98.4537   2.1943931493e+01   1.9087625717e+01    0.1370245    0.1226332 -36.81 0.0001144522    1.012    0.012
        73  -9.7301     80.6204     98.2291   5.3379988531e+01   4.6909317568e+01    0.2327772     0.216669  77.20 0.0006402888    1.143    0.125
        74  -9.4595     77.6566     96.6869   5.4011087540e+01   4.7793503885e+01    0.2684603    0.2072508  19.36 0.0007525523    1.465    0.317
        75 -10.6847     79.3377     93.0582   5.2440976573e+01   4.8367369615e+01    0.6775278    0.2690208  40.74  0.002409127    2.525    0.604
        76 -10.4287     78.7071     89.6343   5.1713732008e+01   4.9285573544e+01    0.3203159    0.2018325 -44.74   0.00102975    1.577    0.366
        77 -12.0875    125.9330     94.6717   3.8356359012e+01   3.8531501107e+01    0.2804264    0.2645266 -31.52 0.0003256926    1.084    0.077
        78 -11.2586     22.8112     94.5510   7.4612677193e+01   5.5291307356e+01    0.3614895    0.2826748 -34.12  0.001321536    1.344    0.256
        79 -10.1207     19.3756     91.8323   7.5548044902e+01   5.6246988667e+01    0.2708953    0.2114187 -55.45  0.001178306    1.153    0.132
        80 -10.4475     25.3414     87.4948   7.2312157565e+01   5.6865199098e+01    0.5005336    0.3160253  73.22  0.002342396    2.030    0.508
        81 -10.0356     28.5387     84.5236   7.0370563984e+01   5.7327724746e+01    0.4061685    0.2914625  49.79  0.001627994    1.587    0.370
        82 -10.8762     52.1842     87.0420   6.1121576345e+01   5.4044833383e+01    0.2305098     0.213858 -25.66  0.000338663    1.089    0.081
        83 -10.4938     35.5213     92.5710   6.9123057892e+01   5.4632221802e+01    0.3600808    0.2380323 -88.25  0.001218466    1.776    0.437
        84 -11.6371     42.0238     91.3644   6.6242264224e+01   5.4231751155e+01    0.6038743    0.4128398  80.75  0.001518347    1.900    0.474
        85 -11.7420     45.0860     84.5935   6.3410006848e+01   5.5551657458e+01    0.5496202    0.4452194  14.03  0.001756848    1.345    0.257
        86 -10.0753     37.0276     85.8084   6.7057827683e+01   5.6169798901e+01    0.2893213    0.1951751  19.66  0.000808211    1.633    0.387
        87 -10.5417     19.2840     86.4469   7.4667444968e+01   5.7610987633e+01    0.6001344    0.3247432 -37.64   0.00284043    1.956    0.489
        88 -10.1944     50.1907     91.8983   6.3103676431e+01   5.3107426533e+01     0.310151     0.215634  20.03  0.001219232    1.598    0.374
        89 -11.0781     98.6158     91.0613   4.5366573512e+01   4.5169213153e+01    0.3217847     0.218357  45.59 0.0006020974    1.482    0.325
        90 -10.3556     90.4635     87.3781   4.6969623135e+01   4.7618004783e+01    0.6866383    0.2718543 -44.62  0.002380065    2.550    0.608
        91 -11.8148      7.2433     88.5358   8.0013798243e+01   5.7860618227e+01    0.6113973    0.4125828   8.62  0.003437806    1.730    0.422
        92  -9.9653     66.8366     88.4608   5.5765668147e+01   5.1556990583e+01    0.3114002    0.2121143 -23.68 0.0008428268    1.878    0.468
        93 -10.1554    143.1936     84.5241   3.1066555437e+01   3.6592987860e+01    0.2474902    0.2051322 -41.21  0.000312353    1.206    0.171
        94 -11.5641     75.1854     79.1538   4.9922304317e+01   5.2326205395e+01    0.9601387     0.582876  58.06  0.003944137    2.233    0.552
        95  -9.7919     71.9121     84.2333   5.2662393954e+01   5.1725259713e+01    0.2046991     0.195662  78.96  0.000365545    1.128    0.113
        96  -9.9930     67.2342     81.6175   5.3686186153e+01   5.3112153094e+01    0.3565829    0.2676146 -23.63  0.001730988    1.537    0.349
        97 -11.6893    247.8713     76.8850   1.2245317756e+01   1.5105205051e+01    0.2994984    0.2496697  79.36  0.001993698    1.409    0.290
        98 -11.4757     53.0851     74.5210   5.7341144247e+01   5.6921016393e+01    0.7082272    0.3096885 -61.90  0.002645463    2.626    0.619
        99  -9.3963     92.3444     71.7205   4.1419770086e+01   5.0634332123e+01    0.2393943    0.1554233 -47.64  0.000953617    1.574    0.365
       100 -10.5134     89.2278     77.6390   4.4406574159e+01   5.0014496560e+01    0.4198347    0.3244755  51.45  0.001377258    1.358    0.264
       101 -10.5292     94.5365     76.2462   4.2167400403e+01   4.9234402850e+01    0.3822285    0.2914731  38.24 0.0009794853    1.316    0.240
       102 -10.1898     58.0952     77.6716   5.6174863305e+01   5.5458582550e+01    0.2662902    0.2017657 -47.07 0.0005226362    1.255    0.203
       103  -9.9238     46.7771     76.5564   6.0609002290e+01   5.7287562751e+01    0.2277129    0.2027666 -15.07 0.0006312075    1.151    0.131
       104 -11.0397      1.9879     71.4846   7.9797150623e+01   6.2335314479e+01    0.4450262    0.1885384 -67.10  0.002084415    1.897    0.473
       105 -11.1159     14.1942     74.5603   7.4720783108e+01   6.0917839686e+01    0.3705409    0.2634125 -79.44  0.001664016    1.395    0.283
       106  -9.6239    103.1540     74.8427   3.8940363534e+01   4.7695894647e+01    0.2327388    0.2140144  88.63  0.001055638    1.205    0.170
       107  -9.9583    112.7010     83.2627   3.8709383646e+01   4.3863552280e+01    0.4793284    0.2392717  58.20  0.001693398    2.561    0.610
       108  -9.9095     24.6477     73.5057   6.9706231103e+01   6.0386642400e+01    0.2631676    0.1641282 -47.07 0.0009640381    1.441    0.306
       109 -10.2631     28.5795     71.7043   6.7470323779e+01   6.0470434336e+01    0.3036995    0.1327734  15.73 0.0009387946    2.750    0.636
       110 -11.9511     40.9838     69.8855   6.1304670515e+01   5.9582723852e+01     0.491917    0.3038937 -53.67 0.0006046466    1.484    0.326
       111 -10.4430     34.4145     71.5964   6.4760877829e+01   5.9915277603e+01    0.3884865    0.2132546  33.82  0.001301793    1.931    0.482
       112  -9.9892     80.7979     72.7466   4.5814591289e+01   5.2711821098e+01    0.4424677    0.2303115 -56.57  0.001716657    2.283    0.562
       113 -10.5378    122.7200     68.7293   3.1312207012e+01   4.4421297580e+01    0.4201177    0.2492252  48.90  0.001607194    1.647    0.393
       114 -10.0589     14.3777     67.4472   7.3203050972e+01   6.2635328006e+01    0.3472668    0.1316078  14.09  0.001424164    3.042    0.671
       115 -10.9181     13.3181     57.6870   7.1520751041e+01   6.5023405769e+01    0.4939722    0.1642235 -48.06  0.002039411    2.436    0.589
       116 -12.3551      6.4704     62.1344   7.5989256710e+01   6.4376509306e+01    0.6286777    0.4094736 -10.87  0.003531056    1.704    0.413
       117 -10.4443      9.0500     56.0301   7.3357682607e+01   6.5675741333e+01    0.2985984     0.230804  58.88  0.001319417    1.609    0.378
       118  -9.9389    201.9339     64.8180   1.4939837493e+01   2.6148880585e+01    0.2386204    0.1762982 -81.90 0.0004118479    1.521    0.343
       119  -9.7992     96.5601     65.5132   3.7914946686e+01   5.0993407516e+01    0.2717542    0.2425087  29.21 0.0005445001    1.127    0.113
       120 -10.7541     92.6307     62.8228   3.8271014323e+01   5.2361408136e+01    0.4619721    0.2707221  53.11  0.001523357    1.824    0.452
       121 -10.8575     46.2492     59.4056   5.5647421747e+01   6.1300938401e+01    0.2975173    0.2560737  53.57 0.0008242925    1.381    0.276
       122  -9.7606    158.5747     62.9572   2.1415344332e+01   3.6679811946e+01    0.2916968    0.1847689  44.99 0.0007526772    1.702    0.413
       123  -8.9942    105.3087     63.6824   3.4537718302e+01   4.9407689071e+01    0.1518334    0.1209376 -82.62 0.0002867451    1.636    0.389
       124  -9.5105     84.3142     61.4680   4.0668710047e+01   5.4355757180e+01    0.2522994    0.1846558 -65.02  0.001169566    1.770    0.435
       125 -10.9927     40.5276     56.8844   5.7520870772e+01   6.2603351719e+01    0.3945252    0.1877196  34.23    0.0010637    2.173    0.540
       126  -9.3837    154.9777     60.7700   2.1451723548e+01   3.7918205223e+01    0.1962563    0.1813378  75.91            0    1.058    0.055
       127  -9.2743    113.6417     60.8436   3.1137846902e+01   4.8003522553e+01    0.2219962    0.1370973 -47.48 0.0009537889    1.727    0.421
       128  -9.4736     65.1879     60.8100   4.7806365753e+01   5.8080301480e+01    0.2911091    0.1712775 -60.47  0.001230185    2.172    0.540
       129  -9.7290    124.6344     56.4744   2.6743091127e+01   4.6122276276e+01    0.2470758    0.2075306 -24.90 0.0005478472    1.287    0.223
       130 -10.6650    119.8559     57.3549   2.8260416790e+01   4.7133275002e+01     1.620462    0.9021069 -82.67  0.003516435    8.726    0.885
       131 -10.0020    122.5148     44.4973   2.3090587157e+01   4.8550794389e+01    0.2801037    0.2072888  60.36 0.0008030799    1.299    0.230
       132 -11.0185    110.9922     40.2432   2.4405842898e+01   5.2020035192e+01    0.6465827    0.5593959 -35.22  0.003280041    1.216    0.178
       133 -11.7092    117.2485     45.3435   2.4686859510e+01   4.9721247475e+01    0.7168916     0.525578  -6.95  0.003401684    1.752    0.429
       134 -11.9787    119.5146     38.0874   2.1484269261e+01   5.0232846934e+01    0.6767751    0.3564307 -44.79  0.002857539    2.064    0.515
       135 -11.0465     31.4517     53.1652   6.0821173303e+01   6.4483231353e+01    0.7002896    0.2549883  17.72  0.002477318    3.747    0.733
       136 -11.1212     25.5055     55.6609   6.4658722549e+01   6.4520033999e+01    0.4608941    0.3040561 -10.29  0.001562908    1.722    0.419
       137  -9.5494     29.7574     60.0169   6.3786380200e+01   6.3111679653e+01    0.3767627    0.1915664 -63.88  0.001702121    2.002    0.500
       138 -10.4599     25.5682     59.5196   6.5736110255e+01   6.3628934614e+01    0.4461619    0.2351473  24.67   0.00215655    2.009    0.502
       139 -12.4979     74.0092     50.3217   4.0330417170e+01   5.8549222566e+01     1.015771    0.4452838 -53.99  0.003494046    3.376    0.704
       140 -10.7577     51.1472     61.1884   5.4004052238e+01   6.0222503819e+01    0.7053734    0.3098729 -54.00  0.002841741    2.273    0.560
       141 -10.1791     87.8793     56.2010   3.7488727597e+01   5.4633359628e+01    0.4905604    0.1812395 -33.59  0.001557173    3.463    0.711
       142  -9.7705    157.1610     54.3592   1.9097704698e+01   3.8379961288e+01    0.3611971    0.2504576 -51.53  0.001739688    1.473    0.321
       143 -10.1005    154.9462     49.7823   1.8100658710e+01   3.9620094410e+01    0.4169872    0.2132423 -22.76 0.0008011044    2.500    0.600
       144 -11.1104     43.4047     61.7105   5.7727517696e+01   6.1163447881e+01     0.387258    0.2402539 -60.55  0.001867762    1.689    0.408
       145  -9.9760    246.5078     54.9809   7.6577795239e+00   1.8300006219e+01    0.1595827    0.1038426  -7.42 0.0005400605    2.439    0.590
       146 -10.1017     99.9011     55.0157   3.3107615101e+01   5.2219286489e+01    0.2487714    0.2133138  66.33  0.001294862    1.261    0.207
       147 -10.3931     60.5199     52.0338   4.6548232327e+01   6.0674503412e+01    0.3590654    0.1838693 -47.63  0.001553048    1.967    0.492
       148 -10.5326     60.9019     47.1040   4.4446600476e+01   6.1574021977e+01    0.5757826     0.366969  -3.15  0.002462497    2.409    0.585
       149 -10.1834     55.2078     50.4864   4.8309302060e+01   6.1860040635e+01    0.2211471    0.1799221 -23.56  0.000787259    1.209    0.173
       150  -9.7526     52.2790     48.3386   4.8820919464e+01   6.2754109425e+01    0.2262831    0.1826159 -23.91 0.0004719465    1.209    0.173
       151  -8.8218     93.5005     52.5183   3.4217293647e+01   5.4093249700e+01    0.1480184    0.1397598  21.99 0.0008101889    1.033    0.032
       152 -10.5412     10.8710     51.6864   7.1328338785e+01   6.6571506952e+01     0.219707      0.19213 -72.82 0.0003459781    1.214    0.176
       153  -9.6463    239.9801     50.9613   7.3767978300e+00   2.0076589389e+01    0.1496432    0.1271652 -58.55 0.0006117894    1.059    0.056
       154  -9.9602    144.9694     50.5111   2.0227422698e+01   4.2016563604e+01    0.2484833    0.2054594  -7.95 -7.075036e-05    1.457    0.314
       155 -10.4937     39.4424     44.0270   5.3424335046e+01   6.5473441351e+01     0.473473    0.2627143 -28.69  0.002160008    2.065    0.516
       156 -10.8993     46.9712     48.3425   5.1338220632e+01   6.3551496712e+01    0.2947971     0.233614 -16.05 0.0006621211    1.276    0.216
       157  -9.7990     43.6907     47.6545   5.2678393788e+01   6.4157100911e+01    0.2213414    0.1828815 -16.71   0.00110234    1.169    0.144
       158 -11.0970     44.5567     43.9692   5.0809402862e+01   6.4781900135e+01    0.3208901    0.2767549  15.88 0.0006228312    1.142    0.124
       159  -9.6444      2.1941     49.0088   7.5461747373e+01   6.7653755959e+01     0.203533    0.1727309  -9.51 0.0007259998    1.250    0.200
       160 -10.9601     20.8983     46.1120   6.4175717485e+01   6.7070636961e+01    0.4040578    0.2415873 -50.78  0.001764573    1.454    0.312
       161 -10.6832     31.6192     45.1939   5.7984285620e+01   6.6190233668e+01    0.5870486      0.36045   3.97  0.002903925    1.951    0.487
       162 -10.3844     26.2971     43.1720   6.0161380606e+01   6.7191932602e+01     0.247442    0.1802803  18.65 0.0005789534    1.420    0.296
       163 -10.0140     13.0784     46.4229   6.8669883934e+01   6.7617900910e+01    0.2600932    0.1398129 -45.34  0.001345403    1.573    0.364
       164  -8.8703    189.2532     49.6718   1.2707043906e+01   3.1243833918e+01    0.1434309   0.09412565 -59.42 0.0002656308    1.551    0.355
       165  -9.3826     82.5456     46.5229   3.5635159052e+01   5.7509495771e+01    0.1453322    0.1346021  14.56 0.0001699366    1.043    0.041
       166  -9.6037    234.5942     45.3951   6.6294608663e+00   2.1860291562e+01    0.2291331    0.1059738 -89.14  0.000948683    3.319    0.699
       167  -9.9560    200.2759     45.4155   1.0197541044e+01   2.9259430265e+01    0.1856799     0.123679  86.64 0.0009519613    1.614    0.381
       168  -9.5439     93.1183     44.7001   3.1324574048e+01   5.5518761566e+01    0.2412232    0.1691648 -28.84  0.000967407    1.519    0.342
       169 -10.4963    156.1613     42.1742   1.5533746000e+01   4.0401271550e+01    0.2964694    0.2437648 -40.48  0.000884335    1.231    0.188
       170  -9.2208    139.5061     43.5372   1.9042159634e+01   4.4424552147e+01    0.1461122    0.1373992  56.68 0.0001156862    1.067    0.063
       171 -10.0755     98.4018     41.3928   2.8379051014e+01   5.4842245388e+01    0.3091106    0.2141256  70.10  0.001012275    1.736    0.424
       172  -9.9630     57.0268     41.8903   4.4018923572e+01   6.3224174456e+01    0.3157104    0.1922787  38.01  0.001322048    1.631    0.387
       173 -10.4075      3.7814     39.6469   7.2197183138e+01   6.9686677038e+01    0.4540378    0.2258291  54.10  0.001965065    3.497    0.714
       174 -10.7329      4.2837     35.6107   7.0722836425e+01   7.0542977766e+01    0.3279265    0.3117755 -27.66  0.001559353    1.175    0.149
       175 -10.7478      9.8901     30.9747   6.5607057299e+01   7.1177617508e+01    0.5767699    0.3387754  -3.02  0.003152471    1.835    0.455
       176 -10.2470    131.7060    240.9596   6.4657510944e+01   7.7138863460e+00    0.1648658    0.1437213  26.05 0.0006354999    1.097    0.089
       177  -9.4728     17.9189     40.8669   6.4136897855e+01   6.8465095509e+01     0.202524    0.1460261 -33.41 0.0006463646    1.231    0.188
       178 -11.0350     61.0910     36.0595   3.9680191411e+01   6.3547065733e+01    0.5172274    0.3338893  -7.15  0.001450407    2.139    0.533
       179 -10.2899     68.3241     32.6534   3.5116558894e+01   6.2729909039e+01    0.4219067    0.2849506  53.85    0.0021225    1.625    0.385
       180 -10.5754     22.9953     37.2852   5.9871467061e+01   6.8756362010e+01    0.4894117    0.1673931  34.55  0.001988978    3.115    0.679
       181 -11.3980    175.6380     32.8502   9.8535610318e+00   3.6757095923e+01    0.6045521    0.4375188 -24.28  0.001333669    1.543    0.352
       182 -10.7269    152.9872     36.0020   1.4132169423e+01   4.2034197881e+01     0.281166    0.1916348  58.27 0.0003279713    1.406    0.289
       183  -9.4886     98.0890     27.7709   2.2933472024e+01   5.6875555106e+01    0.4534084    0.4372453 -45.27  0.002712103    1.132    0.116
       184 -10.6850     67.6308    240.9065   7.8088362784e+01   1.6196946421e+01    0.1972227    0.1460103  29.07 0.0007620273    1.313    0.239
       185 -10.4513    147.2270    239.2932   6.1276000127e+01   5.8233876853e+00    0.1997513    0.1787121 -71.82  0.001294517    1.573    0.364
       186 -12.2249    104.4698     32.7246   2.3212627292e+01   5.4677179527e+01    0.7726488    0.3531693  41.85 3.095609e-05    2.337    0.572
       187 -12.3337    114.7345     24.8925   1.7608830636e+01   5.3158917243e+01    0.9126641    0.2891124  52.73  0.002844159    2.706    0.630
       188 -11.6076    157.7431     29.1227   1.1228671979e+01   4.1693781677e+01    0.4496589    0.2794192  83.46 0.0007894181    1.691    0.409
       189 -11.6989    164.2264     27.7731   9.8904703034e+00   4.0218500928e+01    0.3892305    0.2991252 -67.83 0.0004055924    1.283    0.221
       190  -9.6676     42.8544     28.1734   4.4738689789e+01   6.7980521906e+01    0.2052978    0.1443304  -2.50 0.0002516487    1.583    0.368
       191 -12.3213     58.0490     29.9600   3.8222906708e+01   6.5120509407e+01    0.3924001    0.3043676   2.36  0.001369165    1.354    0.261
       192 -11.7288     49.4500     30.2874   4.2405004255e+01   6.6564401577e+01    0.6774148     0.312966  34.62  0.002352048    2.176    0.540
       193 -10.1451     76.1695    240.3518   7.6250489713e+01   1.5238785755e+01     0.157609     0.141605  43.24  0.001133191    1.158    0.136
       194  -8.9637     15.4736    234.0115   8.8438074944e+01   2.3194347366e+01      0.13884   0.07915723 -54.12 0.0008088893    2.462    0.594
       195 -10.7831     38.8343     22.1780   4.3915507629e+01   6.9605606072e+01    0.2922269    0.1798948 -32.88  0.001164002    1.573    0.364
       196 -10.1534    248.3063    223.2668   4.0380187653e+01  -5.1160034625e+00    0.2170969    0.1740891  40.85  0.001563022    2.021    0.505
       197  -9.1720    241.2988     31.6810   3.0421318588e+00   2.2204285622e+01    0.1296063   0.07138374 -57.56 0.0007020966    1.618    0.382
       198 -11.4995    182.9977     25.3789   6.8647381468e+00   3.5857164673e+01    0.3815919    0.2924977  84.41  0.001175271    1.228    0.186
       199 -11.6128    189.0781     27.2941   6.7125508161e+00   3.4169328382e+01    0.3714556    0.3253744  52.83  0.001086369    1.309    0.236
       200 -12.3160    125.7233     27.8975   1.6388067676e+01   5.0017784459e+01    0.4712947    0.3790852 -89.44  0.001367603    1.318    0.241
       201 -10.4635    230.3049     27.3414   2.9241147705e+00   2.4940600117e+01    0.2934043    0.1985371  88.70  0.001592757    1.488    0.328
       202  -9.7563    187.5283     22.9461   5.7088057874e+00   3.5044621297e+01    0.1966756     0.168965 -86.67 0.0005541808    1.068    0.064
       203 -10.3501    150.8571     27.0246   1.1610999659e+01   4.3698390380e+01    0.3445341    0.1962761  46.74  0.001181317    1.892    0.472
       204 -10.7908    155.1050     23.4325   9.8341123654e+00   4.3034531307e+01    0.4922822    0.2725049 -35.81  0.002317254    1.807    0.447
       205 -10.8568    144.2200     25.5318   1.2181669926e+01   4.5572676781e+01    0.4504296    0.2147177  80.78  0.001301078    2.568    0.611
       206 -10.6462    148.2724     22.2007   1.0446645672e+01   4.4918361190e+01    0.4025744    0.1507451  50.46  0.001504586    2.714    0.632
       207  -9.0904    120.6794    223.6777   6.4902751899e+01   1.2186695516e+01    0.1258425   0.09379559  -0.50 0.0007045158    1.673    0.402
       208 -11.6074    135.5004     22.2921   1.2549224449e+01   4.8182797693e+01    0.5877039    0.3052694  68.41  0.002597857    1.803    0.445
       209 -10.2920     59.9120     22.6959   3.3869993228e+01   6.5888097243e+01    0.2892053    0.1901774 -31.59  0.000975453    1.557    0.358
       210  -9.6283    169.2170     23.4234   7.9422254880e+00   3.9475641327e+01    0.2783152    0.1138235  63.93   0.00114873    2.218    0.549
       211  -9.2525     90.9961     23.0261   2.2926563065e+01   5.9160217074e+01    0.1719743    0.1557859  42.47  0.001001743    1.008    0.008
       212  -8.9817     85.9485     23.7508   2.4776785529e+01   6.0234577195e+01    0.1696629    0.1099571  51.44 0.0001921245    1.416    0.294
       213  -9.4481     44.5506    215.4906   8.1216031532e+01   2.3847804343e+01      0.12286    0.1007293  56.61 0.0003928519    1.020    0.019
       214  -9.3852      5.5695     22.4475   6.5295651951e+01   7.3213066390e+01    0.1692783    0.1379857 -55.71 0.0001580655    1.278    0.217
       215 -10.4459     13.9426     22.6784   5.9576562570e+01   7.2519707014e+01    0.2729306     0.210524   8.83  0.001748121    1.278    0.218
       216  -9.5191    164.5066    211.9268   5.3857391856e+01   7.6717521577e+00    0.1725873    0.1260659 -40.79 0.0006196724    1.537    0.349
       217 -10.5549      8.9673    211.5080   8.8866585789e+01   2.8264129995e+01    0.1840469    0.1342033  79.07   0.00125443    1.193    0.162
       218  -8.7419     61.3670    206.7393   7.6618877251e+01   2.3677107958e+01    0.1386648   0.07758172  54.37 0.0006978647    1.644    0.392
       219 -10.0280     78.7516    204.3488   7.2242095166e+01   2.1911197100e+01    0.2700073    0.1814207  63.57 0.0008468973    1.540    0.351
       220 -11.1969    178.4910     20.8501   6.1092165396e+00   3.7471842987e+01    0.5409013    0.2540694  47.40  0.002289743    2.604    0.616
       221 -10.9346      4.8712    202.9009   8.9405947810e+01   3.0422927282e+01     0.439647   0.06957602 -69.35  0.001550309    4.993    0.800
       222  -9.6569    216.5147     20.0073   2.3138957542e+00   2.8717926995e+01    0.1841879    0.1095113 -36.26 0.0004571741    1.534    0.348
       223  -9.1048    232.6556    190.6816   3.7423304828e+01   9.6587936219e-01    0.1275641    0.0788553  -0.68 0.0007049118    1.722    0.419
       224  -9.8335     74.8812     19.4391   2.6434959240e+01   6.3255105271e+01     0.244755    0.1784552   1.51 0.0009204271    1.560    0.359
       225  -9.9208     46.5685     20.0835   3.8745575964e+01   6.8696199123e+01    0.2339294    0.1812326  51.70 0.0009340499    1.573    0.364
       226 -12.0499      4.6658    184.0021   8.8617533095e+01   3.4578284278e+01     0.568553    0.3586677  82.27  0.003041679    1.364    0.267
       227  -9.5345    198.9697     17.4955   3.1719326629e+00   3.2952404432e+01    0.1876775    0.1172743  76.42 0.0005177624    1.535    0.348
       228  -9.5960     28.0069    176.0056   8.2267795210e+01   3.4352752255e+01    0.1913271    0.1456903 -46.16 0.0006522355    1.615    0.381
       229 -10.1352     15.9926    174.4613   8.5266753522e+01   3.5828863290e+01    0.2593292    0.1474758  76.77  0.001378811    1.629    0.386
       230 -11.9598      9.0982    166.8297   8.6577669841e+01   3.8200091612e+01    0.3415365    0.2604643  40.51   0.00153124    1.298    0.230
       231 -12.2361     11.7812    162.4876   8.5586644745e+01   3.9023294149e+01    0.4180658    0.2780002  77.23  0.002419662    1.330    0.248
       232  -9.8409    238.5035     16.4741   3.5994455312e+02   2.4490139496e+01    0.1206264    0.0946834 -58.87 0.0001106314    1.004    0.004
       233 -10.4205    205.1811    163.4729   3.7095079847e+01   9.2198369683e+00      0.24292    0.1729009 -32.12 0.0006860346    1.314    0.239
       234 -10.0361    211.0879     16.0617   1.8004462741e+00   3.0351027171e+01    0.1868621    0.1539297 -61.13 0.0003386605    1.031    0.030
       235 -10.2810    147.8425     15.9362   8.4658331785e+00   4.5708112028e+01     0.370435     0.152494  58.56   0.00153315    2.154    0.536
       236 -10.7685    186.4832     14.9727   3.6660522327e+00   3.6171715067e+01    0.2380654    0.1762737  82.94 0.0003376812    1.249    0.199
       237 -10.1632     28.7489    160.9509   8.0800690931e+01   3.7895834001e+01    0.2484636    0.1454055  46.05  0.001197795    1.581    0.368
       238 -10.1549    218.8115     14.1020   7.5244490834e-01   2.8863149380e+01     0.202397    0.1401419 -61.95 0.0008946992    1.228    0.185
       239 -10.2535     31.1994    156.5807   7.9696376766e+01   3.8730837217e+01    0.2676426    0.1311437  75.52  0.001134313    2.369    0.578
       240  -9.1831     75.7887     14.5936   2.3766414850e+01   6.3645064371e+01    0.1730368    0.1247152  65.34 0.0002087698    1.520    0.342
       241 -11.1270      9.7574    155.4623   8.5665626294e+01   4.0880092645e+01    0.2457191    0.1580967 -85.24  0.001354584    1.366    0.268
       242 -12.9077     22.8563    148.7635   8.1375927931e+01   4.1455882768e+01    0.5769154    0.3100534 -44.00  0.001497029    2.282    0.562
       243  -9.7689    104.3900    154.2122   5.8365612791e+01   2.9221864015e+01    0.2107354    0.1435572 -70.25 0.0009567508    1.717    0.418
       244 -10.4383      4.5848    153.6987   8.6986456665e+01   4.1687573260e+01    0.2183602    0.1180048  49.38   0.00072666    1.703    0.413
       245 -11.2896     47.2006    148.0187   7.4017227588e+01   3.9149706873e+01    0.7282918    0.4368883 -45.86  0.003436777    1.902    0.474
       246  -9.3640     61.2348    152.4048   7.0425681857e+01   3.6300443624e+01    0.2052003    0.1209336  42.67 0.0009491692    1.615    0.381
       247 -10.9114     16.6501    147.8702   8.3120288048e+01   4.2205190563e+01    0.2671289    0.1931155 -86.14 0.0007654684    1.225    0.184
       248 -12.2039      4.3184    143.1617   8.6372318435e+01   4.4283780069e+01    0.7475612    0.3621756  55.99  0.003005874    1.989    0.497
       249  -9.4294     65.9224     10.4874   2.5152422767e+01   6.6253463093e+01    0.2041687    0.1197741  52.08 0.0006798562    1.576    0.365
       250 -10.8240     33.1141    144.5160   7.7866387090e+01   4.1559332039e+01    0.2815713    0.2366041  59.32 0.0008025197    1.135    0.119
       251 -10.3826     40.6491    137.9975   7.4731481724e+01   4.2432849695e+01     0.242236    0.2083619 -85.59 0.0006882871    1.073    0.068
       252 -10.9105     80.2527    138.5992   6.2447095297e+01   3.6994586317e+01    0.2814315    0.2443174  48.85 0.0004586802    1.127    0.113
       253 -10.9333     30.2001    132.7020   7.7399511013e+01   4.4850751674e+01    0.4733802    0.2450557 -42.52  0.001551433    2.307    0.567
       254 -11.4990     23.3922    137.1489   8.0068220523e+01   4.4333997332e+01     0.455575    0.3611726  37.06  0.001780801    1.315    0.239
       255  -9.7051     20.4872    134.4922   8.0706637598e+01   4.5254902089e+01    0.2592736    0.2221919 -63.66  0.001166028    1.165    0.142
       256 -11.4814     12.3582    135.5540   8.3355286097e+01   4.5619430376e+01    0.5806159    0.3029426 -58.68  0.002879167    1.808    0.447
       257  -9.3743     32.0290    137.4955   7.7391604430e+01   4.3449630800e+01    0.1940078    0.1336665  27.38  0.000780293    1.552    0.356
       258  -9.2451     22.9583    126.9593   7.9084718426e+01   4.6970723738e+01     0.160902    0.1394064 -83.21 0.0003605044    1.026    0.026
       259 -10.7756     10.5606    126.6926   8.3123981332e+01   4.7985037132e+01    0.2475878    0.2268229  73.22  0.001609928    1.098    0.089
       260  -9.6941     33.4035    126.2141   7.5511563881e+01   4.6208325277e+01    0.1981454    0.1225175 -86.73 0.0009446367    1.648    0.393
       261 -10.1102      2.0332    125.5973   8.5783103054e+01   4.8799432665e+01    0.2643383    0.1508028  80.01   0.00136502    1.653    0.395
       262 -11.0656    104.2084    122.5085   5.1827103318e+01   3.6762697933e+01    0.4086627    0.3304105  55.81  0.001274072    1.292    0.226
       263 -11.9658    245.4626    120.1256   2.1712540820e+01   9.2975961287e+00    0.5463198    0.1929779 -39.87  0.002350889    2.380    0.580
       264  -9.4195     85.0140    122.9880   5.7834550345e+01   4.0096152313e+01    0.2175135    0.1777354 -20.01            0    1.477    0.323
       265 -10.0313     56.1264    121.8800   6.7133236768e+01   4.4724723848e+01    0.2215243    0.1875079  69.28 0.0004810821    1.218    0.179
       266  -9.1422     13.4623    122.4931   8.1755189717e+01   4.8849742817e+01    0.1322603    0.1148338 -80.52 0.0008092998    1.026    0.025
       267  -9.6481     44.4668    120.2055   7.0839490056e+01   4.6584352337e+01     0.212733    0.1808521 -66.03 0.0007192885    1.103    0.093
       268  -8.9949    223.6963     22.3129   2.2900583659e+00   2.6907633565e+01    0.1334087   0.07471259 -59.40 0.0002742785    1.615    0.381
       269  -9.8659     43.4849    116.0311   7.0482438742e+01   4.7772512066e+01    0.2842117       0.2102 -78.91 0.0009227553    1.329    0.247
       270  -9.6327     79.0117    115.2003   5.8061383696e+01   4.3029632160e+01    0.2279392    0.2041685 -18.10 0.0008299379    1.248    0.199
       271 -10.7806     35.6650    102.8475   7.1036982760e+01   5.2002886354e+01    0.5105872    0.2822502  -7.34  0.001524727    2.879    0.653
       272 -11.4018     17.2713    100.7886   7.7752610497e+01   5.4124788262e+01    0.3938248    0.2489783  34.64 0.0004024186    1.700    0.412
       273 -12.0314     26.3177    106.3153   7.5145189761e+01   5.1991672969e+01    0.9756554    0.5922769 -41.31  0.003087427    1.752    0.429
       274 -11.6240     28.0459    113.0448   7.5518306737e+01   5.0107683817e+01    0.3854593    0.3005638  19.26  0.001204398    1.442    0.307
