#   1 NUMBER                 Running object number                                     
#   2 MAG_AUTO               Kron-like elliptical aperture magnitude                    [mag]
#   3 X_IMAGE                Object position along x                                    [pixel]
#   4 Y_IMAGE                Object position along y                                    [pixel]
#   5 X_WORLD                Barycenter position along world x axis                     [deg]
#   6 Y_WORLD                Barycenter position along world y axis                     [deg]
#   7 A_WORLD                Profile RMS along major axis (world units)                 [deg]
#   8 B_WORLD                Profile RMS along minor axis (world units)                 [deg]
#   9 THETA_WORLD            Position angle (CCW/world-x)                               [deg]
#  10 FWHM_WORLD             FWHM assuming a gaussian core                              [deg]
#  11 ELONGATION             A_IMAGE/B_IMAGE                                           
#  12 ELLIPTICITY            1 - B_IMAGE/A_IMAGE                                       
         1 -17.1344    200.7329     62.4491   4.9963867801e+01   2.7515494827e+01     6.240871     3.919663  62.70   0.02434597    1.640    0.390
         2 -17.2509    223.5468     82.2657   5.1547588988e+01   1.9306632151e+01     4.660529     2.863916 -64.95   0.02103877    2.131    0.531
         3 -17.6420    238.3338     87.2046   5.0627798122e+01   1.5440051766e+01     8.924092     2.685555 -40.31   0.03256039    2.777    0.640
         4 -16.6970    217.9361     64.2513   4.7939450776e+01   2.3321098159e+01     3.497387    0.6967744 -43.57   0.01000116    4.579    0.782
         5 -17.1990    224.7005     56.8861   4.5267289452e+01   2.2896947469e+01     5.000827    0.9184189 -35.72    0.0151863    4.280    0.766
         6 -16.2311    242.3704     45.9012   4.0741842527e+01   2.0629412592e+01     4.013084     1.747507  38.68   0.01268723    6.272    0.841
         7 -16.5096    235.0391     67.1380   4.6402611206e+01   1.9189257880e+01     8.830784     2.968599 -23.86   0.01953971    9.243    0.892
         8 -11.5223    123.3463     33.6940   5.5800342558e+01   5.0118727872e+01    0.6812696    0.4318519 -10.06  0.001915595    1.902    0.474
         9 -17.3978    241.0684    107.3240   5.4856588093e+01   1.1654265616e+01     10.21666     3.688888  50.09   0.04008989    3.109    0.678
        10 -11.7191    113.2859     29.3922   5.6676878259e+01   5.2952111408e+01    0.7217189    0.5724929 -34.54  0.001232911    1.379    0.275
        11 -10.0669    152.1449     19.7972   4.5436393855e+01   4.4786706417e+01    0.4083259    0.2550718 -51.27  0.001052327    1.841    0.457
        12  -8.3200    153.5117     14.0048   4.3415313911e+01   4.5030063119e+01    0.2946396     0.216358  -8.62 0.0009508994    1.624    0.384
        13 -17.2654    247.6246     63.0877   4.4001678609e+01   1.7189425092e+01     4.878764    0.6152818 -38.30   0.01426621    4.844    0.794
        14  -9.1398    167.7808     13.1840   4.1131745272e+01   4.1634600624e+01    0.3102216     0.189554 -19.67  0.001074346    1.912    0.477
        15  -8.3198    181.9939     11.7692   3.8963818563e+01   3.8339686469e+01    0.1882746    0.1464423  46.16 0.0008268812    1.390    0.281
        16  -8.7187     50.6090     12.2176   6.9763167918e+01   6.7170799941e+01    0.1691135     0.101352 -14.68 0.0002086291    1.600    0.375
        17  -8.2812    155.3199      9.3297   4.1711342364e+01   4.5025099068e+01    0.2577247     0.155254  31.44   0.00126449    2.027    0.507
        18  -9.3332    151.0928      7.5740   4.1783201886e+01   4.6207084399e+01    0.4506828    0.2207854  64.91 0.0009860799    1.763    0.433
        19  -3.9264    250.3639      8.2502   3.2077368160e+01   2.3484800597e+01    0.2645625    0.1023863 -50.73  0.001319841    2.161    0.537
        20  -8.7180    172.1269      6.8102   3.8768998225e+01   4.1179949470e+01    0.2890211    0.1744664 -23.77  0.001525788    1.872    0.466
        21  -9.8569    114.4905      4.6479   4.7106527255e+01   5.5156706402e+01    0.4632503    0.2398984 -12.60  0.002241654    2.258    0.557
        22  -8.6111    237.1488      5.1774   3.2356192957e+01   2.6518641872e+01    0.1446179     0.134679  55.61 0.0006209795    1.383    0.277
        23  -8.3852    179.4271      4.9649   3.7421494260e+01   3.9594483750e+01    0.1686251    0.1272048 -21.38 0.0009028911    1.539    0.350
        24  -8.8250    166.5657      3.7378   3.8573292602e+01   4.2792284397e+01    0.2863558    0.1348866 -11.86  0.001248129    2.951    0.661
        25  -9.8714    108.0036      4.5378   4.8431094081e+01   5.6646086076e+01    0.3182146    0.2413361  68.62  0.001551473    1.361    0.265
        26  -8.7926     50.8376      4.3648   6.5715064347e+01   6.8018273686e+01    0.1952799    0.1479906 -19.15 0.0005321776    1.341    0.254
        27  -7.8358    160.5763      1.7916   3.8751517335e+01   4.4401430208e+01    0.1592325    0.1139004 -44.33  0.000330593    1.505    0.336
        28  -8.4272    146.3557      2.0635   4.0747193739e+01   4.7812591732e+01    0.2439509    0.1520825  55.45  0.001319652    1.395    0.283
        29  -7.7642    238.5603      1.3315   3.1455637078e+01   2.6613655942e+01    0.1186034   0.08698668 -71.62 0.0007371056    1.136    0.119
        30  -8.0502    175.6508      1.2079   3.6819949634e+01   4.0826812350e+01    0.1262065   0.08384843 -80.13 0.0004603863    1.534    0.348
        31  -8.4833    214.4929    199.0765   7.9257834671e+01   8.6061906825e-01    0.1967256    0.1607695  15.06 0.0003925448    1.102    0.093
        32  -8.2505    169.4808    198.4669   8.8373461785e+01   8.5347731471e+00    0.2706564    0.1367546 -44.71 0.0009565504    2.098    0.523
        33 -10.2870    200.2700    196.2311   8.1519422870e+01   3.6663918953e+00    0.4612603    0.3615744  45.53  0.002352739    1.487    0.327
        34  -8.6024     23.0493    240.8331   1.2387155887e+02   2.1087755018e+01    0.1738151    0.1233126  79.34 0.0003872649    1.151    0.131
        35  -8.2567    168.1308    186.2845   8.6395150380e+01   1.1094804795e+01    0.1965219    0.1770006  30.52 0.0004177797    1.092    0.084
        36  -9.7278    171.1309    181.9028   8.4880328463e+01   1.1406293117e+01    0.3279578    0.3087065  44.83 0.0009453488    1.184    0.155
        37  -8.7917    160.1465    177.6270   8.6498878970e+01   1.4276065820e+01    0.3947463    0.2264794  48.71  0.001702787    1.909    0.476
        38  -9.7543    171.1357    173.1005   8.3107734930e+01   1.3144835418e+01    0.5415712    0.2970342 -28.16  0.002180513    2.263    0.558
        39  -7.6568    115.0423    174.0332   9.6595667651e+01   2.3132132717e+01    0.1691204    0.1655696  59.75 0.0003566718    1.004    0.004
        40 -10.1016     85.1885    172.9234   1.0389308632e+02   2.8116797594e+01    0.3281202    0.2437421  24.34 0.0004250665    1.540    0.351
        41  -9.4109    164.8998    169.9603   8.3864122290e+01   1.4954377130e+01    0.3723224    0.2816852 -52.53 0.0007173991    1.458    0.314
        42  -8.7593    164.5004    165.0047   8.2917537375e+01   1.6050268028e+01    0.3365666    0.2403615  22.54  0.001563288    1.526    0.345
        43  -7.6946    156.6040    170.2494   8.5831476857e+01   1.6461173465e+01    0.1973047    0.1372151 -33.70  0.000920584    1.512    0.339
        44  -8.1437    145.4346    165.7451   8.7551130060e+01   1.9526229346e+01    0.2072028    0.1400006 -36.08 0.0006677526    1.568    0.362
        45  -8.6259    154.7757    163.9836   8.4961206550e+01   1.8130985094e+01    0.2522592    0.2141878  31.92 0.0006024578    1.157    0.136
        46  -8.1389    179.5340    159.5440   7.8368209828e+01   1.4248776612e+01    0.2739963    0.1389595 -36.24 1.517698e-05    2.007    0.502
        47 -10.3610    179.1081    152.5837   7.6912972296e+01   1.5727843977e+01    0.7037093    0.4987946 -59.67  0.002887913    1.804    0.446
        48 -10.1591    143.7715    155.4404   8.5787957772e+01   2.2103677691e+01    0.5121703    0.4409073  32.75  0.002295517    1.157    0.136
        49  -8.5923    149.1950    158.4112   8.5107764991e+01   2.0404071240e+01    0.3505686    0.2293579  55.06  0.001523013    1.821    0.451
        50  -8.7460    153.2961    159.6926   8.4400510112e+01   1.9333559727e+01      0.27021    0.2384484 -42.56 0.0005015509    1.145    0.126
        51  -8.9580    154.7452    156.9995   8.3473948197e+01   1.9630343772e+01    0.2829325    0.2602341 -22.75 0.0008037571    1.071    0.066
        52  -8.0767     50.5578    232.5756   1.1824875704e+02   1.9666307069e+01    0.2137014   0.09721406 -89.01  0.001031957    2.633    0.620
        53  -8.4758    231.1179    226.2253   8.1080144260e+01  -5.6704974990e+00     0.303147    0.1277762  27.47  0.001417372    2.325    0.570
        54  -8.7316     60.9612    150.7164   1.0680895102e+02   3.6776647489e+01    0.1917817    0.1784932  63.39 0.0007748275    1.119    0.106
        55  -8.7015     52.4353    150.6758   1.0912196362e+02   3.7800821632e+01    0.2562601    0.1236278 -70.21  0.001118499    1.963    0.491
        56 -10.5528      6.4834    218.6716   1.2568012807e+02   2.6974295290e+01    0.3902644    0.1720493  84.53 -6.977159e-05    2.049    0.512
        57  -8.3445    170.2037    146.9277   7.7611911737e+01   1.8674315356e+01    0.2666799     0.215287  32.66  0.001007775    1.251    0.201
        58  -9.8451     62.7509    145.9922   1.0556224458e+02   3.7719439766e+01     0.317593    0.2075729 -70.94  0.001288243    1.467    0.318
        59 -10.4801     66.2067    144.2860   1.0431020508e+02   3.7700326875e+01    0.4675364    0.3220206  67.51  0.002296706    1.735    0.424
        60  -9.0680    103.4647    145.1428   9.4085277551e+01   3.1888269844e+01    0.3878332    0.2816546  79.35  0.001747755    1.876    0.467
        61  -7.8040     36.1588    148.3507   1.1319476686e+02   4.0085931816e+01    0.1680254    0.1120845  44.45 0.0002888005    1.601    0.375
        62  -9.3565     56.0080    143.9904   1.0712449565e+02   3.9035987910e+01    0.2202448    0.1912591 -64.63 0.0007124774    1.051    0.049
        63  -9.8192     44.7045    143.2194   1.1016357688e+02   4.0486344281e+01    0.2923656    0.1869819  61.07  0.001481365    1.787    0.441
        64 -10.3313    120.1474    134.8425   8.7271376329e+01   3.1340126103e+01    0.3484077    0.2892373 -63.37  0.001247378    1.286    0.222
        65  -9.3778    121.0793    142.4436   8.8745620019e+01   2.9388150772e+01    0.3852866    0.3360615 -34.74  0.001985362    1.157    0.136
        66  -9.3338    117.0086    140.0186   8.9298249926e+01   3.0710784822e+01    0.4728004    0.3054703  28.25  0.002057447    1.740    0.425
        67  -7.3137     14.3242    142.2897   1.1830125923e+02   4.3402840377e+01    0.1245315   0.08070534 -47.50 0.0003027118    1.610    0.379
        68  -7.4679     83.3974    219.5555   1.1038025089e+02   1.8084137142e+01    0.1256194    0.1066396  64.36 0.0003984714    1.043    0.041
        69 -10.1705     15.2843    217.0349   1.2394731515e+02   2.6504291962e+01    0.2347003    0.1689897  33.90  0.001634435    1.585    0.369
        70 -10.1134     52.1920    136.2756   1.0696879039e+02   4.1389436681e+01     0.347232    0.2287063  72.91  0.001325544    1.884    0.469
        71  -9.1271     85.1104    133.3584   9.6826222951e+01   3.7727131053e+01    0.4769984    0.2483169 -59.34 0.0007858945    1.873    0.466
        72  -9.1003     89.3055    131.8415   9.5286215426e+01   3.7444130670e+01    0.3250498    0.2805127   7.33 0.0005881622    1.320    0.243
        73  -8.9616    104.8104    133.7281   9.1258093129e+01   3.4398195651e+01    0.3749512    0.2657042 -40.30  0.001751122    1.426    0.299
        74  -8.2445     38.3392    135.6752   1.1086239970e+02   4.2991324681e+01    0.1390314   0.09296258  70.44 0.0007051263    1.725    0.420
        75 -10.2654    111.3292    131.2428   8.8862012640e+01   3.3824867982e+01    0.5166518    0.2920591 -61.44  0.002040455    2.069    0.517
        76  -8.0801     14.7871    127.2189   1.1646927129e+02   4.7010087186e+01    0.1691999    0.1200563 -55.11 0.0002631251    1.271    0.213
        77 -10.3049    126.6425    124.7118   8.3073982766e+01   3.2422901323e+01    0.4027963    0.2837675 -40.01  0.001400314    1.401    0.286
        78  -8.1973    107.0480    125.4661   8.8712669184e+01   3.5969959503e+01    0.2286259    0.1520914  37.69 0.0006346023    1.561    0.359
        79  -8.7554     26.6230    123.8302   1.1256206906e+02   4.6949495746e+01    0.2412584    0.1500463  47.80 0.0007581604    1.851    0.460
        80  -9.1903     19.6512    123.5500   1.1458931882e+02   4.7555912003e+01    0.2687589    0.1819994  85.57 0.0009582524    1.526    0.345
        81  -8.9803      8.1979    121.8452   1.1771945280e+02   4.8732964820e+01    0.1895538    0.1458222 -88.79 0.0007630314    1.199    0.166
        82  -8.3279     35.4796    121.5281   1.0953457637e+02   4.6751009447e+01    0.1348096    0.1142405 -64.01 8.781652e-06    1.006    0.006
        83 -10.1418      4.8576    118.6848   1.1832012807e+02   4.9685435983e+01    0.3975568    0.2048336 -58.18  0.002164732    1.554    0.357
        84  -8.3517     12.3065    119.6432   1.1624763468e+02   4.9007601193e+01    0.1294206   0.08411262  73.62 0.0007041165    1.724    0.420
        85  -8.1441    219.6555    215.9536   8.1390149048e+01  -2.5520454980e+00    0.1726009    0.1408132 -10.79 0.0003579433    1.119    0.106
        86  -9.1930      2.9806    112.2444   1.1811368437e+02   5.1324519952e+01    0.1718696    0.1398811 -67.67 0.0004541926    1.047    0.045
        87  -8.1292     83.7757    107.8633   9.1405969726e+01   4.4102576767e+01    0.2267213    0.1902275 -27.34 0.0004273001    1.206    0.171
        88  -8.7702      2.1448    195.1154   1.2523397060e+02   3.2232539340e+01     0.290663    0.0925534  75.18  0.001094195    4.142    0.759
        89  -8.2293    208.1877    194.3296   7.9576845785e+01   2.6679794358e+00    0.1912266    0.1504223 -18.10 0.0005284189    1.179    0.152
        90  -8.8176     13.8975    104.8992   1.1371077020e+02   5.2456533814e+01    0.1977256    0.1402574 -50.67 0.0004901256    1.227    0.185
        91  -8.9741      9.7952    105.6909   1.1514253987e+02   5.2513999222e+01    0.2156243    0.1139684  -1.12  0.001083634    2.630    0.620
        92  -8.6300      2.7835    105.2225   1.1729513829e+02   5.3003294864e+01    0.2371289   0.09668806   1.96 0.0009318875    3.672    0.728
        93 -10.1542      5.6231    100.8197   1.1579216784e+02   5.3901765563e+01     0.458905    0.1660937 -80.14  0.001548124    3.060    0.673
        94  -8.7237     95.2436     96.2457   8.4674794618e+01   4.4852820896e+01    0.2775819    0.2636454  33.41  0.001529452    1.130    0.115
        95  -7.8653     33.4933     96.6934   1.0567352702e+02   5.2962783524e+01    0.1918925    0.1003439 -51.22  0.000931039    1.564    0.361
        96  -7.9974    183.2975    194.6836   8.4722955070e+01   6.8352788189e+00    0.1282531     0.113345  77.58 0.0002659672    1.610    0.379
        97  -8.4450     44.2181     95.1211   1.0158738934e+02   5.2315971844e+01      0.20318    0.1909137 -17.09 0.0004556082    1.146    0.128
        98  -8.3564     49.4141     88.6779   9.8206267147e+01   5.3266453002e+01    0.2153973    0.2030325 -33.09 0.0004832284    1.105    0.095
        99  -8.3915     64.1480     87.6871   9.2682034844e+01   5.1671382755e+01    0.2101113    0.1795861  48.56 0.0004043335    1.403    0.287
       100  -9.8637     29.9822     78.8662   1.0302703094e+02   5.7417590185e+01    0.2845907    0.1812991 -43.00 0.0003017671    1.318    0.242
       101  -9.7820      1.9048     78.1514   1.1351662832e+02   5.9349708826e+01    0.4052784   0.09189172 -65.58  0.001558216    3.037    0.671
       102  -7.6542    172.9758    194.7352   8.6933934134e+01   8.6232278239e+00    0.1751597    0.1145149  34.70 0.0003343497    1.436    0.304
       103  -8.4695    162.5335    193.8829   8.9055910048e+01   1.0616156984e+01    0.2016891    0.1380948 -42.36 0.0006064801    1.531    0.347
       104  -7.5874    179.3183    193.6278   8.5366705450e+01   7.7202155744e+00    0.1355817    0.1141094  82.34 0.0007033191    1.797    0.444
       105 -10.3704    105.0189     71.9384   7.4168938144e+01   4.8061895498e+01    0.5041137    0.3980816  64.49  0.002486555    1.644    0.392
       106  -8.2041     31.3442     65.9738   9.9162624417e+01   6.0157978388e+01    0.1893055     0.170986  16.15 0.0003562463    1.299    0.230
       107  -8.5858     78.8628     63.8826   8.0060123412e+01   5.4455839428e+01    0.2302098    0.1809963  -4.43 0.0009220406    1.298    0.229
       108  -9.6657    100.5110     67.9873   7.4247337948e+01   4.9706897580e+01    0.5249448     0.278019 -23.73   0.00200432    2.490    0.598
       109  -7.8264     43.6739     61.3835   9.2730051720e+01   5.9896634859e+01    0.1741511    0.1181964   4.79 0.0007294589    1.618    0.382
       110  -8.5125     81.9821     56.8821   7.6495501631e+01   5.5219149674e+01    0.2107303    0.1850957  -5.00 0.0003560851    1.019    0.018
       111  -7.4941      2.0158     56.7417   1.0917469960e+02   6.4076810198e+01    0.1253907   0.09760092  -6.21 0.0002987902    1.426    0.299
       112  -7.5492     85.2970     54.3162   7.4419005345e+01   5.5076128656e+01    0.1455375    0.1032256  -0.06 0.0002357377    1.608    0.378
       113 -11.3773    131.6310     41.8428   5.6714595682e+01   4.7113723881e+01    0.7071294     0.412599  -6.85  0.002916775    2.483    0.597
       114  -7.4830     28.2737     47.6558   9.4883849141e+01   6.4208030695e+01    0.1103495   0.09832473 -78.87 0.0003895702    1.620    0.383
       115 -11.4976    117.1174     42.0857   6.0346725939e+01   5.0431542886e+01    0.6048476    0.4318669  39.55  0.003106601    1.323    0.244
       116  -9.2385    236.6803    213.5537   7.7817901024e+01  -4.6879348348e+00    0.3153554    0.2155971  25.78  0.001638781    1.357    0.263
       117  -9.4429     68.0706     42.9094   7.6286646647e+01   5.9995835595e+01     0.242319    0.2130246 -18.42  0.001483765    1.135    0.119
       118  -9.3466     70.8927     38.7516   7.3557501014e+01   6.0192112761e+01    0.2275915    0.1792731 -29.86 0.0003351442    1.262    0.208
       119  -9.4548    230.2314    213.2056   7.8926392600e+01  -3.7097177813e+00    0.2389154    0.1812771 -28.11 0.0003428479    1.329    0.247
       120  -8.5478    174.2092    213.7425   9.0048443474e+01   4.9902856780e+00    0.2308819    0.1466407  -1.89   0.00106702    2.218    0.549
       121  -9.5557    107.7758     20.3949   5.4638515760e+01   5.5212296235e+01    0.2659154    0.1909727  -5.62  0.001450083    1.506    0.336
       122 -10.1148    244.7178    208.5928   7.5477679951e+01  -5.1212298539e+00    0.3274216    0.1862224 -42.71  0.001733766    2.121    0.529
       123  -8.4817    143.2764    209.4773   9.5971714728e+01   1.0901207361e+01    0.3331959     0.221641  15.28 0.0009809029    1.853    0.460
       124  -8.2316    187.4559    208.9447   8.6473251990e+01   3.6321590192e+00    0.1948606    0.1280991 -36.63 0.0004419839    1.583    0.368
       125  -9.2194    249.1757    206.2868   7.4272679571e+01  -5.4183860036e+00    0.2933368    0.1611219 -24.16 0.0007821499    1.639    0.390
       126  -9.9104    215.0696    193.9829   7.8167700544e+01   1.5951008343e+00    0.7397996    0.4593835  62.35  0.002912509    3.909    0.744
       127  -9.3057    230.6802    200.0205   7.6389667549e+01  -1.8156087977e+00    0.3675535    0.1727482  37.08  0.001658878    2.123    0.529
       128  -9.2807    228.3679    206.2953   7.7997174698e+01  -2.4151369922e+00    0.2464202    0.2028422  -3.26  0.000725695    1.043    0.041
       129  -9.1310    225.0134    202.7234   7.7951081100e+01  -1.3641371596e+00    0.2770246    0.1980951 -21.23 0.0006750996    1.271    0.213
       130  -9.5230    220.6223    200.6388   7.8382843630e+01  -3.5950156603e-01    0.3650798    0.2270843  35.28  0.001392495    1.585    0.369
       131  -9.0135    225.2760    198.4233   7.7085538448e+01  -7.3901276604e-01    0.2615559    0.1869851  14.35 0.0009089857    1.309    0.236
       132  -8.8658    223.4482    195.5413   7.6873947324e+01   3.8760591222e-04    0.2982131    0.1825375  32.84 0.0009884546    1.593    0.372
       133  -8.1850    217.7138    207.2117   8.0166696230e+01  -9.3176361640e-01    0.2113906    0.1621314  34.79 0.0009147421    1.378    0.274
       134  -8.9755    123.9907    205.9706   9.9708251715e+01   1.4757804750e+01    0.1903515    0.1756397  39.39  0.001157952    1.019    0.018
       135  -7.5131    232.2805    203.6610   7.6785327442e+01  -2.6058958413e+00    0.1110451    0.1028451 -49.13 0.0006921523    1.623    0.384
       136  -8.8442    185.7699    202.0854   8.5582429134e+01   5.0947069961e+00    0.3086447    0.1839665  35.89  0.001024266    1.566    0.361
       137  -9.4082      2.8937    202.2240   1.2548520594e+02   3.0662475084e+01    0.1695349    0.1590874 -38.80  0.001177244    1.541    0.351
       138 -10.4388    244.5242    196.0658   7.3150311082e+01  -3.2853991008e+00    0.5218651    0.3792354  33.82  0.002460465    1.499    0.333
       139  -8.6273    203.2326    201.4161   8.1907082794e+01   2.3032522626e+00    0.2498114     0.119943  33.80 0.0007242709    1.989    0.497
       140  -9.4189    238.9107    199.2415   7.4750647915e+01  -2.9313450981e+00    0.1821616    0.1604768  -2.27  0.000571447    1.207    0.171
