#   1 NUMBER                 Running object number                                     
#   2 MAG_AUTO               Kron-like elliptical aperture magnitude                    [mag]
#   3 X_IMAGE                Object position along x                                    [pixel]
#   4 Y_IMAGE                Object position along y                                    [pixel]
#   5 X_WORLD                Barycenter position along world x axis                     [deg]
#   6 Y_WORLD                Barycenter position along world y axis                     [deg]
#   7 A_WORLD                Profile RMS along major axis (world units)                 [deg]
#   8 B_WORLD                Profile RMS along minor axis (world units)                 [deg]
#   9 THETA_WORLD            Position angle (CCW/world-x)                               [deg]
#  10 FWHM_WORLD             FWHM assuming a gaussian core                              [deg]
#  11 ELONGATION             A_IMAGE/B_IMAGE                                           
#  12 ELLIPTICITY            1 - B_IMAGE/A_IMAGE                                       
         1 -13.2944     59.7112     62.6540   9.9666071453e+01   5.8022041254e+01     1.660452    0.6433976 -41.18  0.005721964    3.257    0.693
         2 -14.7758    119.8091     54.7804   7.6047773011e+01   4.7922210000e+01     1.115131    0.7750573  43.47  0.001661938    1.463    0.316
         3 -14.7845    121.1098     37.4314   6.9075659284e+01   5.0603276167e+01     1.666478     0.749288  52.24  0.006230747    2.144    0.534
         4 -13.4921    187.0497     13.0026   4.8392721197e+01   3.5976451722e+01      1.01749    0.8542519  46.56  0.005076871    1.266    0.210
         5 -13.9840    189.6097     26.6610   5.2473353531e+01   3.3816856484e+01      2.06016    0.6770123 -45.19  0.006694097    3.203    0.688
         6 -13.2763      7.7390      2.6908   1.0709109486e+02   7.6874922133e+01    0.7294869    0.4566674  37.77  0.002475468    2.017    0.504
         7 -16.0821     14.2538     20.3657   1.0949216416e+02   7.2619428683e+01     2.010985     1.057752 -44.30  0.009196352    1.639    0.390
         8 -13.3168    139.2186     22.2578   5.8821347560e+01   4.7997451841e+01    0.9143355    0.6445883  74.93  0.002173628    1.498    0.332
         9 -14.7639    166.6704     30.2026   5.6917965565e+01   3.9522282145e+01     1.581825     0.980199  69.67  0.004623023    1.653    0.395
        10 -14.5809    146.3725     30.3405   6.0562205821e+01   4.5005000738e+01      1.22646    0.6836733  54.09  0.003750842    1.722    0.419
        11 -12.9766    223.8740     20.8726   4.7125218593e+01   2.5830446195e+01     1.044858    0.5755722   7.92 0.0009145478    2.801    0.643
        12 -14.1451    215.1122     20.6406   4.7862250825e+01   2.7976517024e+01      1.31983     0.563902 -19.61  0.005264531    2.386    0.581
        13 -13.7802    218.3590     15.2069   4.6021819453e+01   2.7737099430e+01    0.8482302    0.5347685  45.08  0.003450578    1.830    0.454
        14 -13.6029    215.0484      9.9420   4.4801968879e+01   2.9066359447e+01     1.112445    0.4918214  51.06 0.0007689142    2.518    0.603
        15 -12.3622     46.9385     20.8247   8.9636760563e+01   6.8999883487e+01    0.4455282    0.3561167  19.15  0.002211164    1.343    0.255
        16 -15.5401     98.3403     12.7188   6.4245032731e+01   5.9897130773e+01     1.854194    0.8458846  54.39  0.003680925    2.064    0.516
        17 -11.9991     33.3512      1.2706   8.6434437515e+01   7.4544477219e+01    0.2685407    0.1250485  40.41 0.0005611082    2.411    0.585
        18 -12.2447     39.6984     15.1553   9.0792033521e+01   7.1131413647e+01    0.4046818     0.290589  -3.85  0.001497201    1.638    0.389
        19 -14.5619     42.4298      4.9750   8.3147314351e+01   7.2572957632e+01     1.056345    0.7806063 -29.89  0.005007337    1.216    0.177
        20 -13.1170      3.0136     10.4422   1.1410190139e+02   7.5445790437e+01    0.4160223    0.2601297 -62.04   0.00112821    1.285    0.222
        21 -12.7296     71.7370     16.9374   7.5721836507e+01   6.5311584797e+01    0.6309261     0.356248 -39.19  0.001878572    1.732    0.423
        22 -11.9520    153.0296      8.4936   5.1078859023e+01   4.5738794524e+01    0.2856547    0.2285778 -23.13 0.0007299628    1.287    0.223
        23 -10.3690    144.9798      8.2771   5.2206209345e+01   4.7994620019e+01    0.1821697    0.1283702  70.77 0.0003412421    1.376    0.273
        24 -11.3708     59.7402      6.6311   7.5053080986e+01   6.9283509007e+01    0.3461494    0.2120702  70.88  0.001426473    3.161    0.684
        25 -10.5378    161.4987      5.9935   4.8991961938e+01   4.3632213065e+01    0.2042477    0.1173249  21.11 0.0006438451    2.333    0.571
        26 -12.5653    119.9769      3.7771   5.4683503321e+01   5.5300237513e+01    0.5509361     0.261216  77.80  0.001969907    2.506    0.601
        27 -12.0636    116.5448      1.4908   5.4297820189e+01   5.6444239685e+01    0.6477583    0.1848783  65.73  0.001880923    3.180    0.686
        28 -12.2712     78.3047      2.1301   6.4780331073e+01   6.5965473204e+01    0.4508078    0.2822753  45.53  0.002216458    1.524    0.344
        29 -10.9141     83.3207      1.3073   6.2631633359e+01   6.4896129158e+01    0.2495684    0.1213178  47.19 0.0005750341    1.930    0.482
        30 -12.3427    194.9989     23.5368   5.0839317929e+01   3.2760954371e+01    0.7550555    0.3187567 -25.37   0.00293427    2.245    0.555
        31 -12.6001     61.8050      1.9822   7.1167686009e+01   6.9537633082e+01    0.4165896    0.2280975  53.16  0.001349163    1.954    0.488
        32 -11.4833    232.9294      1.7819   4.1272353242e+01   2.5535181027e+01    0.2824467    0.1839717  79.83  0.001320019    1.614    0.380
        33 -15.1147     23.3720     14.0322   1.0067570566e+02   7.3259642657e+01     1.129119    0.7240471  36.40  0.003702243    1.836    0.455
        34 -11.6266     89.6650    169.6718   1.1028621067e+02   2.9394533931e+01    0.1185896   0.09920628  -8.21 0.0007051884    1.723    0.420
        35 -14.5317     95.1460    236.6979   1.1555265608e+02   1.7385781182e+01     1.190721    0.5973508  55.90  0.006534499    1.851    0.460
        36 -12.8106     57.5669    246.8644   1.2290525064e+02   2.0356856680e+01    0.3968135    0.2902043  28.74  0.003181674    1.550    0.355
        37 -12.0560     40.4193    243.7685   1.2574877200e+02   2.2624937394e+01    0.3130397    0.1671255  83.44  0.002283931    1.961    0.490
        38 -13.5018     28.2301    245.9422   1.2791465854e+02   2.3518285431e+01    0.5446351    0.2402769  63.61  0.003797377    1.805    0.446
        39 -11.8474      2.6941    249.8433   1.3223035088e+02   2.5272741331e+01    0.2833649    0.1171699  41.15  0.001770844    1.574    0.365
        40 -13.8406      9.0211    245.7653   1.3112518273e+02   2.5320578600e+01    0.6563549    0.2481367  49.02  0.003120787    1.581    0.368
        41 -12.2076     77.2331    156.8891   1.1174514481e+02   3.3736226141e+01    0.4725955    0.2570703  36.88  0.001860776    1.683    0.406
        42 -13.1090     74.0927    153.2917   1.1209767662e+02   3.4923776877e+01    0.6140017    0.3889438  31.83  0.002680775    1.615    0.381
        43 -11.1785    112.4896    157.4774   1.0322210645e+02   2.8243559945e+01    0.2348776    0.1624214  48.81  0.001283525    1.290    0.225
        44 -11.4175     56.1243    155.6006   1.1689256910e+02   3.6737239091e+01     0.239585    0.1442047 -55.21   0.00131391    1.933    0.483
        45 -11.7554     85.6707    153.0896   1.0915030342e+02   3.3324589455e+01    0.3369707    0.2252577 -54.78  0.001854115    1.675    0.403
        46 -11.8167    103.2629    150.1105   1.0432362622e+02   3.1219440629e+01     0.351017    0.2692051 -24.61  0.001891471    1.856    0.461
        47 -12.0182      6.8610    147.7711   1.2873699810e+02   4.3185894527e+01    0.3618704    0.1850449  69.25  0.002128688    1.606    0.377
        48 -11.8820    244.7149    148.0058   7.5354749044e+01   6.2320478310e+00    0.1817359    0.1416786  -3.87  0.001195614    1.078    0.073
        49 -11.1507     63.3059    147.3529   1.1417050317e+02   3.7626006496e+01    0.1216071   0.09753277 -35.37 0.0007041795    1.712    0.416
        50 -10.6624     38.4132    145.7872   1.2054095666e+02   4.0839566897e+01    0.1635712    0.1015541 -66.54 0.0006142659    1.629    0.386
        51 -12.3548     44.2743    133.0052   1.1774114276e+02   4.3086697193e+01    0.5367036    0.2392827 -64.77  0.001967634    2.117    0.528
        52 -12.4959    245.9136    135.0773   7.2555553336e+01   7.5263124390e+00    0.2951447    0.2332997 -79.35  0.001627777    2.658    0.624
        53 -10.4712     81.1296    135.8455   1.0787718094e+02   3.7703383723e+01    0.1623041    0.1554424 -37.82 0.0002630035    1.263    0.208
        54 -10.9034     63.2831    134.1990   1.1255899235e+02   4.0551893229e+01    0.1875467    0.1630283  48.92  0.001164422    1.140    0.123
        55 -10.6099     11.2476    134.0519   1.2694636331e+02   4.5852454279e+01    0.1641546    0.1273567  81.93 0.0006278162    1.065    0.061
        56 -12.4366     77.3754    117.4036   1.0592550093e+02   4.2442069811e+01    0.5219774     0.396237  85.49  0.002812631    1.386    0.279
        57 -13.6634     86.1526    113.4898   1.0259243064e+02   4.1977330535e+01     1.713121     1.055172 -19.41  0.006285928    3.694    0.729
        58 -14.0743    105.2780    122.2137   9.8881180069e+01   3.6768435876e+01     1.718837     1.341299  80.25  0.008971931    1.467    0.319
        59 -14.4980    106.5147    106.4068   9.5138126007e+01   4.0006240032e+01    0.9899775    0.8638777 -84.90   0.00537255    1.214    0.176
        60 -13.5966    110.5551    101.0152   9.2699968672e+01   4.0412162308e+01     0.698701    0.4250324  43.62  0.002291458    1.609    0.378
        61 -11.2480     25.3471    127.1596   1.2256314791e+02   4.6279272394e+01    0.1812736    0.1726688  29.09 0.0007438069    1.311    0.237
        62 -12.9994     28.7145    122.4128   1.2117355068e+02   4.7079535501e+01    0.3941448    0.2671116 -74.20  0.002358438    1.349    0.259
        63 -11.4256     59.2206    125.6013   1.1256321750e+02   4.3041109736e+01     0.227555    0.1979181 -58.43 0.0002466796    1.269    0.212
        64 -11.5529    180.9937    121.3014   8.0696668313e+01   2.1792766899e+01    0.2103983    0.1791186  36.22 0.0008486703    1.113    0.102
        65 -11.9130      4.2831    119.8861   1.2813073306e+02   4.9524045855e+01    0.4992297    0.1716464  17.59  0.002241146    3.567    0.720
        66 -14.1508     18.0888    110.9013   1.2338102539e+02   5.0660963094e+01    0.8342891    0.6269025 -66.41  0.003992303    1.310    0.237
        67 -13.4778      2.2969     97.1209   1.2743351340e+02   5.4930989514e+01    0.8274016    0.2780585 -85.19  0.003634052    2.517    0.603
        68 -14.0528     10.8642    103.3648   1.2506807277e+02   5.2950912201e+01    0.8476505    0.6312612 -87.90  0.005492078    1.112    0.101
        69 -14.3108     20.2242     96.4082   1.2130771355e+02   5.3967744095e+01     1.024395    0.5329546 -88.44  0.005201123    1.767    0.434
        70 -14.0754     28.9102     93.0840   1.1787902398e+02   5.4078391973e+01     1.151106    0.7602745  61.96   0.00644298    1.516    0.341
        71 -11.3224    175.8655    110.8729   7.9255139388e+01   2.4612371733e+01    0.2375863       0.1967  15.98  0.001253466    1.259    0.206
        72 -11.5885     78.6951    111.0528   1.0436362833e+02   4.3717389128e+01    0.2005698    0.1762941 -69.85  0.000664295    1.118    0.106
        73 -11.4346     45.9259    110.4021   1.1451544206e+02   4.8204098017e+01    0.2627887     0.179284 -65.64  0.001266258    1.377    0.274
        74 -12.1399     32.8292    110.4420   1.1868891428e+02   4.9528799433e+01    0.2669419    0.1746999  69.77  0.001448586    1.459    0.314
        75 -11.4696     61.9959    110.3115   1.0940867595e+02   4.6278002865e+01    0.1955151    0.1742007  64.20  0.001174157    1.074    0.069
        76 -11.1014    121.5316    112.4699   9.2407602678e+01   3.5796739816e+01    0.1462118     0.139341  57.25 0.0001592717    1.006    0.006
        77 -12.4488    135.8515    103.0817   8.6419603179e+01   3.4767183161e+01    0.6628962    0.3070171  48.34  0.001689966    2.120    0.528
        78 -12.8299    120.7640    102.4266   9.0208237708e+01   3.8065513814e+01    0.5636791     0.306346  41.17  0.002356799    1.826    0.452
        79 -10.9165     77.1972    103.1572   1.0327026441e+02   4.5798429531e+01    0.1923811    0.1848082 -56.81 0.0002893097    1.129    0.114
        80 -12.2281     61.5421     98.2363   1.0740577593e+02   4.9232181993e+01    0.5189287    0.3159536  77.92  0.002172341    2.117    0.528
        81 -11.4099     56.3829     93.0715   1.0818135045e+02   5.1155586236e+01     0.204769    0.1929472   7.75 0.0003993081    1.258    0.205
        82 -10.6632     48.5009    101.4918   1.1235226682e+02   5.0062971699e+01    0.3442531    0.2034261  50.16  0.001282646    1.704    0.413
        83 -12.6729     52.4456     98.0296   1.1044457141e+02   5.0439468998e+01    0.7058671    0.3515334  19.53  0.002968766    2.784    0.641
        84 -12.4963     49.6953     94.9545   1.1085515103e+02   5.1513775957e+01    0.4266986    0.3935546 -47.08  0.002086182    1.212    0.175
        85 -12.4921    137.3246     95.5717   8.4085113015e+01   3.5940800321e+01    0.4031118    0.3352433  69.98  0.001187975    1.345    0.257
        86 -11.5166    126.9096     94.3034   8.6447903973e+01   3.8469950500e+01    0.6257036    0.3733915 -88.39  0.001697464    5.545    0.820
        87 -11.3689     42.9473     91.2061   1.1259252197e+02   5.3184566220e+01    0.2977875    0.1720197 -82.35  0.001017224    1.755    0.430
        88 -12.0575     89.6377     88.2551   9.5838924753e+01   4.7202259384e+01    0.4906068    0.3349481  48.00  0.001961644    1.485    0.327
        89 -11.8893    127.0116     85.8927   8.4087155957e+01   4.0167371782e+01    0.4340588    0.3644332  27.46  0.002180242    1.296    0.229
        90 -12.3325    132.1096     85.8400   8.2720886913e+01   3.9038483809e+01    0.3897575    0.3053713 -37.99  0.001431231    1.308    0.236
        91 -12.9305    135.2262     80.0101   8.0205018444e+01   3.9472256342e+01    0.7418529    0.4184541  51.22  0.002589623    1.770    0.435
        92 -11.4129     34.2687     86.5894   1.1499927093e+02   5.5187602975e+01     0.221571    0.1903005  49.07  0.001381614    1.227    0.185
        93 -12.9543    188.4816     84.3547   6.9909417275e+01   2.6084586039e+01    0.7639798    0.2938035  42.59  0.002420773    2.884    0.653
        94 -12.1029    149.9419     84.8850   7.8034467007e+01   3.5107871308e+01     0.550635    0.2956486  35.62  0.002097077    2.235    0.553
        95 -12.7855    238.3998     81.2915   6.1405983193e+01   1.5510328875e+01    0.6287833     0.400328 -75.07  0.002787119    2.930    0.659
        96 -13.3326    164.5954     71.2740   7.0768685939e+01   3.3960329665e+01     1.306068    0.4581759  49.56  0.004334778    2.761    0.638
        97 -13.7068    160.5428     80.8158   7.4464976091e+01   3.3318387694e+01    0.9321391     0.597451  28.63  0.002691445    1.956    0.489
        98 -14.3207    169.5092     76.8903   7.1437776483e+01   3.1818649671e+01     1.616423    0.5751646  55.17  0.005365726    2.855    0.650
        99 -13.1925     66.0418     49.1046   9.2599134326e+01   6.0134559637e+01    0.5611364    0.4910361 -83.94  0.003135646    1.312    0.238
       100 -13.7692    170.9568    242.6958   1.0265379841e+02   6.5593415011e+00    0.7616719     0.359389  34.88  0.004773246    1.515    0.340
       101 -12.8066     52.7247     69.9767   1.0448506400e+02   5.7224307155e+01    0.8669209    0.5037941  78.45  0.003509325    2.813    0.645
       102 -12.9094     55.0545     81.6940   1.0632475217e+02   5.4090033608e+01    0.6152656    0.3521398 -47.19  0.002615456    1.796    0.443
       103 -13.7116     61.0331     75.5148   1.0262597074e+02   5.4781971790e+01    0.6361916    0.3901184 -48.97 0.0009040342    1.584    0.369
       104 -12.4390    216.6864     80.6588   6.4269131710e+01   2.0199555371e+01    0.4843767    0.3708574   3.30  0.002562787    1.406    0.289
       105 -12.0747    114.1348     80.0717   8.5996761220e+01   4.4179901250e+01    0.4235494    0.3229563 -53.88    0.0013284    1.351    0.260
       106 -13.1600     91.0915     57.4860   8.6023307988e+01   5.3747796825e+01    0.7097726    0.4700974 -58.71  0.002132612    1.699    0.411
       107 -13.6307     87.5067     65.4590   8.9975362928e+01   5.2735271589e+01    0.9659931    0.6629647  -1.18  0.003702285    2.516    0.603
       108 -12.9101     70.8262     75.6418   9.9002239591e+01   5.3299498959e+01    0.5647578    0.4484977 -38.77  0.002259701    1.345    0.257
       109 -12.3769     77.1109     73.3751   9.6089382590e+01   5.2808426951e+01      0.60453    0.3581195 -35.22  0.002579428    2.094    0.522
       110 -13.9912      6.9340     51.3315   1.2099887052e+02   6.5736839213e+01     1.089052    0.4604364 -48.29  0.005269383    2.176    0.540
       111 -13.2554      6.0053     43.7235   1.2023632835e+02   6.7606689242e+01    0.7868288    0.3560221  12.99  0.003938786    2.670    0.625
       112 -14.9765      6.7734     71.6918   1.2367243308e+02   6.0808940159e+01     1.156771    0.7766678 -67.58  0.004548153    1.264    0.209
       113 -11.3743     42.4127     76.9408   1.1016016519e+02   5.6739278381e+01    0.2615541    0.2026779  33.56  0.001498695    1.414    0.293
       114 -12.4589    210.7573     78.1307   6.4501381915e+01   2.1871488647e+01    0.4890631    0.3354777 -62.26   0.00229399    1.973    0.493
       115 -13.5641    199.1912     70.1327   6.4132051739e+01   2.5685440600e+01    0.8556421    0.4534904  44.44  0.002489932    1.992    0.498
       116 -13.2304    133.8515     66.9447   7.6470084982e+01   4.2285915702e+01    0.9404742    0.6831179  18.72  0.004120714    1.812    0.448
       117 -13.7006      5.3068     64.1106   1.2344013940e+02   6.2717677396e+01    0.5340981    0.4463957  -3.96  0.003117682    1.490    0.329
       118 -12.2130    158.6215     65.8336   7.0336113391e+01   3.6358755431e+01    0.6928509    0.2565246 -41.64  0.002304519    2.719    0.632
       119 -12.3881     38.1347     68.2547   1.1007695409e+02   5.9311806300e+01    0.6479496    0.2761475  27.19  0.002812721    2.596    0.615
       120 -11.5980    100.3594     65.2037   8.5560286443e+01   5.0227389141e+01    0.3664775    0.2782264 -24.30   0.00108109    1.543    0.352
       121 -13.8753    177.8999     58.0297   6.4152269760e+01   3.2705531917e+01    0.8514428    0.6655003 -46.59   0.00216932    1.306    0.234
       122 -12.4206     79.6197     61.0445   9.1376562859e+01   5.5166913367e+01    0.5019578     0.426619  37.48  0.002287788    1.237    0.191
       123 -13.1250     82.5042     54.7906   8.8149409459e+01   5.5994415634e+01     0.722967    0.5438309  18.23  0.003511619    1.654    0.395
       124 -11.2156     43.9388     62.0515   1.0614172230e+02   6.0193160562e+01    0.1568261    0.1439693 -67.11 0.0009543222    1.027    0.026
       125 -12.5229    147.4112    238.8962   1.0632314693e+02   1.0186315952e+01     0.189029     0.166564  74.04 0.0009359659    1.561    0.360
       126 -12.6952    135.5542     50.5690   7.0427041922e+01   4.4775750705e+01    0.6265211    0.3601386  36.07  0.002099956    2.089    0.521
       127 -13.2361    131.9288     32.8335   6.4585790594e+01   4.8512975006e+01    0.6228994    0.4935204  -8.08  0.002219166    1.403    0.287
       128 -12.9838    109.9155     42.1952   7.4110639949e+01   5.2555418415e+01    0.5332118     0.276701  50.32  0.001353542    1.911    0.477
       129 -13.5922      8.8076    210.9134   1.3037495862e+02   3.0882087738e+01    0.8563692    0.3874282  41.75  0.005764368    1.588    0.370
       130 -10.5696     38.7521     60.1739   1.0794106201e+02   6.1211522845e+01    0.2321604    0.1281692  68.79 0.0009566565    2.814    0.645
       131 -12.3239     17.2831     54.6559   1.1660553451e+02   6.4362426218e+01    0.5728807    0.1850509 -59.76  0.002436154    2.333    0.571
       132 -12.2924    248.0648     49.9403   5.2492554797e+01   1.7239528583e+01    0.4300015    0.2267131  30.36   0.00187204    2.762    0.638
       133 -13.6272    103.0571     50.4688   7.9451270929e+01   5.2617206804e+01    0.7836655    0.5613485 -66.93 0.0008727895    1.828    0.453
       134 -12.4590     97.5069     49.9975   8.1080822300e+01   5.3929378964e+01    0.5498087    0.3444551 -49.57  0.001571068    1.658    0.397
       135 -11.9054    248.0186     55.1984   5.3809591557e+01   1.6653715510e+01    0.3448167    0.1628338 -47.01  0.001537015    2.240    0.554
       136 -13.1932    157.5791     44.0283   6.3331946267e+01   4.0069614768e+01    0.9255399    0.5159166  36.09  0.003571157    2.209    0.547
       137 -12.1365     24.6929    217.3163   1.2759054274e+02   2.8352983926e+01    0.4372502    0.2931345  65.26   0.00342242    1.159    0.137
       138 -13.7426     25.7487    227.4836   1.2774938473e+02   2.6590293716e+01     0.511254    0.3183199 -65.76  0.003827769    2.125    0.529
       139 -14.0813    217.4856     41.9922   5.3671107759e+01   2.5004811603e+01     1.072244    0.4862479  61.76  0.004204498    2.270    0.559
       140 -13.2006    205.3579     40.3472   5.4664797514e+01   2.8156125056e+01    0.8000771    0.4375768 -83.13  0.003080158    2.818    0.645
       141 -11.3427    169.4826     43.3573   6.0922529731e+01   3.7014496567e+01    0.2672119    0.1433083  62.09 0.0007949279    1.870    0.465
       142 -11.6242     55.7249     41.0764   9.4149521265e+01   6.3501447589e+01    0.2023959    0.1947545  14.75 0.0002942551    1.116    0.104
       143 -10.5284     51.7336     40.3892   9.5765281325e+01   6.4229975165e+01    0.1370031    0.1058833 -85.86 0.0006983328    1.706    0.414
       144 -12.8068     75.9701     37.4550   8.3874683370e+01   6.0795278704e+01    0.3764055    0.2841096  44.16 0.0009841319    1.389    0.280
       145 -11.9810     70.2658     36.5442   8.5830467902e+01   6.2040945724e+01    0.3896609    0.2191152  40.25  0.001189294    1.877    0.467
       146 -12.5376    241.9947     35.9212   4.9511372740e+01   2.0086387238e+01    0.4918536    0.2768953  73.17  0.002129364    2.053    0.513
       147 -11.9098     24.4663     60.0450   1.1432170795e+02   6.2540848196e+01    0.2897905    0.2023069 -63.78 0.0009079585    1.217    0.178
       148 -11.1639     45.3350     36.3263   9.7354292856e+01   6.5989923449e+01    0.2745932    0.1807252 -21.53 0.0008755942    1.914    0.477
       149 -11.9855     46.1877     33.2023   9.5672967768e+01   6.6556996408e+01    0.4299644     0.278411 -13.35  0.001822443    2.180    0.541
       150 -11.7957     58.9338     35.2817   9.0310266734e+01   6.4237980445e+01     0.544944    0.2468009  35.37  0.002255812    2.437    0.590
       151 -13.2091     20.7220    225.2187   1.2858482696e+02   2.7431252966e+01    0.3527123    0.2826068  39.50  0.002137155    1.378    0.275
       152 -13.1677     57.2213    202.0461   1.2041306316e+02   2.7553347799e+01    0.7886247    0.3081244 -71.39  0.004200642    2.816    0.645
       153 -13.5686     65.9990    223.2778   1.2005825842e+02   2.2966495723e+01     0.711042    0.4315968  34.42  0.004841147    1.464    0.317
       154 -14.4360     62.8675    214.8051   1.2012043225e+02   2.4709813580e+01    0.9394816    0.3937723  42.70  0.005445128    1.705    0.413
       155 -12.8472    152.6235     31.5583   5.9826733850e+01   4.3150939373e+01    0.4603699    0.3807656   3.22  0.001416781    1.353    0.261
       156 -13.6736     95.7985    219.0065   1.1399735757e+02   1.9924690467e+01    0.5303053    0.2209052  37.65  0.002891208    1.827    0.453
       157 -11.7762     27.5047     33.5371   1.0590724314e+02   6.8590462769e+01    0.3660288    0.2320274 -65.45  0.001979654    1.463    0.317
       158 -11.4251     31.5393     31.0177   1.0273512703e+02   6.8770776295e+01    0.2537412    0.1789093  15.17 0.0008368077    1.641    0.391
       159 -10.8108     90.9719     34.0509   7.6762653589e+01   5.8338734982e+01    0.2421213    0.1801832  11.21    0.0011331    1.691    0.409
       160 -10.6221     35.8275     34.3801   1.0160378339e+02   6.7562873562e+01    0.1684632    0.1239951   3.13 0.0003821771    1.626    0.385
       161 -11.4461     85.4976    215.9916   1.1575797801e+02   2.1738011874e+01    0.2371739    0.1128184  47.81  0.001383059    1.606    0.377
       162 -11.6863    185.5085    213.5381   9.6496790658e+01   7.8110821231e+00    0.1662292      0.11049 -51.51  0.001038222    2.393    0.582
       163 -11.1628    157.4902    213.5101   1.0158035356e+02   1.1965980808e+01    0.1177399   0.08975402  35.09 5.235508e-05    1.026    0.025
       164 -11.0960    136.7221    211.3670   1.0526049576e+02   1.5337314944e+01    0.1732529      0.14452 -83.16 0.0009819641    1.638    0.390
       165 -12.3855    120.2994     26.6664   6.4825744139e+01   5.2441934440e+01    0.7105141     0.389838  56.63  0.002954922    1.762    0.432
       166 -11.2800    123.0030     22.4826   6.2384682763e+01   5.2313670269e+01    0.2946665    0.2022774 -44.98 0.0008562467    1.543    0.352
       167 -12.9660     56.2317     27.4215   8.8079621817e+01   6.6265106339e+01    0.6523374    0.3345484  43.80  0.001891679    2.159    0.537
       168 -12.8554     67.7352     24.3924   8.1289079512e+01   6.4821724901e+01    0.6595055    0.4226447  42.94  0.003244523    1.629    0.386
       169 -10.6112     89.1714     30.1849   7.5652991648e+01   5.9409425696e+01    0.1872917    0.1705411 -68.07 0.0002409627    1.258    0.205
       170 -10.8574     97.9162     27.1626   7.1339832525e+01   5.7917156545e+01    0.2266829    0.2074579 -82.15  0.001219713    1.258    0.205
       171 -12.6957     45.2777    209.1422   1.2325407219e+02   2.7648782695e+01    0.3048521    0.1722625  69.73  0.002010792    1.592    0.372
       172 -11.2480     80.3682    208.3581   1.1615951117e+02   2.3643549696e+01    0.2396337    0.1159141  58.26  0.001123727    1.995    0.499
       173 -11.1485    150.6344    206.8596   1.0202806417e+02   1.3898555592e+01    0.2525063    0.1119107  30.51  0.001221718    2.193    0.544
       174 -13.3863     40.4957    195.3307   1.2346639636e+02   3.0615221770e+01    0.4443529    0.2721792  65.62   0.00297843    1.353    0.261
       175 -14.1246     18.0316    161.5609   1.2666090053e+02   3.9392126957e+01     1.299829    0.6184824  42.15  0.007602463    1.717    0.418
       176 -12.9341     16.6892    195.8907   1.2838620767e+02   3.2837167506e+01    0.5544162    0.2616358 -69.55  0.002978413    2.343    0.573
       177 -13.6791     29.8567    169.5202   1.2432508899e+02   3.6678072854e+01    0.6181887    0.4257076 -42.59  0.001454832    2.209    0.547
       178 -15.6069      8.9992    179.9003   1.2943615794e+02   3.6495494690e+01     1.632668     1.087281  85.58   0.01182101    1.325    0.245
       179 -13.4695     22.3849    181.2164   1.2660386570e+02   3.5071205407e+01    0.4452367    0.3613486  76.97  0.002184089    1.165    0.142
       180 -12.3089    164.4162    195.6811   9.7856014836e+01   1.3327137990e+01    0.3686912    0.2658015 -87.36  0.001964574    2.938    0.660
       181 -12.4523    201.1807    191.7943   9.0486348682e+01   8.0329140022e+00    0.2958312    0.2252656  17.13  0.002004741    1.095    0.087
       182 -10.3177    107.5175    192.9772   1.0903660931e+02   2.2531221393e+01    0.1517336   0.09957321 -30.42 0.0008101382    2.535    0.606
       183 -10.9237     80.4125    193.2698   1.1484352778e+02   2.6251317422e+01    0.3321472    0.0584349  39.38  0.001209995    3.632    0.725
       184 -12.0836     97.7866    188.4029   1.1060827874e+02   2.4734667122e+01    0.1748158    0.1034774  30.35  0.000956029    1.690    0.408
       185 -12.1601     48.9651    181.3993   1.2075520776e+02   3.2319735554e+01    0.3528495    0.2514035 -56.20  0.002311356    1.795    0.443
       186 -12.3422    198.6434    181.6844   8.9275294186e+01   9.6896441871e+00    0.2322353    0.1988397  30.00  0.001591781    1.192    0.161
       187 -12.6867     85.2917    180.4204   1.1250356866e+02   2.7953223813e+01     0.337747    0.2206279  65.92  0.001983954    1.535    0.348
       188 -13.0780    124.0242    166.7936   1.0197380516e+02   2.4580292573e+01    0.5157395    0.3705718 -83.24  0.002810947    1.906    0.475
