#   1 NUMBER                 Running object number                                     
#   2 MAG_AUTO               Kron-like elliptical aperture magnitude                    [mag]
#   3 X_IMAGE                Object position along x                                    [pixel]
#   4 Y_IMAGE                Object position along y                                    [pixel]
#   5 X_WORLD                Barycenter position along world x axis                     [deg]
#   6 Y_WORLD                Barycenter position along world y axis                     [deg]
#   7 A_WORLD                Profile RMS along major axis (world units)                 [deg]
#   8 B_WORLD                Profile RMS along minor axis (world units)                 [deg]
#   9 THETA_WORLD            Position angle (CCW/world-x)                               [deg]
#  10 FWHM_WORLD             FWHM assuming a gaussian core                              [deg]
#  11 ELONGATION             A_IMAGE/B_IMAGE                                           
#  12 ELLIPTICITY            1 - B_IMAGE/A_IMAGE                                       
         1 -12.8840    203.0020     17.5687   3.0038572206e+01   3.2499620034e+01    0.3810262    0.2153549 -64.12  0.002099626    1.655    0.396
         2  -9.4055     71.5002      1.4206   4.5157986434e+01   6.4610117273e+01    0.1281272    0.1019436  40.99 0.0001061444    1.044    0.042
         3 -11.8266    213.8405    247.3009   7.6603702609e+01  -5.6924523578e+00    0.3116056     0.184345 -32.32  0.001937302    1.651    0.394
         4 -12.2845    248.1619    224.5104   6.6981641650e+01  -6.5545405356e+00    0.3537811    0.2731345 -47.93  0.002350677    2.115    0.527
         5 -13.0748    239.1134    220.6087   6.7826947632e+01  -4.9990909448e+00    0.5368044    0.3993702 -32.84  0.003662376    1.432    0.302
         6 -10.9867    149.6883    222.7913   8.5652910309e+01   6.7784790761e+00    0.4362702     0.186524 -52.60   0.00184582    2.811    0.644
         7 -10.9547     76.8652    213.3848   1.0128863416e+02   1.9314073512e+01    0.2659556    0.1692901  74.55   0.00130036    1.938    0.484
         8 -11.7302    240.0638    205.7098   6.5091816146e+01  -2.9958556526e+00     0.292231    0.2491469 -33.62  0.002042035    1.456    0.313
         9 -10.0760     99.3279    206.6550   9.4974239874e+01   1.7612366082e+01    0.1470687    0.1003083  63.20 0.0007050503    1.748    0.428
        10 -10.2793     56.6680    205.3486   1.0532147293e+02   2.3732952211e+01    0.1474323   0.08735666  61.89 0.0001942529    1.770    0.435
        11  -9.7989    196.6751    204.3248   7.2710243566e+01   3.0574622748e+00    0.1161759    0.1078544  77.96 0.0007048624    1.690    0.408
        12 -11.1377     19.4920    203.5533   1.1411340287e+02   2.8201051822e+01    0.3280963    0.1766172  61.73  0.001711723    1.730    0.422
        13 -12.5286     81.9070    200.3313   9.8447066507e+01   2.1553346179e+01    0.5661296    0.4404353  67.08  0.003091541    1.353    0.261
        14  -9.8212    124.6281    198.2993   8.7536753672e+01   1.5512271989e+01    0.1476392     0.106402  61.06 0.0007029744    1.744    0.427
        15 -10.3016    112.3770    197.1946   9.0360524538e+01   1.7698465146e+01     0.196366    0.1380121 -71.63 0.0007687508    1.748    0.428
        16 -10.0026    140.3112    200.6483   8.4200411781e+01   1.2500995644e+01    0.1393806    0.1106996  69.26 0.0005957592    1.722    0.419
        17 -10.7239     26.9581    195.7002   1.1173823891e+02   2.9306428907e+01    0.1831532      0.15175  57.45 0.0006821035    1.098    0.089
        18 -11.7175    160.8501    194.1476   7.8369256904e+01   1.0464236547e+01    0.3309245    0.2908866  56.81  0.001085874    1.415    0.293
        19 -10.4013     66.2397    194.4721   1.0169616539e+02   2.5057667042e+01    0.3438644    0.1741247  70.18  0.001295074    3.026    0.670
        20 -10.0131    215.2563    194.2748   6.7349818273e+01   2.0497155160e+00    0.1956736   0.09872168 -48.09 0.0008935152    2.397    0.583
        21 -10.7263    122.0104    188.1525   8.6478804510e+01   1.8146524204e+01     0.455306      0.17146  39.96   0.00165427    2.507    0.601
        22  -9.6096    165.3168    186.6386   7.5983650689e+01   1.1199909337e+01    0.1370935    0.1156452  82.01 0.0005050277    1.763    0.433
        23 -11.6909      5.7183    200.8891   1.1714115644e+02   3.0042032436e+01    0.2296936    0.1680541  48.46  0.001465451    1.252    0.201
        24  -9.9114    210.5955    183.1850   6.6113753370e+01   4.5834735828e+00    0.2008355    0.1087223 -29.34 0.0009628179    1.765    0.433
        25  -9.9786    174.3214    183.6650   7.3453381133e+01   1.0277025113e+01    0.1332927    0.1154369  83.64 0.0005344591    1.706    0.414
        26 -10.4381    147.3997    180.2094   7.8855745443e+01   1.5563417000e+01    0.2074973    0.1405849 -59.63 0.0009293834    1.787    0.440
        27  -9.7010    137.6688    179.3202   8.1021470273e+01   1.7439489415e+01    0.1475029     0.116967  71.19 0.0007048771    1.694    0.410
        28 -10.7276    191.8084    177.5123   6.8622386651e+01   8.5452953374e+00    0.3300887    0.1790457 -45.22  0.001521264    1.856    0.461
        29  -9.8318    129.6350    177.3310   8.2630456195e+01   1.9268400520e+01     0.154552    0.1160512  69.56 0.0007036397    1.813    0.449
        30 -10.4682    101.0030    175.9830   8.9808103098e+01   2.4391014497e+01    0.2050791    0.1994827  45.29            0    1.005    0.005
        31  -9.9986     12.8044    176.2235   1.1377187683e+02   3.5308031721e+01    0.2395549   0.09462335  60.58 0.0009564683    2.817    0.645
        32 -10.2805     76.3450    175.6728   9.6459016366e+01   2.8233267393e+01    0.1569302    0.1046839  64.51 0.0007050519    1.747    0.427
        33 -11.5650    120.6468    171.5999   8.3838819451e+01   2.2127504998e+01    0.5417499    0.2943778 -41.19  0.001683099    1.985    0.496
        34 -10.7950    138.6535    163.8536   7.7735027709e+01   2.0675169382e+01     0.538623    0.2269414 -58.89  0.001706459    3.476    0.712
        35 -10.5270     79.9553    164.1926   9.3624254700e+01   3.0570519930e+01    0.4746549    0.2487991  75.68   0.00139313    4.557    0.781
        36 -10.5733     92.9978    160.4909   8.9259173566e+01   2.9463448509e+01    0.3168666    0.1838696  76.59  0.001046694    3.474    0.712
        37 -11.0959     13.5818    160.6482   1.1226379886e+02   3.9131796970e+01    0.2570183    0.2199693 -69.66 0.0006923495    1.130    0.115
        38 -10.1485    197.3045    158.1505   6.3591812300e+01   1.1207156368e+01     0.285933    0.1691395  63.71  0.001096489    3.453    0.710
        39 -10.2419    105.4269    158.1524   8.5325834358e+01   2.7957985392e+01    0.2995064    0.1946778  67.74   0.00119785    2.254    0.556
        40 -10.0706    218.7730    155.9468   5.9229376091e+01   8.0017723521e+00    0.1872678     0.097359 -37.45 0.0008813848    1.674    0.403
        41 -10.1331     42.9883    155.3313   1.0312314523e+02   3.7699471496e+01    0.1954617     0.180757  49.94 0.0007111188    1.121    0.108
        42 -11.7268    233.9930    148.5992   5.5238936778e+01   6.8268462127e+00    0.3718437    0.1724936 -38.06  0.001761946    1.804    0.446
        43  -9.6401    189.3330    150.6332   6.3544516694e+01   1.4042608163e+01    0.1434412    0.1141783 -75.96 0.0007033249    1.825    0.452
        44 -11.9935    108.4134    146.1312   8.2021502617e+01   3.0357268526e+01     0.802277    0.4048119  63.13  0.002175648    4.913    0.796
        45 -10.1708     39.0038    147.5044   1.0326108607e+02   4.0171089269e+01    0.2092262    0.0943699  49.67 0.0008102667    2.518    0.603
        46 -10.6450    148.8276    145.3448   7.1242355125e+01   2.2843635548e+01    0.4080121    0.2771794 -88.01  0.001521768    2.923    0.658
        47 -10.8167     55.3092    145.4202   9.7867730448e+01   3.8818864138e+01    0.3427512    0.1951786  71.70  0.001325827    2.579    0.612
        48 -11.1060    125.4627    143.6947   7.6799798951e+01   2.7758992192e+01    0.3507594    0.2578048  88.19  0.001484957    2.053    0.513
        49 -10.9589     87.7195    143.7203   8.7559253066e+01   3.4532073944e+01    0.3155108    0.1933332 -83.26  0.001180695    2.538    0.606
        50 -11.3648     21.2667    139.2454   1.0772850791e+02   4.4010787396e+01    0.3563249    0.2877936  17.59 0.0007990703    1.427    0.299
        51 -10.4475      1.4288    136.0016   1.1358387578e+02   4.6259667716e+01    0.2041363    0.1098167 -76.84 0.0005086294    1.568    0.362
        52 -11.2007     83.6886    132.9964   8.6551336448e+01   3.7906722415e+01    0.4256714    0.2854148  77.24   0.00171677    2.259    0.557
        53 -10.4584    132.0172    131.7509   7.2286728119e+01   2.9222647492e+01    0.3266342     0.203806 -72.67  0.001175459    2.730    0.634
        54 -11.3477    152.3265    126.6613   6.6006342880e+01   2.6173948591e+01    0.4458554    0.2110129 -43.70  0.001691645    2.044    0.511
        55 -11.6881     98.4303    126.6215   8.0546277825e+01   3.6939405057e+01    0.8280092    0.3936564 -64.50  0.002702272    3.035    0.671
        56 -10.1039     73.3051    129.6420   8.9147071758e+01   4.0405088542e+01    0.1583736     0.117331  75.11 0.0007040009    1.723    0.420
        57 -10.5325    117.1941    125.2130   7.4711331000e+01   3.3696564536e+01    0.2211862    0.1917576  88.46 0.0009537821    1.372    0.271
        58 -11.7931     43.3278    122.2063   9.7785487466e+01   4.6319975562e+01    0.8080127    0.4086355 -87.94  0.002809305    3.284    0.695
        59 -10.2739     58.7919    124.1944   9.2841721779e+01   4.3893462052e+01    0.2585151    0.1494114  67.73 0.0009509569    2.818    0.645
        60 -10.9552     29.1119    123.7316   1.0298189359e+02   4.7373132196e+01    0.3334864    0.1671622  59.46   0.00130956    2.773    0.639
        61 -11.6516    158.3758    121.6768   6.3386872324e+01   2.5954032610e+01    0.3314246    0.2561203 -81.51  0.001524827    1.774    0.436
        62 -11.3298    141.3358    118.6259   6.6652434182e+01   3.0204231388e+01    0.4635969    0.2828389 -63.65  0.001788155    2.281    0.562
        63 -10.8616    130.3201    118.4192   6.9417551953e+01   3.2569903235e+01    0.3533503      0.23784 -80.94  0.001327172    2.589    0.614
        64 -11.0778    108.7728    113.4910   7.4155975385e+01   3.8098343309e+01    0.6473801    0.3193808 -62.77  0.002085381    3.157    0.683
        65 -11.2084     92.4259    112.4881   7.8919534688e+01   4.1462282874e+01    0.5433123    0.3286833 -70.43  0.002056724    2.411    0.585
        66 -10.9414     78.7717    112.5613   8.3417272937e+01   4.3832552009e+01    0.5028192    0.2991621 -85.55  0.001635442    3.640    0.725
        67 -11.4552     13.9407    109.1810   1.0615237342e+02   5.2353996468e+01    0.6139675    0.2933893 -74.14  0.002736785    1.939    0.484
        68 -10.6008     66.7780    111.1924   8.7207951876e+01   4.6069411664e+01    0.2587401    0.1606079  71.58  0.000957242    2.830    0.647
        69 -10.6745    139.7027    104.7708   6.3419762669e+01   3.3492455913e+01    0.3202883    0.1863198 -62.44  0.001182374    2.471    0.595
        70 -11.4935     45.5081    102.5262   9.2968013862e+01   5.1108552822e+01    0.6880264    0.3615743  72.75  0.001916835    5.762    0.826
        71 -11.7156    128.4930    101.5930   6.5405194609e+01   3.6612739949e+01    0.4617916    0.2809054 -54.74  0.001900855    1.841    0.457
        72 -10.7911      6.7107    102.4791   1.0786023726e+02   5.4512455652e+01    0.3300469    0.1715846 -84.66  0.001513787    2.035    0.509
        73 -12.6148     63.8316    100.3251   8.5567775245e+01   4.9191103436e+01    0.5123571    0.3044599 -56.01 0.0007397474    1.637    0.389
        74 -11.0374     21.3350    100.6624   1.0193108490e+02   5.3975340323e+01    0.4418451    0.2116803  73.57  0.001409367    4.672    0.786
        75 -11.3308    109.3783     99.4486   7.0142000836e+01   4.1147818925e+01    0.6724199    0.4118408  72.82  0.002268883    3.314    0.698
        76 -10.5305     81.6339     99.9059   7.9134317918e+01   4.6388966004e+01    0.3087654    0.2005969 -66.39  0.001299424    1.935    0.483
        77 -10.7323     94.6013     97.0543   7.4020890952e+01   4.4645619795e+01    0.3152354    0.2067876 -67.17  0.001289775    2.078    0.519
        78 -10.5482     18.1091     93.6100   1.0189815678e+02   5.5992719370e+01    0.2237858    0.1716864 -75.48 0.0003841861    1.294    0.227
        79 -11.3657    124.1474     90.9593   6.3531488559e+01   3.9769666810e+01    0.4154671    0.2377151 -62.71  0.001502813    2.672    0.626
        80 -11.0117     34.3451     89.1372   9.4278458927e+01   5.5658431802e+01    0.4830797    0.2174432 -73.33  0.001725303    3.187    0.686
        81 -10.9535     86.1619     86.6902   7.3753134286e+01   4.8558308507e+01    0.4212376    0.2747204 -75.16  0.001615359    2.715    0.632
        82 -10.4103     79.7983     87.8803   7.6316721288e+01   4.9468451130e+01     0.223594    0.1964157 -17.16 0.0003008397    1.152    0.132
        83 -10.9070     48.7688     84.9042   8.7264910708e+01   5.4988143738e+01    0.3818834    0.2265042  64.10  0.001434149    3.281    0.695
        84 -11.4205    104.3732     82.9487   6.6738956490e+01   4.5691843073e+01    0.4784547     0.260108 -63.69  0.001587974    3.371    0.703
        85 -10.3256    128.0000     76.0004   5.8058310121e+01   4.1787456478e+01    0.2466559   0.08549158 -38.92 0.0007993407    2.921    0.658
        86 -11.1418    103.4451     75.7896   6.4754716142e+01   4.7313847842e+01    0.2925085    0.2099463  46.25  0.001390303    1.381    0.276
        87 -11.1963     62.6175     72.6179   7.7961887627e+01   5.5724113624e+01    0.6305718    0.1725753 -51.59  0.001874268    4.026    0.752
        88 -11.4785      8.3643     65.4750   1.0022353306e+02   6.3387743720e+01    0.2801607    0.2113501 -25.92 0.0006480618    1.235    0.190
        89 -10.9683      4.4918     64.5106   1.0187773836e+02   6.3830628274e+01    0.3856322    0.1588689 -62.97  0.001770442    2.043    0.511
        90 -11.2558     82.2348     72.8937   7.0716393255e+01   5.2202448252e+01    0.4379534    0.2694893 -67.48  0.001667683    2.882    0.653
        91  -9.8245    110.3237     63.9992   5.8883554832e+01   4.7971768290e+01    0.2421746    0.1070673 -55.79 0.0007047901    4.276    0.766
        92 -11.6337     25.0653     58.5696   9.0109808996e+01   6.3611917939e+01    0.3853848     0.262277 -64.47  0.002065912    1.677    0.404
        93 -12.1600     44.0253     72.1861   8.5563313824e+01   5.8505045556e+01    0.4779564    0.4766784  47.12  0.002965534    1.198    0.165
        94 -10.0171    105.9973     53.5066   5.6494976089e+01   5.0699722425e+01    0.2000632    0.1290235  78.60 0.0008097686    2.479    0.597
        95 -11.2114     31.0770     51.5577   8.4773197452e+01   6.4440211159e+01    0.4023733    0.2623927 -77.23   0.00179755    2.964    0.663
        96 -12.9030      9.6599     49.2676   9.5181006279e+01   6.6878686884e+01    0.3661945    0.2282475 -33.31 0.0008999237    1.381    0.276
        97 -12.0639    237.2383     46.1899   3.3325929254e+01   2.2028066146e+01    0.4300107    0.2307496 -50.71  0.001887381    1.537    0.349
        98 -10.5906     81.8547     46.0806   6.1158827232e+01   5.7117035794e+01    0.2042124    0.1966306 -77.27 0.0005377417    1.257    0.205
        99 -10.3337     57.5406     41.3055   6.8432225544e+01   6.2509083150e+01    0.2426269    0.1279048 -43.16 0.0008785543    2.036    0.509
       100 -10.5940     92.0000     50.0001   5.9349390150e+01   5.4356959719e+01    0.2320164   0.08116836 -36.16 0.0008089781    2.988    0.665
       101 -10.3918    149.5925     34.8931   4.0958844320e+01   4.2901376022e+01     0.283964    0.1725147  87.04  0.001318662    1.929    0.482
       102  -9.8797     45.3766     35.1928   7.1212928454e+01   6.5508240838e+01    0.1778435    0.1194902 -46.32 0.0009470143    1.735    0.424
       103  -9.8073    108.6831     26.3259   4.5994700470e+01   5.3789259965e+01    0.1360714    0.1025533 -72.40  0.000704472    1.673    0.402
       104 -10.6065     37.1012     25.9436   7.0998639476e+01   6.8219634167e+01     0.297668    0.1630386  26.91  0.001386649    1.767    0.434
       105 -11.4932    218.7056    248.3875   7.5891939700e+01  -6.4008068525e+00    0.2074219    0.1809553 -55.39  0.001432352    2.152    0.535
       106 -10.4437    249.4140     21.7071   2.7519968825e+01   2.2723065660e+01    0.2172381   0.08006174 -39.93  0.001132535    2.096    0.523
       107 -11.1164     32.7110     19.5523   7.0118489518e+01   6.9808141406e+01    0.2318165    0.2069814  30.76 0.0008731065    1.381    0.276
       108 -11.2019    122.5022     17.9242   4.0183476012e+01   5.1378120040e+01    0.3318921    0.2627611  69.46  0.001037003    1.140    0.123
       109 -10.8794    150.1203     16.3383   3.5362789979e+01   4.4845587532e+01    0.2105566    0.1885749  -0.88   0.00132952    1.379    0.275
