#   1 NUMBER                 Running object number                                     
#   2 MAG_AUTO               Kron-like elliptical aperture magnitude                    [mag]
#   3 X_IMAGE                Object position along x                                    [pixel]
#   4 Y_IMAGE                Object position along y                                    [pixel]
#   5 X_WORLD                Barycenter position along world x axis                     [deg]
#   6 Y_WORLD                Barycenter position along world y axis                     [deg]
#   7 A_WORLD                Profile RMS along major axis (world units)                 [deg]
#   8 B_WORLD                Profile RMS along minor axis (world units)                 [deg]
#   9 THETA_WORLD            Position angle (CCW/world-x)                               [deg]
#  10 FWHM_WORLD             FWHM assuming a gaussian core                              [deg]
#  11 ELONGATION             A_IMAGE/B_IMAGE                                           
#  12 ELLIPTICITY            1 - B_IMAGE/A_IMAGE                                       
         1 -17.2999    244.1766    187.7089   3.0831047251e+01  -4.1682154655e+01    0.2031631    0.1172294  71.91   0.01908812    2.199    0.545
         2 -17.0937    238.9386     87.1776   3.0031188725e+01  -4.2792834115e+01    0.2200841   0.06845523  65.01      0.01346    5.000    0.800
         3 -18.1125    246.4618    128.5283   3.0282758570e+01  -4.2301715981e+01    0.4933839    0.1404491  63.03   0.03072265    4.732    0.789
         4 -15.7421      5.0445     82.8192   3.3628112416e+01  -4.4317464240e+01    0.1096225   0.04123285  62.71   0.00866546    2.871    0.652
         5 -14.4785      3.0887     44.2544   3.3330310985e+01  -4.4751313300e+01   0.05970628    0.0279584  66.69  0.005140987    2.490    0.598
         6 -14.3389     24.8273     38.3934   3.2932257718e+01  -4.4681871107e+01   0.04644816   0.03277818  64.15   0.00488309    1.504    0.335
         7 -14.6084     48.2106     44.3473   3.2611810119e+01  -4.4472359031e+01   0.05288548   0.02992093  43.16  0.004779562    1.888    0.470
         8 -14.5743     24.6685     14.5708   3.2727724652e+01  -4.4942284037e+01   0.05576787   0.03089505  35.99  0.004393136    2.180    0.541
         9 -12.8539     15.1335     14.3479   3.2878542675e+01  -4.5003649073e+01   0.02436429   0.01494991  -3.58  0.002279925    2.185    0.542
        10 -13.5883      4.7341     17.1166   3.3069552686e+01  -4.5037503733e+01   0.03382034   0.01970798 -12.83  0.003181079    2.066    0.516
        11 -13.4065     38.1466     13.9850   3.2507183979e+01  -4.4864986112e+01   0.03516546   0.01551154  47.94  0.003055962    2.315    0.568
        12 -14.3977    142.2754     12.4249   3.0849915393e+01  -4.4221868957e+01   0.03384822   0.01288696 -39.15  0.002759473    2.505    0.601
        13 -13.7483     96.8088      8.0168   3.1523786792e+01  -4.4560533302e+01   0.04004174   0.02536117 -83.63  0.003648667    2.546    0.607
        14 -13.6417    130.0167      3.8269   3.0964492709e+01  -4.4393216576e+01   0.03291164   0.02167151 -16.72  0.003007407    1.663    0.399
        15 -11.9579      3.1960      2.4227   3.2966407360e+01  -4.5207142980e+01   0.01316616   0.01007851  21.54  0.001427338    1.485    0.327
        16 -12.9629    216.6600    247.5767   3.1750827150e+01  -4.1212640115e+01   0.02324873   0.01666815 -25.26  0.002570647    1.372    0.271
        17 -14.4342    142.8238    237.5403   3.2780401999e+01  -4.1782861273e+01   0.04771864    0.0331801 -87.01  0.004308554    1.964    0.491
        18 -14.6427    158.2020    249.1022   3.2642883509e+01  -4.1561848283e+01   0.08688303   0.01800062 -27.95  0.005053208    4.948    0.798
        19 -15.5317    158.5776    242.5395   3.2582843838e+01  -4.1630868113e+01    0.1279734   0.04266268 -21.74  0.008379712    4.091    0.756
        20 -12.5513     87.6370    249.5510   3.3721678039e+01  -4.1989538325e+01   0.01528084   0.01120498 -45.12  0.001332138    1.394    0.283
        21 -13.2330     39.8650    249.2151   3.4455130603e+01  -4.2280361169e+01   0.02173894   0.01373926 -65.19  0.002074958    2.180    0.541
        22 -14.5373     20.9863    246.9536   3.4729763421e+01  -4.2417459034e+01   0.04097394   0.02134198 -43.75  0.003303806    1.990    0.497
        23 -14.8934     11.0498    241.0441   3.4837022741e+01  -4.2541432945e+01    0.0525576   0.03049959 -22.20   0.00518709    1.749    0.428
        24 -12.9285     12.7198    250.4326   3.4886104050e+01  -4.2427955234e+01   0.02263173   0.01048036 -31.77  0.001484231    2.013    0.503
        25 -14.2164      3.3890    247.8655   3.5010905263e+01  -4.2511292231e+01   0.03539442   0.02961627 -50.88  0.003297811    1.251    0.200
        26 -13.6655    174.8285    208.7724   3.2054566082e+01  -4.1895850149e+01   0.03009532   0.02253077  66.67   0.00309179    1.443    0.307
        27 -14.0820      3.7953    211.5398   3.4713000586e+01  -4.2909862915e+01   0.02596691     0.021336 -56.30  0.001960071    1.319    0.242
        28 -12.5324    152.4537    203.6121   3.2351067740e+01  -4.2091901474e+01   0.01277025   0.01037611 -33.97  0.001441446    1.191    0.160
        29 -13.0051    203.5698    200.2049   3.1547750336e+01  -4.1807088621e+01   0.01820462    0.0159997  -1.87  0.001715964    1.178    0.151
        30 -11.7725      2.4513    202.1943   3.4658439801e+01  -4.3020892286e+01   0.01278595  0.009033223 -27.72  0.001397442    1.366    0.268
        31 -12.5030     20.6796    200.2344   3.4357038773e+01  -4.2933970999e+01   0.01905284    0.0110571 -60.75  0.001709285    2.421    0.587
        32 -11.5423     18.4966    196.4933   3.4360690978e+01  -4.2988184351e+01  0.009133715   0.00652194  77.94 0.0009668615    1.651    0.394
        33 -12.3698     89.9542    196.4414   3.3249532344e+01  -4.2556479915e+01   0.01625719   0.01265877   3.76  0.001830311    1.449    0.310
        34 -11.8486     47.2150    193.0713   3.3884327574e+01  -4.2853307445e+01   0.01217642  0.009394034 -83.82  0.001344271    1.599    0.375
        35 -13.6266    189.8584    190.0167   3.1668301289e+01  -4.2004021060e+01   0.02287833   0.01462093 -22.30  0.002362088    1.604    0.376
        36 -13.7406    179.3518    188.9874   3.1818771339e+01  -4.2081563354e+01   0.03468937   0.01778757 -35.99  0.003280378    1.848    0.459
        37 -14.0736    204.1601    187.2177   3.1428289208e+01  -4.1943481863e+01   0.03877542   0.02541943 -36.65  0.003715871    1.470    0.320
        38 -13.0437     46.6709    185.6671   3.3831833278e+01  -4.2937825141e+01   0.03523054   0.01149273 -42.98  0.002532316    3.316    0.698
        39 -13.0057     94.8973    184.2003   3.3071344362e+01  -4.2659817922e+01   0.02297924   0.01342747 -47.01  0.002141406    1.841    0.457
        40 -13.0580     73.7414    179.7030   3.3361398634e+01  -4.2838617183e+01   0.01834341   0.01667496  89.46  0.001828503    1.209    0.173
        41 -14.1777    162.1491    171.4056   3.1931124943e+01  -4.2380317063e+01   0.03838605   0.02686249 -86.67  0.003928933    1.961    0.490
        42 -12.3282    110.9308    176.5475   3.2759934181e+01  -4.2644334201e+01    0.0157338   0.01220323  -0.71  0.001768964    1.441    0.306
        43 -14.6559     88.7773    169.3156   3.3041560979e+01  -4.2859897474e+01   0.06069019    0.0365338 -62.70  0.005580616    2.358    0.576
        44 -12.1699    178.6302    175.2515   3.1712916724e+01  -4.2234664166e+01   0.01228429  0.008362154  47.76  0.001315742    1.495    0.331
        45 -15.3133     42.0467    168.9431   3.3765794531e+01  -4.3149217079e+01   0.05841462   0.04152005  55.06  0.004457031    1.424    0.298
        46 -13.6225    130.4694    162.7906   3.2343150544e+01  -4.2672454622e+01   0.03011942   0.02306681 -28.81  0.003453169    1.262    0.207
        47 -13.0350     31.8430    243.7997   3.4535881487e+01  -4.2387764209e+01    0.0116058   0.01097297  -7.91  0.001000874    1.037    0.036
        48 -13.6478    193.5964    156.9144   3.1328560404e+01  -4.2337566518e+01    0.0399922   0.02105749  49.65  0.003819102    1.911    0.477
        49 -14.3107     18.8188    154.3792   3.4009512441e+01  -4.3449280056e+01   0.03415467   0.02459874 -37.90  0.002287702    1.353    0.261
        50 -13.7987     22.0743    148.7583   3.3911658104e+01  -4.3491372470e+01   0.02740739   0.01733963 -32.11  0.001683097    1.508    0.337
        51 -12.1097     53.5600    139.6883   3.3341595793e+01  -4.3399522979e+01   0.01622352   0.01147656  46.82  0.001582785    1.442    0.307
        52 -14.5488     48.2524    148.7288   3.3500452547e+01  -4.3332996953e+01   0.04410737   0.04116572 -13.60  0.004229005    1.047    0.045
        53 -13.0363     59.9134    148.3419   3.3314830731e+01  -4.3266057760e+01   0.03320469   0.01471116 -38.78  0.002911048    2.168    0.539
        54 -12.5087    145.7461    163.0744   3.2111082781e+01  -4.2573724437e+01   0.01674979   0.01244682  53.89  0.001886915    1.367    0.268
        55 -13.3992     98.2173    241.7361   3.3495686113e+01  -4.2010816562e+01   0.01877051   0.01409471  47.92  0.001766691    1.354    0.261
        56 -15.4769     26.0548    125.0603   3.3651149066e+01  -4.3727171606e+01   0.08496924   0.02566528 -33.55  0.006205637    2.923    0.658
        57 -15.2483      3.3234    132.9461   3.4076211252e+01  -4.3777933033e+01     0.043162   0.03277587  70.17  0.003715019    1.437    0.304
        58 -16.3045      9.8183    118.8458   3.3855725743e+01  -4.3893614870e+01   0.08410308   0.06085191  71.40  0.006609843    1.540    0.351
        59 -12.8309    214.4318    127.8930   3.0761028809e+01  -4.2516162807e+01    0.0240845   0.01127471 -44.71  0.002099421    2.274    0.560
        60 -11.9342     54.7213    121.2487   3.3168006570e+01  -4.3593932805e+01   0.01165545  0.008435891  64.79  0.001279301    1.469    0.319
        61 -15.0307     38.9676    100.1711   3.3237368814e+01  -4.3920776361e+01   0.06147951   0.04468142 -88.03  0.006161183    1.780    0.438
        62 -15.3200     27.8294     95.5251   3.3374014623e+01  -4.4039684065e+01   0.08154219    0.0505987 -72.58  0.007417991    2.509    0.601
        63 -15.4777     82.2828    102.7174   3.2578471822e+01  -4.3625710428e+01   0.05876208   0.02233133  67.96  0.004210238    3.658    0.727
        64 -14.2887    142.5443    100.0302   3.1618560290e+01  -4.3276344513e+01   0.06079433   0.02878046 -43.77   0.00538417    2.201    0.546
        65 -12.6216     57.3466     97.5582   3.2925506934e+01  -4.3836318467e+01   0.01310275  0.008233988  55.96  0.001353467    1.607    0.378
        66 -13.0756     71.2242    241.3732   3.3907453769e+01  -4.2178437215e+01    0.0220868   0.01553044 -41.43  0.002200568    1.415    0.293
        67 -14.7460    131.6092     88.8986   3.1691012375e+01  -4.3465987739e+01   0.03279539   0.02350646  38.91  0.003106721    1.485    0.326
        68 -14.9516    140.7182     87.2188   3.1535280736e+01  -4.3426331691e+01    0.0520176   0.01506514 -36.46  0.003804756    3.082    0.675
        69 -14.3228     48.0948     78.2150   3.2905886654e+01  -4.4104288687e+01   0.03400814   0.02264633 -44.34  0.002462436    1.534    0.348
        70 -15.4557     32.3873     72.5044   3.3105617331e+01  -4.4263288885e+01    0.0849777   0.04501545 -31.34  0.007112403    1.790    0.441
        71 -15.4150     77.9517     80.8561   3.2458409807e+01  -4.3890377148e+01   0.05068976   0.03018214 -30.31  0.005140955    1.610    0.379
        72 -13.6384     75.9111     62.5754   3.2332310946e+01  -4.4101697817e+01    0.0232366   0.01201626 -50.28  0.002056463    2.317    0.568
        73 -13.2930     61.8689     60.7677   3.2537997760e+01  -4.4208896060e+01   0.02824561   0.02153155  62.41  0.003034655    1.374    0.272
        74 -14.4592     59.0832     52.7249   3.2512305669e+01  -4.4313668175e+01   0.06084633   0.03013568  44.45  0.005521592    2.159    0.537
        75 -14.4294     12.8040     48.6893   3.3213026450e+01  -4.4643432612e+01   0.03906024   0.02766633 -46.59  0.003408258    1.467    0.319
        76 -13.8686    200.0378    236.6246   3.1908195115e+01  -4.1435822717e+01   0.02942003   0.02407278  25.38  0.002391842    1.322    0.244
        77 -12.9754     27.0706     51.3740   3.3008603339e+01  -4.4526528914e+01   0.02740915   0.02074446  73.04  0.002854633    1.483    0.326
        78 -14.1625    192.1780    231.5228   3.1983644333e+01  -4.1540472099e+01    0.0665955   0.02741663 -17.27  0.004687344    3.682    0.728
        79 -13.2661    226.1100    236.4817   3.1516339293e+01  -4.1272623974e+01   0.02392566    0.0166986  -8.10  0.002051005    1.660    0.397
        80 -14.8515    114.9848    206.5141   3.2948039907e+01  -4.2292750210e+01   0.04551789   0.03731056 -88.17  0.003292626    1.438    0.305
        81 -12.4819    186.3062    211.9825   3.1907950423e+01  -4.1788913977e+01   0.01606354   0.01316412  58.74  0.001729766    1.261    0.207
        82 -12.1487     45.4902     23.4901   3.2473319515e+01  -4.4716000458e+01  0.006472794  0.006237825  -9.61 0.0002201094    1.012    0.012
        83 -13.6857      3.2808    234.1406   3.4902897007e+01  -4.2663502334e+01   0.03302633    0.0191618  33.27  0.003111702    2.105    0.525
        84 -13.8473     62.1009    230.3721   3.3958693001e+01  -4.2354169546e+01   0.03212996   0.02302776 -78.92  0.002653789    1.841    0.457
        85 -14.5868     33.1819    206.9008   3.4216208366e+01  -4.2785830174e+01    0.0618002   0.04262098 -88.51  0.005823096    1.943    0.485
        86 -14.8578     46.7008    229.0403   3.4186211329e+01  -4.2461397720e+01   0.04905723   0.03257428 -63.00  0.004093858    1.935    0.483
        87 -13.8448     36.1412    218.4282   3.4263977470e+01  -4.2641344776e+01   0.02369458   0.01798338 -28.27  0.001423309    1.271    0.213
        88 -14.4299     36.6333    223.5607   3.4298002386e+01  -4.2581950809e+01   0.03266502    0.0226665  45.51  0.002635022    1.479    0.324
        89 -13.5846     13.7836    225.3796   3.4668544535e+01  -4.2698033721e+01   0.02338715   0.01544202  70.70  0.001704527    1.702    0.413
