#   1 NUMBER                 Running object number                                     
#   2 MAG_AUTO               Kron-like elliptical aperture magnitude                    [mag]
#   3 X_IMAGE                Object position along x                                    [pixel]
#   4 Y_IMAGE                Object position along y                                    [pixel]
#   5 X_WORLD                Barycenter position along world x axis                     [deg]
#   6 Y_WORLD                Barycenter position along world y axis                     [deg]
#   7 A_WORLD                Profile RMS along major axis (world units)                 [deg]
#   8 B_WORLD                Profile RMS along minor axis (world units)                 [deg]
#   9 THETA_WORLD            Position angle (CCW/world-x)                               [deg]
#  10 FWHM_WORLD             FWHM assuming a gaussian core                              [deg]
#  11 ELONGATION             A_IMAGE/B_IMAGE                                           
#  12 ELLIPTICITY            1 - B_IMAGE/A_IMAGE                                       
         1 -13.5490    159.6646     52.3492   8.1410937616e+01   3.8672543210e+01      1.46717     1.161309  12.96  0.005189752    1.576    0.366
         2 -13.6515    171.3472     36.5799   7.4675338241e+01   3.7972734924e+01    0.9946873    0.9183756 -28.25  0.003728389    1.209    0.173
         3 -11.2463    189.9887     14.5436   6.5958467220e+01   3.5955283687e+01    0.3197508    0.1823543 -40.39 0.0008912207    1.831    0.454
         4 -13.2099    188.2095      4.9887   6.3744395657e+01   3.7369050133e+01     0.966161    0.6099778  69.12  0.004054383    1.345    0.256
         5 -11.8188    159.1821    235.6763   1.2327936601e+02   2.6755610774e+00     0.350183    0.2921183  46.88  0.001789608    1.015    0.015
         6 -19.6803     57.3664    162.9286   1.3442839428e+02   3.4796449308e+01     20.05568     4.604706 -66.06   0.06198784    4.331    0.769
         7  -9.1576    179.1616    206.1317   1.1447329581e+02   4.1791041329e+00    0.1804161    0.1590244  72.12  0.001027934    1.290    0.225
         8 -12.4170    193.5979    193.0000   1.0907612591e+02   3.7774896931e+00    0.8810098    0.5429767 -54.54  0.002736053    1.993    0.498
         9 -13.0722    137.2948    198.4397   1.2192944061e+02   1.3723106632e+01    0.7491427    0.4275043  56.94  0.003357938    1.836    0.455
        10  -9.9467    180.0699    192.1920   1.1170516742e+02   6.6057529773e+00    0.2377023    0.2117256 -80.38 0.0005803182    1.316    0.240
        11  -9.7189    175.3714    194.2048   1.1306826395e+02   7.1531918224e+00    0.1959184    0.1357895 -58.60 0.0004878209    1.709    0.415
        12 -10.8982    167.2292    191.4551   1.1427067889e+02   9.3100328605e+00    0.3387206    0.2457433  24.29  0.001446797    1.621    0.383
        13 -10.4204    208.8228    197.1785   1.0684757980e+02   9.7632817257e-02    0.1988254    0.1923024  73.84 0.0006073027    1.236    0.191
        14  -9.6572    184.5146    186.9650   1.0976484469e+02   6.7175158780e+00    0.2128603    0.1440936 -43.35 0.0005738871    1.557    0.358
        15 -10.9383      5.2355    222.8299   1.5036621220e+02   2.7637247759e+01     0.143145   0.07065682 -67.37 0.0006747824    1.926    0.481
        16  -9.5611    195.3334    217.3213   1.1322310953e+02  -8.0183885761e-01    0.1385166   0.09930769  10.08 0.0005991671    1.702    0.412
        17 -10.5029    168.9552    234.6737   1.2123338275e+02   1.1013751230e+00    0.2124646    0.1957948 -48.62 0.0001865637    1.276    0.216
        18 -11.8425    206.7138    180.0700   1.0384579177e+02   3.5563947563e+00    0.8213637    0.4434533  31.49   0.00300199    2.135    0.532
        19 -11.7710    196.4840    172.0536   1.0424243267e+02   7.1465774910e+00    0.8475373     0.413799 -50.89  0.002839624    2.374    0.579
        20  -9.6265     26.9896    179.9580   1.4310692028e+02   3.4401136318e+01    0.1418997    0.1327048 -50.61 0.0007520095    1.484    0.326
        21 -10.9350    162.9236    210.4847   1.1856082540e+02   6.4771079137e+00    0.3287117    0.2507076 -74.56  0.001350867    1.664    0.399
        22 -10.4693    148.8266    174.3808   1.1502703007e+02   1.6567617678e+01    0.2149953    0.1384691  35.38 0.0009487443    1.668    0.400
        23  -9.8116    177.4229    170.1987   1.0786120243e+02   1.1505748768e+01    0.2145334    0.1435333 -56.71 0.0009554529    1.696    0.411
        24 -11.1039    142.3256    166.0438   1.1485292128e+02   1.9715945368e+01     0.325411    0.2303291 -61.27  0.001104765    1.501    0.334
        25 -10.3975    122.8750    166.1017   1.1941152012e+02   2.3540484963e+01    0.2302746    0.1891139  74.27 0.0004407244    1.254    0.203
        26  -9.8549    223.8719    164.3127   9.7184183135e+01   3.0089487091e+00    0.2397558    0.1886351 -47.83 0.0005368225    1.341    0.254
        27 -10.6531    159.0880    206.3356   1.1865016152e+02   7.9946726616e+00    0.3503505    0.2365586  58.77   0.00173686    1.560    0.359
        28 -11.4104    112.6905    159.7592   1.2063068661e+02   2.6909384220e+01    0.4208279    0.2429701  58.11  0.001568714    1.969    0.492
        29 -10.0388    237.5117    159.4879   9.3636017639e+01   1.1882825295e+00    0.1406606    0.1295676 -17.40 -2.149832e-05    1.005    0.005
        30 -10.0641    140.1019    156.6224   1.1342954703e+02   2.2278650618e+01    0.2374783    0.2041342 -71.79 0.0003908488    1.198    0.165
        31 -10.5830    162.4592    154.2163   1.0772710106e+02   1.8077699520e+01    0.2958514    0.2192552  45.99  0.001386626    1.331    0.249
        32 -12.1392    134.0000    144.4653   1.1226477100e+02   2.6293390779e+01      1.27103    0.3220974 -55.01   0.00290966    5.937    0.832
        33 -10.0101      9.6296    152.3925   1.4404495490e+02   4.2126270021e+01    0.2027631    0.1829232   3.78  0.001028452    1.609    0.378
        34 -10.4157    163.8119    204.8403   1.1740917641e+02   7.3741026267e+00    0.2651604    0.2533574 -65.73 0.0005263167    1.143    0.125
        35  -9.6964    174.8354    148.8490   1.0375454481e+02   1.6512295796e+01    0.2144127    0.1858634 -87.44 0.0004560656    1.314    0.239
        36 -11.1033    144.4988    146.0337   1.1008068412e+02   2.3744049896e+01    0.4207878    0.2779452  78.84  0.001640901    2.339    0.573
        37 -12.3948    113.5687    139.2214   1.1621350208e+02   3.1541133077e+01    0.7687584    0.5479366   9.94  0.003110255    2.246    0.555
        38 -11.9341    104.0976    138.5137   1.1849317140e+02   3.3446498847e+01    0.3201922    0.2872222  53.46 0.0004181385    1.151    0.131
        39 -11.5844    106.0773    130.9052   1.1631696915e+02   3.4869388823e+01     0.407629    0.3530772 -78.20  0.001243112    1.180    0.152
        40 -10.6552    107.9419    125.5400   1.1459845796e+02   3.5770837355e+01    0.3210277    0.2722313 -21.58 0.0006135358    1.391    0.281
        41 -11.5267    119.2073    129.3132   1.1252723019e+02   3.2750393591e+01    0.4126841    0.3558418 -58.01  0.001092029    1.124    0.110
        42 -11.8105    124.2790    126.6296   1.1058495937e+02   3.2352268235e+01    0.6914653    0.4135522  70.76  0.002493859    2.829    0.646
        43 -11.1065    135.4324    123.4136   1.0696813242e+02   3.0757499450e+01    0.6737588    0.1490169 -49.31  0.001645487    4.880    0.795
        44 -10.0979    160.6366    127.8960   1.0199616673e+02   2.4195116049e+01    0.3313778    0.2008594 -58.43  0.001311673    1.929    0.482
        45 -10.3024    113.4919    118.7854   1.1150552834e+02   3.6266550185e+01    0.2601912      0.21132  45.74 0.0005190708    1.277    0.217
        46  99.0000     10.6308    206.8147   1.4843047923e+02   3.0311715317e+01    0.3703585    0.2776606 -72.82   0.00274012    1.380    0.275
        47 -10.3469    167.5291    113.2345   9.6719322211e+01   2.5699619463e+01    0.4437521     0.306722  74.33  0.001601166    1.901    0.474
        48  -9.9358    205.4623    110.1883   8.8125311504e+01   1.7303788667e+01    0.2746069     0.216509  53.08  0.000665263    1.302    0.232
        49 -10.1988     30.9706    207.4109   1.4480792907e+02   2.8054077991e+01    0.1875436    0.1312315  13.18 0.0009883054    2.845    0.649
        50  -8.8704    147.4889     79.4907   9.2073778092e+01   3.7088916548e+01    0.1504307    0.1478858  70.98 9.301449e-05    1.021    0.020
        51 -10.2185     92.5265     79.0568   1.0671069358e+02   4.8607317476e+01    0.2487643    0.2043844  35.21 0.0003408347    1.269    0.212
        52  -9.6881     13.6467    244.0095   1.5024925619e+02   2.2751390254e+01    0.1214631   0.07535276 -72.05 0.0008595512    1.635    0.388
        53 -10.8566     21.8618    242.4722   1.4887472329e+02   2.2136904240e+01     0.161328    0.1143936 -84.35 0.0005153013    1.290    0.225
        54  -9.8621     13.5123     59.5539   1.2780347414e+02   6.1837601899e+01    0.2017638    0.1502408 -45.26 0.0005848246    1.039    0.037
        55 -12.4608    175.4612     29.5153   7.2018758901e+01   3.7836149924e+01    0.5108944    0.4031919  -7.41  0.001529314    1.610    0.379
        56  -9.5854    129.6269     28.1296   8.0155535719e+01   4.9035518070e+01     0.239948    0.1722188  65.04 0.0007647965    1.428    0.300
        57 -10.6942     20.3671    238.5707   1.4887286384e+02   2.3034855469e+01      0.14502   0.07664303  85.46 0.0009198245    1.531    0.347
