#   1 NUMBER                 Running object number                                     
#   2 MAG_AUTO               Kron-like elliptical aperture magnitude                    [mag]
#   3 X_IMAGE                Object position along x                                    [pixel]
#   4 Y_IMAGE                Object position along y                                    [pixel]
#   5 X_WORLD                Barycenter position along world x axis                     [deg]
#   6 Y_WORLD                Barycenter position along world y axis                     [deg]
#   7 A_WORLD                Profile RMS along major axis (world units)                 [deg]
#   8 B_WORLD                Profile RMS along minor axis (world units)                 [deg]
#   9 THETA_WORLD            Position angle (CCW/world-x)                               [deg]
#  10 FWHM_WORLD             FWHM assuming a gaussian core                              [deg]
#  11 ELONGATION             A_IMAGE/B_IMAGE                                           
#  12 ELLIPTICITY            1 - B_IMAGE/A_IMAGE                                       
         1 -12.9940    160.6631     92.7330   4.8491735240e+01   3.1861742897e+01     3.545004    0.8517062 -47.58 0.0008501472    5.852    0.829
         2 -13.4013    245.6532     13.5707   2.1051866721e+01   2.5466446005e+01     1.830801     1.101413  -8.54  0.009511477    4.319    0.768
         3 -13.2239    248.5488     46.6350   2.6717238526e+01   2.1319397231e+01     1.020579     0.593852 -54.88  0.001114697    1.420    0.296
         4 -14.6133    229.1812     92.5701   3.7439255659e+01   1.8492981766e+01     6.157515     1.367805 -47.33   0.01938734    5.002    0.800
         5 -14.8566    243.0332     66.9178   3.0937127198e+01   1.9705889493e+01     4.853162     3.070481  29.96   0.01761166    3.185    0.686
         6 -13.6540    247.4372     78.8244   3.2734645721e+01   1.7388668386e+01     2.093255    0.3634953 -38.79  0.007352524    4.376    0.771
         7 -11.6556    205.7421     33.1295   2.7787943668e+01   3.0794884918e+01     2.167233    0.4326892 -38.37  0.008440087    3.783    0.736
         8 -11.9953    249.6270     33.5649   2.4303291569e+01   2.2653345569e+01      0.60392    0.3922553 -46.32  0.000547523    1.277    0.217
         9 -13.2138    220.3702     33.2698   2.6494678214e+01   2.7922728855e+01     11.03849          nan -36.85  0.008679283   15.288    0.935
        10 -11.5983    140.2380     40.6030   3.8398792715e+01   4.4326189985e+01    0.5919963     0.412554 -32.64  0.003246229    1.594    0.373
        11 -10.7131    133.1434     24.8279   3.5042971758e+01   4.7780817256e+01    0.4774929    0.2332561 -23.89  0.002219363    2.532    0.605
        12 -12.5762    215.3293     26.2552   2.5520022038e+01   2.9670092004e+01     1.502995    0.7323125 -15.50  0.006111044    5.034    0.801
        13 -14.0204    180.3946     82.9079   4.2392216725e+01   2.9306455097e+01     3.573796     2.042637 -53.39  0.005425948    1.911    0.477
        14  -9.3181    157.6705      7.3673   2.6773113859e+01   4.3755761991e+01    0.3096302    0.2267099   5.89  0.001361775    2.024    0.506
        15  -8.8243    186.9005     11.8794   2.4932534442e+01   3.6922230384e+01    0.1862274    0.1429746  82.35 0.0004075375    1.133    0.117
        16  -8.3366    183.5787     11.2031   2.5081489612e+01   3.7693546760e+01     0.170338    0.1431575  57.87 0.0006859525    1.352    0.260
        17 -10.0227    120.2401      9.3721   3.2507425021e+01   5.2271567484e+01    0.2983477     0.276638 -46.06  0.001029291    1.270    0.213
        18  -8.3638    146.8543      7.6548   2.8122769073e+01   4.6203182729e+01    0.1702973    0.1661087   6.52 0.0005034959    1.288    0.223
        19 -10.6920    205.4944      5.3102   2.2060459232e+01   3.3721942438e+01    0.2869103    0.1946699 -13.77  0.001607498    2.234    0.552
        20  -7.5619    240.4985      1.4751   1.9235660319e+01   2.7542967830e+01    0.1315608   0.08190417  69.92 5.477608e-05    1.700    0.412
        21 -10.7309    234.4055      4.3474   2.0065704935e+01   2.8347332499e+01    0.2311834    0.2035321  53.81  0.000690987    1.620    0.383
        22  -9.3785    228.1884      1.7015   1.9937421073e+01   2.9723066780e+01    0.3065121    0.1199949  87.63  0.001214164    2.561    0.610
        23  -8.6130    220.8870      3.8016   2.0754745581e+01   3.0882095744e+01    0.2888901    0.1861239   4.62  0.001576785    3.743    0.733
        24  -8.1805    191.4566      5.0890   2.3063446053e+01   3.6599709914e+01    0.1680863    0.1212636  83.74  0.000351487    1.182    0.154
        25  -9.1757    182.1224      3.1007   2.3387322623e+01   3.8744252286e+01    0.2493233    0.1939788 -80.02  0.001758377    1.071    0.066
        26  -9.9522    136.3151      6.6670   2.9227455310e+01   4.8730300522e+01    0.2505242    0.2290274   3.14 0.0006785536    1.379    0.275
        27  -7.8941    171.8379      2.5888   2.4169924317e+01   4.1011411606e+01    0.1656556   0.09173605 -88.53 0.0007181779    1.686    0.407
        28 -10.5415    220.2732    173.9547   5.4823973928e+01   6.7651496197e+00    0.5185362    0.4245912 -70.35  0.002289474    2.052    0.513
        29  -8.7725    151.8818    250.6152   8.1964410866e+01   2.7624739960e+00    0.1868334    0.1026906  25.17 0.0002991159    1.504    0.335
        30 -10.7740    238.6524    175.9217   5.2112701958e+01   4.0027383076e+00    0.4806767    0.3077903  49.73  0.002319045    2.432    0.589
        31 -10.3311    228.6630    171.3428   5.2900722605e+01   6.0440345649e+00    0.5336373    0.2871317 -51.59  0.002340168    2.433    0.589
        32 -10.4095    230.5882    167.8340   5.1927953583e+01   6.3518208249e+00    0.4727081    0.2013611 -45.42  0.002068546    2.322    0.569
        33  -9.2040    205.3992    178.5529   5.8412687856e+01   8.0919980655e+00    0.2803528    0.1932794  66.79  0.001214234    3.555    0.719
        34  -8.2018    198.5745    178.7328   5.9768331275e+01   9.0593870855e+00    0.1938968      0.16917  56.06 0.0006191969    1.662    0.398
        35  -9.3008    213.7067    176.1436   5.6409346480e+01   7.3176739239e+00    0.2468764    0.2418076 -39.66  0.001005028    1.412    0.292
        36  -9.4934    155.8328    169.0547   6.7165744358e+01   1.7755662808e+01    0.2532928    0.2093268 -25.07 0.0002984383    1.148    0.129
        37  -8.3636    134.7466    248.7645   8.5575240606e+01   5.2312522445e+00    0.2034256    0.1342099  52.20   0.00104526    2.170    0.539
        38  -9.3725    153.3941    246.7137   8.1077550582e+01   3.2278787250e+00     0.235602    0.1782112   2.62 0.0003838472    1.120    0.107
        39  -8.4024    154.3465    242.0966   8.0197621783e+01   3.8931556574e+00     0.173565    0.1460177  -1.96 0.0003850154    1.105    0.095
        40  -7.7942    182.7887    240.9093   7.3852414475e+01   5.4583588099e-01    0.1522793   0.09168127 -34.60 0.0003867614    1.636    0.389
        41  -7.7646     73.3672    238.2983   9.8921565863e+01   1.4890777796e+01    0.1322982   0.09465343 -11.81 0.0007031846    1.729    0.422
        42  -8.0041     99.1117    161.1381   8.0906353251e+01   2.9084061091e+01    0.1826722    0.1724673  53.77            0    1.180    0.153
        43 -10.5719    194.0639    156.7840   5.6310276529e+01   1.3736428673e+01    0.6277433    0.4189642 -56.07  0.002691112    1.925    0.481
        44  -9.8601     23.1354    159.8517   1.0457482752e+02   3.8619738516e+01    0.2137477    0.1842609  65.26  0.001001319    1.193    0.162
        45 -12.1935    236.7543     62.1803   3.0641397239e+01   2.1399301368e+01    0.5709848    0.3032486 -50.51 0.0003861481    1.617    0.381
        46  -7.6842     41.6910    237.6960   1.0644190552e+02   1.8487458975e+01    0.1180021   0.09243888 -23.24 0.0004641158    1.607    0.378
        47  -8.2721    160.0747    159.5447   6.4195797470e+01   1.8985163518e+01    0.2263193    0.1407622  34.41  0.001033804    1.605    0.377
        48 -12.0957     10.4874    149.8223   1.0754989864e+02   4.2084061709e+01     1.433858    0.5610516 -80.56  0.005630258    2.618    0.618
        49 -11.4440     12.3229    141.7399   1.0613389605e+02   4.4051811579e+01    0.5905783    0.3207289 -43.59  0.002795681    1.802    0.445
        50  -8.1009    205.9894    155.4442   5.3783900578e+01   1.2059321274e+01    0.1856977    0.1289459  34.46  0.001016068    1.560    0.359
        51  -8.8735    203.6787    151.7643   5.3465040911e+01   1.3078017860e+01    0.2752568    0.2571253  85.26  0.001710156    1.451    0.311
        52  -8.5721    182.7628    152.0502   5.7603491609e+01   1.6517433978e+01     0.200721    0.1790333 -46.12 0.0004440268    1.234    0.190
        53  -9.1563    165.9337    151.1088   6.1048702733e+01   1.9659448986e+01    0.3012784    0.2120557 -63.87  0.001036299    2.022    0.506
        54  -9.6510    134.1170    147.3524   6.8062708005e+01   2.6255847663e+01    0.8471954    0.2712764 -54.38  0.002290831    4.562    0.781
        55 -12.7743     41.3020    143.3446   9.6498493623e+01   4.1294723096e+01     1.260414     0.878011   5.45  0.004695356    1.562    0.360
        56  -7.6836    161.3239    166.2946   6.5302341865e+01   1.7390395815e+01    0.1517166    0.1073922  -5.65 0.0006309968    1.619    0.383
        57  -8.5078    146.6583    148.2863   6.5028257678e+01   2.3747819164e+01    0.1459167    0.1222252  72.31 0.0002821016    1.641    0.391
        58 -12.1751     30.6397    146.3812   1.0054971848e+02   4.1493696247e+01    0.7590853    0.6284377  84.31  0.001366813    1.296    0.228
        59  -9.3265    223.8545    146.0428   4.8851937768e+01   1.0896536183e+01    0.3656469    0.2711574  82.59  0.001242658    2.604    0.616
        60  -9.3530    217.7206    145.0170   4.9652458435e+01   1.2013313939e+01    0.3463241    0.2236744 -27.87 0.0008849149    1.452    0.311
        61 -10.0906    213.8032    141.3494   4.9572671234e+01   1.3256950889e+01    0.3519856     0.249606 -35.78  0.001187906    1.229    0.186
        62 -10.0070    201.9622    141.3598   5.1642601679e+01   1.5204845934e+01    0.5316162    0.3598462 -66.68  0.002334672    2.392    0.582
        63 -10.3106    192.5744    143.5480   5.3852776773e+01   1.6411081966e+01    0.3766925    0.2581982  28.89  0.001008226    1.597    0.374
        64  -8.8771    143.4530    143.8997   6.4861916145e+01   2.5278715736e+01    0.2408003    0.2002329  -1.20 0.0004597889    1.247    0.198
        65  -9.8636    146.5796    142.1516   6.3680424524e+01   2.5065352627e+01    0.3468218    0.2289163 -64.74  0.001445331    2.215    0.549
        66 -10.9909     64.1349    140.6376   8.8194078543e+01   3.9356318946e+01      2.57215     1.092477  43.37  0.009123305    2.672    0.626
        67 -10.1712    224.3222    128.9828   4.5404247634e+01   1.3627755733e+01    0.3933545    0.3104784  44.27  0.001491388    1.476    0.322
        68 -10.4506    224.4258    120.6054   4.3711507339e+01   1.4964944035e+01    0.6907996    0.3459618 -60.86  0.002649137    3.896    0.743
        69  -9.3278    160.3198    128.2806   5.7212167642e+01   2.5274263907e+01    0.3681846    0.2583477 -43.84  0.001475299    1.411    0.291
        70  -8.5894    152.7465    128.9819   5.9138271908e+01   2.6614752053e+01    0.2001462    0.1252792 -41.58 0.0006876964    1.574    0.365
        71  -8.0291    217.2943    127.6644   4.6225282296e+01   1.4989460791e+01    0.1262843   0.09513917 -63.07 0.0005127519    1.645    0.392
        72  -8.7820    201.7551    125.8999   4.8426801998e+01   1.7951814744e+01     0.186403    0.1576177 -39.86 0.0004759816    1.091    0.084
        73  -9.5327    165.9073    123.6126   5.4883134232e+01   2.5092125325e+01    0.3311087    0.2127986 -33.21  0.001543843    1.575    0.365
        74  -7.6337     91.5409    125.4991   7.5692159281e+01   3.8981497879e+01    0.1572444    0.1465614  -2.41 0.0003642267    1.011    0.011
        75  -8.6276     51.0001    124.5271   8.9782650903e+01   4.5118741272e+01    0.2187183    0.1895545 -47.78 0.0003437457    1.111    0.100
        76 -10.1799    121.5164    233.7264   8.6652399724e+01   9.7185634947e+00    0.2556279    0.2243831 -13.05 0.0005651034    1.158    0.137
        77  -8.2247    205.7285    122.0106   4.6925782748e+01   1.7917290333e+01    0.1846517    0.1533492 -38.06 0.0005126236    1.081    0.075
        78  -8.5250     86.8689    117.2417   7.5269881128e+01   4.1741300688e+01    0.2644753    0.2106011  25.74 0.0009868607    1.216    0.178
        79  -9.7037    136.2215    128.8278   6.3239615951e+01   2.9890321271e+01    0.6954441    0.2697975 -51.43    0.0022771    3.042    0.671
        80 -10.0837    174.4055    113.9638   5.0856173247e+01   2.5223263886e+01    0.5400129    0.2872771 -55.55  0.002189735    2.434    0.589
        81  -9.0027    200.3913    115.5916   4.6445475487e+01   1.9968124911e+01    0.2340621     0.131343  54.97  0.000793891    2.093    0.522
        82 -10.6279    144.4268     95.9318   5.2888756132e+01   3.4782582226e+01    0.3779483    0.3483344  56.56  0.001421771    1.111    0.100
        83  -9.9681    134.7103    111.8378   5.9432325387e+01   3.3743821115e+01    0.6058541    0.1826125 -44.53  0.001858459    3.382    0.704
        84 -11.3613    136.1009    101.3567   5.6351551038e+01   3.5537922994e+01    0.8927155    0.7505488  89.19  0.001481265    1.532    0.347
        85  -8.3673    207.0288    103.7285   4.2817656256e+01   2.0716374741e+01    0.1898483    0.1725542 -15.45 0.0006017434    1.180    0.152
        86 -10.5744    205.8465    109.8108   4.4306661965e+01   1.9940058559e+01     0.417769    0.3690435  45.23  0.001832946    1.253    0.202
        87  -9.8206    209.3701    107.4727   4.3257785067e+01   1.9683209270e+01    0.3404233    0.2330671 -45.63 0.0009364089    1.333    0.250
        88  -9.5326    170.0003    128.4564   5.5118710409e+01   2.3365831042e+01    0.2737483    0.2060306 -41.75 0.0005878521    1.288    0.224
        89  -8.3620    217.8417    111.1703   4.2758609154e+01   1.7588231320e+01    0.1916988    0.1532579 -58.07 0.0005730219    1.300    0.231
        90 -11.8152    123.8816    103.9904   6.0292244328e+01   3.7583427561e+01    0.9707617    0.8243807  84.36  0.003864063    1.534    0.348
        91  -8.5611    143.4135    108.3508   5.6345425602e+01   3.2633265454e+01    0.2848395    0.1429935 -36.94   0.00112089    2.093    0.522
        92  -7.5649     82.3327    109.2992   7.4847689549e+01   4.4374110004e+01    0.1614842    0.1159319 -10.32 0.0002786937    1.649    0.393
        93 -10.1796     70.9974    108.4294   7.8733087423e+01   4.6408877948e+01    0.2658254    0.2453618  -8.29 0.0002529236    1.007    0.007
        94 -10.6801    113.1472    105.2025   6.3703463302e+01   3.9529265408e+01    0.4839594    0.3150243 -49.43   0.00214292    1.656    0.396
        95  -8.8975    150.3882    105.3365   5.3923406520e+01   3.1752156605e+01    0.2573037    0.2222723  28.04 0.0005846226    1.186    0.157
        96 -10.8728    120.8143     95.5496   5.8848881668e+01   3.9915118482e+01    0.6222587     0.394103 -49.53   0.00275649    1.743    0.426
        97 -10.4255      1.9563    157.5948   1.1085976000e+02   4.0601267337e+01    0.7592655    0.1695999 -70.06  0.002628177    3.397    0.706
        98  -8.2681    207.7671     92.4370   4.0280384238e+01   2.2367165691e+01     0.251106    0.1911563  -4.44  0.001023359    1.826    0.452
        99  -8.4431    106.5699     92.1988   6.2085760546e+01   4.3545827745e+01     0.265152    0.1493019 -47.52 0.0006281925    1.925    0.481
       100  -8.7423    108.3138    110.0440   6.6454324829e+01   3.9448760722e+01    0.2130085    0.2044692  -2.61 0.0005508094    1.045    0.043
       101  -8.8392    134.0758     87.6045   5.3146148626e+01   3.8558680420e+01    0.2413037     0.195856 -48.56  0.000556575    1.315    0.239
       102  -8.4126    125.8381     83.1297   5.3987806724e+01   4.1175289713e+01     0.500983    0.2296186  33.07  0.001464088    3.015    0.668
       103  -9.0268    225.0304    231.9830   6.4157794978e+01  -2.9409104284e+00    0.2568721    0.1665418 -50.40  0.001446055    2.497    0.599
       104 -10.1588    156.6313     78.7486   4.5718705610e+01   3.5096364118e+01    0.4119408    0.2070615 -45.79  0.001605129    2.074    0.518
       105 -10.2524    155.6104     73.2959   4.4489603491e+01   3.6195770194e+01    0.4191013    0.2568073 -47.51  0.001220603    1.712    0.416
       106  -8.6209    139.9716     79.2777   4.9434533967e+01   3.8714760935e+01     0.209571    0.1859277  48.67 0.0006330748    1.081    0.075
       107  -8.6188    131.8855     76.1036   5.0452946268e+01   4.1061289684e+01    0.2070618    0.1914862 -77.15 0.0003671653    1.201    0.168
       108  -7.6451    126.6472     76.3145   5.1815171154e+01   4.2195843109e+01    0.1483817    0.1162193 -88.82  0.000704599    1.734    0.423
       109  -9.1269    151.1998     71.4546   4.4876977098e+01   3.7472783108e+01    0.2706508    0.2428064 -81.69 0.0003940736    1.180    0.153
       110  -8.8047     84.5247     72.8850   6.3511177680e+01   5.1725430677e+01    0.2658414    0.2021638  42.67 0.0004820834    1.296    0.228
       111  -8.7031     72.9144    224.9719   9.7646972546e+01   1.7749227698e+01    0.1981402    0.1784918  18.08 0.0003320914    1.069    0.064
       112  -9.5712    144.6366     67.7649   4.5219897791e+01   3.9530911601e+01    0.3604558    0.2342355  76.15  0.001063519    1.978    0.494
       113 -10.0532    135.6175     62.9535   4.5802295536e+01   4.2326347325e+01    0.5705377    0.2661759 -31.56  0.001470254    2.454    0.593
       114  -8.4120    139.4581     65.5213   4.5695275541e+01   4.1055970247e+01    0.1401617     0.131121  47.53 1.406459e-05    1.040    0.038
       115  -9.4771    206.2448     64.3752   3.4420118597e+01   2.6770595355e+01    0.2554218    0.1488571  70.78   0.00137435    1.867    0.464
       116  -8.2544    207.9012     60.4328   3.3371447528e+01   2.6979112177e+01    0.1802965     0.143035 -47.41 0.0004821065    1.161    0.139
       117 -10.3000    188.6505     45.6712   3.2415496323e+01   3.2827972752e+01    0.8582599    0.1903665 -36.17  0.003077068    3.955    0.747
       118  -9.5619    192.4949     38.4780   3.0326205482e+01   3.2891847994e+01       0.3643    0.2234488 -17.60  0.001915239    2.386    0.581
       119  -9.6034    189.5141     34.9799   2.9868630223e+01   3.3928777447e+01    0.4331419    0.2527415 -67.88  0.002036112    1.854    0.461
       120 -10.3583    191.5330     55.3768   3.4278653591e+01   3.0972414893e+01    0.4861602    0.2963468 -31.07  0.002624833    1.782    0.439
       121  -9.4323    195.2274     60.0598   3.4862354791e+01   2.9577970192e+01    0.2331154    0.1730455 -33.19  0.000479034    1.419    0.295
       122 -10.7553    197.7127     56.5205   3.3751751306e+01   2.9543676249e+01    0.5031734    0.4064251 -80.53  0.002240486    1.196    0.164
       123  -9.0736    144.5050     59.5299   4.2954108273e+01   4.0796558369e+01    0.2302511    0.2218004  84.47 0.0006134683    1.048    0.045
       124  -7.5853     72.7505     58.3547   6.2971756350e+01   5.6610560807e+01    0.1287002    0.1157376 -84.81 0.0003914956    1.598    0.374
       125  -8.9902    109.1002     55.6165   5.0088531096e+01   4.9476611719e+01    0.2349644    0.2018463 -18.13  0.001315488    1.279    0.218
       126  -8.8705    221.0035    160.9268   5.2216539356e+01   8.8392838568e+00    0.1878784    0.1611999 -28.29 0.0004229814    1.105    0.095
       127  -9.4844    178.4286     50.8520   3.4980560624e+01   3.4362869081e+01     0.419302    0.2633782 -87.71  0.002138943    1.921    0.480
       128 -12.8785    235.4464     76.3480   3.3512557101e+01   1.9729960423e+01    0.6154571     0.582193 -67.73  0.001731599    1.160    0.138
       129  -8.6595    133.9166     51.2161   4.2741426952e+01   4.4416685118e+01    0.2032117    0.1775206  85.32 0.0004516047    1.202    0.168
       130  -9.2292    199.4380     48.0538   3.1668907741e+01   3.0285010711e+01    0.3140121    0.1810796 -28.05  0.001173889    2.019    0.505
       131  -8.5590    111.1307     46.3536   4.6519907302e+01   5.0348261164e+01    0.2128283     0.184588  -7.18 0.0004104188    1.297    0.229
       132 -12.6896    201.9872     87.0183   3.9941129951e+01   2.4307952360e+01     1.739288    0.7440478  40.35  0.006837701    3.509    0.715
       133  -9.6811    131.8920     43.7757   4.0949333498e+01   4.5876420767e+01    0.2807179    0.1708449 -52.88  0.001349748    1.977    0.494
       134  -8.7643    145.0444    221.0980   7.9148593025e+01   8.9391691817e+00    0.2029505    0.1680722   6.40 0.0002725371    1.017    0.017
       135  -9.5124    163.9099     41.4045   3.4713978331e+01   3.8779407459e+01    0.2776579    0.2110554  15.03   0.00117425    1.898    0.473
       136  -7.9733    105.2106     39.9982   4.5926394526e+01   5.2543357124e+01    0.1637165    0.1130247 -29.44            0    1.639    0.390
       137  -9.6909    123.3477     38.3181   4.1066013107e+01   4.8557430435e+01    0.2660843    0.1828303 -74.29  0.001083792    1.999    0.500
       138 -10.3545    164.4350     34.5075   3.2871647337e+01   3.9479092560e+01    0.3244489     0.262022 -49.33  0.002033194    1.271    0.213
       139  -7.9079     78.3419     36.1966   5.2646709967e+01   5.8926469450e+01    0.1738632    0.1255354 -39.45 0.0003588633    1.643    0.392
       140  -8.4846     78.6287     31.2370   5.0608357572e+01   5.9509304441e+01    0.2731712    0.1683728 -17.08  0.001364379    1.961    0.490
       141 -12.8276    240.1776     51.8508   2.8368366460e+01   2.2112568668e+01     1.012184    0.5994061 -85.87  0.000590331    1.949    0.487
       142 -10.4634    133.6024     33.5415   3.7557045524e+01   4.6719531124e+01     0.447761    0.1833598 -36.76  0.001546963    2.596    0.615
       143  -8.3552    249.6014    219.1991   5.7831005645e+01  -3.6865294364e+00    0.1607394   0.08142608 -27.13 0.0004500481    1.575    0.365
       144 -10.8201    134.7099     39.8737   3.9227434738e+01   4.5707463960e+01    0.4045657    0.3034357 -82.60  0.002205539    1.560    0.359
       145  -8.6337    224.2049    218.3778   6.2055426096e+01  -8.3507810662e-01    0.1938963    0.1755995  29.91 0.0008495449    1.687    0.407
       146  -8.7965    156.0113     28.9299   3.2605092342e+01   4.2022503213e+01     0.187464    0.1635878  80.07   0.00030606    1.002    0.002
       147  -8.9447     92.0085     28.8502   4.5557035017e+01   5.6887320107e+01    0.2025767    0.1847763  11.37 0.0003870615    1.171    0.146
       148 -10.5303    141.1604     26.2684   3.4124620414e+01   4.5750361431e+01    0.2973271    0.2577848  33.10  0.001080423    1.324    0.245
       149 -10.0233    178.5647     23.7337   2.8477734037e+01   3.7524763154e+01    0.4695504    0.2812764  66.17  0.002462499    1.514    0.340
       150  -7.9629     79.0270     22.5129   4.6998175560e+01   6.0451095780e+01    0.1942001    0.1133406  51.69 -1.983522e-05    1.463    0.317
       151  -8.1408    232.0013     20.2176   2.3100386400e+01   2.7189117090e+01    0.1493276    0.1186625 -62.41  0.001014257    1.066    0.062
       152  -7.5006    164.2761     20.6248   2.9369218651e+01   4.1014787868e+01    0.1293514   0.08078016 -65.02 0.0003015696    1.695    0.410
       153  -8.9104     32.5158    219.1498   1.0726543037e+02   2.3399465075e+01    0.2538472    0.1634936  -3.41  0.001170478    2.046    0.511
       154  -9.0847    159.5281     32.1457   3.2950366351e+01   4.0861623534e+01     0.254969    0.1295317 -27.73 0.0008239245    2.303    0.566
       155  -8.2079     89.9842     14.0830   4.0528957875e+01   5.8880458271e+01      0.15278    0.1345015  40.72 0.0009054706    1.092    0.084
       156  -7.9357    175.5295    213.5240   7.0939597325e+01   6.1089881187e+00     0.139034    0.1110479  -2.77 0.0008090478    1.045    0.043
       157  -8.7749    190.3139    211.4187   6.7430862135e+01   4.4788533473e+00    0.1955827    0.1578387 -52.88  0.000530562    1.754    0.430
       158  -9.3297    207.8611    206.7109   6.3098335678e+01   2.9793078667e+00    0.3709461    0.2636122  64.52  0.001614876    4.163    0.760
       159  -9.1635      5.3007    204.7740   1.1304285915e+02   2.8950118658e+01     0.196309    0.1917741 -59.53 0.0003668078    1.167    0.143
       160 -10.1196    193.2355    195.2560   6.3941632421e+01   6.8956294861e+00    0.8415735    0.4812962 -62.36  0.003041264    4.582    0.782
       161  -7.4770    168.2978    200.6419   7.0285979544e+01   9.5053657359e+00    0.1262314    0.1141353  71.95 0.0007034742    1.705    0.414
       162  -7.3906     53.6913    199.6635   9.9950683298e+01   2.5743438721e+01    0.1419868    0.1003175 -29.66 0.0007042947    1.679    0.404
       163  -8.6153    203.2391    196.3854   6.2149105143e+01   5.3164386147e+00    0.1711084    0.1164368  36.09 0.0008804441    1.672    0.402
       164  -8.3163    225.4001    191.2202   5.7103784089e+01   3.2597006756e+00    0.1712734    0.1044825 -42.26 0.0006909697    1.632    0.387
       165  -8.5287      8.9773    189.1120   1.1114491677e+02   3.2368842203e+01    0.1752009    0.1671339 -73.76 0.0002647798    1.099    0.090
       166  -8.9805    171.7595    186.4268   6.6883149324e+01   1.1700510887e+01    0.2429071    0.2245163  81.26 0.0005067925    1.603    0.376
       167  -9.6354    242.4492    182.3696   5.2667858489e+01   2.5298647824e+00    0.3755299    0.1922473 -18.80 0.0007285362    2.261    0.558
       168 -10.0532    211.1820    182.0740   5.7990321198e+01   6.6638542169e+00    0.2386786    0.1786285 -48.03  0.001379434    1.584    0.368
