#   1 NUMBER                 Running object number                                     
#   2 MAG_AUTO               Kron-like elliptical aperture magnitude                    [mag]
#   3 X_IMAGE                Object position along x                                    [pixel]
#   4 Y_IMAGE                Object position along y                                    [pixel]
#   5 X_WORLD                Barycenter position along world x axis                     [deg]
#   6 Y_WORLD                Barycenter position along world y axis                     [deg]
#   7 A_WORLD                Profile RMS along major axis (world units)                 [deg]
#   8 B_WORLD                Profile RMS along minor axis (world units)                 [deg]
#   9 THETA_WORLD            Position angle (CCW/world-x)                               [deg]
#  10 FWHM_WORLD             FWHM assuming a gaussian core                              [deg]
#  11 ELONGATION             A_IMAGE/B_IMAGE                                           
#  12 ELLIPTICITY            1 - B_IMAGE/A_IMAGE                                       
         1 -14.9149    161.9642     41.8876   8.1484435391e+01   3.9280068294e+01     1.427878     1.065282 -12.69  0.003987631    1.455    0.313
         2 -14.6250    175.6107      8.5702   6.8638657521e+01   3.9630750037e+01     1.253081      0.95323  49.30  0.004507112    1.255    0.203
         3 -11.5916    189.8677     14.6841   6.8590985679e+01   3.5404790858e+01    0.2287289    0.1951993   0.46 0.0007395299    1.318    0.241
         4 -13.1686    196.6611      6.3311   6.5378878761e+01   3.4511260564e+01     0.606743    0.3060908  89.64   0.00253277    2.435    0.589
         5 -10.2306    114.1524    245.4642   1.3506369343e+02   1.1572632029e+01    0.1576013   0.08805379  43.44 0.0007768894    1.433    0.302
         6 -20.0703     76.4957    174.9708   1.3436434171e+02   2.9589148983e+01      16.2571     6.411004 -65.54    0.0727676    2.548    0.608
         7  -7.5527    132.6475    235.2605   1.3074334662e+02   1.0347596570e+01    0.3730468    0.1975973  33.00  0.002027197    1.970    0.492
         8 -11.7026    144.9368    179.0864   1.2037375733e+02   1.7765058865e+01    0.2833411    0.1964396 -42.37 0.0009034033    1.604    0.376
         9 -13.7974    177.6785    171.9572   1.1230148350e+02   1.2904713788e+01      0.59975    0.5102314 -50.01  0.003454331    1.348    0.258
        10 -14.4242    138.7485    171.7418   1.2040737729e+02   2.0268928911e+01     1.070839    0.4770932  51.48  0.004343821    2.404    0.584
        11 -10.8905    126.4578    236.4478   1.3197638373e+02   1.1112289880e+01    0.2164784    0.1454208 -43.57  0.001381809    1.996    0.499
        12 -10.6421     11.9063    173.9304   1.4748091633e+02   3.6902161599e+01    0.1441043    0.1135243 -74.00            0    1.280    0.219
        13 -14.6779    142.2888    167.5820   1.1889676022e+02   2.0421360785e+01     1.154785    0.5967106  58.04  0.004699962    2.517    0.603
        14 -10.5572     25.6511    230.1363   1.4857407812e+02   2.5143378809e+01    0.1592876   0.07766712 -82.29  0.001059224    1.849    0.459
        15 -14.0307    123.3291    166.2795   1.2281525167e+02   2.4085541158e+01     1.231973    0.6815807  70.23  0.004459542    3.415    0.707
        16 -11.8586    203.1235    172.4844   1.0739496492e+02   7.9353542849e+00    0.2919059    0.2029162 -45.16  0.001140624    1.683    0.406
        17 -10.5322     25.3686    224.8318   1.4832330902e+02   2.6082374381e+01    0.1495245   0.09402874 -76.49 0.0006559506    1.522    0.343
        18 -11.7919    201.2107    165.1317   1.0626839488e+02   9.4781429900e+00    0.2955213    0.2391371 -71.28 0.0009842454    1.868    0.465
        19 -11.3055    139.1218    249.8502   1.3126070317e+02   7.2552190352e+00    0.2273852    0.1821541  27.69   0.00165947    1.360    0.265
        20 -10.8208    222.8095    162.3395   1.0163523832e+02   5.7540369243e+00    0.3081466    0.1704994 -47.50 0.0009941423    2.378    0.579
        21 -10.5424     22.5549    221.1968   1.4857440867e+02   2.6999147374e+01    0.1158057   0.07984465 -73.77 0.0003911396    1.499    0.333
        22 -11.7588    166.9958    173.5665   1.1479117397e+02   1.4667788675e+01    0.2470689    0.1989317 -64.40  0.000938333    1.549    0.354
        23 -12.2437    168.7442    202.2845   1.1945454435e+02   9.5191267963e+00    0.3166322    0.2340599  81.01  0.001222931    2.140    0.533
        24 -13.2010    164.1467    157.5155   1.1223504690e+02   1.8140864337e+01    0.4268632    0.2963937  43.24 0.0009314446    1.366    0.268
        25 -14.4857    143.4823    144.2016   1.1402068741e+02   2.4813023305e+01     1.088614    0.5092869 -55.25  0.004145415    2.604    0.616
        26 -13.1528    154.4094    196.0071   1.2125001174e+02   1.3072392267e+01     0.630206    0.3586415 -65.72  0.002834633    2.861    0.651
        27 -10.5991     22.9609    156.1284   1.4378765195e+02   3.9608534446e+01    0.1689443    0.1343538 -87.90 0.0004479121    1.027    0.026
        28 -12.7297    158.0428    202.8415   1.2161530132e+02   1.1298789784e+01    0.5196431    0.3562865  72.14   0.00269202    2.144    0.534
        29 -12.4254    163.8798    203.0760   1.2052037541e+02   1.0244514545e+01    0.3144162    0.2862608 -64.07 0.0004608068    1.324    0.245
        30 -12.8501    161.5141    197.7864   1.2013413252e+02   1.1521230723e+01    0.3716066    0.3230017  73.79   0.00165644    1.355    0.262
        31 -11.6190     21.9182    242.8021   1.4980515648e+02   2.3421887901e+01    0.1859104    0.1045715 -87.64  0.001405609    1.550    0.355
        32 -14.1570    135.9462    128.2690   1.1226671832e+02   2.9564589130e+01     2.586563    0.3601984 -48.46  0.005061039    8.824    0.887
        33 -12.5907    174.1225    149.0552   1.0833173923e+02   1.7696626092e+01    0.4020677    0.3229852 -41.64  0.001345518    1.303    0.233
        34 -10.0067    181.3094    147.6527   1.0652272778e+02   1.6473045073e+01    0.1432521    0.1179105 -84.03 0.0007044665    1.707    0.414
        35 -13.1468     11.6294    205.9100   1.4953083907e+02   3.0784678004e+01    0.3710561    0.2600679  29.94  0.002804624    1.928    0.481
        36 -11.6195    174.6671    141.0051   1.0643205228e+02   1.9071556524e+01    0.2053763    0.1901431 -26.89 0.0004662655    1.097    0.088
        37 -14.8066    134.4090    146.7413   1.1663159388e+02   2.6046599102e+01     1.733788    0.5595395 -55.77  0.005066449    4.515    0.779
        38 -11.1089      8.4715    137.8246   1.4528922818e+02   4.4684461445e+01    0.2440638    0.1839695  -1.58  0.001217747    2.048    0.512
        39  -9.9093     22.3783    205.4155   1.4766472974e+02   2.9859593936e+01    0.1001192   0.07903289  84.72 0.0004161472    1.139    0.122
        40 -12.8143    160.6025    127.8921   1.0645395639e+02   2.4547760908e+01    0.4256205    0.3403822 -49.35   0.00166913    1.317    0.241
        41 -11.4172    138.1051    198.6133   1.2489453696e+02   1.5442188569e+01    0.5432668    0.3159086  68.12   0.00245192    2.656    0.624
        42 -11.9696    140.9421    121.0508   1.0936524511e+02   3.0043399256e+01    0.4025756    0.2762508  81.12  0.001576566    2.453    0.592
        43 -10.4231    167.6271    112.3211   1.0102062955e+02   2.6013301496e+01    0.1574371    0.1233831 -84.35 0.0007031839    1.807    0.447
        44 -10.6114    138.6935    246.3176   1.3094309948e+02   7.8127079026e+00    0.1606669    0.1253998  73.56 0.0005037343    1.465    0.317
        45  -9.4337    154.3017    239.6418   1.2743559863e+02   6.3422331603e+00    0.1142194   0.08096223  66.28 0.0007037736    1.715    0.417
        46 -12.6994    155.4595    190.5623   1.2015284597e+02   1.3818669313e+01    0.3723269    0.2598917  72.86  0.001623827    2.051    0.512
        47 -10.8099    205.2220    110.1792   9.2813727252e+01   1.7882508091e+01    0.3023044    0.1974985  37.61  0.000937702    1.595    0.373
        48 -13.0857    154.1611    185.5183   1.1956823355e+02   1.4933563797e+01    0.4032769    0.2763058  50.73  0.001550068    1.400    0.286
        49 -10.9254     12.5089    100.7049   1.4006195880e+02   5.2507245172e+01    0.2373321    0.1232943  35.52  0.001375142    2.273    0.560
        50 -11.6751    168.0250    244.0176   1.2558757713e+02   3.6003861186e+00    0.1778713     0.139008  38.06 0.0003333099    1.011    0.011
        51 -10.1074     25.4867    185.0570   1.4569890297e+02   3.3450349639e+01    0.1469958   0.08845119 -78.52 0.0003058075    1.407    0.289
        52 -10.1650     25.4674    181.5700   1.4543576514e+02   3.4143934696e+01    0.1415845     0.130495 -35.34 6.440075e-05    1.626    0.385
        53 -10.7047     28.3261    179.3244   1.4470352582e+02   3.4315801056e+01    0.1616056    0.1513876  70.18 0.0009177585    1.332    0.249
        54 -14.4397    150.6313     56.5935   8.8604379998e+01   3.9917143557e+01     1.219214     1.079497  19.14 0.0009443184    1.135    0.119
        55 -10.0847    159.8943    247.1951   1.2739019626e+02   4.4464360681e+00    0.1450282    0.1170239  20.67  0.000532233    1.337    0.252
        56 -13.1172    165.7366     33.3652   7.8031664718e+01   3.9440218851e+01    0.4260165    0.3942089   2.07 0.0008127236    1.108    0.097
        57 -11.1047     13.5468     59.9725   1.3250728818e+02   6.1251491040e+01    0.1748768    0.1587821  66.29 0.0005319321    1.422    0.297
        58 -12.0034    133.8309    246.4700   1.3179687111e+02   8.5241445134e+00     0.154849    0.1465062  59.65 0.0003211083    1.230    0.187
        59 -12.1188    125.0622    243.6214   1.3300153837e+02   1.0247311180e+01     0.187634    0.1493806 -63.01 0.0006628571    1.544    0.352
