#   1 NUMBER                 Running object number                                     
#   2 MAG_AUTO               Kron-like elliptical aperture magnitude                    [mag]
#   3 X_IMAGE                Object position along x                                    [pixel]
#   4 Y_IMAGE                Object position along y                                    [pixel]
#   5 X_WORLD                Barycenter position along world x axis                     [deg]
#   6 Y_WORLD                Barycenter position along world y axis                     [deg]
#   7 A_WORLD                Profile RMS along major axis (world units)                 [deg]
#   8 B_WORLD                Profile RMS along minor axis (world units)                 [deg]
#   9 THETA_WORLD            Position angle (CCW/world-x)                               [deg]
#  10 FWHM_WORLD             FWHM assuming a gaussian core                              [deg]
#  11 ELONGATION             A_IMAGE/B_IMAGE                                           
#  12 ELLIPTICITY            1 - B_IMAGE/A_IMAGE                                       
         1 -14.6112     68.3610    144.3924   1.0979829475e+02   3.7297503898e+01     5.127388     2.454218  68.71  0.008294555    3.741    0.733
         2 -14.0202    194.1193     39.1453   5.1465064985e+01   3.1774925298e+01     1.548469     1.206251  28.51  0.003587636    1.584    0.369
         3 -14.1089    202.5567     32.9600   4.8565792604e+01   3.0444501363e+01     1.890689     1.254604  -7.43  0.008339431    2.083    0.520
         4 -12.6796    210.8803     24.3150   4.5215247105e+01   2.9435051879e+01    0.5456094    0.4861173  18.57  0.001103939    1.401    0.286
         5 -14.2044    217.3346     17.0746   4.2641195688e+01   2.8695958143e+01     1.501296     1.159022  39.38  0.003662881    1.616    0.381
         6 -12.6549      4.0904      6.5278   9.8021870800e+01   7.3336910974e+01    0.8782222    0.3439711 -39.95  0.004932974    1.869    0.465
         7  -9.7796     58.0773      6.5784   7.1450589868e+01   6.7007381186e+01     0.145431    0.1119839  71.77 0.0005413858    2.457    0.593
         8 -10.3848     43.5561      4.2905   7.6338206462e+01   6.9507296609e+01    0.2146108    0.1003136 -33.81 0.0002996109    2.027    0.507
         9  -9.2287     96.3829    201.1078   1.1119572850e+02   2.0451615398e+01    0.1719429    0.1461475  83.77 0.0003585945    1.106    0.096
        10 -15.4651     88.4635    245.5064   1.1734792115e+02   1.3363659489e+01      8.08898     2.538199  34.04   0.01658404    4.498    0.778
        11 -13.6006     46.8441    220.0773   1.2281883842e+02   2.3478354174e+01    0.9859223    0.6982697 -86.05  0.003572713    1.280    0.219
        12 -14.9872      9.2163    207.4823   1.2883123259e+02   2.9980071899e+01     1.210687     1.009057  88.58  0.004332514    1.302    0.232
        13 -15.6919     48.8231    199.3070   1.2078058864e+02   2.7405906484e+01     5.500865     2.068732  65.99   0.02195753    3.508    0.715
        14  -9.3009    141.2811    198.0441   1.0128773893e+02   1.3513165941e+01    0.1781282    0.1657049  70.27 0.0003721465    1.095    0.087
        15  -9.5675     82.1080    195.1217   1.1348384737e+02   2.3841950496e+01    0.1785662    0.1722993  82.13 0.0005441768    1.271    0.214
        16  -9.0055    151.7247    193.3586   9.8323900759e+01   1.2507328307e+01    0.1361055    0.1049092  79.28  0.000407606    1.655    0.396
        17 -10.9726     73.5744    188.1659   1.1449928018e+02   2.6547527993e+01    0.3346939    0.1932926  68.49  0.001302227    1.813    0.449
        18  -9.3456     98.8237    186.2438   1.0872179725e+02   2.3167072584e+01    0.2015079     0.157878  68.79 0.0003585673    1.189    0.159
        19 -12.2124     66.5241    180.2570   1.1512155474e+02   2.9247844538e+01    0.4258701    0.2909953 -39.78  0.001725721    2.166    0.538
        20 -12.1102     71.1366    174.8554   1.1342917069e+02   2.9823947952e+01    0.2960763    0.2444152 -54.55  0.000625296    1.400    0.286
        21  -9.6561     99.6078    180.7973   1.0777259444e+02   2.4215207727e+01    0.2140093    0.1790693  38.18 0.0006308701    1.291    0.226
        22  -9.6811    205.8081    180.5993   8.4917760376e+01   4.6134157723e+00      0.19108    0.1254598  50.29 0.0008002374    1.669    0.401
        23 -15.6444      4.3430    180.7019   1.2824102018e+02   3.5887063203e+01     6.647592    0.5998289 -72.27   0.02199493    5.533    0.819
        24 -13.5475     67.8155    161.2417   1.1241601947e+02   3.3395213543e+01    0.5594798    0.4584173 -36.15  0.001287972    1.624    0.384
        25  -9.7900    174.2744    249.0548   1.0219643488e+02  -3.2715729771e-01     0.231374    0.1390951  45.48 0.0008316613    1.414    0.293
        26  -9.6263    230.3057    166.6539   7.7474765249e+01   2.3273780049e+00    0.1284955    0.1100524 -67.27  0.000704216    1.695    0.410
        27 -13.3853     40.6866    208.5141   1.2310906718e+02   2.6483152386e+01    0.4689648    0.4014329 -55.87  0.001463326    1.637    0.389
        28 -11.0330    133.2702    141.3818   9.2594741255e+01   2.6919712833e+01    0.6678888    0.2245962 -54.06  0.002047887    3.402    0.706
        29 -11.9156     54.2992    147.5050   1.1385426078e+02   3.8362651756e+01    0.4914053    0.2846878 -70.65  0.002531494    1.525    0.344
        30 -10.4096    174.3555    148.1223   8.4544857785e+01   1.6890884858e+01    0.3945769     0.266274 -54.82  0.001411118    1.688    0.408
        31 -10.9026     39.1898    146.5232   1.1751241950e+02   4.0300132026e+01    0.2502736    0.2095019  75.71  0.000750621    1.126    0.112
        32 -10.2063    100.4818    143.5022   1.0132115219e+02   3.2563452663e+01    0.2978989     0.255806 -82.48 0.0008111655    1.138    0.121
        33 -10.0308    103.1920    140.1707   9.9968452488e+01   3.2878504585e+01    0.3817365    0.2841665 -11.15  0.001741102    2.128    0.530
        34 -12.4267     88.4033    142.3975   1.0424598623e+02   3.4818834177e+01    0.3715976    0.3038165  17.26  0.000529644    1.577    0.366
        35 -11.7644     28.4216    143.5204   1.1983275653e+02   4.2072036049e+01     0.358914     0.238859  37.13  0.002168529    1.700    0.412
        36 -11.8725     80.2484    164.9516   1.0996179979e+02   3.0774144891e+01    0.4129846    0.3143159 -88.67  0.000384948    1.258    0.205
        37 -10.3085     35.1862    139.8827   1.1770634487e+02   4.2275905643e+01     0.200494    0.1464329  78.08 0.0007337414    1.291    0.226
        38 -11.4853     25.5974    137.4309   1.1985343880e+02   4.3756241944e+01    0.2927155    0.1965307  48.34  0.001401182    1.583    0.368
        39 -10.3262    110.8201    131.6377   9.6188798460e+01   3.3508751152e+01    0.3296554    0.2622174   5.39 0.0008833248    1.733    0.423
        40 -10.0653    105.9392    130.7119   9.7282452377e+01   3.4619040009e+01    0.3473256    0.2852121 -83.59  0.001336092    1.304    0.233
        41 -10.9854    160.3252    128.9591   8.3219398205e+01   2.3891268135e+01    0.4283176    0.3079732 -12.11  0.001818565    1.949    0.487
        42 -12.8013     86.6125    158.3730   1.0742121389e+02   3.1335010615e+01     1.193919     0.752056 -66.90 0.0009264374    1.532    0.347
        43 -11.1099     98.1648    128.0212   9.8798677618e+01   3.6628524342e+01    0.3074535    0.2542028 -33.40 0.0006514675    1.383    0.277
        44 -13.8777     32.4818    247.3008   1.2699418724e+02   2.0171767274e+01    0.8727572    0.8062648  55.02  0.007476635    1.601    0.375
        45  -9.4558    125.9587    127.4810   9.1292341025e+01   3.1540320025e+01    0.2157038    0.1304164  66.29 0.0007546504    2.404    0.584
        46 -10.4192    117.0706    126.1501   9.3303731918e+01   3.3602618843e+01    0.2914304    0.2268181 -70.23  0.001407931    1.387    0.279
        47 -11.2666    135.8184    127.5566   8.8799813275e+01   2.9497287174e+01    0.6904104    0.1525725 -48.07  0.001757897    4.555    0.780
        48  -9.9313    107.5335    120.0353   9.4446220400e+01   3.6836341825e+01    0.2054693    0.1990339  64.62 0.0001703047    1.066    0.062
        49  -9.9580     47.0021    172.1600   1.1856892932e+02   3.3514142789e+01    0.2237361     0.158679 -81.42 0.0006821516    1.209    0.173
        50 -10.7186    137.5115    170.9236   9.7507855516e+01   1.9644454390e+01    0.2703073    0.2016166  27.50 0.0008989794    1.520    0.342
        51 -10.0836    168.2455    112.9175   7.7344552703e+01   2.5424621911e+01    0.3980541    0.2849683 -76.30   0.00133315    2.020    0.505
        52 -10.5517    134.6606    112.3354   8.5290483972e+01   3.3133138672e+01    0.3741141    0.1826257 -44.97  0.001403244    2.013    0.503
        53 -10.0672    205.3957    110.3794   6.9044881830e+01   1.7263509768e+01    0.3233641    0.2620139  28.03 0.0008388715    1.367    0.268
        54 -10.1538    238.0000    108.9809   6.3097082903e+01   1.0315150410e+01    0.2480754   0.07514426 -35.04 0.0008085989    2.985    0.665
        55  -9.6533    145.6393    168.7667   9.5260707462e+01   1.8533507699e+01    0.1994377     0.137371 -60.62 0.0006345386    1.636    0.389
        56 -10.6486    134.4200    103.8305   8.3078756870e+01   3.5048048874e+01    0.5766286    0.1809494 -43.39   0.00173144    3.139    0.681
        57 -10.5469    194.1941    167.3425   8.4527913386e+01   9.1441613310e+00    0.3046134     0.297615  77.99 0.0009556942    1.197    0.165
        58 -16.0140      9.2147    241.0205   1.3039824012e+02   2.3729587817e+01     1.922809     1.394208 -72.05  0.005708891    1.678    0.404
        59 -12.2151    242.9415    101.5571   6.0563790913e+01   1.0495509433e+01     0.365213     0.328741 -13.85  0.002123886    1.126    0.112
        60  -9.6696     91.9051    102.9899   9.4754146366e+01   4.3612912916e+01    0.2132315    0.1988725 -69.39  0.000270934    1.066    0.062
        61  -9.6760     65.9430    103.4830   1.0277813540e+02   4.7465513780e+01    0.2027398     0.140355  33.84  0.001045247    1.628    0.386
        62  -9.2107    121.5378     98.5178   8.5045833584e+01   3.8970941027e+01    0.1540775    0.1489823 -46.59 7.303115e-05    1.004    0.004
        63 -11.3261      2.2264     81.5994   1.1927044707e+02   5.8346781956e+01    0.4982975   0.07688331 -66.73  0.001778184    3.709    0.730
        64 -11.3607      1.7274     95.8046   1.2142093154e+02   5.5146094457e+01    0.4978659   0.08911312 -67.18  0.001885571    3.287    0.696
        65  -9.6354    158.4864     80.5048   7.0451200775e+01   3.4169864737e+01    0.1553439    0.1541375 -30.51 0.0002263488    1.006    0.006
        66  -9.1415    184.2422     77.5699   6.4215140776e+01   2.8294651509e+01    0.2273207     0.140494  44.32  0.000949973    1.725    0.420
        67 -11.5006    246.0012     92.1280   5.7864797550e+01   1.1366901577e+01    0.3803009    0.1808778  58.28  0.001617835    2.396    0.583
        68 -10.3370     13.5586     59.9054   1.1103306768e+02   6.2527360302e+01    0.2253463    0.1698505 -58.84 0.0004309233    1.096    0.088
        69 -10.4389     76.5386    234.1321   1.1850782951e+02   1.7011149967e+01    0.2806927    0.1655348 -76.42  0.001232681    1.783    0.439
        70 -11.9326    168.5949    232.9309   1.0104263250e+02   2.8780580727e+00    0.3836829    0.2262129  37.58  0.002154395    1.407    0.289
        71  -9.6791     71.8855    230.0926   1.1901344046e+02   1.8380905095e+01    0.2057358    0.1321169  51.32 0.0007950239    1.264    0.209
        72 -10.4897    162.7672    213.8942   9.9361483442e+01   6.8789667671e+00    0.4557105    0.2691778 -68.49  0.002049436    3.000    0.667
        73 -11.4621    193.2847    193.7356   8.9880638240e+01   4.7583890018e+00    0.7948102    0.4563757 -57.48  0.003472406    2.773    0.639
        74 -11.2307      2.3888     24.8091   1.0618176138e+02   7.0235317015e+01    0.3272998   0.06337602 -54.76  0.001349547    3.210    0.688
        75 -11.4274    144.5995     49.3203   6.3667098790e+01   4.2995140144e+01    0.5624099     0.363184 -79.11  0.001575429    2.595    0.615
        76 -10.7800    189.6541     15.3715   4.5257820561e+01   3.5827725565e+01    0.2494319    0.2111969 -52.89 0.0007317335    1.174    0.148
        77  -9.1606    163.7960    204.8600   9.7725198377e+01   8.2346502289e+00    0.1715761    0.1496712  68.72 0.0003973268    1.300    0.231
        78  -9.9318     73.1405    203.5750   1.1627925104e+02   2.3364655774e+01    0.2315609    0.1668829 -69.95  0.001010426    1.409    0.290
