#   1 NUMBER                 Running object number                                     
#   2 MAG_AUTO               Kron-like elliptical aperture magnitude                    [mag]
#   3 X_IMAGE                Object position along x                                    [pixel]
#   4 Y_IMAGE                Object position along y                                    [pixel]
#   5 X_WORLD                Barycenter position along world x axis                     [deg]
#   6 Y_WORLD                Barycenter position along world y axis                     [deg]
#   7 A_WORLD                Profile RMS along major axis (world units)                 [deg]
#   8 B_WORLD                Profile RMS along minor axis (world units)                 [deg]
#   9 THETA_WORLD            Position angle (CCW/world-x)                               [deg]
#  10 FWHM_WORLD             FWHM assuming a gaussian core                              [deg]
#  11 ELONGATION             A_IMAGE/B_IMAGE                                           
#  12 ELLIPTICITY            1 - B_IMAGE/A_IMAGE                                       
         1 -14.8288     68.3367    144.4270   8.7069671945e+01   3.7087142041e+01     4.971457     2.348681 -89.68   0.01871611    3.619    0.724
         2 -13.8533    237.4252     24.9952   2.1229152354e+01   2.2175855195e+01     2.429738     1.462362  29.78  0.008301564    2.580    0.612
         3 -13.9171    209.4619     46.4407   3.0674522117e+01   2.6470051653e+01     1.812218      1.46781  34.20  0.005163278    1.393    0.282
         4 -12.8532      4.0460     24.6436   8.2379791371e+01   6.8521486026e+01    0.7423632    0.2381936 -55.53  0.003856315    2.171    0.539
         5 -12.5991      7.2693     12.9675   7.7030112385e+01   7.0412506009e+01     0.435429    0.2498083 -41.68  0.002979339    1.249    0.200
         6  -9.4255     58.4599      2.4880   5.0134606435e+01   6.6554955199e+01    0.1216782   0.09702814  -3.95 0.0001301538    1.006    0.006
         7 -12.4701     54.0119    172.9931   9.3593270246e+01   3.2804396731e+01    0.5430973    0.4340166 -21.37  0.003367607    2.412    0.585
         8 -10.0197    140.2086    250.3832   8.6217132895e+01   6.4486704992e+00    0.1708917   0.07827088  51.94 0.0009547127    1.694    0.410
         9 -11.8396    116.5289    248.8098   8.9889843332e+01   1.0351577581e+01    0.3886915    0.2482099  40.21  0.001827951    1.580    0.367
        10 -12.2189    115.8513    242.5832   8.9408898538e+01   1.1377697761e+01     0.431022    0.2791515  77.74  0.001593768    1.621    0.383
        11 -10.0909     86.8775    250.1064   9.4680366616e+01   1.4480811998e+01    0.1650942    0.1040866  66.78 0.0003457415    1.226    0.184
        12 -12.4961     80.4125    212.7419   9.2571097443e+01   2.1589922492e+01    0.8202436    0.5820816  25.39  0.004030063    2.417    0.586
        13 -14.7361      9.2163    207.0193   1.0405739236e+02   3.1038083978e+01     1.715208    0.7477373 -79.18   0.01116384    1.856    0.461
        14 -16.1403     25.1723    241.3385   1.0336439907e+02   2.3530259521e+01     6.558568     2.055279  34.05   0.02496801    7.683    0.870
        15  -9.1647     99.4995    180.8504   8.5412322008e+01   2.4785299457e+01    0.1881117    0.1497235  61.02 0.0006469398    1.112    0.101
        16 -12.6688    236.9990    173.8721   5.7393759181e+01  -6.8107778637e-02    0.8925872    0.4137329  42.38  0.004082581    1.976    0.494
        17 -13.7633     57.1077    154.8357   9.0932513309e+01   3.6254070512e+01    0.5844672    0.3419789 -55.86  0.001445962    1.782    0.439
        18 -11.8037     70.6853    159.2207   8.8565278423e+01   3.3552476652e+01    0.3138021    0.2536345  85.19  0.000307794    1.027    0.026
        19 -12.8766     78.1515    153.4519   8.6155635816e+01   3.3754927592e+01    0.8581529    0.6088799 -59.36   0.00153203    1.409    0.290
        20 -11.6507     96.2742    243.1971   9.2638957339e+01   1.4207076969e+01    0.3298913    0.1746552  77.72  0.001921903    2.182    0.542
        21 -12.5209     37.6166    162.2431   9.5800232407e+01   3.6915819546e+01    0.8303204     0.346216  84.41  0.003632165    3.120    0.680
        22  -9.1206    174.9646    148.9835   6.4070316919e+01   1.6765295111e+01    0.2301197     0.179352  84.74 0.0006539591    1.658    0.397
        23  -9.6434    133.4859    142.9590   7.1840917886e+01   2.6589752103e+01    0.4326194    0.1365917 -57.05  0.001254998    4.360    0.771
        24 -10.9747     43.8000    140.3839   9.2103163917e+01   4.0937427435e+01    0.3685247    0.2012929  60.44  0.002024732    1.916    0.478
        25 -10.3680     94.4875    140.0275   8.0307694715e+01   3.4222382080e+01    0.2905068    0.2639457 -64.65 0.0009489578    1.166    0.142
        26  -9.6729     97.7727    136.9978   7.8994486428e+01   3.4359079760e+01    0.3019103      0.24356 -21.78  0.001618175    1.826    0.453
        27 -12.2968     82.1309    138.2793   8.2920060556e+01   3.6514711251e+01    0.2928221    0.2331279 -69.98 0.0005387377    1.136    0.120
        28 -11.0022    106.4803    130.1752   7.5611924081e+01   3.4394033088e+01    0.3454608    0.3304457  -2.90  0.001157919    1.299    0.230
        29 -12.4135    244.6341    126.0620   4.5693179174e+01   5.4857399597e+00    0.5977982    0.3098239 -35.72  0.002638051    1.840    0.457
        30  -9.2705     87.0092    206.0463   9.0739162720e+01   2.1858306100e+01    0.1774812    0.1356017  74.37 0.0003590925    1.056    0.053
        31 -12.1282     59.8546    167.9408   9.1879894291e+01   3.3126893785e+01    0.2898574    0.2662311  83.13 0.0006024716    1.283    0.220
        32  -8.6032     93.5079    125.5165   7.7876118147e+01   3.7614591268e+01    0.1382217    0.1244021 -78.67 -5.916009e-06    1.015    0.015
        33  -9.2676    114.5556    124.1326   7.2398961198e+01   3.4276506143e+01    0.2594711    0.1930404  -4.51  0.001169392    2.309    0.567
        34  -9.8312    104.9145    118.4071   7.3563965172e+01   3.7283976206e+01    0.2154571    0.1787369 -69.57  0.000348249    1.152    0.132
        35  -8.7121    168.6396    113.3480   5.7155880827e+01   2.5110367523e+01    0.1651389    0.1227859 -83.61 0.0007028317    1.852    0.460
        36 -10.1183    205.2592    110.3929   4.8883749452e+01   1.6981857697e+01    0.3595615    0.2705159  34.55  0.001074168    1.410    0.291
        37 -11.7881    247.9043    108.2118   4.0928816920e+01   7.5507736729e+00    0.4749237    0.2850643 -57.73  0.001997797    2.374    0.579
        38  -9.4578     66.6910    103.5269   8.0504566316e+01   4.6488868242e+01    0.2139526    0.1351156  29.69 0.0008626374    1.965    0.491
        39 -12.2348    231.2883    168.2900   5.7270612050e+01   1.8212365713e+00    0.5782163    0.4226492  19.15  0.003171386    1.379    0.275
        40 -10.1234     94.6286    109.2969   7.4220168556e+01   4.1071000844e+01     0.431665    0.2635361  71.09  0.001837266    2.464    0.594
        41 -10.3397     41.1506     87.7803   8.4602179499e+01   5.2901155181e+01    0.2298629    0.1825181 -88.78 0.0005308337    1.322    0.244
        42 -10.4330    163.0367     84.7791   5.0677356632e+01   3.2013372215e+01    0.2763825    0.2324732 -37.68 0.0007618741    1.188    0.158
        43  -9.1338    184.6796     77.0059   4.3863042477e+01   2.8026135346e+01    0.2250863    0.2037338 -30.15 0.0006572162    1.116    0.104
        44 -10.0304    110.9107    167.6286   8.1165929651e+01   2.5582382696e+01    0.2374261    0.1778528 -79.35 0.0006215454    1.341    0.254
        45 -10.7770    193.0308    194.8591   6.9288195776e+01   5.2715002114e+00    0.7941486    0.3942858 -62.61   0.00244451    6.447    0.845
        46 -13.4312     23.1047    198.0574   1.0128865958e+02   3.1316665752e+01    0.4441745    0.3268559 -87.94  0.001131052    1.209    0.173
        47 -13.0851    217.1610     41.6250   2.8197891272e+01   2.5147240622e+01    0.9320011    0.6897493 -79.56  0.003346984    1.503    0.335
        48 -12.8669    225.3257     34.8277   2.5245384652e+01   2.3966824158e+01    0.8448188     0.526137  51.29  0.001216013    1.684    0.406
        49 -10.7192      2.0881     60.3341   9.1530609297e+01   6.1609944235e+01    0.2139106    0.1070044 -59.26   0.00100412    1.407    0.289
        50 -10.7294      2.0238     50.9964   8.9748092797e+01   6.3518179154e+01    0.2603954   0.09019649 -58.82  0.001387947    1.906    0.475
        51  -9.2988     24.9691     50.6637   8.1471226508e+01   6.2158638671e+01    0.1503868    0.1281861 -45.88 0.0003941642    1.106    0.096
        52 -11.8829     12.7861     59.5664   8.7811777798e+01   6.1177388002e+01    0.3665574    0.2856424  73.23  0.001127616    1.635    0.388
        53 -11.0608    124.8501     32.5191   4.2646719089e+01   5.0002460814e+01     0.376417    0.2861935 -71.99 0.0007284167    1.884    0.469
        54 -10.0167     31.8317    222.9118   1.0138901319e+02   2.5892360594e+01    0.2431134    0.1581118 -72.57  0.001672971    1.633    0.388
        55 -16.0333     31.2753    185.1449   9.8969919828e+01   3.2944372745e+01     7.525255     2.634118  85.30   0.02779732    4.218    0.763
        56  -9.9469    198.1057     23.6106   2.5706985838e+01   3.2511782120e+01    0.2696062    0.2171643  -9.74  0.000673168    1.431    0.301
        57  -9.1610    189.5128     15.0859   2.4355977033e+01   3.5791331918e+01    0.2054067    0.1444152 -25.33 0.0005163018    1.519    0.342
