#   1 NUMBER                 Running object number                                     
#   2 MAG_AUTO               Kron-like elliptical aperture magnitude                    [mag]
#   3 X_IMAGE                Object position along x                                    [pixel]
#   4 Y_IMAGE                Object position along y                                    [pixel]
#   5 X_WORLD                Barycenter position along world x axis                     [deg]
#   6 Y_WORLD                Barycenter position along world y axis                     [deg]
#   7 A_WORLD                Profile RMS along major axis (world units)                 [deg]
#   8 B_WORLD                Profile RMS along minor axis (world units)                 [deg]
#   9 THETA_WORLD            Position angle (CCW/world-x)                               [deg]
#  10 FWHM_WORLD             FWHM assuming a gaussian core                              [deg]
#  11 ELONGATION             A_IMAGE/B_IMAGE                                           
#  12 ELLIPTICITY            1 - B_IMAGE/A_IMAGE                                       
         1 -14.2896     69.0712    147.0777   9.0270276539e+01   3.6706456729e+01     2.885844     1.654039 -82.14   0.01087605    2.564    0.610
         2 -13.0585    201.2178     46.9570   3.3754275193e+01   2.9868527616e+01    0.9202355    0.7951066 -81.11  0.003188191    1.034    0.033
         3 -13.3681    210.5771     38.8709   3.0943527575e+01   2.8956267757e+01    0.7689431    0.7210397  60.30  0.001342185    1.374    0.272
         4 -12.2155    239.0946     16.8214   2.4139483407e+01   2.5950159373e+01    0.7913538    0.4288391 -32.75  0.004713245    2.217    0.549
         5 -12.4694    232.9106     14.4383   2.4151698156e+01   2.7400548474e+01    0.6850722    0.4580759 -25.74  0.004378261    2.169    0.539
         6  -8.5672    196.5450     14.4983   2.7193486151e+01   3.4808508533e+01    0.1183711   0.09650009 -86.36 0.0001723496    1.036    0.035
         7 -10.5878    140.0297    249.5017   8.8509086525e+01   1.8014717802e+00    0.3124592    0.2179916  30.55  0.001019062    1.248    0.199
         8 -10.5711    126.1784    249.9082   9.1630451488e+01   3.7465624712e+00    0.3355127    0.1956421  37.09  0.001592555    1.492    0.330
         9 -10.2054    125.1142    245.1480   9.1229492019e+01   4.8190964154e+00    0.2866016    0.1652706 -63.73  0.001375934    2.229    0.551
        10  -9.0747     75.6984    245.4445   1.0234341805e+02   1.1787989779e+01     0.684945    0.1082496 -61.89  0.002048817    5.726    0.825
        11  -9.6016     71.9280    243.2305   1.0295133738e+02   1.2755570149e+01    0.4940486    0.2821006 -84.89  0.001148502    2.161    0.537
        12 -14.7761     51.5476    178.7345   1.0046924477e+02   3.0713929781e+01     16.32337     3.344008  47.14   0.03489422    8.471    0.882
        13 -10.1632     62.0143    247.0357   1.0548661845e+02   1.3241640974e+01    0.2860529    0.2083085 -87.51  0.001061948    1.425    0.298
        14 -10.0878     73.0477    202.9526   9.8019704956e+01   2.1814444576e+01    0.4914743    0.3013897 -42.08  0.001975627    1.940    0.485
        15  -9.2030     86.0499    204.0126   9.4855212576e+01   1.9699827871e+01    0.2135816     0.198363  72.55 0.0003218554    1.051    0.049
        16 -15.0313     36.6769    188.2250   1.0557063374e+02   2.9979030591e+01     10.65829     3.755297  57.94   0.02791747    4.606    0.783
        17 -10.8892    134.5015    199.0171   8.1804566296e+01   1.3122289870e+01    0.4182625    0.2144479 -43.14  0.001701151    2.036    0.509
        18  -9.4665     30.6616    199.4977   1.0822531232e+02   2.7810129447e+01     0.256162    0.1814074  25.15 0.0007466875    1.604    0.377
        19 -17.6001     10.0209    238.9664   1.1571195015e+02   2.0804160704e+01     6.609303     2.798517 -77.81   0.01523345    2.159    0.537
        20 -15.3314      3.1178    179.7166   1.1324905895e+02   3.5147578569e+01     10.72807          nan -70.28   0.02268386    9.554    0.895
        21 -10.7877    192.7066    194.6193   6.7613098622e+01   4.2854156084e+00    0.8629587    0.4358978 -61.81  0.002781078    4.498    0.778
        22  -8.5381    163.2287    191.9621   7.3602935455e+01   9.7585697512e+00    0.1903177    0.1197944 -46.65 0.0004639214    1.584    0.369
        23  -9.1348     54.8958    190.9029   1.0115029103e+02   2.7198476068e+01    0.2018577    0.1866897  81.43 0.0002919493    1.016    0.016
        24  -8.6615    185.2632    189.3416   6.8166403805e+01   6.5600973892e+00    0.1480911    0.1037807 -16.02 0.0004641007    1.595    0.373
        25  -9.8433    109.5025    183.9250   8.5504842049e+01   2.0925061125e+01    0.2376771     0.149669 -56.01  0.001037082    1.602    0.376
        26 -10.8655     99.1289    181.0092   8.7770375575e+01   2.3357869219e+01    0.3692058    0.3071882 -51.77 0.0006893258    1.199    0.166
        27 -11.5969    120.4628    180.7561   8.2028717739e+01   1.9828136196e+01    0.4381416    0.3613589  51.73  0.001177455    1.284    0.221
        28 -10.0681     72.6492    177.5444   9.4472824544e+01   2.8264693536e+01    0.3016862    0.2319776  81.49 0.0005985958    1.450    0.310
        29 -11.3890    245.9829    166.6444   5.2292038134e+01   1.3251998489e+00    0.3371169    0.2334021 -48.92  0.001944341    1.422    0.297
        30 -10.5489     85.7103    171.6874   8.9846506986e+01   2.7848914498e+01    0.5934759       0.4288 -15.64   0.00190827    1.858    0.462
        31 -13.2793     99.0864    169.7353   8.5739968962e+01   2.6210523302e+01     3.286387    0.8906179  48.66  0.006580702    8.087    0.876
        32 -11.1339     81.1033    155.3711   8.8203727000e+01   3.2778584817e+01    0.4698333    0.3411522 -32.50 0.0003476716    1.550    0.355
        33 -10.8925    105.1778    246.7554   9.5917739479e+01   7.4106434397e+00     0.434178    0.1717522 -56.91   0.00184026    2.781    0.640
        34  -9.6867    179.1427    169.0824   6.5387121422e+01   1.1849560540e+01    0.2392174    0.1947152 -17.40  0.001224402    1.267    0.211
        35 -10.1750    111.1519    168.3165   8.2129060987e+01   2.4515493910e+01    0.6647928     0.370664 -81.24  0.001997963    4.034    0.752
        36 -11.4891     68.1812    167.5358   9.4137188843e+01   3.1482489372e+01    0.5061489    0.3254203 -27.51  0.002172057    2.091    0.522
        37  -8.9504    100.2881    161.2974   8.3775802763e+01   2.8154580434e+01    0.2066925    0.1771958  80.12 0.0005949215    1.332    0.249
        38 -15.5079      8.4252    208.2332   1.1411708198e+02   2.7841408203e+01     1.690066     1.042568 -48.09  0.009376214    1.978    0.494
        39 -11.4980    134.0367    146.1263   7.1202152681e+01   2.5693278922e+01     1.477034    0.3992128 -55.74  0.003154595    6.502    0.846
        40 -11.7665     88.3233    149.2240   8.4836024360e+01   3.3230829032e+01    0.7491891    0.5172895 -11.11  0.003141809    2.044    0.511
        41  -9.6229    174.5276    149.1738   6.2100523707e+01   1.6993830751e+01     0.267704    0.2220697  38.48  0.000706729    1.271    0.213
        42  -9.8103     47.8707    145.6132   9.6591635952e+01   3.9796332105e+01    0.3657081    0.2318247 -43.22  0.001718477    1.583    0.368
        43  -9.0791    143.3164    145.0006   6.8545350479e+01   2.4120965914e+01    0.2540369    0.1296609 -67.23 0.0007037538    4.187    0.761
        44  -9.3920     36.0111    144.7398   1.0013590266e+02   4.1292566602e+01    0.2317899    0.2123678  32.52 0.0005756167    1.214    0.176
        45 -10.3812     32.2575    143.5333   1.0111662740e+02   4.1970940836e+01    0.4458992    0.3856257 -46.44  0.002597937    1.134    0.118
        46  -9.6321     89.7395    142.0164   8.2897424272e+01   3.4843782654e+01    0.2178671     0.195011 -50.12   0.00019561    1.077    0.071
        47  -8.5324    179.6698    141.3232   5.9227604611e+01   1.7660166730e+01    0.1515149    0.1197155 -82.78 0.0007049764    1.698    0.411
        48 -10.8954     26.1747    138.0025   1.0219845183e+02   4.3954089019e+01    0.3737358    0.3053376  60.91  0.001282603    1.365    0.267
        49 -10.6548    102.7639    135.7914   7.7586420005e+01   3.4150702250e+01    0.5984805    0.3633493 -23.80  0.002219979    2.435    0.589
        50 -10.0118    105.4345    130.7252   7.5602411342e+01   3.4906121490e+01    0.4130157    0.2995385 -53.14  0.001256324    1.372    0.271
        51 -11.6589     89.4762    135.4272   8.1531873852e+01   3.6557304566e+01    0.3238441    0.2959195 -44.82 0.0002756523    1.052    0.049
        52 -11.4303     72.8080    162.9280   9.2022009277e+01   3.2036504979e+01    0.3975021    0.3185381 -36.28  0.001391989    1.338    0.252
        53 -11.2464     46.0267    134.7909   9.5302379762e+01   4.2823460492e+01    0.4976167     0.357955  35.01  0.002539419    1.506    0.336
        54 -11.2703     44.0206    129.5366   9.5003841549e+01   4.4400498664e+01    0.4528615    0.3150981  58.77  0.002196067    1.783    0.439
        55 -10.4781    135.6948    130.0337   6.6967256835e+01   2.9123947040e+01    0.4680744    0.2374174 -46.62  0.001776627    1.931    0.482
        56  -9.8124    111.3054    127.9708   7.3210605656e+01   3.4465257581e+01    0.2975207    0.2328554  21.77 0.0007066511    1.401    0.286
        57 -10.2940     27.5094    128.0805   1.0023205262e+02   4.6388247938e+01    0.2506596    0.2095348  14.12 0.0006821604    1.357    0.263
        58  -8.8333    160.3182    127.6579   6.0328947581e+01   2.4529721756e+01    0.1583404    0.1228277 -83.26 0.0004705539    1.716    0.417
        59 -10.6186     47.9651    125.0691   9.2827067318e+01   4.5101755749e+01    0.3184532    0.2342479 -36.19  0.001161793    1.348    0.258
        60  -8.8772    142.5046    125.0518   6.3992745734e+01   2.8839973447e+01    0.2280422    0.1521469 -46.58 0.0003687716    1.470    0.320
        61  -9.2470    124.7990    124.7242   6.8583525146e+01   3.2568553018e+01    0.2186828     0.189161 -84.80 0.0008405393    1.374    0.272
        62 -10.3759     98.3290    123.6030   7.6023845725e+01   3.7936641494e+01    0.3257243    0.2586035   1.19 0.0005955937    1.489    0.328
        63  -9.6951     40.0556    123.7262   9.5252872369e+01   4.6307655585e+01    0.2027316    0.1852496 -35.55  0.001177261    1.075    0.070
        64 -10.3996    135.0000    121.0014   6.4910371421e+01   3.1315489963e+01    0.6156291    0.0882296 -46.18  0.001246436    6.869    0.854
        65 -10.1311    117.4851    122.6895   7.0121674132e+01   3.4507501204e+01    0.3935992    0.2431461  10.42   0.00137343    2.872    0.652
        66 -10.2309     32.5133    118.9813   9.6958977119e+01   4.8249363435e+01    0.2313726    0.1761056 -36.20 0.0004979243    1.265    0.210
        67 -10.5947    161.0714    118.0944   5.7835029711e+01   2.6404579388e+01     0.544209    0.3321776 -69.80  0.002020218    2.669    0.625
        68  -8.7605    107.8066    117.4885   7.1619379056e+01   3.7614516615e+01    0.2152288    0.1541405  38.66 0.0004626885    1.414    0.293
        69 -11.8425    230.5506    170.9138   5.5687750832e+01   2.8447683961e+00    0.3889198    0.3091776  -3.60  0.002298357    1.342    0.255
        70 -10.2611    134.3282    106.1425   6.1243372780e+01   3.4690834868e+01     0.632314    0.1628636 -46.14  0.001740528    3.953    0.747
        71 -10.0393     40.1289    113.6530   9.3245094556e+01   4.8832573212e+01    0.2453639    0.1860278 -72.54 0.0006854958    1.395    0.283
        72 -11.0612     53.1907    107.0114   8.7093500064e+01   4.8963187096e+01    0.4754018    0.3114758 -81.12  0.002073877    2.240    0.554
        73  -9.5842    156.2276    111.5348   5.7306511732e+01   2.8813645789e+01     0.292539    0.2285051 -78.07 0.0007141608    1.597    0.374
        74  -9.6657    205.4217    110.3610   4.7327087989e+01   1.8671678753e+01    0.2641462    0.2362346  38.94 0.0007837287    1.295    0.228
        75 -10.9811    114.9719    108.0371   6.7039079392e+01   3.8340966547e+01    0.5379451    0.2413464 -35.94   0.00183167    2.681    0.627
        76 -10.0864     32.9617    100.1725   9.3008120459e+01   5.2828987074e+01     0.312974    0.2226636  28.44  0.000991786    1.552    0.356
        77 -11.6997     33.5807    107.7414   9.4387425705e+01   5.0940878761e+01    0.6672612     0.341736 -52.77   0.00307583    1.646    0.393
        78  -8.2670    102.5710     95.5383   6.7278222262e+01   4.3526580462e+01    0.1469295    0.1468564  38.97 0.0001286818    1.088    0.081
        79  -9.1917    187.0000    166.4772   6.3148787146e+01   1.0977698083e+01    0.4433886   0.07899435 -45.24  0.001084952    5.244    0.809
        80  -9.1891    234.2309     85.9865   3.7940607351e+01   1.7307570152e+01    0.1737152   0.09177791 -43.19 0.0005465794    1.629    0.386
        81  -8.9150    159.5186     84.5423   4.9653710987e+01   3.3304687754e+01    0.1432852    0.1393397  83.74 0.0001319564    1.029    0.028
        82  -9.5301     32.9119     69.1665   8.5147808586e+01   5.9757920344e+01     0.188452    0.1796225 -16.96 0.0008897475    1.226    0.184
        83 -12.4989    189.2353     55.5930   3.7295229317e+01   3.1271862246e+01    0.6381316    0.4997458  57.26 0.0007519653    1.339    0.253
        84 -10.1709     57.6338    246.0000   1.0633665951e+02   1.4011236996e+01    0.2988124    0.2269246 -73.68 0.0007388855    1.375    0.273
        85 -10.7650     56.0011    241.8866   1.0632108231e+02   1.5088555306e+01    0.2852349    0.2496429 -89.60  0.000520239    1.150    0.131
        86  -9.1825     60.3343     21.0582   5.6010422819e+01   6.3698422820e+01    0.1669978     0.140867  10.69 0.0004492782    1.095    0.086
        87  -9.7097     51.1668    245.6109   1.0768732534e+02   1.4890314528e+01    0.2913798     0.150679 -83.53 0.0009074687    2.167    0.539
        88 -10.6119     48.1768    241.9668   1.0801915295e+02   1.6026890015e+01    0.2160483    0.1679648  50.76 0.0003809508    1.121    0.108
        89  -9.1852    189.4906     15.0023   2.7996591914e+01   3.6277747485e+01    0.1635212    0.1134607 -39.24  0.001023993    1.566    0.361
