#   1 NUMBER                 Running object number                                     
#   2 MAG_AUTO               Kron-like elliptical aperture magnitude                    [mag]
#   3 X_IMAGE                Object position along x                                    [pixel]
#   4 Y_IMAGE                Object position along y                                    [pixel]
#   5 X_WORLD                Barycenter position along world x axis                     [deg]
#   6 Y_WORLD                Barycenter position along world y axis                     [deg]
#   7 A_WORLD                Profile RMS along major axis (world units)                 [deg]
#   8 B_WORLD                Profile RMS along minor axis (world units)                 [deg]
#   9 THETA_WORLD            Position angle (CCW/world-x)                               [deg]
#  10 FWHM_WORLD             FWHM assuming a gaussian core                              [deg]
#  11 ELONGATION             A_IMAGE/B_IMAGE                                           
#  12 ELLIPTICITY            1 - B_IMAGE/A_IMAGE                                       
         1  -8.3397     12.3333     33.6790   1.3345325257e+02   6.8720443994e+01    0.3344068    0.2501967  88.24  0.001757772    1.531    0.347
         2  -8.7996     39.2785      7.2909   1.0711876118e+02   7.1360614803e+01    0.4369018    0.2869798  -7.55  0.002173894    1.798    0.444
         3 -10.1581     50.1231     34.6675   1.1474556064e+02   6.4721183813e+01     0.846837     0.411043 -58.80  0.003580604    2.462    0.594
         4 -10.7000     38.8206     29.6065   1.1816374029e+02   6.7213151014e+01     0.880801    0.4225905 -58.74  0.003973464    2.219    0.549
         5 -11.8397     43.0548     20.6328   1.1207296123e+02   6.8448250838e+01    0.9978471    0.9070156  58.48  0.004874341    1.437    0.304
         6 -12.0579    115.6951     16.5476   8.3472897908e+01   5.4464074085e+01     1.997355     1.117151  77.21  0.007936815    2.472    0.595
         7 -10.8788     71.3862      5.0321   9.1002832875e+01   6.6072040483e+01    0.6789666    0.4343076  34.99  0.002375165    1.556    0.357
         8 -12.3857     81.8867      7.9154   8.8870820795e+01   6.3485562774e+01     2.351238     1.368754   4.88  0.009909153    2.369    0.578
         9 -10.5169    128.0311     17.8752   8.1250148521e+01   5.1168378287e+01    0.6946805    0.4416206  52.62  0.002693876    1.490    0.329
        10 -14.1747    162.8135     10.2113   7.2303308182e+01   4.2774608712e+01     4.314381       2.1609  64.67   0.01824054    1.871    0.466
        11 -10.5158    224.9010     28.5454   7.0707853173e+01   2.5046703052e+01    0.5288893    0.4192008 -15.42  0.001691234    1.264    0.209
        12 -11.5938    108.5016      3.9888   7.9469517601e+01   5.7672359587e+01      1.70347    0.5580635  60.14  0.006088558    2.739    0.635
        13 -11.1012    248.9332     14.6241   6.5046145614e+01   2.1046887957e+01    0.6698378    0.3744785 -15.94  0.003414973    1.823    0.451
        14  -9.9657     93.9855     17.6010   8.9850857971e+01   5.9517183028e+01    0.4762844    0.4436255  88.34  0.002131449    1.280    0.219
        15 -11.1156    120.7048      3.7395   7.6731228038e+01   5.4592111901e+01    0.8329954    0.5611051  73.43  0.003097008    1.562    0.360
        16 -10.9421    131.8658      3.2943   7.4453860392e+01   5.1712925379e+01    0.8923642    0.4012148  64.87  0.002944867    2.066    0.516
        17 -10.0415     64.1050     16.7113   1.0022852409e+02   6.5785627712e+01    0.3533046    0.2570873 -47.17  0.001426974    1.530    0.346
        18  -8.0429     20.4494     14.4636   1.2199326105e+02   7.2218690163e+01    0.2921486    0.1961426 -48.25  0.001769282    1.242    0.195
        19  -9.5336     55.5223      7.7613   9.9163325951e+01   6.8709066691e+01     0.354709    0.2363565  61.98  0.001709947    2.288    0.563
        20  -9.8375    229.7680      5.9782   6.4222220039e+01   2.6153320953e+01    0.2994925    0.2301056   4.66  0.001712936    1.524    0.344
        21  -8.3327     48.9941      6.3319   1.0145721215e+02   7.0031119541e+01    0.3199023    0.1788492  21.16  0.001480203    2.340    0.573
        22  -8.6916     51.4720      1.9944   9.7639401679e+01   7.0256906017e+01      0.32844    0.2591853  12.34  0.001336247    1.218    0.179
        23  -9.6044    223.2400      5.9917   6.4717021227e+01   2.7686724828e+01    0.2616851    0.1846405 -33.29  0.001376948    1.293    0.226
        24  -9.2951    222.4866      2.4744   6.3818761473e+01   2.8182987722e+01    0.2495994    0.1648786 -23.28  0.001334439    1.460    0.315
        25 -10.3556    214.0394      4.2863   6.4973088822e+01   3.0061061570e+01    0.3333249    0.3149202  44.94  0.002088497    1.163    0.140
        26 -10.1396     61.2462      2.3543   9.3470695712e+01   6.8426624282e+01    0.5865359    0.3263681  43.28  0.002926673    1.780    0.438
        27  -8.4398     26.1468      2.2761   1.1202563535e+02   7.3924410018e+01    0.2265977    0.1771658 -23.68  0.001472233    1.079    0.074
        28  -7.9357     39.9767      1.4347   1.0321234709e+02   7.2204197247e+01    0.1812955    0.1199202  36.65 0.0008890788    1.611    0.379
        29  -8.3494     16.6899      1.4446   1.1793027588e+02   7.5078734184e+01    0.1817146    0.1112742  29.72 0.0006898426    1.866    0.464
        30  -8.0633    203.9358     76.2837   8.6571495022e+01   2.3967696892e+01    0.1958368    0.1828774  17.44 0.0005057638    1.061    0.058
        31  -9.0530      2.4305     89.4736   1.4651440025e+02   5.6317787358e+01    0.2932753     0.199563  78.30  0.001869717    1.317    0.241
        32  -9.5337     75.2433     68.3421   1.1618453709e+02   5.3752636981e+01    0.4971537    0.4006835 -22.12  0.002664612    1.421    0.296
        33  -8.6428     34.0069     68.3248   1.3182292294e+02   5.9050726174e+01     0.314387    0.1965376  -4.30  0.001575907    2.333    0.571
        34  -7.9408     67.2995     64.3559   1.1787936220e+02   5.5881523794e+01    0.1451846    0.1031787 -25.54 0.0007036564    1.704    0.413
        35  -9.4047     47.9662     62.0967   1.2472907451e+02   5.9012870646e+01    0.4549873      0.30538  17.48  0.002392908    1.825    0.452
        36  -9.9213     13.2453     77.6161   1.4141121108e+02   5.8472127895e+01    0.3718544    0.2542312  -2.55    0.0016181    1.940    0.485
        37  -9.3300     66.5060     54.2870   1.1499521026e+02   5.8201891589e+01    0.4731818    0.1688054 -57.11  0.001570554    3.431    0.709
        38  -8.5005    197.8033     54.4305   8.1399733179e+01   2.8447491702e+01    0.2000405    0.1303555  47.02 0.0004357085    1.581    0.367
        39  -9.6070     88.6087     50.7461   1.0564900232e+02   5.5048941765e+01    0.5738736    0.3817754  67.56  0.002512068    2.236    0.553
        40  -9.7192     82.0474     46.8849   1.0651119884e+02   5.7056150088e+01    0.4779414    0.4585914   6.82  0.002548195    1.058    0.055
        41  -9.8759     81.3799     40.8988   1.0441928202e+02   5.8331152959e+01    0.6234323    0.3799838  32.82  0.002869181    1.838    0.456
        42  -8.6382    111.6938     45.1657   9.6293788472e+01   5.1175398782e+01    0.4281756    0.1762007 -33.93  0.001541621    2.465    0.594
        43  -9.2542     91.4084     44.0415   1.0215793551e+02   5.5769018049e+01    0.4734721    0.2520568 -61.46  0.001597371    3.618    0.724
        44  -8.1012      7.7627     45.5916   1.3852118170e+02   6.6271444071e+01    0.1580157    0.1224054   9.53  0.001036414    1.567    0.362
        45 -10.2998      3.4413     39.4715   1.3941991822e+02   6.7881479421e+01    0.5446818    0.3733394 -72.24  0.002386516    1.219    0.180
        46 -10.5106    183.5179    245.7983   1.2263943236e+02   4.6146775263e+00    0.2555011    0.1978515  39.46  0.001550984    1.299    0.230
        47  -8.6284     97.6766     43.3400   9.9828501743e+01   5.4592270318e+01    0.2292011    0.1811863 -77.14 0.0008216702    1.741    0.426
        48 -10.7025    161.2205    241.6317   1.2590772551e+02   8.0945326390e+00    0.3920374    0.2524329  67.01  0.002324846    2.937    0.660
        49 -10.4182    173.6656    241.9434   1.2383202807e+02   6.3592363262e+00    0.2185359    0.1672826  52.54  0.001657996    1.585    0.369
        50  -9.7003    199.2086    240.2009   1.1938908917e+02   3.0754803511e+00    0.2377659    0.1138567  22.59  0.001367551    2.109    0.526
        51  -9.5545     50.3359     27.9187   1.1181691591e+02   6.6033337643e+01    0.3331325    0.3197565 -31.31  0.001337563    1.142    0.125
        52 -10.9833    205.8618    226.7188   1.1652776536e+02   3.5352585643e+00    0.4459703    0.1842447  26.37  0.002272746    2.448    0.591
        53  -9.8983    108.4847     39.2604   9.4923640778e+01   5.2907145520e+01    0.4442789    0.3669643  23.25  0.002299094    1.280    0.219
        54  -8.5363     27.2059     35.3758   1.2618885038e+02   6.7205352649e+01    0.2353864    0.1942113 -57.49 0.0009843574    1.101    0.092
        55  -9.0612    239.6118    203.7895   1.0767582914e+02   1.1328743228e+00    0.1382084   0.09563476 -29.07 0.0008282498    1.722    0.419
        56  -7.6314     37.6891    185.3208   1.4446881333e+02   3.2824044578e+01    0.1199889   0.06234167  60.94 0.0007036633    1.648    0.393
        57  -8.4255     17.6710    164.3167   1.4756114441e+02   3.8817746172e+01    0.1218552   0.06099461  60.69 0.0007046029    1.680    0.405
        58  -9.1813     40.7265    141.4901   1.4027280777e+02   4.1447054192e+01    0.2574644    0.1748553  59.71  0.001573116    1.332    0.249
        59 -11.7357     10.5222    139.3012   1.4781284458e+02   4.4604832745e+01    0.5830759    0.4000326  88.44  0.003942895    1.209    0.173
        60 -10.9496     11.1587    127.9770   1.4691623198e+02   4.7025288502e+01    0.3739408    0.1964015 -67.08  0.002111614    1.739    0.425
        61 -12.6451    240.4883    133.2589   9.4449049867e+01   8.8696938611e+00     1.407357    0.9133989  43.81  0.004524155    1.597    0.374
        62 -10.5319     86.3271     31.0148   9.8504612001e+01   5.9116382491e+01    0.5550623    0.3745144  51.94  0.002724867    1.595    0.373
        63  -9.0240     90.3747     27.7551   9.5687846571e+01   5.8801417220e+01    0.4167078    0.2259405 -38.27  0.001835508    1.808    0.447
        64  -9.0084    124.9676     28.8854   8.6418738707e+01   5.0523559448e+01     0.359212    0.3265065 -32.40  0.001950202    1.120    0.107
        65  -8.0167      7.4208     32.6613   1.3582091847e+02   6.9229943209e+01    0.2508554    0.1608788 -77.69  0.001483648    1.498    0.332
        66  -8.8323     69.6269     36.6120   1.0715094215e+02   6.1285705202e+01    0.4162058    0.2812721 -42.13  0.002127616    1.389    0.280
        67  -9.8559     66.2635     30.0964   1.0572500316e+02   6.3090214838e+01    0.5684199    0.2984415 -41.03  0.002603379    1.779    0.438
        68  -9.5681     17.6943    126.9471   1.4507766258e+02   4.6760573998e+01    0.1735739    0.1301537  87.27  0.001155011    1.110    0.099
        69  -8.5004     22.6796    125.5553   1.4359515739e+02   4.6668510458e+01    0.1941889    0.1195119  19.86  0.001056704    2.004    0.501
        70  -9.8935      2.9657    140.1570   1.4973968708e+02   4.4962475124e+01    0.2594802    0.1796519 -84.83  0.001800743    1.237    0.192
        71 -10.5564     13.2936    119.5777   1.4571008592e+02   4.8744036458e+01     0.406107    0.1723928  32.95  0.002129189    2.319    0.569
        72 -10.6543     18.0592    105.6197   1.4305012704e+02   5.1584073413e+01    0.6977105    0.3409964  78.40  0.003435569    2.171    0.539
        73  -9.5214     29.8296    102.1267   1.3895372222e+02   5.1443899339e+01    0.3311083    0.2417243 -33.67  0.001892662    1.725    0.420
        74  -7.6156     13.4598     15.4527   1.2679568323e+02   7.2588916032e+01    0.1209901   0.09887864 -44.79 0.0001246776    1.022    0.022
        75  -8.9840     96.6311     31.9732   9.5506155935e+01   5.6764177584e+01    0.4512624    0.2319075 -28.76  0.001548413    2.031    0.508
        76  -8.2957     98.4424     26.8063   9.2698160084e+01   5.7173719463e+01    0.3522662    0.1858767  42.33  0.001082464    1.930    0.482
        77  -9.7725    104.7351     25.4168   9.0231749399e+01   5.5933181218e+01    0.5001913    0.3668668  43.81  0.002512518    1.338    0.252
        78  -9.2934     46.9108     98.5969   1.3291447319e+02   5.0581912078e+01    0.2691812    0.1462922 -46.82  0.001297363    1.980    0.495
        79 -11.3855     43.4233     82.7573   1.3122587855e+02   5.4699608569e+01    0.9745035    0.7209026 -28.58  0.004729122    1.653    0.395
        80  -9.6732     34.8306     79.8307   1.3378706065e+02   5.6256731312e+01    0.4091275    0.2602313 -88.63  0.002059561    1.688    0.408
        81  -9.5220     24.4571     64.1146   1.3481407421e+02   6.0866208405e+01    0.5365857    0.2199889 -60.32   0.00250865    1.941    0.485
        82  -9.7937     17.3991     64.9347   1.3785934093e+02   6.1190086816e+01    0.6332412    0.2931591  77.48  0.002568334    3.370    0.703
        83 -10.7716      3.8160     75.9182   1.4468624030e+02   5.9402392815e+01    0.9491388     0.459284  63.38  0.004813335    2.318    0.569
        84 -10.0343     11.0775     70.5305   1.4125929565e+02   6.0272027315e+01    0.5822206    0.2906693 -66.44  0.002905004    1.598    0.374
        85 -10.6564     16.1700     73.8825   1.3978618159e+02   5.9163407967e+01    0.4218216    0.3926795  62.80  0.002492407    1.197    0.164
        86  -9.1892    227.5631     78.8283   8.3691400118e+01   1.8378677965e+01    0.3579059    0.2467083   4.69  0.001700826    1.681    0.405
        87  -8.4863    136.4729     77.4690   1.0057392512e+02   3.9637196284e+01    0.1496824    0.1472519  10.19 0.0002501968    1.003    0.003
