#   1 NUMBER                 Running object number                                     
#   2 MAG_AUTO               Kron-like elliptical aperture magnitude                    [mag]
#   3 X_IMAGE                Object position along x                                    [pixel]
#   4 Y_IMAGE                Object position along y                                    [pixel]
#   5 X_WORLD                Barycenter position along world x axis                     [deg]
#   6 Y_WORLD                Barycenter position along world y axis                     [deg]
#   7 A_WORLD                Profile RMS along major axis (world units)                 [deg]
#   8 B_WORLD                Profile RMS along minor axis (world units)                 [deg]
#   9 THETA_WORLD            Position angle (CCW/world-x)                               [deg]
#  10 FWHM_WORLD             FWHM assuming a gaussian core                              [deg]
#  11 ELONGATION             A_IMAGE/B_IMAGE                                           
#  12 ELLIPTICITY            1 - B_IMAGE/A_IMAGE                                       
         1 -13.6794    179.8053     76.9443   5.4583710493e+01   2.9812047843e+01     5.909029     0.796266 -41.23   0.01369216    6.239    0.840
         2 -13.3807    220.7344     67.5393   4.5800364847e+01   2.2183263651e+01     1.200464     1.088933  20.42   0.00600742    1.369    0.269
         3 -14.7257    240.5190     85.0970   4.7205660405e+01   1.5454998949e+01     9.148451     1.687089 -38.12   0.02777298    4.284    0.767
         4 -11.8623    250.0259     22.5561   3.3011661179e+01   2.2174532780e+01      1.28683    0.2715856 -32.05  0.004502604    4.822    0.793
         5 -14.8645    236.8262     43.3976   3.8491823246e+01   2.2225406909e+01     8.842393     1.168057  60.63   0.02735394    5.833    0.829
         6 -11.2279      5.4303     64.9358   1.0590799006e+02   6.1926812968e+01    0.5148285    0.3498165  89.92   0.00229063    2.061    0.515
         7 -10.2790    231.6413     17.2000   3.3370369207e+01   2.6477147186e+01    0.3462835    0.1881542 -27.27  0.001294332    2.113    0.527
         8 -10.7671    233.4523      6.4648   3.1004101409e+01   2.7261579066e+01    0.5200593    0.2212225 -29.02  0.002615015    2.576    0.612
         9 -10.2520    189.1535     13.6308   3.6564835644e+01   3.6169884746e+01    0.3017708    0.1880785 -44.10 0.0004619047    1.582    0.368
        10  -9.7186    227.9436     13.3408   3.2856423740e+01   2.7669970911e+01    0.2037789    0.1496013 -42.95 0.0006422534    1.309    0.236
        11  -9.4935    214.5347     13.5858   3.4050478880e+01   3.0498872853e+01    0.2493672    0.1717489  42.96 0.0009795192    1.915    0.478
        12 -10.1533    135.2899     13.1462   4.3834802484e+01   4.8873592184e+01     0.255166    0.1812073  31.30  0.001423814    1.523    0.343
        13  -9.1633    192.3233      8.9292   3.5073291485e+01   3.5917437317e+01    0.2795632    0.1635345 -70.45   0.00147722    1.813    0.448
        14  -9.5374    143.5789     11.0146   4.1798119597e+01   4.7119165911e+01    0.3336936    0.1357642 -18.27  0.001379318    3.130    0.681
        15  -9.7468    224.0166      7.5641   3.1943032185e+01   2.9104100964e+01    0.2346098    0.1532957 -38.25 0.0007141356    1.505    0.335
        16  -8.4511    242.3143      6.5515   3.0399702901e+01   2.5467839702e+01    0.1101595   0.08778181 -61.04 7.285867e-05    1.076    0.071
        17  -9.6913    119.8778      4.5427   4.3727970270e+01   5.3198616797e+01    0.3117895    0.2025543 -25.09 0.0009211769    1.728    0.421
        18  -9.0301    186.5357      4.8996   3.4668270757e+01   3.7623119243e+01    0.2816393    0.1914214  60.47  0.001679281    1.407    0.289
        19 -10.2342    249.7533      3.1454   2.9254678950e+01   2.4367491006e+01    0.2013334    0.1881972  27.97  0.001557654    1.602    0.376
        20  -8.3439    105.6775      1.6644   4.5487326201e+01   5.6628500834e+01    0.1373225   0.07811601  34.80 0.0007050564    1.710    0.415
        21 -13.3140     32.1838    160.4408   1.1270169287e+02   3.7166551670e+01     1.629887     1.083642  -4.33  0.001515637    2.276    0.561
        22 -13.1363     43.0877    155.1636   1.0916650943e+02   3.7359565164e+01     1.547641     1.062268 -11.20   0.00274807    2.140    0.533
        23 -11.8962    247.0279     55.4082   4.0024111032e+01   1.8568808185e+01     1.090056     0.297007 -46.55  0.001883851    3.168    0.684
        24  -8.3951    203.6688    243.9608   8.5910222138e+01  -4.7914842225e+00    0.1644931    0.1322321  -8.92 0.0004606972    1.156    0.135
        25  -8.9774    202.5250    226.4840   8.3254932608e+01  -2.0329250510e+00    0.2280293    0.2053366 -63.06  0.000680232    1.726    0.421
        26 -10.3083    222.4621    220.1935   7.8354340244e+01  -3.9460792889e+00    0.2153149    0.1808974   9.55 0.0002701292    1.145    0.127
        27  -9.4614    173.9481    149.5146   7.4050532703e+01   1.7054213594e+01    0.2309178    0.1486544  38.59  0.001032467    1.600    0.375
        28 -11.2855     68.2586    144.4247   1.0048891584e+02   3.7016853196e+01    0.7647395    0.4633347  59.33  0.003373956    2.111    0.526
        29  -8.9524    222.8363    145.1415   6.3320626050e+01   8.5742694329e+00    0.1977717    0.1782507 -44.14 0.0003580841    1.197    0.165
        30  -9.4476    192.0583    144.2050   6.8980126632e+01   1.4555817973e+01    0.2593589    0.1994608 -32.99 0.0005180413    1.216    0.178
        31 -10.4442    176.6539    140.0097   7.1262584684e+01   1.8468276704e+01    0.3344563     0.246432 -67.53  0.001506406    1.860    0.462
        32  -8.8913    158.2340    143.0114   7.6145163324e+01   2.1561665269e+01    0.2745273    0.2267742  36.69  0.001125082    1.236    0.191
        33 -11.0743    187.6615    137.9531   6.8440127778e+01   1.6661124125e+01    0.4344771    0.3775866 -37.51 0.0005100773    1.098    0.090
        34 -10.1885    156.3377    136.8348   7.5137508348e+01   2.3278028683e+01    0.4448466    0.2807152  54.22  0.001874082    1.873    0.466
        35 -10.5115    192.5483    134.4628   6.6624207302e+01   1.6364417969e+01    0.2991294    0.2637079 -62.51 0.0007120842    1.304    0.233
        36  -9.0956    174.0101    133.0165   7.0181289861e+01   2.0442616882e+01    0.1921708    0.1686355 -34.10 0.0009735381    1.083    0.076
        37  -9.1663    190.8561    220.6213   8.4562638958e+01   6.5316907966e-01    0.2105309    0.1805599 -29.11 0.0004714641    1.256    0.204
        38  -8.3444     93.0735    129.9409   9.0362363811e+01   3.6886569742e+01    0.2536683    0.1776495 -21.67  0.001121439    1.819    0.450
        39 -10.2723    161.1402    128.3301   7.1945548932e+01   2.4099500812e+01    0.4040023    0.2760659 -54.61  0.001786258    1.617    0.382
        40  -9.0179    208.7756    126.8261   6.1719969389e+01   1.4572263767e+01     0.196881    0.1705736 -65.45  0.001066016    1.349    0.258
        41 -11.7020    187.2877     83.5756   5.4974392350e+01   2.6978183447e+01    0.8376411    0.4941052 -58.83 0.0003850167    2.128    0.530
        42  -9.9382    214.4129    121.1442   5.9392482082e+01   1.4496840986e+01    0.2660417     0.191055 -38.22 0.0005952708    1.252    0.201
        43  -9.3522    216.4983    124.4964   5.9802408378e+01   1.3481865941e+01    0.1439432    0.1284373 -31.76 -0.0001693509    1.007    0.007
        44 -11.7514    227.7756    117.7275   5.6370732066e+01   1.2507534936e+01    0.6599266    0.3608497 -43.15  0.003073752    1.640    0.390
        45  -8.9008    135.2363    121.0183   7.6471638645e+01   3.1080350037e+01    0.3780816    0.1286174 -47.69  0.001168469    2.958    0.662
        46  -9.7560    162.7509    120.1261   6.9524266607e+01   2.5473378482e+01    0.3396303     0.226196 -75.52     0.001097    2.679    0.627
        47  -8.1143    209.4874    118.5272   5.9649898744e+01   1.5955802575e+01    0.1454083    0.1317368 -30.29 0.0001262688    1.015    0.015
        48  -9.5623    211.6947    110.9788   5.7481441211e+01   1.6872585052e+01    0.2302011    0.1986324 -76.81  0.000422585    1.365    0.267
        49 -11.5617    204.8332    110.4645   5.8560479201e+01   1.8378933502e+01    0.6329685    0.3984923  32.28  0.002181872    2.005    0.501
        50 -10.2373    168.0634    113.7758   6.6710446349e+01   2.5622699525e+01    0.5204473    0.2517954 -41.31  0.002002016    1.982    0.495
        51  -9.5330    135.2996    111.0127   7.3844570951e+01   3.3253643232e+01    0.6742604    0.2218195 -44.48  0.001995423    2.965    0.663
        52  -8.8470    134.6120    104.2229   7.2185404431e+01   3.4844975103e+01    0.4371547    0.1530532 -37.39  0.001329278    3.166    0.684
        53  -9.3346    181.4742    111.5926   6.3304832001e+01   2.3139872264e+01    0.3000471    0.2588391 -67.34 0.0007380539    1.314    0.239
        54 -11.5127    225.0963    106.0604   5.4136293800e+01   1.5041391112e+01    0.5914537     0.393643  49.01  0.001887308    1.689    0.408
        55 -11.8429    228.2026     98.9263   5.2026398223e+01   1.5633519006e+01    0.6471565    0.4701991 -52.64   0.00111133    1.342    0.255
        56 -10.3551      6.3057    107.4869   1.1327928071e+02   5.2094022886e+01    0.2603449    0.1722596  80.93  0.001460029    1.731    0.422
        57  -9.2885    127.1394    104.4549   7.4225376313e+01   3.6368316795e+01    0.4439858    0.2645981 -63.07  0.001655735    2.493    0.599
        58  -9.5174    150.4434    101.9093   6.7610704482e+01   3.1882351263e+01    0.2993628    0.2707677 -12.37 0.0007154898    1.139    0.122
        59  -7.6075     78.5664    107.4743   8.9473540634e+01   4.4597351129e+01     0.149253    0.1347215 -35.88 8.860383e-05    1.024    0.024
        60  -9.1238    136.2057     98.1117   7.0076701350e+01   3.5770532949e+01    0.2710891    0.2354344 -83.93 0.0005680001    1.416    0.294
        61 -10.5811    161.8146     96.2633   6.3463251977e+01   3.0452848031e+01    0.5991609    0.3504296  34.67  0.002437753    2.044    0.511
        62  -8.8597    197.4020     97.2085   5.6637222657e+01   2.2347716954e+01    0.2138531    0.1259364 -47.31 0.0005358192    1.663    0.399
        63 -10.1947    169.5094     92.5743   6.0813946686e+01   2.9408238062e+01    0.4818017    0.2484035 -41.93  0.001190124    1.875    0.467
        64 -10.0101    144.4908     92.0266   6.6291758840e+01   3.5163270237e+01    0.3197045    0.2898515 -56.42  0.001270114    1.170    0.145
        65 -11.4770    160.5691     86.8261   6.1138959794e+01   3.2506611547e+01    0.3631192    0.2771357 -27.62  0.001765922    1.363    0.266
        66 -10.3042     96.0053     88.5274   7.8717356453e+01   4.5909636149e+01     0.263416    0.2047472 -40.26 0.0001805755    1.231    0.188
        67 -13.2782    234.3429     61.6116   4.2756286627e+01   2.0223736309e+01      1.25948    0.8393406 -67.46  0.006559111    1.597    0.374
        68  -9.1548    192.0434    216.0506   8.3529322562e+01   1.2273370515e+00    0.1961018    0.1675326   4.27 0.0003081716    1.013    0.012
        69  -8.9525     19.5588     85.4901   1.0487020044e+02   5.6449580930e+01    0.2350326    0.1463355 -69.54 0.0007727525    1.568    0.362
        70 -10.3682     17.9304     77.8246   1.0382458179e+02   5.8312870012e+01     0.465205    0.2173688 -70.53  0.001548477    2.394    0.582
        71  -9.4627    192.3242    153.2639   7.0967776281e+01   1.2731216643e+01    0.3675192    0.1713313 -47.58  0.001420881    2.259    0.557
        72 -10.3355      8.4540     77.2164   1.0735018687e+02   5.9045437719e+01    0.2256951    0.1830719 -49.23 0.0003685871    1.035    0.033
        73  -8.6979    160.5093     75.0844   5.7845198157e+01   3.4604410424e+01    0.2686565    0.2527567  34.69 0.0006598966    1.086    0.079
        74  -9.3353    157.0294     73.0034   5.7978990848e+01   3.5769865105e+01    0.2179129    0.2106125 -61.84            0    1.056    0.053
        75 -10.7871    137.0458     72.6257   6.2393144202e+01   4.0443961185e+01    0.5351008    0.3183518 -29.26  0.002307253    1.814    0.449
        76 -11.2080      3.9529     54.7986   1.0409884952e+02   6.4159348821e+01    0.5314149    0.2645227 -63.43  0.002467937    1.855    0.461
        77 -11.0809      6.7977     71.2051   1.0673996161e+02   6.0480235305e+01    0.4224717    0.3586955   6.07  0.001664555    1.382    0.276
        78 -10.1723     38.1086    213.0510   1.1651903680e+02   2.4388222870e+01    0.3568667    0.2850319 -42.78  0.002307554    1.659    0.397
        79  -7.6989    200.2713     68.6421   4.8983376986e+01   2.6488936710e+01    0.1465414   0.09888211 -62.05 0.0006998779    1.645    0.392
        80  -9.4690    134.4802    148.0046   8.3113877570e+01   2.5130376732e+01    0.9117069    0.2869492 -55.51  0.002373862    4.663    0.786
        81  -8.9729    131.6161    137.5944   8.1471285187e+01   2.8065175243e+01    0.4451397    0.2659872 -66.95 0.0009195156    2.509    0.601
        82 -10.8348    249.6522    156.6677   6.1248265758e+01   2.0880354889e+00    0.5346389    0.1974515 -38.90  0.002242627    2.295    0.564
        83  -9.9250    124.0125     53.2627   5.9459316860e+01   4.6581508874e+01    0.2800412    0.2061101 -29.08 0.0004811695    1.402    0.287
        84 -10.3401    130.9962     72.5055   6.3851764539e+01   4.1828853661e+01    0.3973559     0.145196  49.77  0.001361464    2.721    0.633
        85 -10.5122    192.6545     43.8368   4.3788737393e+01   3.1811187667e+01    0.3413565    0.2188202 -38.28  0.001108396    1.525    0.344
        86 -12.1481    201.2530     76.6194   5.0832400552e+01   2.5003829278e+01     1.186508    0.5041381  41.22  0.004240975    3.334    0.700
        87 -10.5552    156.5090     37.0316   4.7513495284e+01   4.1220430019e+01    0.4389596    0.2112848  53.07     0.001265    1.918    0.479
        88  -8.6707    190.2223     35.4697   4.1970367723e+01   3.3449883782e+01    0.2302699    0.1714348 -33.08 0.0008150096    1.403    0.287
        89 -10.7018    125.5506     31.1504   5.1692913926e+01   4.9237306999e+01    0.3326848    0.2616695 -17.18   0.00111427    1.379    0.275
        90  -8.9746    138.1806     32.6174   4.9553485725e+01   4.6114907361e+01    0.2024573    0.1121285  49.91 0.0006599954    1.654    0.395
        91 -10.8144    144.6390     27.9285   4.6856111770e+01   4.5135254867e+01    0.4352743    0.2309497 -32.02  0.001654561    1.986    0.496
        92 -10.3113    121.8881     26.7931   5.1007988785e+01   5.0585598339e+01    0.3114015    0.1588021 -38.58  0.001322176    2.157    0.536
        93  -8.7287    153.9969     26.5061   4.4813602016e+01   4.3069689616e+01     0.204249    0.1838112 -33.76  0.001249644    1.201    0.168
        94  -9.8731    179.2093     24.0827   4.0440983271e+01   3.7362778634e+01    0.4572069     0.345208 -83.02  0.002642801    1.336    0.251
        95  -9.9440    125.6564     24.3399   4.9366005918e+01   4.9990280326e+01    0.2068736    0.1575443 -71.56  0.001110631    1.704    0.413
        96  -8.7842    130.3024     23.6693   4.8198164843e+01   4.8983583467e+01     0.132799    0.1010059 -68.63 0.0006260347    1.651    0.394
        97  -8.6827    192.8596    211.4761   8.2553109654e+01   1.8694922481e+00    0.1954074    0.1628333 -17.20 0.0003775828    1.137    0.120
        98 -10.1078    159.7301    205.8198   8.8531621416e+01   8.2804970812e+00    0.2438234    0.2239748  -4.90 0.0004036917    1.064    0.060
        99  -7.9193    159.7756     19.9612   4.1996127143e+01   4.2402704332e+01    0.1509829    0.1095327 -26.20 0.0008378454    1.532    0.347
       100  -8.6233    167.0178     16.4416   3.9981571708e+01   4.1048524095e+01    0.1732353    0.1662487 -75.38 0.0003085305    1.099    0.090
       101  -8.4214    119.2898     16.6131   4.8034508391e+01   5.2255344926e+01    0.1312338   0.09746923 -63.08 0.0007011649    1.758    0.431
       102  -8.2707    222.0142    205.9143   7.5842375740e+01  -1.6848865189e+00    0.1689793    0.1628181  76.50 0.0005381044    1.639    0.390
       103  -8.1991    111.9879    202.9525   9.8852863230e+01   1.6680077134e+01    0.1547806    0.1498226 -80.75 0.0003974193    1.078    0.072
       104  -9.9318    191.7690    192.6723   7.9276884444e+01   5.3509786092e+00    0.5630252    0.3037028 -61.67  0.001899383    4.477    0.777
       105  -8.6666    236.0317    197.4951   7.1688191563e+01  -2.4166642261e+00    0.1841697      0.11845  30.67 0.0005959255    1.583    0.368
       106  -8.4897    198.5380     12.5380   3.5319881137e+01   3.4147827931e+01    0.2013107    0.1495227 -50.73    0.0007356    1.292    0.226
       107  -9.0162     44.1193    192.6169   1.1331971762e+02   2.8272985167e+01    0.2124499    0.1616039 -67.26 0.0005991657    1.263    0.208
       108  -8.7316    181.9999    191.1009   8.1017125458e+01   7.2999438832e+00    0.2030686    0.1808298  -1.08            0    1.013    0.013
       109  -9.4222    182.3078    183.5447   7.9471079117e+01   8.6806573254e+00    0.3394783    0.2287127  69.54  0.001204745    3.017    0.669
       110 -10.6623      1.7459    177.9395   1.2161742288e+02   3.5597720341e+01    0.6001245    0.1551873 -76.13  0.002280139    3.136    0.681
       111  -9.7501    235.9174    179.8033   6.8256924693e+01   4.2761274183e-01    0.2316861    0.2141639  25.68 0.0004806022    1.335    0.251
       112  -8.7931    222.9725    177.4852   7.0129425724e+01   2.8610060259e+00    0.1715533    0.1226721  64.60 0.0008101987    2.552    0.608
       113  -8.6168     45.9506    176.9923   1.1117924273e+02   3.1732457322e+01    0.1881863    0.1650402 -88.98  0.001174935    1.003    0.003
