#   1 NUMBER                 Running object number                                     
#   2 MAG_AUTO               Kron-like elliptical aperture magnitude                    [mag]
#   3 X_IMAGE                Object position along x                                    [pixel]
#   4 Y_IMAGE                Object position along y                                    [pixel]
#   5 X_WORLD                Barycenter position along world x axis                     [deg]
#   6 Y_WORLD                Barycenter position along world y axis                     [deg]
#   7 A_WORLD                Profile RMS along major axis (world units)                 [deg]
#   8 B_WORLD                Profile RMS along minor axis (world units)                 [deg]
#   9 THETA_WORLD            Position angle (CCW/world-x)                               [deg]
#  10 FWHM_WORLD             FWHM assuming a gaussian core                              [deg]
#  11 ELONGATION             A_IMAGE/B_IMAGE                                           
#  12 ELLIPTICITY            1 - B_IMAGE/A_IMAGE                                       
         1 -11.6227     80.6253     23.2888   9.2002144046e+01   6.0639668620e+01    0.4900745    0.2731126  29.29  0.000516893    1.946    0.486
         2  -8.7309     28.2912     21.7071   1.1208348085e+02   6.8532131751e+01    0.3972496     0.235794 -25.96  0.002374882    1.507    0.336
         3  -9.0886     45.9254     21.3533   1.0408991995e+02   6.6503328021e+01    0.3895889     0.159898 -38.08  0.001344986    2.168    0.539
         4  -9.1102    125.2389     10.0931   7.4914292526e+01   5.2459429916e+01    0.2261233     0.197115  41.58  0.000438067    1.037    0.036
         5  -9.7780    129.8363      6.6969   7.2742877672e+01   5.1663239311e+01    0.4898535    0.3087747   0.20  0.001114098    1.877    0.467
         6 -10.1401    134.4782     13.0351   7.4205780071e+01   4.9929480785e+01    0.5960718    0.2901392  41.18   0.00152566    2.078    0.519
         7  -9.4137     64.0144     14.6270   9.3818318073e+01   6.4710485620e+01    0.4572439    0.2452138  15.15  0.001716538    2.568    0.611
         8  -8.6175     96.4067     13.3393   8.2982598817e+01   5.8677503369e+01    0.4084996    0.2225084   4.82  0.001774032    2.510    0.602
         9  -9.5788     79.1740     12.9864   8.7880484284e+01   6.2189844898e+01    0.4693026    0.2318392  45.22  0.001119009    1.897    0.473
        10  -8.9806     74.4898     13.5254   8.9648998376e+01   6.3003789389e+01    0.2969663    0.1891961   1.29  0.001577384    1.708    0.414
        11  -8.4590    113.1451     11.6877   7.8131484916e+01   5.5145626882e+01    0.3393963    0.1563345  -8.26  0.001051831    2.941    0.660
        12  -9.3936     31.8953     10.9653   1.0545037566e+02   6.9797603666e+01    0.4038051    0.2269641  20.08  0.001633648    1.901    0.474
        13  -8.8656     32.0964      6.0625   1.0288522766e+02   7.0458197206e+01    0.2297095    0.1513479 -10.07 0.0004347195    1.360    0.265
        14  -9.2181     40.7532      6.5256   9.9168431252e+01   6.9280206485e+01    0.5748448    0.2649954 -12.43  0.002394145    3.458    0.711
        15  -9.6644     46.7327      6.4359   9.6552374722e+01   6.8446864756e+01    0.2428656    0.2022621  -4.48 0.0002360437    1.101    0.092
        16  -9.0495     69.4739      9.2814   8.9343080588e+01   6.4404376981e+01     0.541003    0.1589102  46.42  0.002152019    3.126    0.680
        17 -10.0662      7.9918      5.3600   1.1491998133e+02   7.2980804593e+01    0.4454124    0.2166499   2.91  0.002444225    2.649    0.622
        18  -7.9467    156.0432      6.9892   6.8484406511e+01   4.5093881816e+01    0.2203034    0.1444635  37.84 0.0003327844    1.612    0.379
        19  -9.4289    119.0054      6.7806   7.4907671536e+01   5.4249087583e+01    0.2903423    0.2022084  56.85 0.0003598725    1.311    0.237
        20  -9.2667    100.1820      6.2746   7.8973277212e+01   5.8574836873e+01     0.318595     0.267965  88.62  0.001742818    1.557    0.358
        21  -8.5417    105.0146      1.9959   7.6006456552e+01   5.7886434109e+01     0.353702    0.1656825  42.64  0.001635714    1.914    0.477
        22  -9.0049     76.3069      5.2963   8.5201261322e+01   6.3567078433e+01    0.3757431    0.2192873 -31.05  0.002033141    1.779    0.438
        23  -9.5462    110.9203      3.3268   7.5242539587e+01   5.6433415065e+01    0.3744956    0.2326497 -17.72  0.001964932    1.697    0.411
        24  -8.2232     91.3042      5.0580   8.0734369072e+01   6.0587838800e+01    0.1767076    0.1533052   8.24 0.0004535584    1.081    0.075
        25  -8.4715    143.0471      2.1657   6.8833980313e+01   4.8794714005e+01      0.20478    0.1917308  14.91 0.0003379997    1.138    0.121
        26  -9.3746    127.5951     16.8977   7.7003217211e+01   5.1208130632e+01    0.4295073    0.2636787   1.94  0.001632349    2.047    0.512
        27  -7.6438     84.3481      3.3198   8.1869696280e+01   6.2180851544e+01    0.1403501    0.0815988  25.71 0.0007048806    1.735    0.424
        28  -8.7584     56.4473      3.2713   9.1050573964e+01   6.7307921837e+01    0.4126925    0.1135134  38.58  0.001573422    3.690    0.729
        29  -7.9254    159.1497      1.8939   6.6378862329e+01   4.4752665656e+01     0.196017    0.1448913  43.64 0.0006528582    1.347    0.258
        30  -8.9843    235.1552      5.2952   5.9454566539e+01   2.5525181099e+01    0.3230906    0.2043643 -33.50  0.001094586    1.547    0.354
        31  -8.0659      2.7323      1.3761   1.1594145928e+02   7.3991695210e+01    0.1382836   0.08422799  -2.40 0.0004676578    1.636    0.389
        32  -9.2319     14.3008    105.5453   1.3880652143e+02   5.2311181474e+01    0.2673917    0.1453727 -41.10  0.001466897    2.081    0.519
        33  -9.1573    199.1195    249.6839   1.1869824952e+02  -2.9314478122e+00    0.1817386    0.1216765  47.56  0.001141583    1.480    0.324
        34  -9.2039     56.4277    250.2512   1.4336427686e+02   1.8034105429e+01    0.1844722    0.1188078  50.33  0.001335697    1.264    0.209
        35  -7.1119    189.3584    105.3067   9.2100668730e+01   2.2246680918e+01    0.1603223    0.1191171  16.13 0.0007040737    1.728    0.421
        36  -7.3845    140.3340     99.3360   1.0131470928e+02   3.4830733218e+01    0.1602886    0.1235202   4.41 0.0007052085    1.741    0.425
        37  -8.6884      6.3661     97.4990   1.4001993236e+02   5.4647278463e+01    0.2337448    0.1167912 -61.14  0.001330741    1.525    0.344
        38 -10.0286     12.9541     94.2144   1.3755348327e+02   5.4963120152e+01    0.3774633    0.3030505   9.52  0.001981982    1.625    0.385
        39  -7.4781    129.6700     97.6480   1.0353221061e+02   3.7520004585e+01    0.1595415    0.1222544  -0.63 0.0007047235    1.773    0.436
        40  -7.6692    150.4674     95.7626   9.7878258173e+01   3.3237448905e+01    0.2182854    0.1499595 -26.15 0.0008149261    1.659    0.397
        41  -7.3806    142.6455    111.6969   1.0406388375e+02   3.1767619055e+01    0.1579705    0.1230989   7.26 0.0007039631    1.709    0.415
        42 -10.0954     20.1222     91.6562   1.3490597071e+02   5.5029614108e+01    0.4563417    0.2141674 -41.80  0.002283314    2.248    0.555
        43  -8.6151     43.5632     92.3883   1.2759415129e+02   5.2758143908e+01    0.3065845    0.1909032 -23.86  0.001534781    2.236    0.553
        44  -8.2672     96.2628     90.5499   1.1076499985e+02   4.5663015474e+01    0.3968254    0.2741454   3.28  0.001723555    2.293    0.564
        45  -7.2829    110.4873     90.5418   1.0667962562e+02   4.2978482351e+01    0.1495207    0.1404181 -18.99 0.0002642229    1.088    0.081
        46 -10.1955     37.4674     81.1149   1.2712189278e+02   5.5906086977e+01    0.5961237    0.3250407 -15.77  0.002603263    3.255    0.693
        47  -7.6256    126.2693     83.6060   1.0035538201e+02   4.1111251394e+01    0.2129898     0.141753  36.58 0.0006351734    1.627    0.385
        48  -8.6627     88.0707     78.9277   1.0989243388e+02   4.9574460732e+01    0.5527748    0.2945782  18.33  0.001894162    3.815    0.738
        49  -9.8278      7.8867     77.7750   1.3648541112e+02   5.8934855817e+01    0.5070081    0.2080795 -35.60  0.002224469    2.937    0.659
        50  -7.9888    184.2904     78.0098   8.5630788567e+01   2.8300541376e+01    0.2140969    0.1948051 -35.74  0.000595921    1.088    0.081
        51  -8.8460     48.5257     77.6748   1.2252337472e+02   5.5499794525e+01    0.2886332    0.1663741 -32.91  0.001236516    1.966    0.491
        52  -9.3011     32.1618     63.6018   1.2470323061e+02   6.0199650637e+01    0.2234416    0.1503589 -62.37 0.0009391343    1.389    0.280
        53  -9.3102     29.4759     68.5266   1.2695124884e+02   5.9391019819e+01    0.4256412     0.188349 -33.23  0.001866068    2.854    0.650
        54  -9.7418     23.7876     73.9589   1.3024669309e+02   5.8684024388e+01    0.5349437    0.1281397 -51.34  0.002115247    2.929    0.659
        55  -8.2864     23.4929     69.0788   1.2925512875e+02   5.9766480989e+01    0.2344159    0.1468665 -59.40 0.0004868027    1.294    0.227
        56  -7.2315    120.8671     76.0000   9.9459197452e+01   4.3771547834e+01    0.2484738   0.08576149  47.92 0.0008053611    2.963    0.662
        57  -8.1648     74.9092     74.1757   1.1266917926e+02   5.2717919532e+01    0.1945165     0.185688 -78.63  0.000422823    1.190    0.160
        58  -7.5524    129.0004     69.3297   9.5198625227e+01   4.3223058619e+01    0.2561519    0.1073421  33.21 0.0007051627    4.347    0.770
        59  -8.1289    106.0428     67.1687   1.0076702007e+02   4.8555742229e+01    0.3248209    0.2135962  18.51  0.001408118    2.093    0.522
        60  -9.0429     83.7038     64.1231   1.0662497136e+02   5.3316285214e+01    0.4774119     0.296934  -8.66  0.001641067    2.668    0.625
        61  -7.0386    190.2870     66.7056   8.1324772383e+01   2.8655340774e+01    0.1519989    0.1136352 -66.72 0.0002036011    1.546    0.353
        62  -9.0415     17.5969     62.7219   1.2994874851e+02   6.1565081174e+01    0.4359973    0.1842997 -27.79  0.001858757    3.515    0.716
        63  -7.4250    121.2889     62.4235   9.4942376088e+01   4.6192346362e+01    0.1588226    0.1138681   3.08  0.000347706    1.859    0.462
        64  -8.6282     57.9457     62.2421   1.1482655244e+02   5.7604376613e+01    0.3542216    0.1846959  34.29  0.001452791    2.142    0.533
        65  -9.5805     63.2053     61.2762   1.1264588388e+02   5.7081123561e+01    0.5723962     0.263751  24.67  0.002329521    3.038    0.671
        66  -8.8436     25.8784     61.1036   1.2641432810e+02   6.1272414987e+01    0.3190762    0.1789751 -27.34  0.001572225    2.056    0.514
        67  -8.9031     36.9044     59.2238   1.2170044648e+02   6.0658952968e+01    0.3041376    0.1652478 -22.74  0.001443778    2.483    0.597
        68  -8.0920     96.4614     58.7846   1.0078572484e+02   5.2000706818e+01    0.2850391    0.2151575   1.70 0.0007323778    1.581    0.367
        69  -7.4831     99.3222     56.3056   9.9051009448e+01   5.1889372185e+01    0.1465151    0.1084922   4.63 0.0005025205    1.639    0.390
        70  -7.8087    111.0839     58.4627   9.6383127989e+01   4.9101958461e+01    0.2149462    0.1408176  43.81 0.0005909431    1.541    0.351
        71  -7.6761     49.7788     58.4112   1.1660563939e+02   5.9408502140e+01    0.1620861    0.1207302   8.14 0.0005524833    1.547    0.354
        72  -9.6290    245.5015     54.2121   7.0201995938e+01   1.7210003572e+01    0.2684167    0.2369763 -17.07 0.0004932159    1.254    0.202
        73  -9.1125    249.3770     50.1368   6.8796281768e+01   1.6899335920e+01    0.3463657    0.2162413  -3.76  0.001537667    2.605    0.616
        74  -7.4923     88.2947     54.3314   1.0177305518e+02   5.4338226822e+01    0.1433566    0.1044543  -4.58 0.0007025452    1.636    0.389
        75  -8.3845    118.2550     51.1558   9.1865322483e+01   4.8778775793e+01    0.2653308     0.217185  28.81  0.001392248    1.241    0.194
        76  -9.9477     75.1510     50.1042   1.0461137462e+02   5.7381725966e+01    0.3253889    0.2654612 -14.07 0.0003024716    1.186    0.157
        77  -9.1965     45.4769     48.8675   1.1512485576e+02   6.1796908348e+01    0.3681744    0.2313776 -17.95  0.001584299    1.873    0.466
        78  -7.9890    106.9248     48.7290   9.4105149015e+01   5.1630019006e+01    0.2922375    0.1502301  30.52  0.001123399    2.577    0.612
        79  -8.4824      1.9984     45.4950   1.3196719416e+02   6.6073616522e+01    0.2809007    0.1703966  49.35  0.001685557    2.491    0.598
        80  -9.5400     11.5871     46.7695   1.2828863818e+02   6.5266774073e+01    0.5994446    0.2841851 -29.97  0.002077517    2.275    0.560
        81  -8.2028      7.3294     47.7311   1.3031272807e+02   6.5332427810e+01    0.1526212    0.1135766  20.32 0.0004701814    1.665    0.399
        82  -9.5723     57.6855     41.6704   1.0779362759e+02   6.1553172824e+01    0.5329857    0.2841832 -11.86  0.002040335    3.625    0.724
        83  -8.7776     92.1702     38.5877   9.4645994717e+01   5.6235753358e+01    0.5847223    0.2093156 -38.81  0.001672792    2.740    0.635
        84 -10.5155     83.1820     40.0325   9.8081049150e+01   5.7706176941e+01    0.4532973    0.2715108 -15.61 0.0002315286    2.045    0.511
        85  -8.7353     87.6013     38.1790   9.5919116472e+01   5.7178308367e+01    0.2652096    0.2144947  10.77 0.0009581777    1.230    0.187
        86  -7.9780    113.5476     41.9459   8.9781575219e+01   5.1263378772e+01    0.3099809    0.1572318  24.22  0.001040364    3.522    0.716
        87  -9.0433     35.5133     38.4630   1.1550825348e+02   6.4859949922e+01    0.2532196    0.1678101 -44.42 0.0007856386    1.289    0.224
        88  -8.7289     38.5385     35.5062   1.1312766367e+02   6.5066825559e+01     0.328599    0.1973879  19.82  0.001460353    1.881    0.468
        89  -7.5765    123.9752     39.5082   8.6217182751e+01   4.9253325794e+01    0.2030652    0.1085501  33.34 0.0004433214    2.251    0.556
        90  -9.5179     69.9553     36.2135   1.0110168228e+02   6.0607819764e+01    0.5684933    0.3020527  18.43  0.002361256    2.915    0.657
        91  -7.5811    105.3578     36.8171   9.0078974491e+01   5.3800089734e+01    0.3287939    0.1338475  34.23   0.00109716    3.472    0.712
        92  -7.7505     18.6966     35.7251   1.2185167412e+02   6.6915274750e+01    0.1926655    0.1266241 -28.55 0.0001749315    1.362    0.266
        93  -9.1106     22.9506     35.6669   1.1994146168e+02   6.6576715307e+01    0.2456949    0.2034453 -20.86  0.001290674    1.133    0.118
        94  -8.9256     21.8977     31.9210   1.1907712145e+02   6.7357573233e+01    0.2520101    0.1938596 -29.48 0.0003739506    1.062    0.058
        95  -9.0487     56.1192     35.2459   1.0588015611e+02   6.2881180335e+01    0.2841528    0.2048206 -11.68  0.001110328    1.389    0.280
        96  -9.5640      6.5660     33.9549   1.2675854138e+02   6.8091164565e+01    0.3430809    0.2072981 -34.83  0.001675976    1.390    0.280
        97  -9.2840      1.6512     29.8411   1.2776004617e+02   6.9151509895e+01    0.3462481    0.1306845 -62.55  0.001701872    2.517    0.603
        98  -9.1349     41.8273     27.3737   1.0846049968e+02   6.6076114832e+01    0.3053925    0.2093346 -49.43  0.001001709    1.653    0.395
        99  -7.1646    152.6421     27.3023   7.5829883052e+01   4.3824862778e+01    0.1497885    0.1078105 -69.92 0.0007038226    1.716    0.417
       100 -10.0200     72.5302     25.5761   9.5726671455e+01   6.1786871681e+01    0.4696957    0.3011837  47.56  0.002226988    1.730    0.422
       101  -9.5778    186.5743    248.7623   1.2073627824e+02  -8.7771899573e-01    0.2571344    0.1165328  49.06  0.001310995    2.162    0.537
       102  -8.5643     61.8872     26.8534   1.0015049408e+02   6.3358343401e+01    0.1937306    0.1498081  -1.98 0.0004376578    1.211    0.174
       103  -8.3661     25.6649     25.6589   1.1494791472e+02   6.8127036584e+01    0.2329694    0.1281807 -28.21   0.00096165    1.678    0.404
       104  -8.9747    166.2374    249.1035   1.2433234981e+02   2.2692901067e+00    0.1732595    0.1373127  26.69   0.00107089    1.227    0.185
       105  -8.3826    144.9579     23.4155   7.5921581127e+01   4.6217987089e+01    0.2343752    0.1888539  12.00 0.0003330065    1.375    0.273
       106  -7.9717    118.5513     24.4872   8.1902375819e+01   5.2489687617e+01     0.252008    0.1081928  46.49 0.0008663751    2.159    0.537
       107  -9.2538    226.4073    246.5607   1.1362991001e+02  -6.6808824854e+00    0.1815245    0.1345551   1.46 0.0009713129    1.306    0.234
       108  -8.1165    129.1607     22.3857   7.8719231246e+01   5.0225956912e+01    0.3474946    0.1502716  40.86  0.001343358    2.449    0.592
       109  -8.5791     92.8889     20.8076   8.7158784772e+01   5.8551822880e+01    0.2113198    0.1621888  22.54 0.0006096951    1.240    0.193
       110  -8.3469    139.9043     20.0767   7.5707220255e+01   4.7853119073e+01    0.3116554     0.173075  59.25  0.001109713    1.652    0.395
       111  -8.4192      9.6665     19.7280   1.2029366355e+02   7.0489718158e+01    0.2433377    0.1467406  -9.87 0.0008929364    1.761    0.432
       112  -7.6240    146.8319     19.1694   7.4106430523e+01   4.6218352855e+01    0.1912153    0.1525795  33.83 0.0002897155    1.278    0.217
       113  -8.2533      4.9867     18.7510   1.2228213716e+02   7.0977659720e+01     0.161974    0.1481905  14.07  0.000901613    1.447    0.309
       114  -8.5004     81.7035    246.9621   1.3889995882e+02   1.5290198738e+01    0.1510151    0.1153654  66.36 0.0005162485    1.066    0.061
       115  -7.3594    123.7610    238.6290   1.3067385612e+02   1.0489577060e+01    0.1013606   0.08969159   0.29 0.0004565655    1.613    0.380
       116  -9.4021    187.4897    233.9512   1.1849859507e+02   8.9349769523e-01    0.3196571    0.1902275  44.96  0.001858883    1.461    0.316
       117  -7.4316    129.3461    233.7198   1.2909109046e+02   1.0395653003e+01    0.1400749     0.112379 -49.78 0.0008206208    1.568    0.362
       118  -8.8049    104.1221     15.7383   8.1964950114e+01   5.6751805226e+01    0.2795535     0.160502  13.29  0.001188757    2.263    0.558
       119  -8.5429     34.2778    228.5644   1.4566972403e+02   2.4390005932e+01    0.1774151    0.1391126 -85.77 0.0007957371    1.313    0.238
       120 -10.3616    123.9993    206.0042   1.2660143670e+02   1.6029480984e+01     0.182422    0.1561781  56.52  0.001160425    1.003    0.003
       121  -7.8703     53.8901    206.1069   1.4048660421e+02   2.6311332045e+01    0.1789604    0.1222686  71.22 0.0004594395    1.213    0.176
       122  -8.2766     11.5006    206.5451   1.4832091850e+02   3.0852319779e+01    0.1076689    0.0774245  76.40 0.0002246976    1.014    0.014
       123 -10.0728    178.7577    200.1884   1.1481116350e+02   7.3862892049e+00    0.2224591     0.202333  35.20 0.0002901802    1.057    0.054
       124  -6.9999    132.6736    199.6293   1.2393819009e+02   1.5727627377e+01    0.1286337    0.1033019  -0.17 3.276173e-05    1.816    0.449
       125  -8.2768    205.1783    153.2241   1.0049522756e+02   1.0170443622e+01    0.2506819    0.1518382   8.20 0.0009573019    2.855    0.650
       126  -9.2088    124.3890    145.9606   1.1645471779e+02   2.8142145513e+01    0.2424166    0.2039419  44.38  0.000250307    1.186    0.157
       127  -9.1546     67.5008    144.6705   1.3030406320e+02   3.7768844599e+01     0.432804    0.2783206  72.01  0.002207438    1.768    0.434
       128  -7.8770     55.0397    135.4744   1.3205965549e+02   4.1489417241e+01    0.1652115    0.1148064 -11.34 0.0008096593    2.530    0.605
       129  -7.8362      5.5055    133.5148   1.4432140379e+02   4.6636630791e+01     0.116461   0.08881666 -81.33 -7.724469e-05    1.034    0.033
       130  -8.1587    121.9989    130.9325   1.1383804090e+02   3.1899627056e+01    0.2084281     0.205353 -72.73  0.001176547    1.048    0.045
       131  -9.9456    235.3712    129.1120   8.9647393986e+01   7.9970680336e+00    0.2706442    0.2531554  33.88 0.0001682848    1.146    0.127
       132  -7.2535    193.6989    127.6769   9.6867004533e+01   1.7155583328e+01    0.1531861    0.1165606   7.21 0.0006921429    1.631    0.387
       133  -7.6873     99.7516    119.2271   1.1698800621e+02   3.8651677930e+01    0.2177413    0.1208421  28.26 0.0006300986    2.411    0.585
       134  -8.0427    249.6551    111.0138   8.3221485861e+01   7.9369030124e+00    0.2320769    0.1114111 -12.88            0    4.465    0.776
       135  -9.0324    239.1948    110.6817   8.4722983357e+01   1.0135947245e+01    0.2427148     0.181394  59.62  0.001101589    1.534    0.348
       136  -9.3404      2.1433    108.8203   1.4264126099e+02   5.2367404565e+01    0.4909069    0.1010534 -64.28  0.002029183    2.974    0.664
       137  -7.3760     39.2226    110.0426   1.3228137133e+02   4.9149772637e+01    0.1741215     0.088786 -64.23 0.0005606664    1.630    0.386
       138  -7.3817     24.6586    110.6707   1.3657340913e+02   5.0342332601e+01    0.1275064   0.07778185 -44.29 0.0007051419    1.742    0.426
       139  -7.7704    133.5241    106.4873   1.0495213472e+02   3.4840976878e+01     0.278067    0.1434516 -33.38 0.0006865908    2.336    0.572
       140  -7.2793     76.4966    106.9712   1.2073967470e+02   4.5233660502e+01    0.1975589    0.1047237 -37.10 0.0008067027    2.358    0.576
       141  -7.6366    109.4524    106.4574   1.1127053267e+02   3.9742026812e+01    0.1482513    0.1398019 -28.70 0.0008050867    1.105    0.095
