#   1 NUMBER                 Running object number                                     
#   2 MAG_AUTO               Kron-like elliptical aperture magnitude                    [mag]
#   3 X_IMAGE                Object position along x                                    [pixel]
#   4 Y_IMAGE                Object position along y                                    [pixel]
#   5 X_WORLD                Barycenter position along world x axis                     [deg]
#   6 Y_WORLD                Barycenter position along world y axis                     [deg]
#   7 A_WORLD                Profile RMS along major axis (world units)                 [deg]
#   8 B_WORLD                Profile RMS along minor axis (world units)                 [deg]
#   9 THETA_WORLD            Position angle (CCW/world-x)                               [deg]
#  10 FWHM_WORLD             FWHM assuming a gaussian core                              [deg]
#  11 ELONGATION             A_IMAGE/B_IMAGE                                           
#  12 ELLIPTICITY            1 - B_IMAGE/A_IMAGE                                       
         1 -12.5436      2.3663     43.7527   1.4094304082e+02   6.7117578713e+01     2.026157    0.1212073 -71.50  0.004489676    9.218    0.892
         2 -13.7330      6.7679     10.6987   1.2850669533e+02   7.4333583223e+01     2.044145    0.9102333 -49.72    0.0106643    1.679    0.404
         3 -14.0657    200.4538      9.9211   6.7468233569e+01   3.3571119445e+01     1.910266     1.150895  43.47  0.009367744    1.829    0.453
         4 -13.4366    188.2750     27.5633   7.4235404518e+01   3.4827932257e+01     1.307802     1.097346  40.09  0.006479864    1.239    0.193
         5 -10.4618     81.4766    248.6394   1.4103841393e+02   1.7518691250e+01    0.2111285    0.1385724  50.20 0.0007723283    1.209    0.173
         6 -11.0937    138.5059    250.0070   1.3126140940e+02   1.0641544557e+01    0.2463681    0.1566272  25.69  0.001783339    1.352    0.260
         7 -10.8710     66.6195    243.0476   1.4326870186e+02   1.9912721257e+01    0.3160933    0.1645435  53.05 0.0006897454    1.577    0.366
         8 -10.5975     67.1053    249.9070   1.4359138394e+02   1.8883548196e+01    0.2085391    0.1736412  68.27  0.001872127    1.245    0.197
         9  -9.3967     63.5038    250.5804   1.4424386317e+02   1.9163163568e+01    0.1329806   0.07542486  30.47 6.712263e-05    1.605    0.377
        10  -9.3832     29.1635    242.1832   1.4967719035e+02   2.3711244733e+01    0.1973884    0.1192124  53.62 0.0008785777    1.196    0.164
        11 -10.5654     29.2248    249.3933   1.4993399894e+02   2.2645116571e+01    0.2382481    0.1801564  50.14  0.001667814    1.113    0.101
        12 -11.8851     35.0152    244.7817   1.4879241898e+02   2.2790971561e+01    0.4698293     0.403266  -7.40  0.004129109    1.870    0.465
        13 -13.4357      6.8427    185.6416   1.5165022254e+02   3.5135560994e+01     1.404599    0.9201416  79.66  0.005592378    1.278    0.218
        14 -14.5954     55.9997    210.6005   1.4315124375e+02   2.6144466902e+01      8.15686    0.6781098  44.13   0.02902718    4.976    0.799
        15 -10.8793     83.8961    244.7672   1.4035071150e+02   1.7790295927e+01    0.3209052    0.1302424  53.28  0.001835677    2.390    0.582
        16 -11.0964    196.6640    241.9958   1.2052093865e+02   4.2227708340e+00    0.4486119    0.2849292 -58.88  0.002425306    4.697    0.787
        17 -10.0050     77.0558    244.8697   1.4155722209e+02   1.8530674947e+01    0.1653675    0.1006028  49.74  0.001225718    1.288    0.224
        18 -10.7555     94.9825    241.5959   1.3815372562e+02   1.6973181832e+01    0.1885324    0.1520748 -72.37  0.001164673    1.574    0.364
        19 -14.9668     20.7027    173.4912   1.4815145963e+02   3.6379199243e+01     6.316654     1.764179  83.14   0.02016878    6.622    0.849
        20 -11.0240    233.0492    236.1050   1.1392051953e+02   2.8142705786e-01    0.2695747    0.2102454 -53.30   0.00178757    3.417    0.707
        21 -10.1216    183.1512    238.3220   1.2231300364e+02   6.3330242616e+00    0.1753541    0.1035779  22.05 0.0007110103    1.415    0.293
        22 -10.4083     35.0844    229.5962   1.4812796561e+02   2.5102200088e+01    0.2602936    0.1660645  58.29  0.001621444    1.219    0.180
        23 -11.4293    173.0203    222.0535   1.2198454075e+02   9.5627274062e+00    0.4148932    0.2670901  37.86  0.002779472    1.332    0.249
        24  -9.4959     27.4641    221.5842   1.4914607888e+02   2.7088960870e+01    0.1763249    0.1107235  47.12 0.0006052574    1.209    0.173
        25 -12.6926     45.0727    233.3887   1.4653276916e+02   2.3555046975e+01    0.2908473    0.2469111  64.55 0.0008133142    1.181    0.153
        26  -8.7379    152.4931    212.9292   1.2454504892e+02   1.3593232307e+01    0.1358657     0.114148 -37.73 0.0003680067    1.452    0.311
        27 -12.0288     29.0585    204.2710   1.4804655766e+02   2.9886960472e+01    0.4981621    0.1505452  38.90  0.001317021    2.363    0.577
        28 -11.4275     69.1851    198.7185   1.3958753055e+02   2.6760998963e+01    0.3002813    0.2155073 -40.39  0.001701536    1.932    0.482
        29  -9.9893    193.2336    195.4169   1.1444165203e+02   1.0015201524e+01    0.5309325    0.2851381 -58.09   0.00167888    8.679    0.885
        30 -11.6486     74.1693    191.0583   1.3784950797e+02   2.7556872416e+01    0.2222814    0.2181025 -24.98 0.0005158833    1.271    0.213
        31  -8.8804    106.1116    181.8458   1.2989783760e+02   2.5096387249e+01    0.1758354    0.1387609  53.14 0.0003256108    1.209    0.173
        32 -10.9170     83.0252    178.4167   1.3459666834e+02   2.8820001829e+01    0.2040613    0.1878438  59.64 0.0003515324    1.058    0.055
        33 -13.2185     70.6125    176.1965   1.3715481827e+02   3.0779109297e+01    0.4321978    0.2591271 -41.40  0.002222979    2.297    0.565
        34  -9.0303    172.2763    174.2189   1.1482772122e+02   1.6202136164e+01    0.1600395     0.142147  47.14 0.0007145759    1.347    0.257
        35 -12.0181     88.8325    168.1642   1.3202950387e+02   3.0037387334e+01     1.183203     0.590634  55.38  0.005592246    2.302    0.566
        36 -10.3461    193.9454    157.6464   1.0755496399e+02   1.5035228020e+01    0.3037415    0.2498024 -69.28  0.001221571    2.116    0.527
        37  -9.9705    101.3055    152.4205   1.2679304632e+02   3.1405615863e+01    0.2493821     0.238775  -9.88 0.0007704843    1.147    0.128
        38  -9.0999    103.9851    148.0613   1.2542530735e+02   3.1883433679e+01    0.2416878    0.1614295 -28.38 0.0007481223    2.030    0.507
        39 -11.9979     90.2406    151.9129   1.2943949275e+02   3.3110414518e+01     0.251986     0.229847 -18.92 0.0005413145    1.280    0.219
        40 -13.0235     65.1552    141.3578   1.3437081302e+02   3.8656503005e+01     1.833995    0.8808917  80.73  0.003395048    4.267    0.766
        41 -12.2554     30.8312    139.7137   1.4328342368e+02   4.2612069059e+01    0.3298472    0.3181774  60.84   0.00242567    1.192    0.161
        42  -9.6665    169.1180    132.9687   1.0731921344e+02   2.3363375675e+01    0.2644453    0.1986626  54.94  0.001056439    1.590    0.371
        43  -9.6291    111.6026    137.2003   1.2158938316e+02   3.2894759296e+01    0.3212601    0.2131147 -20.41  0.001186171    2.231    0.552
        44  -8.8847     88.7634    137.8704   1.2760239863e+02   3.6276952221e+01    0.1759565    0.1428493  64.83 0.0006303795    1.289    0.224
        45  -8.5347    191.9967    144.0003   1.0513528941e+02   1.7381677316e+01    0.1600144    0.1341575 -11.14 0.0004187014    1.112    0.101
        46 -10.6925     99.2601    134.9142   1.2433420704e+02   3.5336559804e+01    0.3030368    0.2161151 -42.74 0.0004348711    1.501    0.334
        47 -13.7598     10.7148    207.3296   1.5168164386e+02   3.0920164999e+01     1.110459    0.7640377  87.48  0.004412836    1.350    0.260
        48 -10.7729    174.6318    138.0944   1.0729967009e+02   2.1479890446e+01     0.449263    0.3299469  87.76  0.001995204    2.927    0.658
        49  -9.1240    108.3066    124.0935   1.1984143417e+02   3.6166832321e+01    0.1797245    0.1695945 -59.81 0.0002935007    1.083    0.077
        50 -14.8978      4.2059    237.7724   1.5370762423e+02   2.6492223520e+01     6.352276    0.9514152 -78.37   0.01530476    6.052    0.835
        51  -9.8685    150.9003    117.1251   1.0765611739e+02   2.9687191317e+01    0.5571079    0.3491661  77.45  0.001826293    4.466    0.776
        52 -10.6588    168.0282    113.2020   1.0290352186e+02   2.6946121570e+01    0.3354161    0.2942089 -80.66  0.001078803    1.560    0.359
        53  -8.7285    203.4454    111.5151   9.5608150923e+01   2.0061719797e+01    0.1418854    0.1215814  -1.14  9.24576e-05    1.036    0.035
        54  -9.4102    126.3941     99.6736   1.0925720090e+02   3.7916661167e+01    0.2346396    0.2132738  87.27 0.0006589177    1.314    0.239
        55  -9.0962     29.8518     91.1094   1.3777160002e+02   5.4029805359e+01    0.1917346    0.1542314  71.87 0.0005296692    1.287    0.223
        56  -8.3413    184.3393     77.3172   8.9994072878e+01   2.9248753872e+01    0.1559329    0.1082941  16.40 0.0007048799    1.706    0.414
        57  -9.7360    154.9846     75.4967   9.5327777865e+01   3.6260998613e+01    0.2246666    0.1488745  50.05 0.0005627386    1.551    0.355
        58  -9.6526     22.8816     68.3215   1.3645106095e+02   6.0076631811e+01    0.2130248    0.1758078  53.88 0.0006215972    1.383    0.277
        59 -14.0101     51.3203    224.1778   1.4489866399e+02   2.4383854613e+01    0.9827816     0.762179  62.06  0.006918864    1.102    0.093
        60 -10.7281     46.2592    248.4832   1.4705808597e+02   2.1186696474e+01    0.2723275    0.1094724  51.94 0.0007771116    1.882    0.469
        61 -10.7526     98.8487    249.1022   1.3805583904e+02   1.5500057829e+01    0.2257525    0.1125402  45.28  0.001276192    1.548    0.354
