#   1 NUMBER                 Running object number                                     
#   2 MAG_AUTO               Kron-like elliptical aperture magnitude                    [mag]
#   3 X_IMAGE                Object position along x                                    [pixel]
#   4 Y_IMAGE                Object position along y                                    [pixel]
#   5 X_WORLD                Barycenter position along world x axis                     [deg]
#   6 Y_WORLD                Barycenter position along world y axis                     [deg]
#   7 A_WORLD                Profile RMS along major axis (world units)                 [deg]
#   8 B_WORLD                Profile RMS along minor axis (world units)                 [deg]
#   9 THETA_WORLD            Position angle (CCW/world-x)                               [deg]
#  10 FWHM_WORLD             FWHM assuming a gaussian core                              [deg]
#  11 ELONGATION             A_IMAGE/B_IMAGE                                           
#  12 ELLIPTICITY            1 - B_IMAGE/A_IMAGE                                       
         1 -13.0889    202.9217     34.4230   4.8806894572e+01   3.0194517019e+01    0.7059622    0.6134167 -31.39  0.002492511    1.216    0.177
         2 -13.0170    210.6819     29.7078   4.6561841997e+01   2.8854960779e+01     0.975475     0.646727 -63.75  0.003863827    1.557    0.358
         3 -13.3560    217.2325     22.7441   4.4005856547e+01   2.8092563436e+01    0.7701997    0.5923019  52.73  0.001477674    1.428    0.300
         4 -13.6395    231.7034      7.5481   3.8904858578e+01   2.6358268615e+01    0.7798076    0.6222407 -67.34  0.002683972    1.081    0.075
         5 -12.2024     67.1612    221.9163   1.1908916858e+02   2.0637557255e+01    0.5405383    0.2995507  37.72  0.002060633    1.799    0.444
         6 -11.9976    229.2597    247.6337   9.2035419317e+01  -8.3141620782e+00    0.8970484    0.3304297  25.35  0.003677407    3.555    0.719
         7 -10.6533    211.6662    249.6779   9.5392585128e+01  -5.9814866443e+00    0.3066314    0.1565983  37.06   0.00177268    1.556    0.357
         8 -10.5895    208.1693    249.3634   9.5961060822e+01  -5.4225741381e+00    0.2726253    0.1946898  20.78  0.001383399    1.173    0.147
         9 -12.4755    196.6062    246.2892   9.7573061584e+01  -3.2855391191e+00     1.058612    0.5656244   6.10  0.004384733    4.083    0.755
        10 -13.2387    195.0650    236.3264   9.6391992863e+01  -1.7440082263e+00    0.7144074    0.5228576 -27.19  0.003814181    1.580    0.367
        11 -14.4227    174.0722    240.8501   1.0091652132e+02   9.9584513642e-01     1.755613     1.257459  33.37  0.008474033    1.145    0.127
        12 -13.3234    173.3457    218.6766   9.7808013804e+01   4.4306137372e+00     1.529599    0.9007397  20.07  0.007336701    2.222    0.550
        13 -15.1731      3.0757    130.0676   1.2473135971e+02   4.7176974675e+01     5.916943     1.351804 -80.51   0.01964851    4.611    0.783
        14 -14.4107     29.6465    236.0110   1.2678639511e+02   2.2545278782e+01     1.249689    0.7061924  62.31  0.005424646    1.324    0.245
        15 -14.8985     11.1071    206.8858   1.2841307966e+02   2.9954537891e+01     1.474989    0.9833013  87.16  0.005452209    1.168    0.144
        16 -14.0977     56.1561    211.8364   1.2032837759e+02   2.4022550405e+01     1.942972     1.299803  11.46   0.01015358    3.126    0.680
        17 -13.3920     30.4135    213.5188   1.2530390951e+02   2.6695817750e+01    0.4599668    0.3802653 -73.51 0.0007864055    1.434    0.303
        18 -14.8992     41.7865    204.3771   1.2250537201e+02   2.7254788129e+01     2.814856     1.642459  77.06   0.01426052    1.526    0.345
        19 -13.7778     81.0965    219.6673   1.1620814257e+02   1.9159393847e+01     1.225079    0.6638175  54.90  0.004767492    1.581    0.368
        20 -12.1967     87.6348    229.6660   1.1592896151e+02   1.6366020930e+01    0.6498373    0.3916283  42.82  0.003687267    1.451    0.311
        21 -13.1919     98.2264    227.2964   1.1367336930e+02   1.5246998107e+01     1.081934    0.7229612 -61.83  0.005783306    1.704    0.413
        22 -11.6968    108.0892    227.2129   1.1176223958e+02   1.3766998028e+01    0.9141045    0.6735636 -78.03  0.005809014    1.512    0.338
        23 -11.7995    222.6191    241.5665   9.2253179292e+01  -6.6508930427e+00    0.3988757    0.3319275   1.53  0.002912722    1.188    0.158
        24 -12.2292    229.4914    237.5280   9.0420401654e+01  -7.1902379063e+00    0.5769689    0.4049573 -14.63  0.003850528    1.446    0.308
        25  -9.9859    107.7057    242.8344   1.1349094813e+02   1.1132858299e+01    0.2312244    0.1754996  20.18   0.00146047    1.846    0.458
        26  -9.5379     66.6713    243.6441   1.2093228390e+02   1.6743651697e+01    0.1534318   0.07704777  50.39 0.0009151524    1.527    0.345
        27  -9.6047     45.1199    240.7466   1.2445066634e+02   1.9933167805e+01    0.1897891   0.09836571  47.87 0.0008551664    1.529    0.346
        28  -9.8999     74.1936    238.8244   1.1922100626e+02   1.6592321639e+01    0.1857245    0.1136711  64.91 0.0008049382    1.396    0.284
        29 -13.4522    221.1693    225.3989   8.9918637276e+01  -4.4333659742e+00     1.159635    0.9263703  20.23  0.007394945    1.031    0.030
        30 -11.8081    211.1942    219.6148   9.0766963671e+01  -2.0707802472e+00    0.4995949    0.3068686 -12.02  0.002402687    2.037    0.509
        31 -11.8805    191.0460    228.0291   9.5872891303e+01   5.2704239736e-02    0.3006931    0.2697645   8.53  0.002075844    1.149    0.130
        32 -11.0150    151.2597    229.2953   1.0364806450e+02   6.4660003589e+00    0.2930418    0.2202446  59.65  0.001798806    1.389    0.280
        33 -12.0219    199.3047    223.1290   9.3552131168e+01  -6.1220874031e-01    0.3546097     0.341801  85.07  0.002463534    1.449    0.310
        34 -13.7318     18.5353    247.7570   1.2917751914e+02   2.1664943695e+01    0.5769148    0.3446279  58.21  0.002649864    1.208    0.172
        35 -11.8028    248.0236    219.7923   8.4267803690e+01  -7.8007577678e+00    0.6059074     0.400236  -7.21  0.003596121    1.425    0.298
        36 -15.4273      8.1851    236.2146   1.3031223212e+02   2.4727195419e+01     1.411487    0.7988674 -69.58   0.01005963    1.914    0.477
        37 -11.9672    196.2214    196.2507   8.9524576651e+01   3.9889936216e+00     0.810201    0.6178957 -89.00  0.004034525    2.448    0.592
        38 -12.1217     89.1245    192.6655   1.1155859791e+02   2.3411437452e+01    0.9783941    0.6069652  74.88  0.005010739    1.816    0.449
        39 -11.0810     85.7787    188.4127   1.1175206492e+02   2.4816233671e+01    0.3742379    0.2597714  33.27  0.002068858    1.613    0.380
        40 -11.7100    247.6548    190.1943   7.8898093456e+01  -3.9324985828e+00     0.437443    0.3830517 -42.66  0.002835506    1.553    0.356
        41 -14.3339      3.7691    227.9646   1.3067553340e+02   2.6637772054e+01    0.9329975    0.3447655 -79.54  0.005158301    2.300    0.565
        42 -11.4413     59.2502    183.9473   1.1703174450e+02   2.9456814203e+01    0.3362609    0.2406936 -40.33  0.001636551    2.040    0.510
        43 -11.5878     64.9493    177.8248   1.1508433932e+02   3.0067401651e+01    0.2628659    0.2206366 -63.81 0.0006183325    1.294    0.227
        44 -10.0206    196.0019    169.5004   8.4370486282e+01   8.5688244616e+00    0.2204354    0.1342445  42.01 0.0007353062    1.575    0.365
        45 -11.6397     74.6697    167.2602   1.1149584919e+02   3.1122361332e+01    0.3254108    0.2588567  64.38 0.0005528315    1.171    0.146
        46 -13.2712     61.9953    163.9243   1.1405916529e+02   3.3602828561e+01    0.4897009    0.2818155 -46.89   0.00164773    2.125    0.530
        47 -12.5963     81.9301    160.1361   1.0871592903e+02   3.1708514821e+01    0.6164733    0.5384346  54.67  0.001234052    1.151    0.131
        48 -14.2604     66.4188    142.9167   1.0996301565e+02   3.7956232644e+01     2.624732     1.307755  89.44  0.005260606    3.460    0.711
        49  -9.0553    179.6932    148.2962   8.3205489047e+01   1.5863944394e+01    0.1459093    0.1212514  89.67 0.0003632458    1.587    0.370
        50 -10.5224    133.6266    144.2226   9.2938688096e+01   2.6313850126e+01     0.444591    0.1435555 -55.79  0.001257042    4.078    0.755
        51 -11.4068     96.9504    145.3074   1.0242814267e+02   3.2807591644e+01    0.3351084    0.2916901  34.75 0.0009990867    1.263    0.208
        52 -10.1253     99.9897    141.6854   1.0095155071e+02   3.3146568412e+01    0.3024726    0.2227713 -21.01  0.001409191    1.997    0.499
        53  99.0000     91.4635    241.6021   1.1634047394e+02   1.3712430114e+01    0.9279616    0.4898733  50.74  0.005108265    1.495    0.331
        54 -12.1947     84.9384    143.9855   1.0530401710e+02   3.5043731084e+01    0.3002732    0.2611625 -63.12  0.000415603    1.116    0.104
        55 -11.2243     44.1744    143.7417   1.1583085295e+02   4.0447680271e+01     0.409937     0.162513 -80.25    0.0015666    3.042    0.671
        56 -10.4337     35.0104    139.7117   1.1766041478e+02   4.2347613552e+01    0.1762953    0.1509793 -89.51 0.0007643199    1.063    0.060
        57 -11.7936    107.2973    131.9706   9.7038773779e+01   3.4143964526e+01    0.5308571    0.3783742  61.52  0.002270039    1.582    0.368
        58 -11.2853     95.8164    129.3448   9.9577067178e+01   3.6770117171e+01    0.3224422    0.2711254 -29.51  0.001142942    1.392    0.281
        59 -11.6112    236.0114    148.7741   7.2362016630e+01   4.3178161226e+00    0.2661712    0.1737127 -45.17  0.001317887    1.667    0.400
        60  -9.9857    105.9841    120.9703   9.4939005416e+01   3.6956940503e+01    0.2198497    0.2111883 -61.38 0.0003040035    1.024    0.023
        61  -9.7312    168.2926    113.3257   7.7239814607e+01   2.5426738235e+01    0.3117005     0.225592 -80.45  0.001152585    2.053    0.513
        62  -9.5573    204.5418    110.9504   6.9134600821e+01   1.7481767305e+01    0.3346256    0.1805135  33.62  0.001261474    2.430    0.588
        63 -10.3312     52.4683     89.7794   1.0389162453e+02   5.2360664758e+01    0.2294131    0.1915453  29.56 0.0009063392    1.377    0.274
        64 -11.5350     33.2212     64.0984   1.0439051286e+02   6.0084108739e+01    0.3880624    0.1786349 -53.01  0.001913714    1.724    0.420
        65  -9.6831     13.4699     60.4421   1.1118356464e+02   6.2355775894e+01    0.1205922   0.09422429 -52.35  9.02606e-05    1.013    0.013
        66 -12.2616     43.7531     55.3969   9.7722785488e+01   6.0865777767e+01     0.443252    0.3126912 -19.16  0.002556558    1.481    0.325
        67 -11.3537      9.2687     55.6502   1.1174827285e+02   6.3622786413e+01    0.3349334    0.1661017 -46.90  0.001902099    1.553    0.356
        68 -12.4701     18.1650     31.7991   1.0092402235e+02   6.7841315245e+01    0.6083269    0.2328586 -36.17  0.002912771    2.336    0.572
        69 -12.9341      7.2206     39.2143   1.0838606466e+02   6.7117450864e+01    0.7168053    0.3991599 -41.93  0.004434192    1.384    0.277
        70 -11.5279    249.2852    245.2675   8.8286149217e+01  -1.0845127413e+01    0.5737485    0.2914357 -24.94  0.003475435    2.043    0.511
        71 -11.9720     94.1974    210.2648   1.1260289567e+02   1.9065544782e+01     0.603715    0.5290053  80.72  0.003210609    1.112    0.101
        72  99.0000    104.9561    210.6953   1.1045927632e+02   1.7324775705e+01     0.916634    0.6371067 -41.78  0.005138508    1.974    0.493
        73  -9.3762    189.5048     15.4785   4.5227323177e+01   3.5855526397e+01     0.138966    0.1249395 -87.92 0.0001292683    1.018    0.018
