#   1 NUMBER                 Running object number                                     
#   2 MAG_AUTO               Kron-like elliptical aperture magnitude                    [mag]
#   3 X_IMAGE                Object position along x                                    [pixel]
#   4 Y_IMAGE                Object position along y                                    [pixel]
#   5 X_WORLD                Barycenter position along world x axis                     [deg]
#   6 Y_WORLD                Barycenter position along world y axis                     [deg]
#   7 A_WORLD                Profile RMS along major axis (world units)                 [deg]
#   8 B_WORLD                Profile RMS along minor axis (world units)                 [deg]
#   9 THETA_WORLD            Position angle (CCW/world-x)                               [deg]
#  10 FWHM_WORLD             FWHM assuming a gaussian core                              [deg]
#  11 ELONGATION             A_IMAGE/B_IMAGE                                           
#  12 ELLIPTICITY            1 - B_IMAGE/A_IMAGE                                       
         1  -8.3943     96.8310     13.3088   2.3551069373e+01   5.8879112406e+01    0.4677616    0.1255819 -35.42   0.00140207    3.740    0.733
         2  -8.0419     83.5106     11.0234   2.6342753850e+01   6.2238119611e+01    0.1940903    0.1330692 -20.14 0.0004305009    1.513    0.339
         3  -8.3649     55.8216     10.0037   3.6203157031e+01   6.8108150277e+01    0.1847848    0.1734147 -27.43 0.0005728252    1.304    0.233
         4  -7.6749    215.2620      9.3310   4.6158212671e+00   2.9372212151e+01    0.1178378   0.09664053  29.60 0.0002634827    1.572    0.364
         5  -8.2725     91.0136      8.9280   2.3107973662e+01   6.0727035831e+01    0.2116526    0.1656994 -68.23 0.0008329513    1.722    0.419
         6  -7.9918     12.7155      8.3577   6.0323189679e+01   7.4444648073e+01    0.1038725   0.09627525 -85.14 0.0004687402    1.673    0.402
         7  -8.0496     70.2662      5.9396   2.8157308305e+01   6.5706767111e+01    0.1842626    0.1584279  -1.28  0.000551076    1.130    0.115
         8  -8.3153     33.7076      5.3019   4.4774923613e+01   7.2446981936e+01    0.2158086      0.14034 -42.12  0.001102455    1.748    0.428
         9  -8.4337     79.1900      3.7535   2.4019365097e+01   6.3975619994e+01    0.2296868    0.1701121 -32.52  0.001274158    1.500    0.333
        10  -7.7273     44.3645      2.6801   3.7329000764e+01   7.1099632284e+01    0.1148611      0.10421 -74.13 0.0002852273    1.780    0.438
        11  -7.4114    101.3528      7.7305   1.9866649716e+01   5.8355426215e+01    0.1358354     0.106132 -75.01 0.0004809427    1.630    0.387
        12  -7.9499     62.5174      1.4262   2.8522110491e+01   6.7805258192e+01    0.1296886    0.1142145  23.15 0.0001784463    1.068    0.064
        13  -7.3002     39.4660      1.4532   3.9118240727e+01   7.2079217729e+01    0.1259306    0.1055623   4.76 7.380136e-05    1.046    0.044
        14  -7.9658     10.4323    244.9339   9.4277447707e+01   2.2797943226e+01    0.1506044    0.0518582  66.91 0.0008067192    2.583    0.613
        15  -9.2292    241.8675    237.3764   5.0142744306e+01  -5.4982254307e+00    0.5106055    0.2177573  -8.42  0.002242906    3.950    0.747
        16  -8.5035    249.0832    249.3273   5.0764152832e+01  -7.5110816445e+00    0.2438964    0.1290053  -6.77  0.001595599    1.791    0.442
        17  -9.6118    248.7812    241.7716   4.9694722246e+01  -6.7514076589e+00    0.3634086    0.1800178 -33.42  0.001709344    2.335    0.572
        18  -8.9641    248.0437    234.3874   4.8689437707e+01  -5.9299459311e+00    0.2226803    0.1722475 -21.67  0.001443405    1.577    0.366
        19  -9.3481    246.7206    228.3274   4.7957227982e+01  -5.1469875504e+00    0.3631495    0.1641305 -26.81  0.002067695    2.130    0.531
        20  -9.3397    233.3337    246.0935   5.2836841796e+01  -5.3610583911e+00    0.4431272    0.2133747 -19.13  0.002194546    2.188    0.543
        21  -9.3450    211.4458    247.2242   5.6701255192e+01  -2.7670297839e+00    0.3038785    0.2211676 -56.81   0.00174979    3.240    0.691
        22  -8.3288     94.0604    249.4162   7.8940376072e+01   1.2733787105e+01    0.2614028   0.09637057  56.20  0.001069246    3.872    0.742
        23  -8.4179    201.8377    242.8083   5.7767039594e+01  -1.0218054134e+00    0.1795515    0.1493342 -31.42 0.0007521522    1.629    0.386
        24  -9.0290     77.6439    242.6960   8.1578753988e+01   1.5885980135e+01     0.212423     0.113708  73.31  0.001163365    2.460    0.594
        25  -9.0023    194.0731    240.0582   5.8775511464e+01   3.4397068137e-01    0.2670523    0.1605041 -44.28  0.001415755    2.329    0.571
        26  -9.2952    183.3150    240.1505   6.0760267909e+01   1.8058881770e+00    0.3596443    0.2302017  56.59   0.00194013    2.854    0.650
        27  -9.3815    160.0933    240.2746   6.5155045297e+01   5.0388893735e+00    0.2857566     0.225067  74.19  0.001521317    2.166    0.538
        28  -7.9170     88.1590    242.1434   7.9472410924e+01   1.4646833822e+01    0.1546851    0.1088692  60.69 0.0005863612    1.370    0.270
        29  -8.8482    146.7695    240.0352   6.7700346234e+01   6.9570978979e+00    0.2431528    0.1802043  77.32  0.001136862    2.322    0.569
        30  -8.6118    135.6086    238.6680   6.9726407761e+01   8.7357608106e+00    0.2192848    0.1395889  57.88  0.001158513    1.985    0.496
        31  -9.0680    230.9854    236.3611   5.1784206326e+01  -4.0600096609e+00    0.3066316    0.2195228 -25.34  0.001572407    1.578    0.366
        32  -8.1612    209.1910    238.2148   5.5806894635e+01  -1.4636287428e+00    0.1393755    0.1203536  19.37 0.0005184296    1.376    0.273
        33  -8.1375    129.0062    238.2571   7.0986121287e+01   9.7291042036e+00    0.1566197    0.1183159  63.81  0.000587352    1.629    0.386
        34  -9.9295    214.9207    233.3772   5.4084811909e+01  -1.6634208337e+00    0.4176776    0.3499784 -82.37  0.002486475    3.378    0.704
        35  -8.7110    169.2554    243.2513   6.3797071859e+01   3.3587767441e+00     0.223746    0.1635251  50.83 0.0008450559    1.719    0.418
        36  -9.0483    203.0851    234.3185   5.6323571999e+01  -1.8815151151e-01      0.24013    0.1661527 -43.12   0.00115125    2.061    0.515
        37  -9.7794    175.6625    233.1529   6.1231582310e+01   3.7874001352e+00    0.3885107    0.2388008 -54.56  0.002201682    2.652    0.623
        38  -8.3242    170.2046    235.7580   6.2628156930e+01   4.2164002689e+00    0.1661005    0.1152977  62.42 0.0006101574    2.572    0.611
        39  -8.5493    194.7782    233.0976   5.7652661946e+01   1.1009928306e+00    0.2935757    0.2280692  70.56  0.001522468    2.983    0.665
        40  -7.9653    152.7706    235.0060   6.5902511617e+01   6.8187282253e+00    0.1291993    0.1007548 -40.82 0.0003626891    1.602    0.376
        41  -9.0565    109.1199    234.3227   7.4548739439e+01   1.3122116720e+01    0.3942284    0.1698682  52.06  0.001529817    2.527    0.604
        42  -8.1708     99.9529    234.4304   7.6415549452e+01   1.4355934523e+01    0.2278524    0.1120406  64.62  0.001019132    3.262    0.693
        43  -8.1988    122.9666    234.0113   7.1716727423e+01   1.1236020763e+01    0.1903524    0.1224466  56.97 0.0008308435    1.751    0.429
        44  -8.6729     78.1585    233.7125   8.0757239827e+01   1.7331068003e+01     0.191843    0.1393348  74.30  0.001290541    1.453    0.312
        45  -8.3036     70.9719    234.0000   8.2224401799e+01   1.8178609728e+01    0.2250436      0.10346  44.64 0.0008161413    1.660    0.398
        46  -8.3085     67.5191    231.5156   8.2727300599e+01   1.9034327351e+01    0.2361515    0.1186745  64.29  0.001267398    2.176    0.541
        47  -8.4202      8.4629    234.5063   9.4289850309e+01   2.4766960886e+01    0.1050575   0.07532039  59.32 0.0001573604    1.008    0.008
        48  -8.7384    144.4410    232.8131   6.7269741719e+01   8.3409552741e+00    0.3279268    0.1410264  53.03  0.001287274    3.871    0.742
        49  -8.3984    139.9196    229.9339   6.7814729644e+01   9.4313588118e+00    0.2002451    0.1464411  67.24 0.0006513195    1.945    0.486
        50  -8.9363    132.7223    232.8168   6.9614155689e+01   1.0030697356e+01    0.1974451    0.1620737  72.11  0.001065488    1.587    0.370
        51  -9.5449    186.3592    230.4418   5.8827490863e+01   2.6209655813e+00    0.2889135    0.2435877 -85.27  0.001431881    2.396    0.583
        52  -8.7568    157.7082    231.9919   6.4542995625e+01   6.5363270265e+00    0.2205762    0.1258395  43.19 0.0008063498    1.608    0.378
        53  -8.4962     91.9884    231.2891   7.7735415616e+01   1.5949956557e+01    0.2254843     0.125448  71.95 0.0005829406    2.583    0.613
        54  -9.1440    236.0464    229.9591   4.9958300236e+01  -4.0043871705e+00    0.3200423    0.1370834 -28.41   0.00123703    2.349    0.574
        55  -8.8483    151.4665    228.9647   6.5377348129e+01   7.8879280267e+00    0.2258123    0.1755785  65.77  0.001105142    1.835    0.455
        56  -9.5241    148.5992    224.3136   6.5336105446e+01   9.0113185563e+00    0.3301203    0.2413827  73.99  0.001774888    2.306    0.566
        57  -8.6129      1.6319    230.3647   9.5406007549e+01   2.6097554631e+01     0.169944   0.07611549  57.96  0.001079812    1.634    0.388
        58  -7.9427    229.5032    228.5117   5.0829395097e+01  -3.0146295984e+00    0.1142436   0.08468872  10.85 2.057864e-05    1.047    0.045
        59  -8.6889    162.4085    227.7692   6.3050427905e+01   6.4547393554e+00    0.2923152    0.1751719  51.40  0.001582404    2.077    0.519
        60  -9.0119    127.8892    227.0338   6.9904947456e+01   1.1637161971e+01    0.3026695    0.1893805  58.98  0.001217674    1.995    0.499
        61  -8.1947    119.8952    227.4168   7.1593617272e+01   1.2729709459e+01    0.2123524    0.1494873  70.68  0.001091941    1.901    0.474
        62  -7.7558    223.2415    226.9587   5.1656723496e+01  -2.0231529010e+00    0.1296774   0.08621351 -23.16 0.0004729928    1.521    0.342
        63  -8.0874     49.7094    226.7744   8.5981169850e+01   2.1975007101e+01    0.2000449    0.0854867  57.23  0.001038975    2.136    0.532
        64  -8.4540    206.0390    225.8630   5.4522225548e+01   4.3578108704e-01    0.1901847     0.151209 -15.16 0.0007341221    1.312    0.238
        65  -8.5233    200.2300    225.6673   5.5548181839e+01   1.2715346376e+00    0.2439488    0.1335738 -32.04 0.0008802487    2.007    0.502
        66  -8.9032    180.6704    224.0985   5.8978623946e+01   4.2879896251e+00    0.2697798    0.2016511  46.73 0.0009977218    1.592    0.372
        67  -8.8932     94.2572    224.1751   7.6576337006e+01   1.6872318544e+01    0.3642094    0.1626147  58.75  0.001592694    2.999    0.667
        68  -8.7494    216.4724    223.1655   5.2242038433e+01  -6.7025051534e-01    0.2064006    0.1856377 -47.54  0.001097208    1.904    0.475
        69  -8.5965    173.0390    222.8424   6.0269921041e+01   5.5873437516e+00    0.2269243    0.1698433 -65.20 0.0007493076    2.335    0.572
        70  -8.0200    113.7940    223.7763   7.2442937149e+01   1.4208779328e+01    0.1696507    0.1206894  52.64 0.0004698287    1.347    0.258
        71  -8.7607    104.6899    223.4892   7.4317581611e+01   1.5549136664e+01     0.287719    0.1841654  68.56  0.001607698    1.994    0.498
        72  -7.9545     38.2850    224.6418   8.8142118394e+01   2.3618394722e+01    0.1211163   0.06228521  60.51 0.0007020772    1.676    0.403
        73  -9.1401    160.5537    221.2211   6.2503852266e+01   7.6883132396e+00    0.5519326    0.2263798  51.21  0.002013968    4.234    0.764
        74  -9.3089    239.2680    220.9620   4.7997569827e+01  -3.4252886532e+00      0.28706    0.2012353 -28.30  0.001366729    1.603    0.376
        75  -9.0582    225.7452    221.6915   5.0394292753e+01  -1.7449226492e+00    0.2415271    0.1826674  36.83  0.001012557    1.599    0.375
        76  -9.3033    192.4060    221.2232   5.6319399479e+01   2.9647913845e+00    0.2726278    0.2279798  57.62  0.001290785    1.872    0.466
        77  -9.1117    120.5159    219.0879   7.0478510343e+01   1.4026021620e+01    0.4662039    0.2116851  56.78  0.001861416    3.482    0.713
        78  -8.4547     83.1685    220.6527   7.8568345676e+01   1.8986714389e+01    0.2990714     0.125262  54.03  0.001369536    2.499    0.600
        79  -8.2997    202.5443    220.0322   5.4253433643e+01   1.6613761473e+00    0.1591165    0.1093137 -25.72 0.0004855958    1.534    0.348
        80  -8.0514     73.2971    220.6579   8.0652695066e+01   2.0263640028e+01    0.1260041   0.07345454  60.07 0.0004013568    1.666    0.400
        81  -7.5037     27.6407    220.6931   9.0052455038e+01   2.5449414603e+01   0.09634134   0.08483638 -27.49 0.0006071654    1.731    0.422
        82  -8.4138    210.0535    219.0301   5.2730636662e+01   7.2510531828e-01    0.1788294    0.1424607  12.77 0.0004868349    1.085    0.078
        83  -9.0233    248.1671    217.2955   4.5949538032e+01  -4.1450663738e+00    0.3162729    0.2131479  55.20  0.001627785    4.031    0.752
        84  -9.2889    132.9915    215.9676   6.7449703980e+01   1.2688647757e+01    0.4452316    0.2714911  68.88   0.00204758    3.042    0.671
        85  -8.5785     62.5288    217.3987   8.2653081570e+01   2.2205686555e+01    0.3446072    0.1133961  53.59  0.001424269    3.123    0.680
        86  -8.7710     51.7569    217.3838   8.4918089332e+01   2.3481163243e+01    0.2584036     0.132552  78.91  0.001094683    2.252    0.556
        87  -8.6380    169.3731    216.0075   5.9982706926e+01   7.1275529577e+00    0.2597576    0.2083427 -85.56 0.0009848438    2.304    0.566
        88  -8.5137    142.8817    216.2470   6.5416255419e+01   1.1140162193e+01    0.2073304    0.1674541  67.53  0.001002797    1.631    0.387
        89  -7.7399    111.8711    217.0056   7.2065769356e+01   1.5648702729e+01     0.195821    0.1307261  71.26  0.001068751    2.013    0.503
        90  -8.8564    232.2504    214.2187   4.8069252825e+01  -1.7382844183e+00    0.2629552    0.1719501 -28.71   0.00117592    1.598    0.374
        91  -8.1795    154.4910    214.9910   6.2841129198e+01   9.5614855489e+00    0.1606329    0.1273565 -47.41 0.0007853548    1.565    0.361
        92  -8.0236    196.6640    214.6457   5.4491688414e+01   3.2213915335e+00    0.1311616    0.0805586   5.66 0.0007043577    1.797    0.443
        93  -8.5757    185.7976    214.1512   5.6478915333e+01   4.9068382259e+00    0.1786272    0.1551437  32.88 0.0008290519    1.295    0.228
        94  -8.9085     92.9480    213.8355   7.5787929826e+01   1.8908444687e+01    0.3236479    0.1548807  52.42  0.001419576    2.075    0.518
        95  -9.3895     72.6950    211.2872   7.9942941111e+01   2.2094628282e+01    0.6066583    0.2142847  57.83  0.002191278    4.132    0.758
        96  -8.2999     13.5235    214.4611   9.2573476115e+01   2.7972234653e+01    0.1064552   0.08652157  64.21 0.0002624697    1.104    0.094
        97  -9.4377    213.8638    211.8985   5.0890613645e+01   1.0865050424e+00    0.3066017    0.2573519  50.36  0.001564306    1.842    0.457
        98  -8.7117    161.9847    212.4490   6.0936942320e+01   8.8001183130e+00    0.2228941    0.1832331  54.90 0.0009169699    1.511    0.338
        99  -7.8344    225.0064    212.2060   4.8976860288e+01  -5.1430416277e-01     0.146677    0.1199477 -33.19 0.0006747601    1.631    0.387
       100  -8.0448    106.6457    212.3896   7.2648807057e+01   1.7227562751e+01    0.1944087    0.1259196  57.90  0.001065759    1.635    0.388
       101  -8.9830    204.2256    210.6173   5.2433052479e+01   2.6480427016e+00    0.2063684    0.1890627 -34.71 0.0008137741    1.549    0.355
       102  -9.4923    175.4521    209.9066   5.7837316855e+01   7.0990935437e+00    0.3730524    0.2413133  59.15  0.001703622    2.652    0.623
       103  -8.7611    147.9977    210.2523   6.3502086795e+01   1.1324275781e+01    0.2903843    0.2117149  69.86  0.001217114    2.132    0.531
       104  -8.9212    116.3238    210.0990   7.0262957696e+01   1.6212124314e+01    0.3120836    0.2010322  61.92 0.0009749999    1.894    0.472
       105  -8.6340     33.4444    210.9621   8.8328884448e+01   2.6713815971e+01     0.262967   0.06681508  53.83  0.001034087    3.587    0.721
       106  -9.3110    236.5499    207.8660   4.6281414009e+01  -1.5651391516e+00    0.2997797    0.2228502 -48.17  0.001443174    2.386    0.581
       107  -8.3018    192.2388    210.2071   5.4615293874e+01   4.4885054471e+00    0.1508669    0.1392188  28.35  0.000481147    1.362    0.266
       108  -8.6279     85.7144    209.4582   7.6908838538e+01   2.0720428548e+01    0.3093522    0.1608387  60.69  0.001276701    2.237    0.553
       109  -8.1462     47.2275    209.9965   8.5346897654e+01   2.5414844977e+01    0.2710184   0.08403181  50.16  0.001177952    2.732    0.634
       110  -9.5286    246.4500    207.0046   4.4505763003e+01  -2.7745784908e+00    0.2513632    0.1690219 -23.61  0.000664632    1.422    0.297
       111  -8.0599    156.5251    207.7345   6.1349745068e+01   1.0394688386e+01    0.1475577    0.1281951 -65.02  0.000928092    1.576    0.365
       112  -8.3805    139.2109    208.0722   6.5048079346e+01   1.3058350466e+01    0.2386306    0.1458954  55.32  0.001017313    1.997    0.499
       113  -8.1258    126.6349    208.3534   6.7794189618e+01   1.4957891577e+01    0.1966618    0.1353933  58.36  0.001084952    1.671    0.402
       114  -8.6744      5.8235    207.9744   9.3850957931e+01   2.9894686546e+01    0.1949875   0.08182713  65.54  0.001079259    2.012    0.503
       115  -9.2726     99.2925    206.0468   7.3521198751e+01   1.9461217410e+01    0.3399591    0.2328578  70.74  0.001258814    1.745    0.427
       116  -9.3881    194.8916    203.3966   5.2986333316e+01   5.0425734465e+00    0.3187014     0.281615  56.45  0.001358478    1.667    0.400
       117  -9.4073    192.3376    197.2841   5.2437968719e+01   6.3229458447e+00      0.37633    0.3009474 -49.19  0.001606558    1.728    0.421
       118  -9.0388    183.8676    203.9447   5.5213954705e+01   6.6732679563e+00    0.2865647    0.2264983  61.48  0.001321396    1.961    0.490
       119  -8.0329    109.1782    205.1600   7.1213261156e+01   1.8177436775e+01     0.177047    0.1363948  62.81 0.0007972844    1.383    0.277
       120  -8.3817     56.2598    205.1332   8.3009063585e+01   2.5327904672e+01    0.2359155    0.1129793  55.25 0.0009973216    1.925    0.481
       121  -9.6045    163.7467    202.7932   5.9087002990e+01   1.0039010751e+01    0.4196156    0.2452478  51.56  0.001423425    2.119    0.528
       122  -8.4940    131.4867    203.9861   6.6136314877e+01   1.4972882611e+01    0.2534104    0.1565587  50.12  0.001077263    1.645    0.392
       123  -9.3464    250.1730    201.6751   4.2991702686e+01  -2.6466886464e+00    0.3994283     0.150501 -32.96  0.001404714    2.538    0.606
       124  -9.2856    245.8846    193.4514   4.2233964181e+01  -1.1035915651e+00    0.2934096     0.233047 -57.01  0.001708918    2.651    0.623
       125  -8.5830    211.0088    201.7860   4.9704318003e+01   2.8242246736e+00    0.2348653    0.1628001 -49.00 0.0008038856    2.215    0.549
       126  -9.0755    243.1294    200.7720   4.3972823536e+01  -1.6079132631e+00     0.273087    0.1456458 -31.16 0.0008985625    1.831    0.454
       127  -8.7010    140.5917    201.0869   6.3733079029e+01   1.4038013771e+01    0.3000464    0.2165107  67.60  0.001387826    1.975    0.494
       128  -8.2270     10.9542    202.4819   9.2578368837e+01   3.0529865625e+01    0.1624866   0.09412783  35.60   0.00103155    1.589    0.371
       129  -8.0322    221.8955    201.0622   4.7629055948e+01   1.3214174183e+00    0.1671756    0.1404245 -51.66 0.0006356787    1.995    0.499
       130  -8.2682     79.8428    200.7480   7.7307903764e+01   2.3205982191e+01    0.2349203    0.1398418  71.91 0.0008275784    2.048    0.512
       131  -9.3969    149.5297    198.4552   6.1400382260e+01   1.3050070074e+01    0.3534653    0.2609582  80.33  0.001363456    2.343    0.573
       132  -8.8814    124.1129    199.1337   6.7078780030e+01   1.7002709067e+01    0.2953681    0.2107603  77.04  0.001209272    2.028    0.507
       133  -9.1334    112.9521    198.2604   6.9469973727e+01   1.8898855970e+01    0.4253839    0.2274806  60.84  0.001837365    2.685    0.628
       134  -9.0678    237.0441    198.1370   4.4518001380e+01  -4.5805981006e-01    0.2520205    0.1512624 -34.73 0.0009885775    1.804    0.446
       135  -8.5752    177.0101    198.5986   5.5692642300e+01   8.5696819069e+00    0.2064675    0.1847658 -63.79  0.000765739    1.617    0.381
       136  -8.9759     88.7981    198.2977   7.4990750460e+01   2.2455535480e+01    0.3594289    0.1998952  64.80  0.001705208    2.266    0.559
       137  -8.3798    202.2643    197.6036   5.0599381177e+01   4.7260075891e+00    0.2037794    0.1474551 -41.54 0.0008060724    1.715    0.417
       138  -9.0968     60.9983    196.6001   8.1199214903e+01   2.6475909696e+01    0.4114345    0.1836156  63.93  0.001779174    2.804    0.643
       139  -8.4725     12.4427    196.8444   9.2007598441e+01   3.1530681852e+01    0.2125664   0.09395174  89.82  0.001138058    2.132    0.531
       140  -8.8550    215.9165    195.3146   4.7685698901e+01   2.9605754811e+00     0.236096    0.1682997 -44.44 0.0009684688    1.916    0.478
       141  -9.1498    185.2903    194.7159   5.3375782568e+01   7.8321345162e+00    0.2356015    0.2193632 -64.09 0.0006710943    1.565    0.361
       142  -8.0762    133.0467    195.9510   6.4623202447e+01   1.6161436509e+01    0.2042291    0.1495587  62.79 0.0005939893    1.691    0.409
       143  -8.1261     53.1781    195.9925   8.2932755419e+01   2.7540130035e+01    0.1934211    0.1048981  52.24  0.001041118    1.610    0.379
       144  -8.6407    224.6058    193.9745   4.5906084545e+01   1.8471955741e+00    0.2259953     0.170164 -40.33  0.001192107    1.739    0.425
       145  -7.7398    209.4889    195.4828   4.8884838503e+01   3.9118070408e+00    0.1248416    0.1041228  11.17 7.333775e-05    1.088    0.081
       146  -9.0728    161.1006    194.2217   5.8251055217e+01   1.1869098551e+01    0.2792113    0.2166747  74.21  0.001035795    2.080    0.519
       147  -8.0343    230.9731    194.0017   4.4810863987e+01   9.1783635813e-01    0.1581348    0.1524945 -33.99 0.0006467518    1.670    0.401
       148  -8.7283     77.0750    193.8427   7.7202663016e+01   2.4969281746e+01    0.2558704    0.1796345  58.91 0.0007264877    1.338    0.253
       149  -8.8588     44.0738    193.4768   8.4803468861e+01   2.9098486089e+01    0.3338617    0.1585195  62.88  0.001646946    2.148    0.535
       150  -8.3869    198.9870    191.3900   5.0125787911e+01   6.1324648096e+00     0.191223    0.1843491 -59.82 0.0006730048    1.546    0.353
       151  -8.1137    179.2661    191.4675   5.4019523682e+01   9.3176104569e+00    0.1908558    0.1627003 -65.38 0.0005650555    1.758    0.431
       152  -8.3931    172.4609    191.5188   5.5420135022e+01   1.0433460841e+01    0.2058265    0.1755464  65.86 0.0005594284    1.655    0.396
       153  -9.1389    139.6051    190.3746   6.2299946265e+01   1.6102528892e+01    0.3616927    0.2566012  76.02  0.001092962    2.303    0.566
       154 -10.2710     92.4205    188.7220   7.2984327119e+01   2.3861091173e+01    0.9505302     0.237352  45.19  0.003064577    3.772    0.735
       155  -8.2395     22.3504    191.7060   8.9578823667e+01   3.1687904243e+01     0.128157   0.06522726  57.87 0.0007031468    1.678    0.404
       156  -8.5902    148.6373    189.1362   6.0098036785e+01   1.4819695410e+01    0.2497684    0.1739598 -63.87  0.001254769    2.025    0.506
       157  -7.7834    210.3205    189.6147   4.7683040793e+01   4.6019663224e+00    0.1124479    0.1043968 -87.50 0.0007015746    1.843    0.457
       158  -9.2658    156.1230    187.4620   5.8183295061e+01   1.3853471345e+01    0.2990091    0.2378715 -64.30 0.0008767764    1.715    0.417
       159  -8.9966    129.2634    188.4400   6.4332454995e+01   1.8166198050e+01    0.2635767     0.206461  66.77 0.0007714431    1.550    0.355
       160  -8.7635     34.3304    187.9624   8.6621597842e+01   3.1296753732e+01    0.3092704    0.1374196  72.83  0.001428414    2.552    0.608
       161  -8.3055    237.2610    188.0562   4.2676308244e+01   7.7221385562e-01    0.1715255    0.1301051 -11.77 0.0005748109    1.136    0.120
       162  -8.6520    216.5093    187.5387   4.6178931080e+01   3.9324452377e+00    0.2072005    0.2036406   6.81 0.0008023612    1.507    0.336
       163  -8.8446    191.4782    187.1608   5.0819250129e+01   7.9786165767e+00     0.282735    0.2217731 -68.17  0.001238833    2.287    0.563
       164  -9.5384    120.5475    185.9411   6.5961667352e+01   2.0067533689e+01    0.4162339    0.2574278 -75.96  0.001903201    2.529    0.605
       165  -8.9642     54.6835    186.7421   8.1754915099e+01   2.9300294940e+01    0.3868842    0.1721613  64.54  0.001304315    2.787    0.641
       166  -9.4893    248.7503    185.4220   4.0322965416e+01  -5.1911173412e-01    0.3212238    0.2003887  -5.81  0.001913187    1.475    0.322
       167  -8.3114    230.3247    187.0477   4.3663394045e+01   1.9125472808e+00    0.1723495    0.1342563 -13.14 0.0005445999    1.153    0.133
       168  -8.7775    164.8101    186.5021   5.6153476324e+01   1.2547157250e+01     0.230571    0.2047584  68.32 0.0007395826    1.501    0.334
       169  -9.1236    109.5394    185.7527   6.8520820208e+01   2.1863249239e+01    0.3691889    0.2481182  77.98  0.001040877    2.126    0.530
       170  -8.8531    210.1566    183.8471   4.6656398849e+01   5.4477792545e+00    0.2787562    0.1637912 -25.80  0.001058883    1.695    0.410
       171  -8.7824    202.8608    184.4303   4.8126985070e+01   6.5334324638e+00    0.2110704    0.1790133 -42.99 0.0007371781    1.532    0.347
       172  -8.5925    182.9826    184.5096   5.2030724193e+01   9.8035925641e+00     0.221733    0.1874792 -53.10 0.0008718582    1.587    0.370
       173  -9.5424     65.4171    183.2212   7.8826146892e+01   2.8728786765e+01    0.5112642    0.2170178  59.97  0.002025153    3.045    0.672
       174  -8.6076    224.2201    183.5076   4.4066261206e+01   3.3020588266e+00    0.2159295    0.1537112 -26.48 0.0005771272    1.362    0.266
       175  -8.0571    197.2736    183.4638   4.9016089790e+01   7.5890846269e+00    0.1946095    0.1587274 -53.74 0.0006805851    1.764    0.433
       176  -9.0067    174.1929    183.2359   5.3601887930e+01   1.1498725196e+01    0.2845733    0.2265564 -59.83  0.001019995    1.770    0.435
       177  -7.6262    242.6441    183.2888   4.0913697032e+01   6.0617006562e-01   0.09997445   0.09885927 -20.08 0.0007025576    1.678    0.404
       178  -8.8305     44.5069    182.3855   8.3788506962e+01   3.1405863916e+01    0.2955435    0.1559078  54.97 0.0009307559    1.736    0.424
       179  -7.8572      1.7853    183.5721   9.3719639553e+01   3.5145166169e+01    0.1568847   0.08160815  44.35 0.0009416143    1.621    0.383
       180  -7.8230    235.3585    181.2353   4.1735230489e+01   1.9305542206e+00    0.1598067    0.1028131 -34.06 0.0004035544    1.610    0.379
       181  -9.1769    147.3606    180.3630   5.8898981267e+01   1.6622086083e+01    0.2775975    0.2348551 -85.60 0.0008692702    1.626    0.385
       182  -9.4567     25.4881    178.5167   8.8019853827e+01   3.4199538934e+01    0.6243873    0.2131654  73.29  0.002203707    4.406    0.773
       183  -7.8319    240.5165    180.0257   4.0654417929e+01   1.3302254179e+00    0.1768448    0.1046989 -27.86 0.0006262849    1.543    0.352
       184  -8.5598    137.7115    179.3175   6.0914442203e+01   1.8478314496e+01    0.2837456    0.2113723  69.11  0.001449004    1.829    0.453
       185  -8.7481    250.5228    172.8307   3.7695451572e+01   8.0297936997e-01    0.2218485    0.1408714 -25.59 0.0007150212    1.380    0.275
       186  -9.4364    248.9123    177.1364   3.8761450265e+01   4.8899915455e-01    0.2895014    0.2113495 -27.76  0.001141215    1.362    0.266
       187  -8.7905    247.3369    173.6900   3.8359894685e+01   1.1528868429e+00    0.1941909     0.152108  -5.57 0.0005595819    1.025    0.024
       188  -9.2861    191.4837    178.2017   4.9164857822e+01   9.3684059124e+00    0.2603879    0.2277547  54.32 0.0006436635    1.508    0.337
       189  -8.1144    169.5654    178.7093   5.3750324104e+01   1.3057687117e+01    0.1669046    0.1330838 -51.46   0.00066255    1.553    0.356
       190  -8.7448    205.0961    177.3786   4.6383597549e+01   7.2160717672e+00    0.2602411     0.171295 -41.30 0.0009041859    1.736    0.424
       191  -8.5185    129.3160    177.2312   6.2518354649e+01   2.0315244657e+01    0.2943696     0.184225  64.38 0.0009155649    2.363    0.577
       192  -8.8418     35.8136    176.3221   8.5376712146e+01   3.3660741532e+01    0.4740184    0.1781707  75.10  0.001663735    4.287    0.767
       193  -8.5170    231.1464    176.7783   4.1605782969e+01   3.1567619661e+00    0.2060216    0.1490449 -32.00 0.0006662455    1.440    0.305
       194  -8.5250    217.3808    177.0612   4.4064781300e+01   5.2674830476e+00    0.1972149    0.1818571  53.78 0.0008990106    1.589    0.371
       195  -9.3312    183.0737    175.8903   5.0415408145e+01   1.1182077269e+01     0.302738    0.2129719 -46.47 0.0008856514    1.698    0.411
       196  -8.1580     97.0494    177.4482   7.0346314484e+01   2.5510783321e+01    0.1867553    0.1185439   8.80 0.0008080452    2.520    0.603
       197  -9.0870     88.9678    176.6031   7.2228072307e+01   2.6905945010e+01    0.2538321    0.1783258  84.47 0.0007842008    1.714    0.417
       198  -9.2296     58.3409    175.0071   7.9689228553e+01   3.1408191252e+01    0.4833798    0.2045448  68.17   0.00168437    4.046    0.753
       199  -9.2449     55.8120    170.6326   7.9856654408e+01   3.2692183169e+01    0.7498055    0.3317674  73.53  0.002690005    3.853    0.740
       200  -8.4151     13.0627    176.4274   9.0810403970e+01   3.5761919494e+01    0.2598882    0.1206047  57.80  0.001202692    1.889    0.471
       201  -8.2712    211.6271    175.8685   4.4881258810e+01   6.3681003707e+00    0.1702573    0.1150182 -39.74  0.000752649    1.665    0.399
       202  -9.2086    158.7601    174.7610   5.5360660112e+01   1.5647925087e+01    0.3167386    0.2531113  73.93 0.0009937501    1.837    0.456
       203  -9.4399    104.3294    174.5909   6.8130190882e+01   2.4977041346e+01    0.5317583    0.2592653  59.03   0.00199615    3.063    0.674
       204  -8.7349    224.5245    174.2609   4.2264200540e+01   4.5296065970e+00    0.2193019    0.1131058 -36.73 0.0007312886    1.960    0.490
       205  -9.6688     81.4549    155.2168   7.1085720331e+01   3.2776279660e+01    0.5048762    0.4662244 -86.42  0.001802696    1.079    0.073
       206 -10.5460     75.9608    170.9165   7.4748521694e+01   3.0011366777e+01    0.9646167    0.4231893 -83.55  0.003161721    4.543    0.780
       207  -8.9177     74.8503    159.2207   7.3455835799e+01   3.2806189232e+01    0.3140616    0.2362099 -31.23  0.001483976    1.732    0.423
       208  -9.4419    175.7966    172.3390   5.1243130622e+01   1.3051281860e+01     0.320823    0.2817038 -59.73  0.001105971    1.508    0.337
       209  -7.9974    194.3103    172.2880   4.7477563410e+01   9.8198457024e+00    0.1372537   0.09442212   6.53 0.0003367227    1.578    0.366
       210  -8.2148    142.9965    172.3298   5.8475228083e+01   1.8891544834e+01     0.199458    0.1685962  40.20 0.0005078501    1.116    0.104
       211  -9.4844    121.3998    170.4405   6.3272213590e+01   2.3025158237e+01    0.3594826    0.2592436 -86.57 0.0009870991    1.997    0.499
       212  -9.0019     45.2816    170.8049   8.2542524843e+01   3.3875249152e+01    0.4043947    0.1938412  76.72  0.001702172    2.646    0.622
       213  -8.2685    134.6610    171.3864   6.0254206136e+01   2.0541769295e+01    0.2082132    0.1597871  65.71 0.0006489961    1.623    0.384
       214  -9.1923    230.4746    169.2649   4.0272437851e+01   4.2881743738e+00     0.314275    0.1864114 -36.35  0.001712409    1.715    0.417
       215  -8.3647    205.8368    170.0893   4.4835403412e+01   8.1929088447e+00    0.1878364    0.1722388 -25.11 0.0005923638    1.284    0.221
       216  -8.3966    198.5100    169.9806   4.6209731776e+01   9.4603216390e+00    0.2021649    0.1861444 -72.07 0.0006951696    1.610    0.379
       217  -8.6335    149.7718    169.3925   5.6382089789e+01   1.8241829166e+01    0.2495067    0.2142419  79.55 0.0007632815    1.541    0.351
       218  -8.1008    244.3976    169.2002   3.7967709631e+01   2.1663081648e+00    0.1613049    0.1021655 -34.96 0.0004183974    1.602    0.376
       219  -8.0925    237.3164    169.1025   3.9097301674e+01   3.2490024720e+00    0.1770083    0.1348685 -18.39 0.0007579079    1.160    0.138
       220  -9.2202    167.0487    168.3966   5.2349143197e+01   1.5304505800e+01    0.3408528    0.2562657  58.77  0.001305067    1.712    0.416
       221  -8.5718    218.8207    168.1451   4.2077975720e+01   6.3183365820e+00    0.1834695    0.1672369  -8.10 0.0005807301    1.222    0.181
       222  -8.0327    211.4986    168.0034   4.3373390263e+01   7.5541334608e+00    0.1682685    0.1127137 -55.24 0.0008096258    2.461    0.594
       223  -8.7200    111.8149    167.4497   6.5135308136e+01   2.5264301948e+01     0.323332    0.2148169  66.72  0.001153966    1.973    0.493
       224  -8.0671     88.7046    168.4026   7.1142388747e+01   2.8726737634e+01     0.219151    0.1437183  63.03 0.0009770311    1.709    0.415
       225  -8.8748    191.8827    166.5934   4.6838329608e+01   1.1157832286e+01    0.2413771      0.18855 -36.05 0.0005232094    1.364    0.267
       226  -8.8136    185.0757    166.3133   4.8150976126e+01   1.2415120671e+01    0.2486859    0.1940233 -40.76 0.0006710707    1.420    0.296
       227  -9.0189     20.8430    166.3456   8.8295082171e+01   3.7318656918e+01    0.3100159     0.115646  47.41  0.001333859    2.333    0.571
       228  -8.6127    140.0382    165.6886   5.7951477865e+01   2.0708249408e+01    0.3517482    0.1827773  50.84  0.001455582    2.176    0.540
       229  -9.0287    135.9576    163.9586   5.8599902450e+01   2.1786380389e+01    0.3381368    0.2086527  45.98 0.0007353321    1.577    0.366
       230 -10.0076     94.8176    162.5984   6.8685950104e+01   2.9071047278e+01    0.7912132     0.404121  69.54  0.002541747    4.365    0.771
       231  -8.2352    234.1096    164.6778   3.8760937668e+01   4.3504550087e+00    0.2052219    0.1536976 -30.80 0.0005022511    1.346    0.257
       232  -8.6366    159.5822    164.1800   5.3171867827e+01   1.7431757926e+01    0.2550633    0.2160494  67.32  0.001120201    1.518    0.341
       233  -9.5719     32.8823    163.1402   8.4995761755e+01   3.6918700645e+01    0.5741803     0.206872  42.16  0.002569591    2.396    0.583
       234  -8.5836    212.8454    163.4863   4.2226174396e+01   8.0052512678e+00    0.2366725    0.1732078 -33.74 0.0006658963    1.392    0.282
       235  -8.3002     56.7097    163.5942   7.8836308803e+01   3.4180879843e+01    0.3199327    0.1738818   9.93  0.001305442    3.217    0.689
       236  -8.8576    246.0818    162.7482   3.6444148656e+01   2.7634979723e+00    0.2268161    0.1516715 -19.34 0.0004978282    1.282    0.220
       237  -8.4773    204.8891    162.6749   4.3536246705e+01   9.4981497864e+00    0.2400164     0.181805 -35.19 0.0004504038    1.379    0.275
       238  -9.3382      3.3215    162.1537   9.2350927157e+01   3.9662908375e+01    0.4057312    0.1545647  52.63  0.001750518    2.295    0.564
       239  -7.5334    222.2635    161.6570   4.0177277064e+01   6.6945969223e+00    0.1170602     0.101273 -49.99 0.0004528924    1.599    0.374
       240  -9.1078    177.3759    160.3475   4.8546100433e+01   1.4835675885e+01    0.2867219    0.2321639 -55.79   0.00089071    1.580    0.367
       241  -8.7620    151.6360    160.6409   5.4279158769e+01   1.9567207223e+01    0.2861515    0.2320903 -81.94  0.001184725    1.766    0.434
       242  -8.9137     60.9153    160.2358   7.7319145801e+01   3.4431235966e+01     0.313748    0.1651487  56.75  0.001414426    2.029    0.507
       243  -8.7834    227.3960    158.8998   3.8734850660e+01   6.2450952714e+00    0.2628484    0.1998192 -49.08  0.001142676    1.792    0.442
       244 -10.7409    241.4912    143.9762   3.3367114360e+01   6.0433222535e+00     0.703482    0.3457331 -12.92  0.002911475    2.906    0.656
       245  -8.5984    242.4128    159.5562   3.6393457106e+01   3.7523543913e+00    0.3148659    0.1356134  28.89  0.001372141    2.806    0.644
       246  -8.1131    246.5765    155.4898   3.4926961606e+01   3.6556360724e+00    0.1821644    0.1164338  37.02 0.0004673703    1.647    0.393
       247 -10.0307    241.9889    154.2148   3.5389075633e+01   4.5458791542e+00    0.5467097    0.3892523 -73.98  0.002341331    4.340    0.770
       248  -8.1608    236.9404    158.6796   3.7099787141e+01   4.7316890537e+00    0.1733143    0.1473072   7.52  0.000543105    1.112    0.101
       249  -8.5695    196.6824    157.9272   4.4137393077e+01   1.1710288713e+01    0.2622714    0.2096262 -64.66  0.001030471    1.925    0.481
       250  -8.3308    128.3402    158.9933   5.9524778366e+01   2.4169574225e+01    0.2662112    0.1896177  59.47  0.001049238    1.647    0.393
       251  -9.6285    105.8579    157.7028   6.5000341739e+01   2.8361894913e+01    0.4973308    0.3213805  71.68  0.001161768    2.238    0.553
       252  -8.3786    188.1142    157.6629   4.5781737058e+01   1.3315960408e+01     0.230052    0.1833689 -41.01 0.0006392854    1.381    0.276
       253  -9.2681    167.5414    157.2061   5.0014713063e+01   1.7232485904e+01    0.2997507    0.2557851  82.90  0.001178444    1.667    0.400
       254  -8.4496    217.9822    156.4470   3.9869998187e+01   8.1867437668e+00    0.2364732    0.1705619 -42.17 0.0007843376    1.584    0.369
       255  -9.0160    157.6444    155.8713   5.1948253021e+01   1.9350998955e+01    0.2614811    0.2207259 -87.07  0.001365412    1.660    0.397
       256  -9.2150    119.5905    154.7838   6.0931012779e+01   2.6623338527e+01    0.4087204    0.2864493 -88.85  0.001677662    2.178    0.541
       257  -9.4486     49.6926    155.0497   7.9719687481e+01   3.6997130945e+01    0.4307726    0.1894261  57.12  0.001771032    2.630    0.620
       258  -8.1794    204.8121    155.1302   4.2001363277e+01   1.0697623670e+01    0.1971388    0.1794917 -32.56 0.0008939832    1.266    0.210
       259  -8.5822    144.5858    154.7286   5.4752285362e+01   2.2041275800e+01    0.2647217    0.2164568  85.70 0.0007663454    1.687    0.407
       260  -9.0571     68.2020    153.7322   7.4484745506e+01   3.4992329825e+01    0.4161712    0.2299859  65.25  0.001237394    2.288    0.563
       261  -9.6489    133.0303    152.8748   5.7184459702e+01   2.4580225803e+01    0.4609284    0.2985478  63.83  0.001278112    2.186    0.542
       262  -8.9620    133.4940    147.9714   5.6081160039e+01   2.5513186811e+01    0.3222181    0.2441159 -29.54  0.001216106    1.482    0.325
       263  -8.2090    151.8003    152.5815   5.2616863468e+01   2.1095931015e+01    0.2226459      0.17936 -49.02 0.0005815069    1.366    0.268
       264  -7.5704    223.3173    152.6657   3.8155757947e+01   7.8373314482e+00    0.1210062    0.1054192 -60.88 0.0003852086    1.694    0.410
       265  -9.5043     29.5400    150.4780   8.4729919105e+01   4.0182310306e+01    0.5419642    0.2096935  60.70  0.002128893    3.145    0.682
       266  -9.3064     20.1320    152.2796   8.7417872951e+01   4.0600154371e+01    0.2391933    0.1371285  51.76 0.0009692169    1.621    0.383
       267  -8.6727      8.4971    153.0000   9.0518684807e+01   4.1355538349e+01    0.2344115   0.06663133  21.77 0.0009307729    3.903    0.744
       268  -8.8551      2.8712    150.6410   9.1826174418e+01   4.2295073645e+01    0.2720264    0.1411658 -83.76  0.001217212    1.645    0.392
       269  -8.6594    243.4181    149.8531   3.4278173314e+01   4.9172429239e+00    0.2833683    0.1325494 -33.59  0.001384506    1.909    0.476
       270  -8.9041    189.4217    150.0312   4.3913273047e+01   1.4364961028e+01    0.2536261    0.2310631 -50.64 0.0007493455    1.342    0.255
       271  -7.9954    182.4588    151.0118   4.5541381968e+01   1.5514063038e+01    0.2041806    0.1359417 -38.76 0.0007402169    1.538    0.350
       272  -8.3949    162.3630    150.2543   4.9714256608e+01   1.9511346322e+01    0.2352006    0.1798701 -50.19 0.0004791296    1.482    0.325
       273  -8.5635     98.4025    150.7567   6.5760442318e+01   3.1149859759e+01    0.2754385    0.2100378  68.29 0.0007768666    1.485    0.327
       274  -9.5397    248.9228    149.1115   3.3280748591e+01   4.1488809266e+00    0.2955236    0.1560974 -29.44 0.0007757484    1.641    0.391
       275  -8.4301    212.9590    149.5584   3.9330444627e+01   1.0115162870e+01    0.2037977      0.16501 -21.15 0.0004035544    1.141    0.124
       276  -9.6681     39.9501    147.8423   8.1586891762e+01   3.9773969063e+01     0.515525     0.227864  60.28  0.001723109    2.710    0.631
       277  -8.5094    198.8254    148.7648   4.1794004497e+01   1.2816163068e+01    0.2252865    0.1942464 -42.29 0.0005138897    1.331    0.249
       278  -9.8696     89.4808    146.4001   6.7439329732e+01   3.3588363968e+01    0.6639941    0.3739809  84.58  0.002317603    3.584    0.721
       279  -9.5186    233.4807    147.0886   3.5291205716e+01   6.9305911887e+00    0.2615841    0.1428249 -30.23  0.001225154    1.650    0.394
       280  -7.7102    121.3290    148.3235   5.9240517719e+01   2.7700002366e+01    0.1499234     0.115269  -5.45 0.0007049593    1.697    0.411
       281 -10.4810     55.1998    144.7729   7.6892988945e+01   3.8784244524e+01    0.8557662    0.4042265  70.01  0.003087876    3.470    0.712
       282  -9.8723     57.2465    134.5998   7.4834706411e+01   4.0992504596e+01    0.4635925     0.264302  -3.02   0.00173133    3.633    0.725
       283  -8.3103    223.3425    146.5884   3.6878032851e+01   8.7363214133e+00    0.2378975    0.1467146 -27.92 0.0005256616    1.492    0.330
       284 -10.3215    148.8326    144.9749   5.1713901346e+01   2.3171045606e+01    0.5486742     0.392476  83.02  0.001722713    2.463    0.594
       285 -10.1973    106.8107    144.0812   6.2252458846e+01   3.1233018543e+01    0.7688742    0.4980771  83.99  0.002530121    2.602    0.616
       286  -8.9794     13.4035    145.9534   8.8730566356e+01   4.2620624697e+01    0.3204532    0.1550763  67.47  0.001154753    2.080    0.519
       287  -8.1156    206.5069    146.0754   3.9765664151e+01   1.1831965819e+01    0.2028685    0.1270462 -31.80 0.0004299312    1.526    0.345
       288  -7.9941    175.7528    145.9895   4.5867066860e+01   1.7696750682e+01    0.2184493    0.1690287 -71.81 0.0007833347    1.992    0.498
       289  -9.6446    139.1090    144.9860   5.4068454798e+01   2.5059868532e+01    0.3777198    0.2914445  88.13  0.001288355    1.899    0.474
       290  -9.7474    124.8606    142.3297   5.7110919182e+01   2.8339980357e+01    0.5400072    0.3492948 -76.51  0.001421699    2.530    0.605
       291  -8.9149    247.0343    143.7769   3.2475177288e+01   5.1722135451e+00    0.2472977    0.1602152 -27.01   0.00052878    1.328    0.247
       292  -8.2108    250.2450    140.7656   3.1373155333e+01   5.0692353187e+00    0.1811462    0.1375234 -19.12 0.0006185392    1.096    0.087
       293  -8.7683    165.5211    143.8556   4.7628746051e+01   2.0100071079e+01    0.2594921    0.2302633  78.51 0.0007215953    1.454    0.312
       294  -7.8402    194.3119    143.6779   4.1567228236e+01   1.4512368622e+01     0.132019    0.1150836 -77.22 0.0004617701    1.653    0.395
       295 -10.7816     69.2366    139.7317   7.2088860828e+01   3.8171935951e+01    0.7777144    0.4515928 -76.63  0.003009935    1.955    0.488
       296  -9.1682      2.9200    141.6358   9.1265870784e+01   4.4371445901e+01    0.4233124    0.1442699  66.85  0.001678979    3.357    0.702
       297  -8.4998    182.0166    141.4812   4.3558519723e+01   1.7276669288e+01    0.2573029    0.1989851 -52.97 0.0006270739    1.565    0.361
       298  -8.2678    134.0000    139.9462   5.4265520259e+01   2.7099992068e+01    0.2400993   0.08572469 -47.49  0.000799249    2.920    0.658
       299  -9.9390     23.3884    137.9442   8.5254666650e+01   4.3716834604e+01    0.5121735    0.2252659  60.73  0.002212713    2.558    0.609
       300  -9.0721    139.5040    137.7870   5.2414216040e+01   2.6471922033e+01    0.4264194    0.2451354 -20.24  0.001511741    3.069    0.674
       301  -7.8184    218.5087    138.4693   3.5964428869e+01   1.0828548714e+01    0.1355737    0.1194942  -8.74 0.0008095842    1.034    0.033
       302  -8.3140    207.3207    137.4491   3.7728881668e+01   1.3064887597e+01    0.2281252    0.1545476 -48.89 0.0008221171    1.777    0.437
       303  -8.6357    197.5182    137.3201   3.9535566559e+01   1.4963173368e+01    0.2722711    0.2101083 -61.37 0.0009340952    1.823    0.452
       304  -8.7233    172.0834    137.6800   4.4809357088e+01   1.9942777687e+01    0.2644703    0.2007818 -54.74 0.0006733845    1.588    0.370
       305  -9.7043    250.2133    157.5437   3.4775877587e+01   2.8264970334e+00    0.3067859    0.1483086 -31.35 0.0008505655    1.814    0.449
       306  -8.2427    237.5248    133.4639   3.1760781243e+01   8.2006564773e+00    0.1916063    0.1087685 -38.94   0.00063017    1.703    0.413
       307  -8.6979    150.2140    135.9673   4.9397780886e+01   2.4698979714e+01    0.4814749    0.2536246  20.16  0.001537429    3.645    0.726
       308 -10.3248     83.4488    133.2509   6.6789841463e+01   3.7631205760e+01     0.614853    0.3759217 -65.51  0.001970312    1.726    0.421
       309  -8.5179    247.0018    129.9832   2.9588504102e+01   7.0823185363e+00    0.2266812    0.1653463 -35.33 0.0005639547    1.305    0.234
       310  -9.1658    248.6985    134.9392   3.0387507504e+01   6.1157632526e+00    0.3118892    0.1837173 -26.38 0.0008320081    1.465    0.318
       311  -8.7328    250.8337    130.5845   2.9161034580e+01   6.3636443807e+00    0.5217761    0.1054111 -32.41  0.001655368    4.346    0.770
       312  -8.2363    162.6488    136.3401   4.6593260500e+01   2.2103906608e+01    0.2150077    0.1801877  87.32 0.0008476993    1.653    0.395
       313  -9.2433    113.4370    133.8182   5.8358498754e+01   3.2350968218e+01    0.4774437    0.3156889  86.76  0.001867566    2.667    0.625
       314  -9.0569     39.0860    136.1559   8.0470954307e+01   4.2677791494e+01     0.248583    0.1571595  54.81 0.0007570206    1.594    0.373
       315  -8.2063    187.7316    135.1854   4.0974588356e+01   1.7252211046e+01    0.2178223    0.1716428 -46.39 0.0005224456    1.406    0.289
       316  -8.1016    231.4831    133.9290   3.2814093638e+01   9.1863032712e+00     0.196946    0.1166398 -29.82 0.0003805582    1.512    0.339
       317  -8.5270    179.4337    133.7463   4.2345763377e+01   1.9175405024e+01    0.2565784    0.2258867 -71.46 0.0007972835    1.474    0.322
       318 -10.1329    132.0760    130.5885   5.2677379647e+01   2.9464709013e+01    0.6542144    0.3535121 -57.42  0.001594729    2.300    0.565
       319 -10.4825    131.4696    119.0299   5.0094314071e+01   3.2058678723e+01    0.7731589      0.50429 -85.00  0.002718602    3.254    0.693
       320  -9.1305    142.9401    131.5891   5.0162625024e+01   2.7064640317e+01    0.2924926    0.2532397 -86.46  0.000776859    1.448    0.309
       321 -10.0126     12.8440    128.8162   8.7486022348e+01   4.6738462498e+01    0.5102355    0.2258618  75.78  0.001956299    2.566    0.610
       322  -7.9901    204.4311    130.1797   3.6621351347e+01   1.4800667857e+01    0.1961313    0.1249754 -44.15 0.0009372771    1.675    0.403
       323  -8.1952    192.5357    129.9966   3.8830801884e+01   1.7188444348e+01    0.2149388    0.1354488 -35.92  0.000497647    1.542    0.352
       324  -9.4090    168.3494    129.4297   4.3718633785e+01   2.2246700256e+01    0.2941449    0.2487509 -76.52 0.0006856183    1.579    0.367
       325  -8.7369    162.2367    129.9877   4.5216435856e+01   2.3409684023e+01    0.1944648    0.1244754 -39.92 0.0004821566    1.583    0.368
       326  -9.5736    152.8288    128.7767   4.7112463684e+01   2.5601365052e+01    0.4487606     0.262856 -53.88 0.0009574488    2.057    0.514
       327 -10.0950     99.3904    127.7247   6.1015968086e+01   3.6285542449e+01     0.622012    0.4009118  82.08  0.001821033    2.650    0.623
       328  -9.9864     73.1699    128.9312   6.9067705268e+01   4.0221947494e+01    0.4441668     0.280187 -78.75   0.00146509    1.872    0.466
       329 -10.7756     45.3008    123.9817   7.6914456245e+01   4.5005066047e+01     1.136724     0.542781  70.92   0.00408232    3.512    0.715
       330  -8.1601      1.9433    130.1742   9.0773792261e+01   4.7127379091e+01    0.2031048   0.09957558  52.40 0.0008755277    1.989    0.497
       331  -8.0180    211.5628    128.8394   3.5033384314e+01   1.3636208121e+01    0.1931516    0.1212331 -43.91 0.0008257322    1.695    0.410
       332  -9.0703     78.1860    147.0462   7.0703514172e+01   3.5157942312e+01    0.2745784    0.1600125  58.51 0.0009757371    1.985    0.496
       333 -10.4254     60.0618    124.9915   7.2422066799e+01   4.2987654026e+01    0.7079064    0.3969563  76.65  0.002608568    2.743    0.635
       334  -9.7112    117.8364    124.9375   5.5176587385e+01   3.3503891681e+01    0.5336724    0.3825569 -87.20  0.001640826    2.118    0.528
       335  -7.8938    228.4886    124.9817   3.1324712259e+01   1.1051657194e+01    0.1883635    0.1025736 -50.52 0.0008099054    2.494    0.599
       336  -8.9760    179.1062    124.6079   4.0267821729e+01   2.0893658351e+01     0.302384    0.2473142  70.33  0.000749592    1.583    0.368
       337 -10.4214     28.6395    122.2829   8.1954895775e+01   4.7077053935e+01    0.7455401    0.3224118  69.45  0.002742767    3.518    0.716
       338  -7.6494    188.6035    123.8045   3.8149357639e+01   1.9061056643e+01    0.1956628    0.1317873 -45.45 0.0004066745    1.582    0.368
       339  -9.3633    158.7256    121.4932   4.3978822922e+01   2.5796195013e+01     0.377159    0.2862187 -85.77  0.001025468    2.055    0.513
       340  -8.2100     84.2639    122.5804   6.4442641812e+01   4.0054065945e+01     0.246918    0.1889237  23.05  0.000818904    1.450    0.310
       341  -8.0302    195.1796    121.9976   3.6444004980e+01   1.8018092079e+01    0.2270951    0.1539201 -56.05 0.0005783843    1.941    0.485
       342  -8.7693    172.0046    121.4509   4.1007932933e+01   2.2970916866e+01    0.2586034    0.2078778 -55.00 0.0004926273    1.439    0.305
       343  -7.6651    203.3064    121.7261   3.4868165987e+01   1.6412331256e+01    0.1311443    0.1130099 -71.38  0.000179725    1.545    0.353
       344  -9.5695     71.3571    119.9165   6.7926907470e+01   4.2679249690e+01    0.3995231    0.2468674  71.55   0.00119684    2.327    0.570
       345  -9.8477    141.6620    118.5295   4.7352205787e+01   3.0028194948e+01    0.4503126    0.3373191 -76.96  0.001269047    1.930    0.482
       346  -8.5010    100.1423    119.7070   5.9030596556e+01   3.8017499117e+01    0.4429354    0.2490194   7.78   0.00122619    5.193    0.807
       347  -9.6738      3.0113    117.0842   8.9460426687e+01   5.0196812541e+01    0.5429358    0.2145761  73.83  0.002244544    2.984    0.665
       348  -8.0116    231.2877    117.4007   2.9185062334e+01   1.1663434832e+01    0.1631213     0.131863  62.10 0.0007666027    1.587    0.370
       349  -8.1331    185.6385    115.8101   3.6801915365e+01   2.1083569100e+01    0.2099015    0.1301219 -45.14 0.0004496468    1.691    0.409
       350  -9.8766    109.3123    113.9250   5.4970969009e+01   3.7632213016e+01    0.5686355    0.3661053 -75.69  0.001372756    2.452    0.592
       351  -8.8975    109.3214    107.3198   5.3310926182e+01   3.9122962973e+01    0.3949081    0.2470227  18.43  0.001537804    2.330    0.571
       352  -8.0916    193.0343    115.0393   3.5176056748e+01   1.9649928302e+01    0.2137522    0.1732019 -63.53 0.0003550027    1.571    0.364
       353 -10.1839     92.7845    112.3968   5.9566906407e+01   4.1040669265e+01    0.6335643    0.3651576 -69.45  0.001472093    2.355    0.575
       354  -8.8148     93.3207    104.3639   5.7443777237e+01   4.2827050748e+01    0.2860155    0.1949189 -10.36  0.001164353    2.300    0.565
       355  -9.9509     79.2342    112.6246   6.3895516917e+01   4.3253405691e+01    0.5846013    0.3702371  71.70  0.001593044    2.400    0.583
       356  -8.7067     59.3005    114.7183   7.0824818429e+01   4.5619173915e+01    0.2811137    0.1769294  -4.91  0.001179571    2.596    0.615
       357  -8.1934    167.2234    114.2366   4.0256070688e+01   2.5350591204e+01     0.201944    0.1819984 -75.75 0.0005812022    1.333    0.250
       358 -10.0934    133.6234    109.3255   4.7067025506e+01   3.3662209504e+01    0.6857335    0.3468266 -44.46  0.002120579    2.004    0.501
       359  -9.5862    122.0337    112.5262   5.1013605437e+01   3.5409172338e+01    0.3287793    0.2798219  78.14 0.0006367847    1.408    0.290
       360  -8.5170    174.8829    111.6110   3.7947291617e+01   2.4160765051e+01    0.2887409    0.1879605 -53.82 0.0005969518    1.856    0.461
       361  -9.0948    159.2620    111.6037   4.1369345680e+01   2.7599829326e+01    0.3229884    0.2222091 -52.27 0.0008901932    1.639    0.390
       362  -9.6298     14.4433    111.2321   8.5237396669e+01   5.0910769825e+01    0.3097028    0.1829241  65.57  0.001450965    1.813    0.448
       363 -11.0966    248.4991    107.6559   2.4532173033e+01   9.9349182122e+00    0.7307791    0.3001187 -33.83   0.00329627    2.046    0.511
       364  -8.1685    150.1290    110.1463   4.3134689979e+01   2.9898812645e+01    0.2086075    0.1843293 -72.11 0.0005255891    1.332    0.249
       365  -7.8350    182.8103    109.1011   3.5690151863e+01   2.2875826344e+01    0.2008694    0.1108244 -37.65 0.0004768467    1.760    0.432
       366  -9.0274     43.1604    108.7843   7.5185609441e+01   4.9010438756e+01    0.2587778    0.1749112  19.40  0.001330755    1.708    0.414
       367  -8.0985    189.3053    107.5296   3.4025360698e+01   2.1734584708e+01    0.2523421    0.1285958 -35.55 0.0005412958    1.889    0.471
       368  -9.7393    118.0708    105.5300   5.0312936070e+01   3.7755178230e+01    0.3300156    0.2516833  55.57  0.001552735    1.419    0.295
       369 -10.6119    108.7224     98.5627   5.1164401727e+01   4.1198924391e+01    0.8321027    0.4876293  66.95  0.001016201    3.077    0.675
       370  -8.9335    107.2685     92.5830   4.9931015012e+01   4.2810991835e+01    0.6358061    0.3168519  28.62   0.00218957    2.806    0.644
       371 -10.5491     45.8775    102.3179   7.3070467781e+01   5.0319410095e+01    0.7924965    0.4019834  66.87  0.002878324    3.452    0.710
       372 -10.7230     22.7900    102.3812   8.1274819373e+01   5.2488204644e+01    0.7768844    0.3776025  65.61  0.002349477    2.797    0.642
       373  -9.5190    150.5687    102.7904   4.1078032979e+01   3.1254079225e+01    0.4479126    0.2838988 -62.05  0.001231977    2.248    0.555
       374  -9.3936    139.8912    104.2432   4.4099805675e+01   3.3348854174e+01    0.3847943     0.287012 -60.55  0.001004075    1.598    0.374
       375  -8.4368     78.2195    104.9441   6.2479792837e+01   4.5264437375e+01    0.2749368      0.19423  -7.32  0.000836747    2.044    0.511
       376  -8.5327    166.7599    103.9606   3.7701218314e+01   2.7374515759e+01    0.2706747    0.2055724 -55.99 0.0007417148    1.519    0.341
       377  -9.6483    128.3578    101.5830   4.6399019299e+01   3.6426371019e+01     0.392217    0.2707561 -50.22  0.001177665    1.521    0.342
       378  -8.7762      6.8289    102.9359   8.6892432108e+01   5.3419249971e+01     0.241779    0.1485288  78.87 0.0009067511    1.627    0.385
       379  -8.2172    175.8181    102.1330   3.5307632911e+01   2.5665798269e+01    0.2296288     0.201986 -60.60 0.0005918184    1.283    0.220
       380  -8.3953    159.9756    100.6246   3.8310641832e+01   2.9537262817e+01    0.2844534    0.2059219 -53.30 0.0006235671    1.551    0.355
       381  -9.0308     82.3175     99.9805   5.9912034358e+01   4.5776232687e+01    0.3423463    0.2581611 -89.57 0.0009684684    1.746    0.427
       382  -8.7884    189.9036     98.1342   3.1513749528e+01   2.3203753478e+01    0.2195338    0.1979266 -63.61 0.0005030739    1.249    0.199
       383 -10.0463     64.0787     95.7336   6.5167919802e+01   4.9627827144e+01    0.5951771    0.3727568  82.14  0.001770569    2.691    0.628
       384  -8.3815      7.3113     97.3323   8.6107632977e+01   5.4762736780e+01    0.1337024   0.07757318 -47.87 0.0005995698    1.675    0.403
       385  -8.4133    151.0671     95.2584   3.8888969561e+01   3.2602102981e+01    0.3118494    0.1969375  -9.05  0.001149761    2.603    0.616
       386  -9.4379    246.5110     93.5113   2.1632113601e+01   1.2257469740e+01    0.2394445   0.09593763 -40.21 0.0008857423    2.203    0.546
       387  -8.3272    164.8130     94.0975   3.5461911730e+01   2.9635821942e+01    0.2327124    0.2033314 -61.27 0.0005378965    1.276    0.216
       388  -9.4128     95.0130     96.8232   5.4939055636e+01   4.4257674926e+01    0.3511225    0.2379421 -59.93 0.0008055177    1.617    0.382
       389  -8.0889    176.4930     92.9829   3.2732545354e+01   2.7130049754e+01     0.226326    0.1435711 -38.32  0.000633841    1.536    0.349
       390 -10.1409    123.9814     91.1657   4.4659189027e+01   3.9560210933e+01    0.5643691     0.436421  30.55   0.00119369    1.368    0.269
       391  -9.1442     46.6493     92.2397   7.0757382307e+01   5.2721545644e+01    0.4656409    0.2368889  14.92   0.00192906    2.639    0.621
       392  -9.4034      5.1151     91.5955   8.6234301468e+01   5.6281702791e+01    0.3980129    0.1854591  57.46  0.001579504    2.607    0.616
       393  -9.6938     34.8084     89.5817   7.4703747957e+01   5.4621109572e+01    0.4756948    0.2668644  89.87  0.001608348    2.409    0.585
       394  -9.1995     22.7688     90.2718   7.9433739483e+01   5.5485578852e+01    0.3516761    0.2315239 -25.27  0.001761703    1.808    0.447
       395  -8.2916    157.8634     91.1873   3.6180428300e+01   3.1790606721e+01    0.2346111    0.2085327 -66.07 0.0006012727    1.263    0.208
       396  -8.0848    151.1799     89.1605   3.7133443107e+01   3.3734866283e+01    0.2129113    0.1824861 -65.93 0.0004882639    1.339    0.253
       397 -10.1690     86.4555     86.2734   5.4826073421e+01   4.8236404765e+01    0.5865267    0.4018719 -68.44   0.00138567    1.857    0.461
       398  -9.6362    139.2863     91.5661   4.0718439393e+01   3.6032152295e+01    0.6053206    0.3178333 -44.53  0.001671176    1.946    0.486
       399 -10.0473     66.4131    109.5836   6.7444291928e+01   4.5917544220e+01    0.5496864    0.2879697 -68.04   0.00203692    2.096    0.523
       400  -8.6003     65.5216     86.9475   6.2456220136e+01   5.1527769342e+01    0.3622239     0.204793   5.49  0.001296524    3.317    0.699
       401  -9.7458     48.5456     84.1579   6.8202658468e+01   5.4470003375e+01    0.5146149    0.3197201  71.01  0.001706054    2.532    0.605
       402  -9.7017    104.6890     82.9258   4.7873231021e+01   4.5427925834e+01    0.4739398    0.3326234 -68.61 0.0008751847    1.954    0.488
       403  -8.5717    157.9103     83.6416   3.4010860835e+01   3.3157674788e+01    0.2938911    0.2120855 -45.14 0.0005445947    1.418    0.295
       404  -9.2344    140.9070     82.5573   3.7659878486e+01   3.7399358769e+01    0.3326419    0.2205491 -43.56 0.0008057008    1.534    0.348
       405  -8.0599     64.1626     82.2424   6.1706353572e+01   5.2840008607e+01    0.1963654    0.1677527 -86.17 0.0005374508    1.366    0.268
       406  -8.0993     35.3268     82.3244   7.3016328663e+01   5.6350196365e+01    0.1449579   0.09102282 -35.72  0.000255989    1.693    0.409
       407  -9.6013     24.7201     80.4762   7.6924253667e+01   5.7738200012e+01    0.4230176    0.2513898  81.38  0.001282762    2.233    0.552
       408  -9.3997      9.9468     80.7477   8.2938294557e+01   5.8668855780e+01    0.3415432    0.1781902  49.54  0.001669645    2.300    0.565
       409  -8.5074    150.3302     80.4947   3.4792613368e+01   3.5540993333e+01    0.3110963    0.2211145 -60.62 0.0007786228    1.740    0.425
       410  -8.8899     74.7562     80.1572   5.7177563870e+01   5.1661113014e+01    0.3445033    0.2266305 -72.16  0.001066177    2.100    0.524
       411  -8.1490    249.7013     80.3373   1.8262303373e+01   1.3454153609e+01    0.1322245   0.08623353 -53.52 0.0007033558    1.658    0.397
       412  -8.5025    119.2776     79.9008   4.2586947873e+01   4.2906040286e+01     0.283661    0.2297116 -69.99 0.0006578248    1.525    0.344
       413  -8.1943    166.9316     79.3590   3.0856347179e+01   3.1747174095e+01    0.2060704    0.1953115  41.96 0.0004675952    1.061    0.058
       414  -8.0211    184.0000     77.5467   2.7076268459e+01   2.7968974530e+01    0.3231586   0.08203927 -33.46  0.000920504    3.821    0.738
       415  -8.0605    157.1708     76.1718   3.1972694142e+01   3.4659958460e+01    0.2122706    0.1790532 -64.93 0.0004628497    1.341    0.254
       416  -9.3097    128.0424     75.0226   3.8632634407e+01   4.1854623794e+01    0.3974536    0.2670207 -59.16  0.000622627    1.884    0.469
       417  -8.6864    140.5888     74.9686   3.5416491408e+01   3.8888604010e+01    0.2945351    0.1806149 -48.62  0.001000659    1.775    0.436
       418  -9.8736     63.1769     73.4187   5.9569975571e+01   5.5032487577e+01    0.4849306    0.3010952 -65.16  0.001112179    1.903    0.475
       419  -8.6363    163.6035     73.1504   2.9719556898e+01   3.3609830110e+01    0.3345621    0.1652362 -44.45  0.001284978    2.100    0.524
       420  -9.6869     82.5404     72.5464   5.2017212875e+01   5.1996133017e+01    0.3980241    0.2893903 -74.57 0.0009924727    1.962    0.490
       421  -8.6566    115.7829     72.3284   4.1171762097e+01   4.5191648651e+01    0.4201136    0.1965003 -41.50   0.00124447    2.148    0.535
       422  -7.6509    175.3336     72.3154   2.7184716506e+01   3.0890515657e+01    0.1555559    0.1153068  20.12 0.0007046834    1.688    0.408
       423  -9.0442    105.7966     71.4354   4.3872731636e+01   4.7572717098e+01    0.3352374    0.1982692 -56.27  0.000834366    2.131    0.531
       424  -9.2247     95.1159     70.7670   4.7085657460e+01   4.9944697614e+01    0.4302886    0.2476127 -56.32  0.001055065    2.145    0.534
       425  -9.4908     51.6193     69.8970   6.3203968531e+01   5.7463345952e+01     0.477242    0.2746544 -74.38  0.001582862    2.577    0.612
       426  -8.1965     42.4393     72.2773   6.7703896904e+01   5.8021561066e+01    0.1937236    0.1277905 -71.91 0.0009479233    1.676    0.403
       427  -9.0531     31.0015     69.1475   7.1822377211e+01   5.9933270842e+01    0.4267721    0.1965946 -12.35  0.001423962    4.573    0.781
       428  -8.6866     16.5782     69.9106   7.8299746831e+01   6.0888695481e+01    0.2394594    0.1841769  71.40  0.000977943    1.527    0.345
       429  -7.5106    157.2597     69.6615   2.9988587949e+01   3.5754427767e+01    0.1540873    0.1164172 -63.55 0.0003036191    1.583    0.368
       430  -8.9041    147.0142     67.9543   3.1704829196e+01   3.8569996717e+01    0.3429967    0.2119967 -42.90 0.0007516115    1.652    0.395
       431  -8.6390    121.8564     65.8228   3.7298355048e+01   4.5026745993e+01    0.2684098    0.2204451 -57.10 0.0006126197    1.370    0.270
       432  -8.0079    151.4070     73.1857   3.2338927876e+01   3.6585421324e+01    0.2165528    0.1397179 -47.07 0.0005482038    1.637    0.389
       433  -8.7490     37.4317     64.0945   6.7668024655e+01   6.0484817849e+01    0.2985303    0.2113025  89.39  0.001209814    1.963    0.490
       434  -8.8703    110.2543     63.5379   3.9837728983e+01   4.8124395278e+01    0.3049906    0.2446849 -79.33 0.0006456234    1.682    0.406
       435  -8.5711     64.6308     62.8129   5.5634080197e+01   5.7171861784e+01    0.4061416    0.2449299  -0.78  0.001561595    2.909    0.656
       436  -8.3708    158.4418     61.9199   2.7360164511e+01   3.6732472787e+01    0.2266228     0.145113 -36.79   0.00100242    1.552    0.355
       437  -8.9912     97.6404     60.3824   4.2668123120e+01   5.1491721709e+01    0.3168783    0.2490537  64.21 0.0008602677    1.534    0.348
       438  -9.6850     73.4160     59.2384   5.0913439063e+01   5.6456413879e+01    0.4579373    0.2531989 -55.01  0.001019268    2.108    0.526
       439  -8.3902     88.5603     59.0067   4.5244661436e+01   5.3638716761e+01    0.2255854     0.143042 -41.29   0.00046981    1.564    0.361
       440  -8.4665    130.7000     57.3344   3.2096589825e+01   4.4394664812e+01    0.2736116    0.1786382 -45.33 0.0005450544    1.625    0.385
       441  -9.7404     23.4263     56.1072   7.1987275994e+01   6.3642031021e+01    0.4552054    0.2817194  83.99  0.002119322    2.562    0.610
       442  -9.3574      7.6778     57.1185   7.9803569629e+01   6.4443266044e+01    0.3227243    0.2005388  65.61  0.001155723    2.170    0.539
       443  -8.3615    140.0127     55.9928   2.9416198962e+01   4.2306402327e+01    0.2387261     0.182338 -68.51 0.0004518373    1.626    0.385
       444  -9.0412    119.2097     55.2447   3.4360253838e+01   4.7533529457e+01    0.4424734    0.2488171 -49.94  0.001392734    2.109    0.526
       445  -8.8420     43.9922     55.0086   6.1935058611e+01   6.1791481702e+01    0.3542673    0.1845868 -60.48  0.001362561    2.078    0.519
       446  -8.8957     62.9513     54.6132   5.3460221675e+01   5.9180139300e+01    0.2652598     0.197368 -52.83 0.0006307206    1.412    0.292
       447  -8.7883     54.0339     53.5382   5.6903733607e+01   6.0766292677e+01    0.3363098    0.2015852 -64.67  0.001252264    2.269    0.559
       448  -8.4200    105.8841     53.1235   3.7419154418e+01   5.1011707497e+01    0.2267824    0.2037914 -76.76 0.0005516234    1.335    0.251
       449  -9.4244     92.4862     50.4987   4.0713473151e+01   5.4429910694e+01    0.4039021    0.2488026 -48.76  0.001008542    1.830    0.454
       450  -8.5645    138.7943     65.9805   3.2995767797e+01   4.0929672172e+01    0.2809791    0.2036327 -53.18 0.0006389224    1.546    0.353
       451  -7.9169    145.2024     48.9102   2.5896083996e+01   4.2099731828e+01    0.1991615    0.1185395 -33.19 0.0005175251    1.703    0.413
       452  -8.0682    129.8578     48.8498   2.9346438617e+01   4.5980520036e+01    0.2072199    0.1764422 -59.87 0.0004283297    1.316    0.240
       453  -8.0052    120.8042     47.3329   3.1073635656e+01   4.8454460408e+01    0.2057129    0.1878266 -43.59 0.0006898092    1.156    0.135
       454  -8.3884    112.1441     46.6967   3.3182506330e+01   5.0643489466e+01    0.2514257    0.1989429 -45.11 0.0005769138    1.358    0.264
       455  -9.0058     82.1808     46.3267   4.2698580698e+01   5.7312109814e+01    0.3069268    0.2192418 -49.50 0.0006307201    1.574    0.365
       456  -8.5733     45.1724     44.6761   5.7720404750e+01   6.3846625501e+01    0.2303692    0.1733399 -55.64 0.0005879941    1.422    0.297
       457  -9.1876     16.6153     44.4453   7.2185354170e+01   6.6805086155e+01    0.2574476    0.2015938 -72.25 0.0009787239    1.371    0.270
       458  -8.4696    132.7927     42.8285   2.6512793035e+01   4.6155812255e+01    0.2031972    0.1750287 -66.49  0.000394271    1.307    0.235
       459  -8.6753     58.0299     42.3409   5.0848708239e+01   6.2429876350e+01    0.2894904    0.1968011 -58.70  0.001231225    1.889    0.471
       460  -9.7118      5.3781     41.9149   7.7537472223e+01   6.8047058313e+01    0.3112414    0.2004631 -79.66  0.001105334    1.688    0.407
       461  -8.6878    105.9979     41.3682   3.2888231881e+01   5.2945160979e+01    0.2786021    0.2003011 -49.40  0.000705636    1.599    0.374
       462  -9.2621     69.4755     41.2427   4.5519446453e+01   6.0670106922e+01    0.3178678    0.2496626 -59.55 0.0009542689    1.645    0.392
       463  -7.8880    140.2424     41.0289   2.4244406078e+01   4.4515745604e+01    0.1885226     0.127636 -28.21 0.0004191626    1.542    0.351
       464  -8.4067     36.8626     40.5942   6.0276293171e+01   6.5728233808e+01    0.2378904    0.1722276 -68.70 0.0006692103    1.803    0.445
       465  -7.8775    160.6225     39.7905   1.9935078453e+01   3.9432793754e+01    0.2069229    0.1283886 -41.38 0.0004321337    1.625    0.384
       466  -7.3679    176.9897     40.0000   1.7360278994e+01   3.5219637657e+01    0.2238153   0.08017459  64.54            0    2.761    0.638
       467  -8.9942     95.3731     37.7433   3.4663830533e+01   5.5955002094e+01    0.2887147    0.2323789 -70.09 0.0007512891    1.693    0.409
       468  -7.9967     80.5369     36.1169   3.9048942480e+01   5.9409578189e+01     0.214494    0.1369432 -35.72  0.001015562    1.572    0.364
       469  -9.3991     26.2131     35.1646   6.3867824294e+01   6.7998885400e+01    0.3070398    0.2131601 -67.78 0.0009060085    1.773    0.436
       470  -8.0126    125.9914     35.3314   2.5335700840e+01   4.8942565564e+01    0.2077562    0.1795978  51.75 0.0004031322    1.097    0.088
       471  -8.2527    111.7201     34.2207   2.8457346283e+01   5.2644387848e+01    0.2215931    0.1783943 -48.69 0.0005673748    1.394    0.282
       472  -8.9237     48.4881     32.9994   5.1306919208e+01   6.5672730134e+01     0.242849     0.213769 -64.59 0.0007224015    1.510    0.338
       473  -8.3783    119.2171     33.1432   2.6118278139e+01   5.0944850491e+01    0.2005555    0.1698266 -58.44 0.0005248298    1.350    0.259
       474  -8.5881     60.8011     32.4638   4.5356498257e+01   6.3778382433e+01    0.2372465     0.214969 -66.00 0.0006898247    1.473    0.321
       475  -8.8068     72.2377     30.4053   3.9654428913e+01   6.2001066818e+01    0.3732622    0.2055321 -44.49    0.0013921    2.043    0.511
       476  -8.7258     13.1933     30.2078   6.9544786741e+01   7.0133182233e+01    0.2795444    0.1833168 -78.80  0.001059765    2.094    0.523
       477  -8.0014    101.7439     29.5396   2.9299592758e+01   5.5696062027e+01    0.1945618    0.1399975  67.83 0.0009331944    1.594    0.373
       478  -7.4858     42.2747     29.6643   5.2924800138e+01   6.7183750806e+01    0.1188475    0.1068582 -77.99 0.0003294506    1.604    0.377
       479  -8.8448     81.5358     27.2280   3.4727996886e+01   6.0582135262e+01    0.3032273     0.211572 -54.18  0.001009287    1.939    0.484
       480  -8.6565      3.7410     27.4289   7.4383849379e+01   7.1296753313e+01    0.2089144    0.1394004 -73.56  0.000762195    1.647    0.393
       481  -8.6887     91.9276     26.2480   3.0823451060e+01   5.8429218386e+01     0.291032    0.1881274 -45.64 0.0008313883    1.822    0.451
       482  -8.3963    104.5647     22.7617   2.5642409470e+01   5.5909760484e+01    0.1915718    0.1313564 -39.83 0.0004173809    1.595    0.373
       483  -8.6344    120.9740     21.6952   2.1222661210e+01   5.1950466664e+01    0.2012057    0.1778659  59.16 0.0004058098    1.074    0.069
       484  -8.9285     63.7287     20.9347   3.8572990018e+01   6.5099829737e+01    0.2801782     0.221374 -43.63 0.0007872304    1.487    0.327
       485  -8.7797     48.5740     21.5147   4.5804245146e+01   6.7666442299e+01    0.2329885    0.2092342 -27.67 0.0006577556    1.215    0.177
       486  -8.1366     19.7920     21.5758   6.2048121206e+01   7.1335721509e+01    0.1570197    0.1116963  30.62  0.000490414    1.616    0.381
       487  -8.7347     74.1236     19.3557   3.3673054881e+01   6.3253558395e+01    0.2528717    0.1920052 -37.13  0.000630454    1.441    0.306
       488  -7.6972     11.6916     20.3143   6.6679511068e+01   7.2265827807e+01    0.1073199   0.09574042  71.01 0.0004487688    1.628    0.386
       489  -8.0818     38.8717     18.1939   4.9145834290e+01   6.9685090719e+01     0.182116    0.1700234 -27.70 0.0008173402    1.290    0.225
       490  -8.2667     87.7086     17.1794   2.7995874946e+01   6.0566741050e+01    0.2090619    0.1666664 -40.80 0.0005231382    1.428    0.299
       491  -7.6146    112.7968     16.6147   2.1006407954e+01   5.4594027976e+01    0.1903232    0.1323928  73.87 0.0002879727    1.557    0.358
       492  -7.8915     30.2310     15.9259   5.2894746374e+01   7.1228103783e+01    0.1591285   0.09496115 -41.64 0.0004859848    1.568    0.362
       493  -9.1618    175.6531    247.6563   6.3173093457e+01   1.9182900701e+00    0.2469893    0.2040945  63.22   0.00151559    1.961    0.490
       494  -8.8474    132.5142    247.9895   7.1375442006e+01   7.8109548252e+00    0.2745793    0.1664254  59.95 0.0009770464    2.270    0.560
       495  -7.7946      1.4841     11.5050   7.0016621068e+01   7.4671960161e+01    0.1198343   0.09275483 -34.72 -3.543382e-05    1.003    0.003
       496  -8.0216    113.3654    248.6644   7.5143976252e+01   1.0312031190e+01    0.1685094    0.1123926 -69.60 0.0008873455    2.076    0.518
       497  -9.1615    103.8699    246.6044   7.6791948881e+01   1.1889223864e+01    0.3499299    0.2014775 -88.12  0.001893988    3.011    0.668
       498  -8.7409    218.6480    247.0354   5.5436575538e+01  -3.6567529403e+00    0.2774005    0.1220178 -35.11  0.001602911    2.636    0.621
       499  -8.8526    156.2994    247.8338   6.6813253795e+01   4.5517874015e+00    0.1881061     0.155174  55.13 0.0007116469    1.548    0.354
       500  -9.0254    243.1531    245.9221   5.1211575458e+01  -6.5050798258e+00    0.3101326    0.1432191 -18.23  0.001854873    2.234    0.552
       501  -9.3849    146.9845    245.9933   6.8368316604e+01   6.0914715655e+00    0.2797431    0.1668751  59.52  0.001335309    2.667    0.625
       502  -9.9390    223.9437    243.7317   5.4062088113e+01  -3.9670265574e+00    0.3524109    0.2071816 -40.16  0.002238973    2.441    0.590
       503  -9.3254    120.0423    245.0806   7.3487684244e+01   9.9450585421e+00    0.3318561    0.2039263  66.40   0.00187513    2.378    0.579
       504  -8.4434    139.5100    244.4456   6.9629522545e+01   7.3486529263e+00    0.1622816    0.1162527 -73.25  0.001019074    2.257    0.557
       505  -8.8854     67.4585    244.2785   8.3671211416e+01   1.6867163013e+01    0.2258277    0.1082406 -76.19  0.001291227    2.584    0.613
