#   1 NUMBER                 Running object number                                     
#   2 MAG_AUTO               Kron-like elliptical aperture magnitude                    [mag]
#   3 X_IMAGE                Object position along x                                    [pixel]
#   4 Y_IMAGE                Object position along y                                    [pixel]
#   5 X_WORLD                Barycenter position along world x axis                     [deg]
#   6 Y_WORLD                Barycenter position along world y axis                     [deg]
#   7 A_WORLD                Profile RMS along major axis (world units)                 [deg]
#   8 B_WORLD                Profile RMS along minor axis (world units)                 [deg]
#   9 THETA_WORLD            Position angle (CCW/world-x)                               [deg]
#  10 FWHM_WORLD             FWHM assuming a gaussian core                              [deg]
#  11 ELONGATION             A_IMAGE/B_IMAGE                                           
#  12 ELLIPTICITY            1 - B_IMAGE/A_IMAGE                                       
         1 -14.7223    100.7599     49.3851   2.7606038817e+01   5.3602063120e+01     1.850382     1.428355 -18.69  0.006156844    1.680    0.405
         2 -13.1790    120.5212     26.0200   1.3939379231e+01   5.1942740320e+01     1.603013    0.6335161  52.03  0.005951634    2.644    0.622
         3 -14.9865     59.6044     68.1741   5.0183608918e+01   5.8924324508e+01     3.258072     2.061852 -41.95  0.009970636    1.724    0.420
         4 -13.1088    135.9278     51.0173   1.9987727006e+01   4.4302354687e+01     1.329104    0.5437372 -36.26   0.00496182    2.420    0.587
         5 -14.6880    166.7280     29.1886   8.6220268230e+00   3.9612428564e+01     1.067709    0.8644618 -82.91  0.003685211    1.110    0.099
         6 -14.5858    124.5318     35.9196   1.6908071229e+01   4.9551689864e+01     1.621111    0.6592107  50.00  0.004931321    2.727    0.633
         7 -14.9833      6.2380     71.2570   7.9888327418e+01   6.4548033191e+01     1.229591    0.9126912 -65.45  0.005274098    1.233    0.189
         8 -14.6700    119.6392     54.2795   2.4547721685e+01   4.7939219548e+01     1.108927    0.7835766  52.47  0.002121884    1.441    0.306
         9 -14.1297     41.4637      5.1302   2.6843000624e+01   7.4315725826e+01     1.083087    0.7012654  19.07  0.004816102    1.954    0.488
        10 -11.9497      2.9973      5.4971   6.1812079833e+01   8.0470532755e+01     0.224542     0.186035 -14.27 4.489767e-05    1.077    0.071
        11 -12.6883      7.7211      2.3363   5.3266361216e+01   8.0587249982e+01    0.4744264    0.3924322 -29.30  0.001599977    1.160    0.138
        12 -15.9727     11.2416     23.1881   6.2979760959e+01   7.6095025538e+01     2.169613     1.231939 -35.11   0.01089461    1.792    0.442
        13 -14.2585     26.4542     12.7989   4.2856085576e+01   7.6120831513e+01    0.8474013    0.6117856   1.59  0.004247649    1.667    0.400
        14 -12.1220    230.1898      2.4921   3.5765324053e+02   2.8615906210e+01    0.7170778    0.2389075  81.42  0.003471225    3.089    0.676
        15 -14.9102    217.7214     17.3184   1.5408668072e+00   2.9526659632e+01      1.88926    0.8282978 -33.72  0.009767272    1.908    0.476
        16 -14.5098    189.9315     24.1453   5.0687000945e+00   3.4733958020e+01     1.552925    0.7621631 -52.58  0.006788657    1.693    0.409
        17 -14.7587    147.7235     29.6433   1.1040261777e+01   4.4336691581e+01     1.536082    0.8392192  71.00  0.006154456    1.730    0.422
        18 -12.9864    187.9204     11.8309   1.9653451727e+00   3.6576114640e+01     0.675574    0.4469204 -36.77  0.003236375    1.408    0.290
        19 -11.3635    108.9387      1.4313   5.8029974247e+00   5.7630624659e+01    0.2368815    0.1865224 -88.87  0.000346764    1.103    0.093
        20 -15.4541     99.4655     11.6877   1.1865414379e+01   5.9214831820e+01     1.690173    0.9766822  64.32   0.00354708    1.529    0.346
        21 -12.7364     85.5482     13.8792   1.5983066037e+01   6.2656548771e+01     0.515074    0.4504817 -39.44  0.002197234    1.243    0.196
        22 -11.8114     71.1747     16.0974   2.1335880704e+01   6.6063363285e+01    0.4155314    0.2759535 -20.95   0.00198281    1.771    0.435
        23 -12.1811     74.3048     10.3641   1.7165170350e+01   6.5933502880e+01    0.4699536    0.2994861 -19.43  0.002322411    1.846    0.458
        24 -12.3272     60.0491     15.2364   2.4953863982e+01   6.8864948108e+01    0.6553339    0.3329151  42.36   0.00285291    2.022    0.506
        25 -12.0401     46.6685     12.8299   2.9609833263e+01   7.2209974085e+01    0.3683172    0.3022049  76.68  0.001344627    1.427    0.299
        26 -12.0185    122.9365     10.6202   7.6427462893e+00   5.3041734987e+01    0.4304287    0.2310213 -60.39  0.001616734    1.888    0.470
        27 -11.9338    152.8624      8.4423   3.6281427810e+00   4.5430950566e+01    0.2778246    0.2349002  74.68 0.0009900174    1.238    0.192
        28 -10.8606     80.2500      6.9569   1.3710838286e+01   6.4750706713e+01    0.2184312    0.1761076 -68.78 0.0009961014    1.300    0.231
        29 -10.5705     60.3369      6.1067   1.9136508727e+01   6.9855596565e+01    0.1801042    0.1683867  68.73 0.0005966047    1.061    0.057
        30 -12.2855    120.4509      3.1222   5.0448559169e+00   5.4409622066e+01    0.6705193    0.2590423 -81.63  0.002333434    3.206    0.688
        31 -11.2763     67.7525      2.7695   1.4651294161e+01   6.8340442737e+01    0.3054196    0.2071681  41.53  0.001605567    1.494    0.331
        32 -12.1162     80.0095      1.7361   1.0949766919e+01   6.5283697867e+01    0.7476355    0.1179084  66.15  0.002186156    4.159    0.760
        33 -11.5049     61.2611      1.4779   1.5825903318e+01   7.0076629087e+01     0.475753    0.1196293  66.09  0.001551152    3.523    0.716
        34 -11.5734    180.1701    188.8076   4.4044818431e+01   9.9535696246e+00    0.1793227    0.1330501  -6.04  0.000919235    1.336    0.252
        35 -11.6912    209.6137    249.5354   4.7826852264e+01  -1.8334331552e+00    0.1935486     0.133782  -7.06  0.001504911    1.146    0.128
        36 -12.8790    108.0357    245.9404   6.6842936702e+01   9.9938898210e+00    0.6261808    0.5260516 -83.46  0.004399102    1.632    0.387
        37 -14.6264     95.2126    235.6407   6.8682191136e+01   1.3309766130e+01     1.295525    0.8154945  63.22  0.007188223    2.037    0.509
        38 -12.7816     57.4700    246.6415   7.8111467058e+01   1.5739411041e+01    0.5994782    0.3425943  22.26  0.003119355    1.597    0.374
        39 -11.8502     41.0811    248.0101   8.1861564184e+01   1.7236963128e+01    0.4459198    0.2083548 -88.93   0.00236085    2.669    0.625
        40 -13.5594     28.2969    246.4878   8.4647146525e+01   1.8806495332e+01     1.212941    0.5892763  65.18  0.006773142    1.984    0.496
        41 -12.1696      2.8596    249.6331   9.0294412597e+01   2.0560037463e+01    0.3812076    0.2064238  39.81   0.00190129    1.272    0.214
        42 -14.0046      9.4314    245.6012   8.8789503246e+01   2.0738192657e+01     1.072846    0.6809314  60.05  0.007144863    1.303    0.233
        43 -14.0215     26.2239    226.5407   8.4317897877e+01   2.2917664129e+01     1.172809    0.5473263 -69.36  0.006046588    2.469    0.595
        44 -14.1056     20.8095    224.3592   8.5529909633e+01   2.3893348233e+01     1.161752    0.6476654  81.93  0.005919803    1.843    0.457
        45 -12.2526    201.1637    191.1655   4.0633878799e+01   6.7620234329e+00    0.2977077    0.2142177  -5.51  0.001322484    1.304    0.233
        46 -12.2175     48.6852    181.2773   7.5442366642e+01   3.0695085553e+01    0.5368109    0.3227315 -53.54  0.002525287    1.936    0.483
        47 -11.1066    109.3388    183.3170   5.8940769409e+01   2.1687796659e+01     0.143146    0.1074205  -9.09 0.0006641804    1.705    0.413
        48 -13.4052    197.5390    179.5663   3.9288023697e+01   9.0026344007e+00    0.5749094    0.4030564 -66.94    0.0029644    2.847    0.649
        49 -11.1958    122.2526    181.0625   5.5354650782e+01   2.0145815424e+01    0.4097764    0.2458102  73.85  0.001506141    3.650    0.726
        50 -11.8002     89.8507    169.8564   6.2157879440e+01   2.7765025755e+01    0.3839113    0.1654012  28.46  0.001346788    2.368    0.578
        51 -12.8801     84.8453    179.7776   6.4961575823e+01   2.6190463802e+01    0.4858512    0.3103096  75.80  0.002195275    2.045    0.511
        52 -11.8047    131.0979    173.1644   5.1891610366e+01   2.0357725615e+01    0.3037041    0.2138009 -57.26  0.001548586    1.594    0.373
        53 -12.8775    124.8268    167.9857   5.2527672749e+01   2.2486466795e+01    0.7034469    0.3064004 -54.20  0.002776006    2.493    0.599
        54 -12.1219     27.8322    158.8360   7.9902509911e+01   3.8740325360e+01     0.319904    0.2282858  67.32  0.001124956    1.279    0.218
        55 -12.5493    237.0795    159.5839   2.9556740441e+01   6.6677763975e+00    0.4821827   0.09960762  39.26  0.001739869    5.954    0.832
        56 -12.3907     76.9990    156.9762   6.3986102451e+01   3.2914718002e+01     0.587867      0.53284 -46.21  0.001815202    1.239    0.193
        57 -13.2686     74.0045    153.4843   6.4376644300e+01   3.4262731876e+01    0.8461909    0.5890034  35.79  0.002091735    1.347    0.257
        58 -12.8510    208.4472    153.9984   3.2783461688e+01   1.1435560017e+01    0.5777677     0.398721  29.85  0.003483435    1.588    0.370
        59 -10.8740    177.3155    166.6910   4.0685019412e+01   1.4100499800e+01    0.1200446    0.1057097  89.02 0.0003175674    1.632    0.387
        60 -11.5414     55.3084    156.0025   7.0682054085e+01   3.6283491832e+01    0.3990985     0.249816   4.40  0.001655649    2.297    0.565
        61 -11.8502     85.7927    152.6698   6.0617698840e+01   3.2604107045e+01    0.5560123     0.292139 -45.22  0.002203049    2.234    0.552
        62 -12.7703      7.7847    148.6326   8.5863193890e+01   4.3202873859e+01    0.6876204    0.4121987  56.55  0.003414861    1.465    0.317
        63 -11.8506     13.3589    151.7177   8.4166893041e+01   4.1947827356e+01    0.4044422    0.1624673  44.89  0.001156405    2.100    0.524
        64 -11.0714     12.6688    148.6734   8.4214687234e+01   4.2817357764e+01    0.2447541    0.1850571 -71.92  0.001098057    1.340    0.254
        65 -11.7535    103.5297    149.7015   5.4880605031e+01   3.0314206792e+01    0.3874028    0.2965386 -20.70  0.001592601    1.711    0.416
        66 -10.9256    155.6652    157.3300   4.3334682913e+01   1.9392134348e+01    0.1369775    0.1115751  82.21 4.928148e-05    1.727    0.421
        67 -10.5587     38.1785    145.8122   7.5197608980e+01   4.1127255641e+01    0.1951094    0.1726582 -39.78 0.0004772012    1.333    0.250
        68 -12.0403    111.5527    155.3591   5.3705989286e+01   2.7574568266e+01    0.5712966    0.3655452  81.66  0.002239816    2.648    0.622
        69 -12.3240     41.8253    137.9730   7.2980792846e+01   4.2843178626e+01    0.5158954    0.2919816  45.78  0.002247659    1.638    0.389
        70 -12.3166    246.2397    133.5422   2.3597933798e+01   9.0656467501e+00    0.3462658    0.2345539 -43.75  0.002266792    1.370    0.270
        71 -11.1796     47.3846    132.9683   7.0287025894e+01   4.3528792702e+01    0.5045683    0.2403979 -79.09  0.001891163    2.312    0.568
        72 -12.1880     43.8267    132.8810   7.1577699934e+01   4.4001792216e+01    0.4846513    0.2620364 -70.71  0.001809283    1.812    0.448
        73 -14.1716    232.4025    127.7083   2.4211958386e+01   1.1854706773e+01     1.160779    0.5372899 -43.52   0.00601277    1.893    0.472
        74 -12.6809    223.2660    127.9637   2.5478713226e+01   1.3201329371e+01    0.5908992    0.3926979 -60.79   0.00329596    2.046    0.511
        75 -10.6193     10.5981    133.9627   8.4004480750e+01   4.6969576048e+01     0.210283    0.1735525  40.24 0.0003984206    1.182    0.154
        76 -12.4451    136.6587    131.7797   4.2364656977e+01   2.8170262020e+01     0.774924    0.3016385  42.54  0.002756332    2.583    0.613
        77 -11.0879      5.4425    128.4233   8.5574723936e+01   4.8844709459e+01    0.3279094    0.1831727 -48.65  0.001485988    2.017    0.504
        78 -14.2023    104.7411    121.4857   4.8614124878e+01   3.6919116236e+01      1.95253     1.257745  35.44  0.008388991    1.622    0.384
        79 -14.6760    106.1988    104.7219   4.3997129560e+01   4.0635687989e+01     1.574894       1.3689  58.20   0.00779443    1.126    0.112
        80 -12.9150     28.3997    121.9669   7.6051085257e+01   4.8771088944e+01    0.5938474    0.4192334 -59.44  0.002640559    1.429    0.300
        81 -10.6965     59.9057    124.6393   6.4332879587e+01   4.4068371908e+01    0.3181674     0.214427   3.16  0.001304833    2.146    0.534
        82 -12.8561    180.0152    120.7307   3.0727040352e+01   2.1861879390e+01    0.5343825    0.2852473  47.27   0.00194725    2.042    0.510
        83 -12.7987      5.1791    118.6190   8.5057239131e+01   5.1565481745e+01    0.8624153    0.5476505 -54.34  0.004241365    1.641    0.391
        84 -12.5864     50.0570     98.6632   6.3041939046e+01   5.2625872173e+01    0.8554233    0.5793386   4.39  0.002869618    2.031    0.508
        85 -11.8764     48.9775     93.2320   6.2273240589e+01   5.4254470359e+01    0.5121273    0.3323597  66.70   0.00121085    1.843    0.457
        86 -11.9541     42.5740     90.3543   6.4522439342e+01   5.5928357247e+01    0.4703938    0.3015286 -73.36 0.0004838266    1.596    0.373
        87 -12.4310     36.7348     92.8867   6.7798797172e+01   5.5979219481e+01    0.4915804    0.3385724  15.67  0.001446379    1.638    0.390
        88 -13.0118     20.9509     85.9470   7.4212553439e+01   5.9528167950e+01    0.8097078    0.4664551   4.78  0.001806847    2.099    0.523
        89 -14.2616     18.3077    110.6896   7.8891248934e+01   5.2852033111e+01    0.9668362     0.878773 -58.04  0.003606325    1.155    0.134
        90 -14.6118     25.2718     93.9277   7.3425521444e+01   5.6928262433e+01     1.620979     1.039459   4.37  0.007357426    1.882    0.469
        91 -12.7816     84.6517    114.9708   5.3502579884e+01   4.2446836064e+01     1.026102     0.574827  25.42  0.003556314    2.308    0.567
        92 -12.1566     78.8658    110.8700   5.4553320211e+01   4.4580625105e+01    0.3887887    0.3670235  52.36  0.002016197    1.062    0.058
        93 -12.2947    186.4261    115.7762   2.8492926235e+01   2.1525113014e+01    0.2427581    0.2269137  20.72  0.001087958    1.193    0.162
        94 -11.8884     88.3556    109.5012   5.0930471958e+01   4.3130563712e+01    0.5460668    0.3240773 -65.14  0.001874789    1.869    0.465
        95 -12.4124    121.4013    111.9364   4.1542882683e+01   3.5712079367e+01    0.3912785    0.3018623  76.24  0.001177033    1.521    0.343
        96 -11.4546     62.9329    110.1603   6.0311885197e+01   4.7527512389e+01     1.022458    0.4313803 -72.05  0.003231609    3.113    0.679
        97 -10.9569     64.5243    101.5431   5.7714611267e+01   4.9571220726e+01    0.3967633     0.268813  39.13  0.001047013    1.446    0.308
        98 -12.0904     62.0486     98.3165   5.7924880342e+01   5.0844110437e+01    0.5870189    0.3904689  69.88  0.002186381    1.848    0.459
        99 -11.9788    176.8392    110.1997   2.8870094235e+01   2.4382465000e+01    0.3478908    0.2547301 -32.49  0.001822435    1.354    0.262
       100 -11.2732     45.9455    110.1368   6.7107506068e+01   5.0042056339e+01    0.3599256    0.2223832 -65.48  0.001491237    1.567    0.362
       101 -11.6430    222.8036    109.0266   2.1660864981e+01   1.6138369838e+01    0.1970462    0.1866486  56.66  0.001120827    1.287    0.223
       102 -14.1466     10.7166    102.4133   8.1346595975e+01   5.5727614639e+01     0.941625    0.8817447  62.61  0.004461845    1.068    0.063
       103 -12.5896    135.1426    102.8089   3.5667491912e+01   3.4704685352e+01    0.9537676    0.3375758  51.08  0.003000618    2.948    0.661
       104 -13.0687    137.4051     95.1136   3.3058815312e+01   3.5792203763e+01    0.5634224    0.4507495 -82.89  0.001538371    1.398    0.285
       105 -13.2515    120.1413    102.3272   3.9371506556e+01   3.8144450571e+01    0.7330719    0.3698987  45.61  0.002819397    1.996    0.499
       106 -12.3256    249.2834     97.9156   1.6390619970e+01   1.3525893232e+01    0.3932913    0.1259055 -38.28  0.001830666    2.279    0.561
       107 -10.0948     75.2753    100.6725   5.3347611281e+01   4.7886069674e+01    0.1628971     0.120699  77.67 0.0004663554    1.589    0.371
       108 -12.2862    163.0838     97.8185   2.8367682388e+01   2.9526814302e+01    0.4413868    0.3148334  62.24 0.0006166736    1.520    0.342
       109 -13.1103     32.5519    111.5186   7.2934501441e+01   5.1270231744e+01    0.8344522     0.423311 -63.75  0.003456081    1.848    0.459
       110 -11.5343    129.4445     95.9861   3.5217385845e+01   3.7427725507e+01    0.3068474    0.2189834  69.77  0.001374138    1.590    0.371
       111 -11.2369    100.6005     89.3095   4.1387642290e+01   4.5450128968e+01    0.3820333    0.1893491  46.19   0.00142631    1.992    0.498
       112 -14.0667    214.4753     77.2671   1.5718644268e+01   2.2377094227e+01    0.9706908    0.7548838 -72.79  0.005029585    1.351    0.260
       113 -14.7101    188.4690     82.8555   2.0370223449e+01   2.6708311059e+01     1.483818     1.035508  86.99  0.007626746    1.750    0.428
       114 -14.2727    198.9196     69.9071   1.5804373349e+01   2.6558967628e+01     1.038169    0.8457018  32.92  0.003990352    1.680    0.405
       115 -14.2790    164.4929     71.3868   2.1073379827e+01   3.3919089818e+01     1.402868    0.9802828  71.67  0.007027745    1.509    0.337
       116 -14.1415    160.6892     80.7238   2.4299313047e+01   3.3183133584e+01     1.312557    0.6192405  40.77  0.003158196    3.112    0.679
       117 -14.3364    169.2760     77.0412   2.1825273535e+01   3.1862691708e+01    0.8651586    0.5986631  48.56  0.002819415    1.652    0.395
       118 -13.6793      2.2845     96.9737   8.4727688026e+01   5.7718665869e+01     1.090565    0.3663436 -80.27  0.003879318    2.670    0.625
       119 -12.2180    132.5001     85.9810   3.1635696057e+01   3.8784149309e+01     0.243441    0.2109888  63.62 0.0007106923    1.150    0.130
       120 -12.5915    242.2817     83.5769   1.4188447896e+01   1.6578505213e+01    0.3527842     0.213987  66.64  0.002150121    2.122    0.529
       121 -13.0981    237.5609     80.0098   1.3903313535e+01   1.7849877212e+01    0.3840525    0.2929379 -89.49  0.002342714    1.595    0.373
       122 -14.4133    170.2983    241.9978   5.3751014097e+01   3.2348661291e+00     1.035213     0.635512  15.57   0.00655582    1.374    0.272
       123 -13.0693    148.2794    239.4732   5.7713293306e+01   6.1581616124e+00    0.5998816     0.368862  59.43  0.002973228    3.379    0.704
       124 -12.4565    144.7693    232.0921   5.7513101469e+01   7.7095467193e+00    0.2873318     0.237176 -37.36  0.001995943    1.411    0.291
       125 -13.1619    237.4992    231.6583   4.1029621089e+01  -2.4608042152e+00    0.5099422    0.3562373 -35.05  0.003972374    1.710    0.415
       126 -11.9074    235.8150    248.0903   4.3537179636e+01  -4.0899559000e+00    0.1901283    0.1121766   5.26  0.001447012    1.340    0.254
       127 -13.5140     87.4167     65.1744   3.7838463242e+01   5.3781599711e+01    0.9337153    0.6548299 -17.74  0.002783343    2.236    0.553
       128 -13.7929     66.4806    222.9910   7.4318397102e+01   1.9222903750e+01    0.9371886    0.6394062  37.90  0.005506155    1.162    0.139
       129 -11.8910    114.1489     79.7917   3.4463236074e+01   4.4411542544e+01    0.4926158    0.3578039 -56.75  0.001757086    1.396    0.284
       130 -11.5257     42.5137     79.4767   6.1876263550e+01   5.8845522436e+01     0.428494    0.3249596 -77.21  0.002031249    1.373    0.272
       131 -11.2580     41.6883     75.9319   6.1331652584e+01   5.9888926983e+01    0.3341308    0.2605739 -71.65 0.0007300846    1.297    0.229
       132 -12.9003    135.2975     79.1627   2.8983890119e+01   3.9463309308e+01    0.8293514    0.4153131  57.79  0.002868007    2.045    0.511
       133 -13.3538     59.3877    212.7967   7.5255259405e+01   2.2182747611e+01    0.6551016    0.4226218 -14.26  0.001435212    2.523    0.604
       134 -14.1704      5.5098     63.2129   7.9099586264e+01   6.6723447905e+01    0.7829602    0.6899732   7.25  0.003787951    1.213    0.175
       135 -13.6175    111.9030     39.9585   2.1071970910e+01   5.2277686776e+01    0.8920872    0.5839903  27.69  0.003307446    2.395    0.582
       136 -11.4482     27.4847     76.2334   6.8859216297e+01   6.1544375071e+01    0.3893897    0.2489066  74.02  0.001334036    1.895    0.472
       137 -10.3752     26.3898     70.8197   6.8193535228e+01   6.3097713012e+01    0.3165967    0.1011607 -58.52  0.001100443    2.672    0.626
       138 -10.2090     78.6424     86.8802   4.8252547136e+01   5.0706810999e+01    0.2142086    0.1473969 -67.32 0.0003745259    1.599    0.374
       139 -13.1612    133.7298     66.0116   2.5292376638e+01   4.2305007243e+01    0.9317361    0.7663859  15.09  0.003903364    1.727    0.421
       140 -11.6842    241.7159     70.8021   1.1594054029e+01   1.8393286212e+01    0.3399656    0.1669614 -64.25  0.001673129    2.645    0.622
       141 -12.9946     78.9020     59.8418   3.8960085667e+01   5.6834912166e+01    0.8494125    0.5621118 -49.78  0.003818472    1.556    0.357
       142 -11.4674     83.4788     53.8539   3.4912102092e+01   5.6997645162e+01    0.4759297    0.3209166   9.16  0.001766224    2.976    0.664
       143 -11.0556     85.5182     49.4526   3.2405489209e+01   5.7352351563e+01    0.3935481    0.2586567  35.40  0.001430231    1.838    0.456
       144 -14.1488    177.9171     56.7748   1.5078549137e+01   3.3129172674e+01    0.9666039    0.5568243 -49.90  0.003012743    1.542    0.351
       145 -12.2996     36.2822     54.3563   5.7471012767e+01   6.6049777781e+01    0.4457073     0.288754 -26.72  0.001699863    1.962    0.490
       146 -11.1614     34.4550     60.5667   6.0674885569e+01   6.4784121632e+01    0.3986593    0.2315634 -53.11  0.001796528    1.656    0.396
       147 -11.5148     38.7753     59.7898   5.7939030425e+01   6.4382218500e+01     0.471426    0.2834727  64.13  0.001908334    2.418    0.586
       148 -11.9156     24.8633     59.2153   6.6024182270e+01   6.6261785374e+01    0.5106091    0.2687742 -50.52  0.001916147    1.805    0.446
       149 -12.6097    248.3481     52.0174   7.1779298426e+00   1.9682689978e+01    0.6164871    0.2649314 -33.22  0.003276121    1.888    0.470
       150 -13.6215     64.3800    214.1536   7.4104395607e+01   2.1292577752e+01    0.5427602    0.3329711  37.87  0.002711931    1.306    0.234
       151 -11.2194     17.6317     55.1080   6.9507729488e+01   6.7999858402e+01    0.3427982    0.2234926 -80.57  0.001671712    1.663    0.399
       152 -11.4081    231.1122     54.8397   9.0818807747e+00   2.2368549349e+01    0.3086755    0.1737567  86.34  0.001711814    2.185    0.542
       153 -10.5414     23.5472     49.9636   6.3993776599e+01   6.8702312974e+01    0.2014342    0.1319053 -60.87 0.0004341794    1.482    0.325
       154 -11.3839    201.7994     46.7805   9.8017670307e+00   2.9250586616e+01    0.1932774    0.1262951 -60.32 0.0009417167    1.351    0.260
       155 -12.6286    154.6303     46.2141   1.5294920981e+01   4.0299276612e+01    0.4926144     0.320112  59.26  0.002341946    1.594    0.373
       156 -13.3828    158.2508     43.0112   1.3797613554e+01   3.9861013724e+01    0.6436128    0.6191106 -48.48  0.002645647    1.216    0.177
       157 -11.7840     38.9123     46.2192   5.2689796017e+01   6.7541920830e+01    0.2412866    0.2079408 -52.54 0.0008926895    1.176    0.149
       158 -13.2282      6.3965     42.8968   7.4302225043e+01   7.1865642495e+01     1.108653    0.4808474  10.13  0.004753396    2.455    0.593
       159 -13.0035     57.5497    201.9268   7.4822392793e+01   2.4778026597e+01     1.243404    0.5633762 -72.96  0.005538107    2.490    0.598
       160 -11.8803    126.8971    232.3433   6.1308518983e+01   9.9086948739e+00    0.1860308    0.1771183  87.53  0.001297834    1.395    0.283
       161 -13.3673     94.2673    218.3426   6.7149307927e+01   1.6645081999e+01    0.4736428    0.2940962  30.79  0.001887946    1.335    0.251
       162 -10.6250      5.5657    219.2816   8.9041221904e+01   2.6339414417e+01    0.1489504    0.1088011 -80.05 0.0007275153    1.555    0.357
       163 -12.0067    181.5702    215.7007   4.8019126274e+01   5.6205299938e+00    0.2096868    0.1022858 -36.70  0.001133313    2.063    0.515
       164 -12.5761     51.4586    248.5064   7.9569291035e+01   1.6053844503e+01    0.5079141    0.3401368  27.41  0.003236697    1.264    0.209
       165 -12.0744      5.3746    209.4742   8.8835641022e+01   2.8473156956e+01    0.2712645     0.201723 -47.51  0.001646615    1.849    0.459
       166 -14.5633    212.1228     40.7935   7.4351824119e+00   2.7877228301e+01     1.936044    0.6301936  80.00  0.007181129    4.273    0.766
       167 -12.1106     85.8553    215.7153   6.8910293355e+01   1.8260846497e+01    0.3260237    0.1930929  42.76   0.00164369    1.439    0.305
       168 -13.1064     72.1623    206.7045   7.1443743174e+01   2.1900741485e+01    0.5244029    0.3033241  37.64  0.002674817    1.412    0.292
       169 -13.1103     44.9814     33.1985   4.2869638214e+01   6.9205032915e+01      1.09251    0.6051704  36.90  0.004921789    1.801    0.445
       170 -12.2509     40.1755     40.2592   4.9261585693e+01   6.8634138215e+01    0.5495625    0.3122554  36.22    0.0025092    1.723    0.420
       171 -12.8743     32.9923     40.4345   5.3915616668e+01   6.9718042118e+01    0.4221284    0.3304348  17.38 0.0006408435    1.328    0.247
       172 -12.7845     46.8508    208.9485   7.8180356391e+01   2.4477862182e+01    0.6036369    0.2416318  64.46  0.002358399    3.079    0.675
       173 -12.8195     75.8625     37.0439   3.0397460221e+01   6.1863041293e+01    0.6029963    0.3920346  57.79  0.001124941    1.467    0.318
       174 -11.5653     70.9592     36.0000   3.1778674267e+01   6.3195427193e+01    0.3489419    0.2045483  55.26 0.0009923114    1.626    0.385
       175 -12.9307    241.9228     35.6863   4.1946461969e+00   2.2782336364e+01    0.5684053    0.3238848 -87.85   0.00255091    1.954    0.488
       176 -11.0622    245.5085     29.5177   2.6994368263e+00   2.2860099087e+01    0.3069065    0.1332742 -32.03  0.001652123    1.939    0.484
       177 -13.3826     56.4887     27.1067   3.3457647443e+01   6.7942697591e+01     1.027937    0.3542797  50.97  0.002878927    2.726    0.633
       178 -11.8877     64.3967     24.7870   2.8668413056e+01   6.6517344093e+01    0.3316549    0.2928421 -20.01  0.001358885    1.258    0.205
       179 -13.7108     74.7012     73.5330   4.5548165318e+01   5.4704309303e+01     1.683771    0.8975764  22.72   0.00516293    3.813    0.738
       180 -11.1344     97.7837     26.6159   1.8930288959e+01   5.7897324014e+01    0.3683493    0.2675276 -65.37  0.001823509    1.475    0.322
       181 -12.2437     30.8860     25.1407   4.7538856380e+01   7.3188669465e+01    0.4368042    0.2731257  23.55  0.001593321    1.750    0.428
       182 -11.6041     36.1188     22.9259   4.2549600164e+01   7.2713992657e+01    0.3312039      0.24645 -21.48  0.001461322    1.526    0.345
       183 -11.0464     40.7954    211.0121   7.9881036281e+01   2.4699202975e+01    0.1986455    0.1376767 -41.11  0.001077236    1.991    0.498
       184 -11.4314     80.5953    208.5525   6.9479749223e+01   2.0414461030e+01    0.3038161    0.1828191  53.69  0.001538077    1.659    0.397
       185 -13.4130     15.2398    199.0975   8.5943120000e+01   2.9949511250e+01     1.080707    0.3501192 -58.48  0.004114235    3.862    0.741
       186 -12.3962     47.7330     19.7927   3.3584560402e+01   7.0974382120e+01    0.8671057    0.2501911  52.08  0.002865039    3.435    0.709
       187 -10.9901    151.2898    206.1586   5.2609149661e+01   1.1091642655e+01      0.25487     0.137603  17.36  0.001217554    2.087    0.521
       188 -12.1911     41.3849    205.2848   7.9353925963e+01   2.5901948588e+01    0.2426333    0.1458544  45.81  0.001285339    1.344    0.256
       189 -13.5717     39.1129    194.9276   7.9251534869e+01   2.8524567905e+01     1.045596    0.3623758  45.21  0.004241215    2.281    0.562
       190 -11.0402    175.9851     13.9062   3.3717835558e+00   3.9147996765e+01    0.1995582    0.1536568 -64.14 0.0002781518    1.049    0.047
       191 -12.9394    140.2314     21.2827   9.2339480661e+00   4.7304792711e+01    0.7486745    0.3277564  69.75   0.00140836    2.082    0.520
       192 -11.5939    136.7158    210.9098   5.6431351668e+01   1.2277623347e+01    0.2068602    0.1832478 -85.43  0.001052641    1.548    0.354
       193 -14.1256     30.1560    168.9431   7.9955340456e+01   3.5871319090e+01     2.361599     1.044695 -42.56  0.008560448    3.526    0.716
       194 -13.8582     21.3331    166.3025   8.2506320102e+01   3.7418331077e+01    0.9982733    0.4550594  42.60  0.003481536    1.820    0.451
       195 -13.8946     22.3962    180.9387   8.3074805058e+01   3.3619403329e+01    0.9628147    0.5546818 -56.86  0.004245232    2.031    0.508
       196 -15.2239      8.4033    183.2375   8.7196633720e+01   3.4302420560e+01     1.420039     1.150654  75.34  0.008736638    1.140    0.123
       197 -15.1508     15.6993    175.0712   8.4722820546e+01   3.5696710739e+01     2.704345     0.857127  55.13   0.01009463    2.778    0.640
       198 -10.9461     25.8251     44.1074   6.0320661060e+01   6.9839261505e+01    0.2150401    0.1926035  66.11   0.00124086    1.261    0.207
       199 -11.2368    212.7339    199.6667   4.0076224981e+01   4.1181531572e+00    0.2163826    0.1174596 -25.45  0.001266968    1.714    0.416
       200 -13.3156    164.4563    194.4195   4.8062300341e+01   1.1242567253e+01    0.5903552    0.3726999 -62.00  0.002954283    2.515    0.602
