#   1 NUMBER                 Running object number                                     
#   2 MAG_AUTO               Kron-like elliptical aperture magnitude                    [mag]
#   3 X_IMAGE                Object position along x                                    [pixel]
#   4 Y_IMAGE                Object position along y                                    [pixel]
#   5 X_WORLD                Barycenter position along world x axis                     [deg]
#   6 Y_WORLD                Barycenter position along world y axis                     [deg]
#   7 A_WORLD                Profile RMS along major axis (world units)                 [deg]
#   8 B_WORLD                Profile RMS along minor axis (world units)                 [deg]
#   9 THETA_WORLD            Position angle (CCW/world-x)                               [deg]
#  10 FWHM_WORLD             FWHM assuming a gaussian core                              [deg]
#  11 ELONGATION             A_IMAGE/B_IMAGE                                           
#  12 ELLIPTICITY            1 - B_IMAGE/A_IMAGE                                       
         1  -9.4704    249.6677      4.6817   4.8590385790e+01   2.3779255402e+01     0.177608    0.1649231  57.30  0.001404436    1.543    0.352
         2  -8.7990    191.6969    249.0149   1.0377389218e+02  -3.9796566094e-01    0.2120804    0.1271381  16.47 0.0009836068    1.329    0.247
         3 -10.0038    199.0743    243.9970   1.0176680829e+02  -6.3404720867e-01    0.6521742    0.2976613 -13.42  0.002965905    3.594    0.722
         4 -11.3170    244.0073    179.7563   8.4141340313e+01   2.1514168787e+00     1.403393    0.6844918 -11.27  0.006612177    2.966    0.663
         5  -9.2579    216.2592    229.7624   9.6725337673e+01  -8.7026901077e-01    0.3698588    0.1909217   4.16  0.002020868    2.244    0.554
         6 -10.5891    234.1864    210.7839   9.0838165918e+01  -6.0501076827e-01     1.216606    0.3365341 -29.65  0.004927509    4.050    0.753
         7 -10.6555    215.8340    238.1922   9.8025844051e+01  -1.8337901112e+00      1.04748    0.4168892  21.60  0.005417367    2.452    0.592
         8 -10.8720    207.6903    247.7728   1.0076668375e+02  -2.0552075586e+00    0.9754211    0.3962789  20.67  0.005152682    2.325    0.570
         9 -10.3898    227.1144    229.0801   9.4805957868e+01  -2.0093382048e+00     1.223124    0.5245832  -8.53  0.004649762    5.177    0.807
        10 -10.8793    247.3338    188.1163   8.5084738350e+01   6.7806565541e-01    0.9567292    0.5086522 -11.99  0.005428953    2.037    0.509
        11 -11.1677    247.5167    202.0305   8.7366780371e+01  -1.0555918074e+00    0.9893035    0.6838065  -5.00  0.007186332    1.149    0.130
        12 -10.0319    219.1358    245.1045   9.8445434508e+01  -2.9925742455e+00    0.5060475    0.2448065 -13.10  0.002858667    2.383    0.580
        13 -10.1687    225.7357    241.1637   9.6793852402e+01  -3.2505130792e+00    0.5635592    0.2788545 -11.58  0.002956114    2.214    0.548
        14 -11.6789    238.9794    222.2202   9.1863951615e+01  -2.5027065097e+00     1.812396    0.6489043 -20.03  0.007211672    4.650    0.785
        15 -11.2371    248.6615    214.8051   8.9229660039e+01  -2.6839949789e+00     1.343106    0.3580704 -28.12  0.005498827    4.262    0.765
        16 -11.4687    231.3541    244.9384   9.6414318893e+01  -4.2518233694e+00     1.223238    0.5024657   9.94  0.005622943    3.663    0.727
        17 -10.7510    236.5702    247.0737   9.5881966820e+01  -5.0055562939e+00    0.7496843     0.342036  -2.13  0.003991954    2.852    0.649
        18 -12.0619    246.6230    245.2703   9.4066554676e+01  -5.7976587879e+00      1.33842    0.6340931 -31.55  0.008987708    2.016    0.504
        19 -11.3083    244.9708    235.1637   9.2868094720e+01  -4.5713783461e+00    0.9423248    0.4245324  -6.66  0.004904954    2.949    0.661
        20  -8.9666    184.6956    250.5555   1.0525852036e+02   2.2493853576e-01    0.3113179   0.08767283  29.96   0.00138028    2.883    0.653
        21  -8.9535    173.7536    250.2232   1.0726577715e+02   1.5651031581e+00    0.3462062    0.1268785  32.24  0.001749896    2.143    0.533
        22  -9.3135    184.2454    236.6438   1.0347301760e+02   2.0733368680e+00    0.3567816    0.2141662   7.31  0.002137503    1.634    0.388
        23 -10.5093    178.1284    243.5127   1.0556298708e+02   1.9136953450e+00    0.6228526    0.3178268  18.90  0.003501933    1.769    0.435
        24  -9.5934    167.5150    249.9778   1.0842934121e+02   2.3525969435e+00    0.3535657     0.217604  20.31  0.001796375    1.279    0.218
        25  -9.3751    170.7683    246.3943   1.0734736531e+02   2.4321839608e+00    0.2667026    0.1593571  25.80  0.001043781    1.300    0.231
        26  -9.3404    151.4831    249.5350   1.1152562884e+02   4.3960355648e+00    0.2445707    0.1654938  12.03  0.001205866    1.329    0.248
        27  -8.9870    143.4917    249.9873   1.1318842333e+02   5.3363845462e+00    0.3477622    0.1374884  23.98  0.001607592    2.381    0.580
        28  -8.5793    137.8321    250.5553   1.1440617966e+02   5.9686425730e+00    0.2348483   0.09346882  27.37  0.001131742    2.063    0.515
        29  -9.7315      9.3067    249.0307   1.4157454191e+02   2.1007377800e+01    0.2556106    0.2162513 -62.50   0.00197574    1.649    0.394
        30  -9.1809      4.0592    248.5143   1.4262935742e+02   2.1566037247e+01    0.3214704    0.1440825  34.15  0.001927818    1.632    0.387
        31 -10.1089      3.7947    243.0647   1.4256044718e+02   2.2581296891e+01    0.5350963    0.1574884  58.58  0.002621186    2.576    0.612
        32  -8.7574    127.5900    249.3236   1.1638601481e+02   7.4524038617e+00    0.2036445    0.1222847  14.92 0.0008948578    1.677    0.404
        33 -10.1409    119.8520    247.8804   1.1785754816e+02   8.6627665369e+00     0.256111    0.1957581  14.12  0.001713055    1.244    0.196
        34 -10.7595    115.0592    247.7784   1.1886377449e+02   9.2914535722e+00    0.4935879    0.2782132 -27.09  0.002528189    2.840    0.648
        35  -8.2239     51.2354    249.4063   1.3277460802e+02   1.6727266530e+01    0.1796171   0.07541959  38.64 0.0009533416    1.658    0.397
        36  -9.0157     34.0261    248.1160   1.3638760187e+02   1.8789834251e+01    0.2457785    0.1294231  49.02   0.00149261    1.420    0.296
        37 -10.1791    124.4416    246.6567   1.1675804433e+02   8.2645394056e+00     0.297284     0.173392 -28.08  0.001617126    2.445    0.591
        38  -8.7319    187.5542    245.9634   1.0412548157e+02   4.6517288693e-01    0.2301217    0.1550946   4.94  0.001159724    1.269    0.212
        39  -8.8436    192.6176    242.4763   1.0272455476e+02   3.0694013270e-01    0.3318411    0.1585962  20.48  0.001321142    1.856    0.461
        40  -9.4984    157.5195    245.5105   1.0983054719e+02   4.2028819428e+00    0.2425043    0.1666306   7.13 0.0007545876    1.370    0.270
        41  -9.1704    138.7072    245.8918   1.1369365161e+02   6.5456998368e+00    0.3021267    0.1291379  25.02  0.001463381    2.070    0.517
        42  -9.8161    132.7704    245.4016   1.1487067112e+02   7.3842043739e+00    0.2367367    0.1357671 -40.13  0.001370376    2.160    0.537
        43  -9.3077    163.3905    244.1527   1.0849711935e+02   3.6534359600e+00    0.2160064    0.2031083  18.48  0.001107066    1.391    0.281
        44  -8.7935    147.1117    245.1797   1.1188574728e+02   5.5728431262e+00    0.1846641    0.1312525  11.81  0.000725525    1.270    0.213
        45 -10.7207     22.1271    244.5246   1.3876707786e+02   2.0629178105e+01    0.3802476    0.1932385  37.74  0.002300308    1.421    0.296
        46  -9.4499     10.5887    244.1854   1.4118017135e+02   2.1772204250e+01    0.1898568    0.1612933  78.22 0.0009201541    1.313    0.238
        47 -10.2065      9.6190    239.3153   1.4124791663e+02   2.2763870667e+01     0.283048    0.1783951 -81.09  0.001879885    1.777    0.437
        48 -10.0222      6.8275    236.0515   1.4175165295e+02   2.3628357831e+01    0.2545519    0.1550136  54.96  0.001061096    1.231    0.188
        49  -7.9480     44.9876    244.0000   1.3382528946e+02   1.8380943100e+01    0.1996388   0.05331981  28.60 0.0008043185    2.956    0.662
        50  -9.5248    143.5891    242.0843   1.1223475582e+02   6.4839177824e+00    0.2456099    0.1464713  23.19  0.001007685    1.382    0.276
        51  -9.2768    170.8129    239.7805   1.0647388773e+02   3.3243518834e+00    0.3445504    0.1947434  12.49  0.001844574    1.767    0.434
        52  -8.7246    176.2834    237.1476   1.0505958903e+02   2.9976402007e+00    0.2978677    0.1343395  22.52  0.001511823    2.048    0.512
        53  -8.8611    155.4042    240.8242   1.0966602122e+02   5.1407084540e+00    0.1498202    0.1026522 -23.68 0.0009389214    1.650    0.394
        54  -8.2718    206.0107    240.5789   1.0006300211e+02  -1.0129470537e+00     0.198917    0.1233893 -11.24 0.0007636278    1.514    0.340
        55  -9.5937     15.6104    240.7978   1.4002195072e+02   2.1938161931e+01    0.4255141   0.02363323  47.02  0.001570469    3.945    0.747
        56 -10.0822    112.9793    237.9208   1.1828303187e+02   1.1165667335e+01    0.2501866    0.1798027   1.86  0.001497807    1.642    0.391
        57  -8.2471    149.8022    237.8453   1.1043019689e+02   6.3071796386e+00    0.1897164    0.1379827  10.48  0.000741738    1.254    0.202
        58  -8.9113    195.8380    236.3653   1.0128680921e+02   6.9961320982e-01    0.3352472    0.1568538  19.43   0.00174824    2.038    0.509
        59  -8.9692    212.2227    225.7727   9.6824889452e+01   9.4005958337e-02     0.326625    0.1651827 -15.06  0.001756828    2.299    0.565
        60  -8.9843    217.0834    220.8532   9.5240684419e+01   1.3884385897e-01    0.3223224    0.1819384 -23.52  0.001963189    1.657    0.397
        61  -7.6176    221.0079    218.4858   9.4210003933e+01  -2.6776076752e-02    0.2161317    0.1189011 -11.32 0.0009054721    1.901    0.474
        62  -9.1091    206.5769    235.1106   9.9185641023e+01  -4.0941147595e-01     0.294737    0.1788859  10.38  0.001393188    1.421    0.297
        63  -8.5241    207.6639    230.4368   9.8314625040e+01   4.5699908991e-02    0.2373695    0.1487601  -3.48 0.0007967367    1.487    0.327
        64  -9.3243    138.6642    233.0457   1.1215719039e+02   8.5285947937e+00    0.2619458    0.1904615  88.64  0.001118798    2.630    0.620
        65  -8.5881     65.8162    248.3979   1.2956126842e+02   1.5252912741e+01    0.1729913   0.09649798  22.67 0.0009587301    1.717    0.418
        66  -8.6480    171.1085    232.7321   1.0546166188e+02   4.2734534035e+00    0.2307137    0.1370868  14.58  0.001327019    1.579    0.367
        67  -8.1269    153.2518    232.7617   1.0906411402e+02   6.6162397814e+00     0.169299    0.1209027   7.60   0.00104914    1.335    0.251
        68  -8.1755    121.3252    238.3219   1.1650795246e+02   9.9970637425e+00     0.122678   0.08580147   1.35 0.0007047374    1.683    0.406
        69  -9.4106    162.5876    235.0481   1.0746887556e+02   5.0471542917e+00    0.3254946    0.1900349  22.30  0.001421705    1.434    0.303
        70  -8.6269    195.1862    230.4371   1.0055641731e+02   1.5473630136e+00    0.2827567    0.1582529   2.13  0.001561991    2.025    0.506
        71  -8.4175    146.1668    230.7805   1.1028065590e+02   7.8724912815e+00    0.1746247    0.1276897   2.93 0.0009837159    1.393    0.282
        72  -9.3118      6.0398    229.9798   1.4175907067e+02   2.4865685333e+01    0.2581277    0.1108837  62.32  0.001407617    1.919    0.479
        73  -9.0278      6.3084    226.3343   1.4160012810e+02   2.5558071020e+01    0.1880038   0.09636187 -88.04  0.000860578    1.990    0.498
        74  -8.3439    187.8703    230.0855   1.0186364235e+02   2.5025553454e+00    0.2245958    0.1227843   8.88  0.001067794    2.019    0.505
        75  -8.0901    184.6499    226.7245   1.0198625902e+02   3.3721918107e+00    0.2227437    0.1185056  20.08   0.00110942    1.720    0.418
        76  -8.2803    190.2451    234.8699   1.0210283721e+02   1.5703228527e+00    0.2245471     0.120736   8.63 0.0009047549    2.042    0.510
        77  -8.3763      1.5969    227.7618   1.4266927383e+02   2.5679071134e+01    0.1626688   0.08322302  70.91 0.0009540453    1.706    0.414
        78  -7.7571    175.1645    226.8465   1.0383767507e+02   4.5865870092e+00    0.1716383    0.1163108  10.31  0.001055664    1.327    0.246
        79  -9.6086     11.0870    226.3962   1.4054266296e+02   2.5124222237e+01    0.2513721       0.1103  65.85  0.001333967    2.014    0.503
        80  -8.8849    223.9824    224.9267   9.4699296841e+01  -1.1636593998e+00    0.2738292    0.1539029  -7.76  0.001182513    1.781    0.438
        81  -8.9808    226.2087    219.5748   9.3512039582e+01  -7.6636632977e-01    0.3099635    0.1692216  -7.48  0.001587971    1.940    0.484
        82  -8.2035    228.4508    215.4834   9.2507041052e+01  -5.2187472173e-01    0.1898813    0.1282842   8.95 0.0009236149    1.226    0.184
        83  -8.3601    199.4558    225.2164   9.9008653112e+01   1.7099711552e+00    0.2275153    0.1423549   4.70 0.0008699049    1.512    0.338
        84  -7.6754    190.8349    225.3968   1.0062421251e+02   2.7657756806e+00    0.1729375   0.09133122  20.70 0.0009509284    1.715    0.417
        85  -8.1997    163.3422    224.3264   1.0584312537e+02   6.5380413487e+00    0.1291912   0.08297428   1.22  0.000705114    1.737    0.424
        86  -7.7657    149.0000    221.9718   1.0850190614e+02   8.8830097481e+00    0.1786287   0.07221477 -48.56 0.0007101455    2.935    0.659
        87  -8.5447      3.8089    222.6042   1.4205272259e+02   2.6515186478e+01    0.2234891   0.08343825  33.05  0.001146289    1.992    0.498
        88  -9.2371      1.6907    218.9627   1.4243231742e+02   2.7427326411e+01    0.2018562    0.1444363  80.98  0.001366459    1.330    0.248
        89  -7.8261    196.0254    221.4908   9.9076750770e+01   2.6396326233e+00    0.1652618   0.08442195  11.09 0.0006731861    2.351    0.575
        90  -8.5864    206.5043    222.9772   9.7406598168e+01   1.1380869992e+00    0.2387641    0.1482823  -7.12  0.001276989    1.568    0.362
        91  -7.0506     55.7184    220.2617   1.2985813886e+02   2.1731271386e+01    0.1287212   0.07486054  51.85 0.0006872845    1.480    0.325
        92  -7.8835    202.4472    219.4577   9.7596046997e+01   2.1040834103e+00    0.1195938   0.08939898   3.75 0.0008057537    1.071    0.067
        93  -7.6844    186.3062    219.3421   1.0057554600e+02   4.1954158502e+00    0.1255482   0.07907961  -1.55 0.0003479438    1.687    0.407
        94  -8.3236    211.1720    216.5871   9.5602261308e+01   1.4005851295e+00     0.246498    0.1380031  -7.24  0.001366857    2.010    0.502
        95  -8.0366    160.3134    217.3140   1.0545997952e+02   8.0427017932e+00    0.1283528   0.08612077   0.65 0.0007033244    1.638    0.390
        96  -9.6303      7.1923    216.9094   1.4112473257e+02   2.7382336565e+01    0.1970362    0.1208591  53.13  0.001056559    1.243    0.195
        97  -7.5025    193.3424    216.3196   9.8784825578e+01   3.6998020893e+00    0.1267278   0.07808447   0.73 0.0007049717    1.720    0.419
        98  -7.4711    206.2710    215.3725   9.6277861832e+01   2.1713638295e+00    0.1216824   0.07429569  -5.54 0.0004194352    1.678    0.404
        99  -8.7137    221.7109    213.5531   9.3319712299e+01   5.1311775580e-01    0.2724347    0.1502273   1.73  0.001524286    2.033    0.508
       100  -8.9275      2.0281    212.7108   1.4219158096e+02   2.8684669079e+01    0.1713584    0.1284326  49.48  0.001162197    1.055    0.052
       101 -10.3477      7.5796    206.8857   1.4071113627e+02   2.9449961686e+01    0.4648455    0.1423598  71.82  0.001852188    3.411    0.707
       102  -8.1025    225.4382    206.6063   9.1587264905e+01   9.5372302621e-01    0.2029833   0.08791264 -25.57  0.001026781    2.354    0.575
       103  -8.8113    229.2067    205.1140   9.0727478080e+01   6.9013202549e-01    0.2262696    0.1489573 -10.09    0.0014986    1.313    0.238
       104  -8.3085      1.5195    205.4699   1.4211128536e+02   3.0252498403e+01    0.1227512   0.09270109  55.70 0.0001622197    1.016    0.016
       105  -7.7775    223.5780    200.2558   9.0854636085e+01   2.0125597682e+00    0.1623307   0.09100094 -21.77 0.0009407656    1.669    0.401
       106  -7.7874    133.1189    199.1541   1.0875809308e+02   1.5188323811e+01    0.1756507    0.1420414  47.38            0    1.293    0.227
       107  -8.4178    230.9796    197.7137   8.9222131524e+01   1.4274456381e+00    0.2131682    0.1289436 -10.31    0.0011863    1.590    0.371
       108  -8.3087      9.4669    198.4959   1.3995058901e+02   3.1111256747e+01    0.1250901   0.09906507  56.84 0.0003817513    1.006    0.006
       109  -8.8914    216.0768    207.9874   9.3387781977e+01   1.9264929178e+00    0.3141067    0.1719303 -12.67  0.001629881    2.030    0.507
       110  -8.5392    231.6512    192.3149   8.8206574992e+01   2.0502285565e+00    0.2383166    0.1434251 -15.34  0.001210648    1.549    0.354
       111  -9.0234    223.8673    189.3770   8.8967610555e+01   3.4410756263e+00    0.3547224    0.2151578 -35.03  0.002155738    1.577    0.366
       112  -7.8530    215.3696    188.8251   9.0302157755e+01   4.6505542738e+00    0.1767531   0.09557793 -24.92 0.0009497564    1.795    0.443
       113  -8.1758    229.9728    186.0311   8.7396867484e+01   3.1016524780e+00    0.1902958    0.1182128  -4.70 0.0009498768    1.660    0.398
       114 -10.5404    234.2323    179.6971   8.5617014912e+01   3.4042217863e+00    0.4451591    0.3054038  10.45  0.002650121    1.414    0.293
       115  -8.2071      1.9899    176.9899   1.4108218500e+02   3.6604399028e+01    0.2820186   0.05476317  53.91 0.0009402464    3.979    0.749
       116  -7.4622     15.5078    179.4546   1.3752145115e+02   3.4944168839e+01     0.131091    0.1074159  59.35 7.862916e-05    1.009    0.009
       117  -9.4470    238.9681    139.7494   7.7488808448e+01   8.3104083415e+00    0.3175665    0.1453749 -26.86  0.001309678    2.152    0.535
       118 -10.1533    243.2497    149.7238   7.8799934064e+01   6.2924356510e+00    0.5745413    0.1738599 -28.40  0.002052828    4.131    0.758
       119  -8.7505    247.7195    111.6594   7.0785113394e+01   1.0924868631e+01    0.2756293     0.148049 -27.76  0.001230241    1.689    0.408
       120  -8.9504    250.5110    156.8838   7.9121892158e+01   4.3321158840e+00    0.3848393   0.09184512 -36.36  0.001522129    3.444    0.710
       121 -10.0630    243.7522    139.2044   7.6723482037e+01   7.6831938658e+00    0.3926858    0.2072621 -33.12  0.001794572    1.567    0.362
       122  -9.7285    246.2899    156.6529   7.9665581228e+01   4.9260600478e+00    0.4003193    0.2294872  -5.71  0.001654757    2.287    0.563
       123  -9.8030    249.2613    150.4887   7.8112625695e+01   5.3571553759e+00    0.3732713    0.2490808 -25.15  0.002428032    1.223    0.182
       124  -9.7732    247.1781    143.2632   7.7036560871e+01   6.6299511200e+00    0.3456895    0.2088121 -12.80  0.001700933    1.852    0.460
       125 -10.4916    247.7963    130.4103   7.4483918608e+01   8.3137011889e+00     1.165995    0.2179447 -41.21  0.003774184    4.902    0.796
       126 -10.3966    247.5586    119.4134   7.2352586482e+01   9.8743469099e+00    0.8487679     0.257509 -44.59  0.003337502    3.403    0.706
       127  -9.4437    247.3377    161.9848   8.0494253523e+01   4.0697958025e+00    0.2656069    0.1793337 -14.48 0.0009298768    1.321    0.243
       128  -8.4870     88.3653    171.1582   1.1602555828e+02   2.8095834165e+01    0.2273341    0.1820164  27.27 0.0003287997    1.222    0.181
       129 -10.1390    236.8316    169.0215   8.3309339452e+01   4.5135677491e+00    0.2852172    0.1731812  10.24  0.001624989    1.940    0.484
       130  -8.9286    202.2120    168.1193   8.8871161026e+01   9.6632294828e+00    0.2174378    0.1750247  32.50 0.0003866401    1.294    0.227
       131  -7.7499    222.5054    166.5256   8.5096390132e+01   6.8625228623e+00    0.1231816    0.1013188 -10.78 0.0001976469    1.008    0.008
       132  -7.0730    229.3017    165.6735   8.3854998671e+01   6.0162298193e+00    0.1081306   0.09244473 -53.02 0.0007031064    1.640    0.390
       133  -8.9682    240.9753    163.2488   8.1640438505e+01   4.7458676938e+00    0.2191393    0.1243344 -21.80   0.00094761    1.631    0.387
       134  -8.1548    233.6399    163.1976   8.2727003926e+01   5.7584464316e+00    0.1733568   0.09401121 -26.17 0.0009455658    1.668    0.401
       135  -8.8537    237.5245    157.0657   8.1003337266e+01   6.0746987598e+00    0.3052603   0.09965635 -35.64   0.00133469    2.625    0.619
       136  -7.5640    226.3351    156.3315   8.2563710164e+01   7.7920364510e+00    0.1284202   0.08468316  -2.76 0.0007052182    1.732    0.423
       137  -8.6938    222.2248    151.0194   8.2185406799e+01   9.1986742345e+00    0.1939953    0.1681038  17.60 0.0003805269    1.195    0.163
       138  -8.7573    238.5754    149.2233   7.9369364367e+01   7.0265719469e+00    0.1735238    0.0963295 -24.72 0.0006690733    1.664    0.399
       139  -8.1888    207.5968    149.1667   8.4229032232e+01   1.1811930599e+01    0.1892635    0.1104819 -26.28 0.0009056747    1.710    0.415
       140  -9.8605    234.2388    145.5184   7.9286174633e+01   8.1887182011e+00    0.3147932    0.1683243 -25.12  0.001657174    1.794    0.443
       141  -9.1640    242.0007    132.6241   7.5679422051e+01   8.8666995541e+00    0.4121022    0.1733974 -29.55  0.001755383    2.202    0.546
       142  -7.7935    223.4845    145.5202   8.0907336429e+01   9.8285307292e+00     0.125838    0.1056415 -16.97 0.0001002042    1.022    0.022
       143  -8.4305    229.8989    139.9024   7.8822581590e+01   9.6655362305e+00    0.2747668    0.1379873 -32.32  0.001406874    1.739    0.425
       144  -8.3918    216.6463    136.5318   8.0168741761e+01   1.2304915658e+01    0.2264531    0.1077039 -36.56 0.0009435915    1.866    0.464
       145 -10.0003    232.5531    132.4190   7.6944881663e+01   1.0349726077e+01    0.4372525    0.2310537 -43.16  0.002293766    1.790    0.441
       146  -8.4218    225.5927    133.0614   7.8086469246e+01   1.1366137662e+01    0.2865878    0.1067137 -35.79  0.001236451    2.338    0.572
       147  -8.7539    219.4376    128.0571   7.7980311015e+01   1.3148742247e+01    0.2979627    0.1512722 -31.06  0.001441292    1.831    0.454
       148 -10.3192    238.9506    123.0334   7.4178158518e+01   1.0701282553e+01     0.636599    0.2402706 -35.81  0.002925646    2.194    0.544
       149  -8.8489    226.8665    124.0912   7.6058646030e+01   1.2504174277e+01    0.2444589    0.1539051 -30.34  0.001364358    1.399    0.285
       150  -9.8703    230.9005    114.0547   7.3407902733e+01   1.3320065043e+01    0.4758377    0.1936087 -37.52  0.002192981    2.057    0.514
       151  -9.6464    240.9339    108.8356   7.1034176308e+01   1.2406644717e+01    0.4481173    0.2122127 -29.29  0.002219906    1.955    0.488
       152  -9.3789    248.1903    106.4230   6.9675276561e+01   1.1574224958e+01    0.2296905    0.1688472 -12.85   0.00142714    1.484    0.326
       153  -8.7117    218.4803    116.6229   7.5700826944e+01   1.5080682421e+01    0.2708915    0.1754234 -18.19  0.001066019    1.747    0.428
       154  -8.0503    237.7397    101.9159   6.9989598056e+01   1.3921212312e+01    0.3118517   0.08454621 -37.05  0.001206913    2.924    0.658
       155  -7.7541    164.8795    102.3797   8.1653221864e+01   2.8244403517e+01    0.2001086    0.1351929  39.39 0.0002750784    1.618    0.382
       156  -9.5897    248.5175     97.4883   6.7824657104e+01   1.2748142783e+01    0.2657648   0.09720392 -34.69  0.001221657    2.204    0.546
       157  -8.3551    242.6730     97.5901   6.8504380777e+01   1.3699017904e+01    0.2563573    0.1259536 -37.16  0.001343729    1.643    0.391
       158  -8.6623    220.9183     96.1318   7.0876128477e+01   1.7758754784e+01    0.2253368    0.1599482 -37.16 0.0005735561    1.217    0.178
       159  -8.4273    242.0000     92.9219   6.7608465812e+01   1.4461599600e+01    0.2065505    0.0581391 -34.61 0.0007905903    2.916    0.657
       160 -10.2679    246.6377    166.7654   8.1457968491e+01   3.5247703661e+00    0.6682342    0.2464059 -25.33  0.002859535    3.151    0.683
       161  -9.5980    249.2652     85.9873   6.5388752189e+01   1.4182142147e+01    0.2878731    0.1336132 -22.48  0.001292139    2.753    0.637
       162  -7.9285    108.4947     82.0430   8.9969714291e+01   4.5283290962e+01    0.2217264    0.1565025 -44.12 0.0003519261    1.463    0.317
       163  -9.3677    239.2383     73.4979   6.3787186924e+01   1.7604212687e+01    0.3655841    0.0863532 -33.74  0.001315543    3.504    0.715
       164  -9.7973    248.0170     73.5141   6.2930344469e+01   1.6049959397e+01    0.2269527    0.1516205 -22.59  0.001223052    1.582    0.368
       165 -10.0024    248.7063     65.1670   6.1128417741e+01   1.7012727288e+01    0.4169533    0.1528039 -25.19  0.001618695    3.643    0.725
       166 -10.5102    250.3158     54.5203   5.8779297217e+01   1.8070235450e+01     0.497032    0.1132974 -37.65  0.002031648    2.936    0.659
       167  -8.3084    122.0087     60.0661   7.8993478356e+01   4.6290728487e+01    0.2264074    0.2144563  84.50 0.0003417858    1.023    0.023
       168 -10.1571    242.5269     48.2361   5.8077772523e+01   2.0258055338e+01    0.2106033    0.1688628  -9.63   0.00137581    1.635    0.388
       169  -7.2901    171.7430     49.7414   6.6084940294e+01   3.5390228222e+01    0.1259962    0.1089465  31.90            0    1.437    0.304
       170  -7.8438    218.3250     47.6896   6.0060894368e+01   2.5085569058e+01    0.1366118   0.08009044 -60.38 0.0004848623    1.656    0.396
       171 -10.8412    248.9599     38.1462   5.5480335663e+01   2.0284486125e+01    0.4480869    0.2444945 -22.74  0.002449175    2.120    0.528
       172  -9.5564    249.8609     25.5656   5.2826028634e+01   2.1549841759e+01    0.2082316    0.1047732 -39.89  0.001220562    1.513    0.339
       173  -7.3106     15.2759     18.2724   1.0998608909e+02   7.5048750318e+01    0.1264001   0.08426577 -20.97            0    1.488    0.328
