#   1 NUMBER                 Running object number                                     
#   2 MAG_AUTO               Kron-like elliptical aperture magnitude                    [mag]
#   3 X_IMAGE                Object position along x                                    [pixel]
#   4 Y_IMAGE                Object position along y                                    [pixel]
#   5 X_WORLD                Barycenter position along world x axis                     [deg]
#   6 Y_WORLD                Barycenter position along world y axis                     [deg]
#   7 A_WORLD                Profile RMS along major axis (world units)                 [deg]
#   8 B_WORLD                Profile RMS along minor axis (world units)                 [deg]
#   9 THETA_WORLD            Position angle (CCW/world-x)                               [deg]
#  10 FWHM_WORLD             FWHM assuming a gaussian core                              [deg]
#  11 ELONGATION             A_IMAGE/B_IMAGE                                           
#  12 ELLIPTICITY            1 - B_IMAGE/A_IMAGE                                       
         1 -10.3458     10.1448     19.0626   1.1811615721e+02   7.1132707067e+01     1.277337    0.3382681 -29.39  0.003612329    7.375    0.864
         2 -10.9119     21.9435     53.5891   1.2212061328e+02   6.2976772590e+01    0.9695792    0.4736749  88.95  0.003590777    4.330    0.769
         3 -10.9491     23.7454     32.5154   1.1536534174e+02   6.7459737108e+01     1.413213    0.4629188 -46.60  0.005187209    2.292    0.564
         4 -10.2227      4.7489     41.6532   1.2717693253e+02   6.6553075374e+01    0.7695543    0.3187806 -72.64  0.002696931    2.171    0.539
         5  -9.5968      2.2828     14.1576   1.2107961715e+02   7.2512303581e+01    0.4692863    0.2030868 -73.15   0.00213148    2.978    0.664
         6 -10.3372      5.2214      4.5644   1.1548119792e+02   7.4262542440e+01    0.4517949    0.3830991 -20.10    0.0015771    1.206    0.171
         7 -10.2058      7.2181     28.4474   1.2270285664e+02   6.9322537952e+01    0.3924637    0.3023253  56.31  0.001035956    1.822    0.451
         8 -10.9583     21.0783      7.6688   1.0671875328e+02   7.2551998079e+01      1.25587    0.8633261  55.66  0.006718705    3.019    0.669
         9 -10.8647     36.6921     39.5994   1.1142595449e+02   6.4851148489e+01    0.7962307    0.4743396 -52.33  0.001172763    1.455    0.313
        10 -10.3239     50.9448     15.2676   9.4173401952e+01   6.7738126184e+01     1.346452    0.6565086 -12.65  0.004775428    3.976    0.748
        11 -10.5036     69.6405     39.3205   9.6768678837e+01   6.0646855896e+01     1.801783    0.4558806 -39.72   0.00560757    3.824    0.738
        12 -10.0069     62.9807     20.9091   9.1440259053e+01   6.4960090458e+01    0.8502974    0.3440349 -45.07  0.002689107    2.867    0.651
        13 -10.3016     64.5708     13.3893   8.6992085159e+01   6.5850327641e+01    0.4495164    0.3373284 -35.06  0.001886581    1.409    0.291
        14  -9.7575     79.2097     24.1755   8.6389539288e+01   6.1571363384e+01    0.6912751     0.338699  24.06  0.002343134    2.952    0.661
        15  -8.7791    112.2053     15.5803   7.1901210229e+01   5.5559063674e+01    0.3227794    0.1881453 -31.19 0.0007001951    1.770    0.435
        16  -7.8716     72.2769      8.4579   8.1259251857e+01   6.5115625116e+01    0.2399594    0.1430662 -32.95 0.0005437271    1.700    0.412
        17  -9.9632     73.6174     17.0809   8.5149047314e+01   6.3685272142e+01     1.034278    0.3068458 -30.96  0.003560281    3.375    0.704
        18  -8.2140     76.9807      6.4888   7.8445563867e+01   6.4435316271e+01     0.225575    0.2164163 -87.85  0.001165578    1.473    0.321
        19  -8.7393     78.6826      3.1470   7.6063853801e+01   6.4472811967e+01     0.283539    0.2331564  -0.05  0.000849401    1.100    0.091
        20  -9.3509    133.5813     12.4078   6.5583035281e+01   5.0557860647e+01    0.3257559     0.198887 -28.67  0.001504733    1.701    0.412
        21  -8.9883     96.5115     12.9903   7.5171077345e+01   5.9508179034e+01    0.3235252    0.1963025  13.19  0.001084137    1.925    0.481
        22  -9.5337     85.2819     13.0545   7.8847359249e+01   6.1928146627e+01    0.4314581    0.2746564 -52.82  0.001348715    2.487    0.598
        23  -7.8118     80.7019     12.7520   8.0313133124e+01   6.2905622754e+01    0.2870897    0.1474029 -39.48  0.001163436    2.203    0.546
        24 -10.6923     36.9652      9.0905   9.8175377742e+01   7.0627764559e+01    0.8495554    0.3422225 -48.04  0.002183216    2.837    0.648
        25 -11.5551    240.6699      4.5413   4.9673723930e+01   2.3975223867e+01     1.286798    0.6333258  77.14  0.006272849    2.100    0.524
        26  -8.9616    114.2002     10.0218   6.8945465415e+01   5.5685021651e+01    0.2785249    0.1903979  37.33 0.0003748574    1.347    0.257
        27  -8.5475    127.0769      9.0029   6.5556261424e+01   5.2566748606e+01    0.2455737    0.1474458  32.58 0.0006869233    1.692    0.409
        28  -8.9007    102.0242      8.1767   7.1292732386e+01   5.8789628925e+01    0.2971689    0.2039117 -38.19 0.0005631095    1.670    0.401
        29  -8.6457    104.5493      2.1983   6.7805332329e+01   5.8787372383e+01    0.3599357    0.1912127  21.68   0.00152962    2.167    0.539
        30  -7.6988    110.2975      7.6915   6.8878424317e+01   5.6873492058e+01    0.1846702    0.1189499 -18.66 0.0004184097    1.588    0.370
        31  -7.9372    110.7042      4.6355   6.7393403262e+01   5.7074246745e+01    0.3129089    0.1349339  25.92  0.000903869    3.231    0.690
        32  -8.2974     97.8086      6.1238   7.1504987495e+01   5.9980413865e+01     0.313416    0.1846923  -0.47 0.0008432125    1.905    0.475
        33  -8.2329     95.7713      2.9956   7.0564568924e+01   6.0764368165e+01    0.2150812    0.1858526  26.20 0.0003930118    1.020    0.020
        34  -8.1392     85.3045      6.5151   7.5559458250e+01   6.2708216432e+01    0.3045019    0.1526722  27.51  0.001276917    2.254    0.556
        35  -8.6495    125.0894      5.2637   6.4413775569e+01   5.3427120981e+01    0.5175782    0.1994024  48.89  0.001995648    2.216    0.549
        36  -7.6826    143.3606      5.1233   6.0881992442e+01   4.8694403952e+01    0.2008083    0.1224749 -34.38 0.0006305173    1.754    0.430
        37  -8.6299    136.5245      1.6353   6.0720226633e+01   5.0788891869e+01    0.3447396    0.1261935  54.57  0.001310503    2.233    0.552
        38  -8.5315    115.2096      4.3071   6.6175335684e+01   5.5998229908e+01    0.2461187    0.2205745 -35.58 0.0005018942    1.277    0.217
        39  -8.6628     89.1826      2.8787   7.2464356226e+01   6.2257836260e+01    0.3811082    0.1984536 -31.63  0.001517842    2.010    0.503
        40  -9.5340     63.9420      2.8532   8.1554506753e+01   6.7378464851e+01    0.3356865     0.249104 -43.15  0.001525988    1.768    0.434
        41 -10.5129    123.4747     91.3327   9.6185340092e+01   4.0127608972e+01     1.143001     0.565116 -32.44   0.00269175    2.404    0.584
        42 -10.2483    205.3039    249.6487   1.0859357042e+02  -5.7996603216e-01    0.3174476    0.2282102  46.63  0.002242992    1.736    0.424
        43 -10.8921    191.2401    246.8755   1.1065375627e+02   1.6829845699e+00    0.4859804    0.3449107  56.58  0.003184431    2.149    0.535
        44  -9.4468    199.8335    249.8777   1.0955751859e+02   1.5557038047e-01    0.2381238    0.1262419  38.76  0.001155413    1.489    0.328
        45 -10.1193    138.9817     91.8232   9.2106424876e+01   3.6712244694e+01    0.7977899    0.4268524 -44.92  0.002529991    1.942    0.485
        46 -10.1308    140.4061     79.8151   8.8169419212e+01   3.8710415425e+01     1.304282    0.3487715 -37.71  0.003668454    3.778    0.735
        47 -11.0690    121.3218    110.9539   1.0197334431e+02   3.6421692927e+01     1.331065    0.6442645 -51.99  0.003278664    2.232    0.552
        48 -10.7368    108.6074    100.7637   1.0302237486e+02   4.1031220702e+01     1.046174    0.8006961 -82.87  0.004945586    1.801    0.445
        49  -9.9610     58.2078    124.5941   1.2275197645e+02   4.3098911984e+01    0.5944424    0.3144835  72.13  0.002293028    2.852    0.649
        50 -10.0091     71.0887    125.8381   1.1929451596e+02   4.1229967867e+01    0.5100358    0.3534465  88.35  0.001412482    1.678    0.404
        51  -9.5626     66.5381    128.5079   1.2100626889e+02   4.1197800047e+01    0.3990963     0.253155  35.04  0.001614748    1.627    0.385
        52  -7.1565    169.5152    128.5260   9.4223689531e+01   2.3069360359e+01    0.1510148    0.1369876  15.02 6.965973e-05    1.019    0.018
        53 -10.5004    139.6235    103.2194   9.5092646957e+01   3.4302323695e+01    0.9210965    0.4901653 -27.75  0.001748699    2.434    0.589
        54  -9.3000     41.5327    122.1908   1.2715800946e+02   4.5412691128e+01     0.478826    0.2192521 -89.68    0.0019745    2.933    0.659
        55  -9.6008     27.4231    123.0930   1.3122435363e+02   4.6445156269e+01    0.4797079    0.2216584  67.67  0.002062441    2.686    0.628
        56  -9.3285    157.7205    122.1065   9.5411558010e+01   2.6745017709e+01    0.3518814     0.211611  57.08  0.001450885    2.059    0.514
        57  -7.6921    186.4303    121.4905   8.8848547180e+01   2.0723044550e+01    0.1489284     0.137143   7.08 0.0002882105    1.030    0.029
        58 -10.1590     91.9539    113.2013   1.1085216321e+02   4.1112326404e+01    0.5754138    0.4123247 -87.63  0.001685613    1.867    0.464
        59  -7.8007      1.3007    115.8671   1.3774266446e+02   4.9811733319e+01    0.1718247   0.07631555 -70.52 0.0009306817    1.777    0.437
        60 -10.3124    140.5245    118.6263   9.8781064632e+01   3.1001575358e+01    0.4965681    0.4354276 -55.79  0.001249834    1.263    0.208
        61 -10.1926     78.0512    113.0078   1.1492910826e+02   4.3245607420e+01    0.5089253    0.3157358 -83.44  0.001684669    2.227    0.551
        62  -8.1418     78.2240    105.3240   1.1329347037e+02   4.4999595672e+01     0.406831    0.2416357 -16.16  0.001541345    3.296    0.697
        63  -9.2076     81.4648    100.2945   1.1116998363e+02   4.5686191608e+01    0.6928638    0.2578176 -56.30  0.002224372    2.606    0.616
        64  -7.9607    167.4809    114.0266   9.1132549258e+01   2.6164728252e+01    0.2280135    0.1487743 -37.84 0.0005076517    1.562    0.360
        65  -9.6101     59.0946    109.6127   1.2003828150e+02   4.6488465459e+01     0.333915    0.2282787  87.34  0.001281688    1.720    0.419
        66 -10.5387     63.0544     96.0976   1.1616398116e+02   4.9183981003e+01    0.7214738    0.4092795 -83.13  0.001759361    2.655    0.623
        67  -8.8531     65.3310     85.7226   1.1306197413e+02   5.1312963625e+01    0.6260985    0.3495215  -6.79  0.002229145    3.935    0.746
        68 -10.1847     65.3364    110.6820   1.1832253819e+02   4.5481976475e+01    0.6058578    0.4218475  83.07   0.00173802    1.758    0.431
        69  -9.3287     66.8796    104.1322   1.1658536234e+02   4.6819070110e+01    0.5039954    0.3329855 -16.06  0.002360939    2.264    0.558
        70  -9.4469     14.2994    111.6125   1.3374958637e+02   5.0021003983e+01    0.3638974    0.1834016  72.16  0.001563389    2.180    0.541
        71  -8.1197    158.7627    112.0436   9.2654970358e+01   2.8439502165e+01    0.2196904    0.2056056 -55.46 0.0004286447    1.217    0.179
        72  -9.4933     31.6563    108.9020   1.2831368689e+02   4.9384150691e+01    0.3472426    0.2787915  88.38  0.002234382    1.160    0.138
        73  -8.5140     21.0109     92.2934   1.2943494926e+02   5.4066124495e+01    0.3202175    0.1055156 -45.91  0.001298746    3.151    0.683
        74  -7.7143    201.9763    111.2396   8.3162725096e+01   1.9058390583e+01    0.1952089    0.1219074  46.99 0.0008817802    1.611    0.379
        75 -10.7299     21.2094    101.7630   1.3060129955e+02   5.1840644964e+01     1.070494    0.4364223  76.63  0.003885627    4.259    0.765
        76 -10.3209    130.4031    117.9421   1.0122683048e+02   3.3173673860e+01    0.7973808     0.423667 -52.54  0.001401515    2.099    0.524
        77  -8.1914    191.6983    108.9619   8.4613637890e+01   2.1694381288e+01    0.2442653    0.2165256  80.34 0.0006275235    1.475    0.322
        78  -8.4369     40.0625    107.3018   1.2552236627e+02   4.9024345423e+01    0.2193226    0.1592203  83.63  0.000506204    1.426    0.299
        79 -10.9818     44.8950    102.5538   1.2326156906e+02   4.9680855956e+01    0.8068507    0.3929588  68.23  0.003066442    3.648    0.726
        80  -9.2721      6.1249    103.7425   1.3538365960e+02   5.2299597194e+01    0.3878748    0.2461437  52.88  0.001574273    1.670    0.401
        81  -9.3635    248.8661    104.3910   7.3533296616e+01   1.0320025164e+01    0.2906055    0.1946369 -46.55  0.001490434    1.782    0.439
        82  -9.2009    165.9965    103.6154   8.8752084510e+01   2.8409906709e+01    0.5654985    0.2176961 -34.68 0.0009087072    2.729    0.634
        83  -8.5522     92.1228    103.6951   1.0866638087e+02   4.3244261919e+01    0.3643703    0.2548892 -26.29  0.001693082    1.766    0.434
        84  -8.1239     14.3918    104.8428   1.3303201860e+02   5.1571902438e+01    0.1715184   0.08561903 -63.57 0.0004513571    1.636    0.389
        85  -8.4181     73.9792    102.1952   1.1394800247e+02   4.6324242017e+01    0.3587701    0.1814344 -59.47 0.0009952984    1.895    0.472
        86  -9.1331    158.6305    100.9644   8.9756045591e+01   3.0562888051e+01    0.3298208    0.2382532 -60.60 0.0008889757    1.848    0.459
        87 -10.6178     33.0573     64.1303   1.1995103578e+02   5.9749084227e+01     1.524996    0.5822163 -33.31  0.005568053    3.806    0.737
        88 -10.0807     21.0340     83.4138   1.2813958453e+02   5.6143267463e+01    0.8367746    0.1240422 -59.46  0.002940034    3.590    0.721
        89 -10.5280     25.6947     78.0447   1.2559570672e+02   5.7082485260e+01    0.7890108    0.4168136  76.88  0.002919196    2.887    0.654
        90 -10.3154     34.5188     90.7226   1.2468270819e+02   5.3419242270e+01    0.7937609    0.3095727 -81.58  0.002768548    3.921    0.745
        91 -10.0519     36.8499     81.0851   1.2211926723e+02   5.5487467170e+01      0.66472     0.306045 -27.18  0.002579167    3.625    0.724
        92  -8.7278     95.8059     91.0450   1.0436235627e+02   4.5468075099e+01    0.4511116    0.2708109 -18.22  0.001693566    2.868    0.651
        93  -9.0873    239.7489     97.3085   7.3189349672e+01   1.3098101397e+01    0.1933435    0.1807161  81.64 0.0007176787    1.379    0.275
        94  -8.7714    164.5613     94.5379   8.6591495534e+01   3.0395010238e+01    0.2707862    0.2528514 -21.79 0.0006080572    1.078    0.072
        95  -9.6353    150.6450     88.6182   8.8211681182e+01   3.4701470703e+01    0.7336454    0.4396133 -24.41  0.002457781    1.934    0.483
        96 -10.2978      4.1634     90.2474   1.3466667622e+02   5.5492784452e+01     0.574793    0.3099832 -89.85  0.001762845    1.699    0.411
        97  -8.9790    170.5304     65.4394   7.6632228228e+01   3.3931521850e+01    0.4193184     0.228976 -15.01  0.001486695    2.414    0.586
        98  -9.3265    157.6569     90.7961   8.7143603300e+01   3.2677998296e+01    0.4832993    0.2730964 -23.09  0.001639597    2.157    0.536
        99  -9.1048    157.6551     84.0265   8.5168936661e+01   3.3913100660e+01    0.3897642    0.2130525 -34.46  0.001171844    1.838    0.456
       100  -9.8032    157.4722     76.3941   8.2908926581e+01   3.5314116141e+01    0.7426566     0.325452 -41.76  0.002090287    2.374    0.579
       101  -8.4418    166.3050     78.9486   8.1672711706e+01   3.2739202228e+01    0.3067175    0.2277851 -28.91 0.0006781638    1.345    0.256
       102  -9.8066    162.9205     73.0796   8.0643627761e+01   3.4562524048e+01    0.7019303    0.3216573 -38.94  0.002080275    2.191    0.544
       103  -9.3167    167.6676     74.6583   8.0078707191e+01   3.3135693849e+01    0.4124762    0.2821837  28.28  0.001490827    1.633    0.388
       104  -8.8582    169.5099     71.4946   7.8716808495e+01   3.3208087047e+01    0.3941769    0.1957646 -33.51  0.001491475    1.990    0.497
       105  -9.4055    111.3524     89.8459   9.9277434648e+01   4.2871247118e+01    0.7887991    0.3766484  26.75   0.00262411    3.229    0.690
       106  -8.9683    163.8126     88.0747   8.4922486253e+01   3.1734137891e+01    0.4901146    0.2532875 -52.59  0.001567359    2.736    0.634
       107 -10.1830     85.3221     86.6891   1.0656738935e+02   4.8189552827e+01    0.4466915    0.3780528  89.83 0.0008911171    1.452    0.311
       108  -9.4234     87.6221     78.7494   1.0360051344e+02   4.9577260661e+01    0.5832488    0.3710356   5.27  0.001862875    2.501    0.600
       109 -10.2456     48.1007     84.6911   1.1884287736e+02   5.3566907847e+01    0.5492068    0.3777305  87.24  0.001655004    1.829    0.453
       110  -9.4232     48.8248     77.1931   1.1692632607e+02   5.5241784837e+01    0.6260461    0.3908208 -17.77  0.003036519    2.174    0.540
       111  -7.4092    176.6850     86.3020   8.1574933627e+01   2.8990609662e+01    0.1512244    0.1243512 -72.40 0.0003341506    1.616    0.381
       112 -10.3540    103.8759     82.7167   9.9505584773e+01   4.5822487072e+01    0.5355163    0.3016161 -54.44  0.000890162    1.987    0.497
       113  -9.7145    105.0388     72.5212   9.6023664711e+01   4.7732101171e+01    0.8204134    0.5469515  -9.10  0.003438273    2.146    0.534
       114  -8.1644     63.5602     81.7837   1.1271973065e+02   5.2451680395e+01    0.2587402    0.1193254 -53.30 0.0008180772    1.915    0.478
       115  -9.1569    149.6674     79.4984   8.5730858682e+01   3.6617626904e+01    0.5331736     0.298476 -39.12  0.001526274    1.797    0.444
       116  -8.7818    118.9413     80.5524   9.4312891481e+01   4.3278184870e+01    0.3453241    0.2339384 -53.63 0.0007190057    1.680    0.405
       117  -7.7900    119.8164     76.1746   9.2702356698e+01   4.3973216628e+01    0.2174783    0.1995215 -17.39 0.0004469137    1.056    0.053
       118  -8.9471     74.0648     80.2533   1.0864852057e+02   5.1363203657e+01    0.3444912    0.2145858 -67.16 0.0007338885    1.927    0.481
       119  -8.7545     74.7951     74.6867   1.0685272623e+02   5.2505684678e+01    0.3147747    0.1976447   7.94  0.001366016    2.328    0.570
       120  -9.5764      6.0393     78.5340   1.3269826687e+02   5.8107173527e+01     0.763783    0.2537242 -31.95   0.00290888    4.616    0.783
       121  -9.8197     15.9533     70.7811   1.2796228500e+02   5.9397577107e+01    0.5063081    0.1919251 -60.47  0.001274735    1.950    0.487
       122  -9.8848     17.0327     61.2230   1.2581430586e+02   6.1541196960e+01    0.7150316    0.2833218 -62.36  0.003441575    1.907    0.476
       123  -8.2434    229.3872    249.1951   1.0449822851e+02  -3.8055734991e+00    0.1197491   0.09582105 -20.37 0.0003139151    1.649    0.393
       124  -9.4955    169.8133    247.7619   1.1452457628e+02   4.6286294562e+00    0.2594348    0.1527507  -8.27  0.001411743    3.029    0.670
       125  -9.3077    176.4915    247.5221   1.1331731562e+02   3.7058679486e+00    0.1870881    0.1117773 -39.97  0.001229909    2.233    0.552
       126  -8.9402    158.7641    246.7515   1.1636938114e+02   6.3235034440e+00    0.1374361   0.09447319 -64.38 0.0008949674    2.439    0.590
       127  -8.9592     23.5922    243.7903   1.3970478317e+02   2.3379573113e+01    0.1275704   0.06842813  75.96 0.0006697095    1.617    0.381
       128  -7.4474     11.3948    243.2965   1.4163104684e+02   2.4568629112e+01   0.07478129   0.07177684 -21.32 0.0001357817    1.798    0.444
       129  -9.8354      8.7342     47.2225   1.2652854332e+02   6.5144067745e+01    0.5553153    0.2287613  18.24  0.002798374    2.867    0.651
       130 -10.0602     14.5537     44.8002   1.2333357917e+02   6.5393155709e+01    0.4809383    0.2345179 -39.16  0.001240861    1.840    0.457
       131  -9.6286      6.9190     32.5195   1.2396173078e+02   6.8462404835e+01    0.2886424    0.1932854  -6.80 0.0008771433    1.687    0.407
       132 -11.9751    243.9915    240.2700   1.0082397447e+02  -4.9160336899e+00    0.2176795    0.1565863  20.08 0.0003077189    1.148    0.129
       133  -9.9506    232.8771     77.4127   6.9213084407e+01   1.7282445694e+01    0.3117636     0.252676 -11.15 0.0005045422    1.179    0.152
       134  -9.6134    237.4257     73.6497   6.7607126024e+01   1.6796289526e+01    0.3745946    0.2405026  27.88  0.001251387    1.855    0.461
       135  -9.1915      9.1543    235.9448   1.4176150254e+02   2.5913601858e+01    0.1714413    0.1059788  57.28 0.0004640805    1.124    0.110
       136  -8.2222    184.4755     77.9380   7.7566476239e+01   2.8495818151e+01    0.2269987    0.2037276  35.89 0.0005078128    1.096    0.088
       137  -8.1968    170.4632     83.9240   8.2226975855e+01   3.0883326726e+01    0.2338541    0.1503029 -34.24  0.001012696    1.548    0.354
       138  -9.5521    127.3929     75.0440   9.0184488991e+01   4.2552974625e+01    0.4890963    0.2810774 -47.41  0.000758636    1.890    0.471
       139  -8.8667    129.6275     68.7658   8.7536373637e+01   4.3241515591e+01    0.5036372    0.2313199  30.64  0.001569876    3.351    0.702
       140  -8.6120    130.5673     64.7545   8.5945012900e+01   4.3761839143e+01    0.3663765    0.2077053 -34.79 0.0008848165    1.761    0.432
       141  -9.3238     94.3837     97.3035   1.0642370925e+02   4.4313267361e+01     0.294289    0.2405979 -73.31 0.0006528764    1.400    0.286
       142  -9.9693     81.6257     72.5312   1.0381827075e+02   5.1921910531e+01    0.4398963    0.3149922 -72.11 0.0009333717    1.899    0.473
       143  -9.0324     83.4161     64.7228   1.0074537572e+02   5.3300439447e+01    0.5591567    0.3455809 -14.06  0.002289087    2.447    0.591
       144  -9.0860    115.1411     72.9359   9.3053113601e+01   4.5601723120e+01    0.3917821    0.2881049 -50.89 0.0009939368    1.485    0.327
       145  -7.9920    116.3253     68.3368   9.1200470824e+01   4.6254879095e+01      0.29458    0.1443663  39.12  0.001123572    2.117    0.528
       146  -8.7577     87.4330     58.3711   9.7180911006e+01   5.3911696484e+01    0.3888312    0.2292299 -49.08  0.001231166    1.754    0.430
       147 -10.4954     85.1268     48.0826   9.4259396504e+01   5.6338900801e+01    0.6352248    0.4786138 -85.74 0.0009917171    2.484    0.597
       148 -10.5469     89.2314     38.1213   8.8826513157e+01   5.7365973801e+01    0.7989731    0.3527524  34.97  0.002511765    2.529    0.605
       149 -10.1865     72.9571     59.2478   1.0277312317e+02   5.6137171398e+01    0.8844026    0.2864549 -48.73   0.00257629    2.879    0.653
       150 -10.6914     55.1807     70.9497   1.1301229251e+02   5.5968161596e+01    0.6151032    0.3511128  52.11  0.001364454    2.431    0.589
       151  -9.4202     54.4914     63.6344   1.1127185993e+02   5.7701198504e+01    0.5332858    0.3179973  17.53  0.002606218    2.026    0.506
       152  -9.4017    147.0346     69.3568   8.3198878939e+01   3.9059698917e+01    0.4051327    0.2822979 -57.67  0.000992981    1.872    0.466
       153  -7.1539    211.6732     70.2925   7.0544796967e+01   2.3106567728e+01    0.1465309    0.1125383 -63.05 0.0007018958    1.621    0.383
       154  -8.8932    156.6280     69.4573   8.0942953905e+01   3.6715919829e+01    0.3926965    0.1539777 -28.58  0.001263514    2.882    0.653
       155  -9.7492     94.7887     68.3145   9.7997334142e+01   5.0547384713e+01    0.4029857    0.2739892 -53.58 0.0008479027    1.606    0.377
       156  -9.1188     96.6490     59.2142   9.4304086063e+01   5.2034262647e+01    0.8888232    0.5003687 -29.10  0.003717742    1.956    0.489
       157  -7.8012     23.3680     69.1854   1.2484272805e+02   5.9307607400e+01    0.1710545     0.104173 -76.90 0.0004895531    1.588    0.370
       158  -9.3296    138.2201     65.0296   8.4007043102e+01   4.1923929859e+01    0.6864271    0.2865118 -30.73  0.001620147    2.596    0.615
       159  -9.3858    138.8935     56.8705   8.1068586782e+01   4.3163780394e+01    0.6175925    0.2267979 -39.84  0.001995836    2.775    0.640
       160  -9.0302    121.1908     66.0255   8.9002083629e+01   4.5641780134e+01    0.3242634    0.2525286 -52.52 0.0006412908    1.468    0.319
       161  -8.2565    122.5990     61.0067   8.6885603351e+01   4.6256674555e+01    0.3294034    0.2252899  18.62 0.0008583579    1.795    0.443
       162  -8.5238    234.2691     66.5739   6.6219905513e+01   1.8423597857e+01    0.1985071    0.1233735  44.61 0.0009544976    1.713    0.416
       163  -9.6203     79.9123     47.1461   9.5829468273e+01   5.7443091662e+01    0.7401995    0.4793917  -4.35  0.002501205    2.120    0.528
       164  -9.4034    109.8791     63.7456   9.1611986361e+01   4.8500601761e+01    0.3850841    0.2789322 -48.49 0.0005598914    1.489    0.328
       165  -9.0093    110.5369     58.2989   8.9512947889e+01   4.9394877124e+01    0.4671336    0.2876368  20.71  0.001251175    2.175    0.540
       166  -8.6758    164.5303     60.5126   7.6335035062e+01   3.6214480373e+01    0.2623691    0.1523013 -29.17 6.436615e-06    1.736    0.424
       167  -8.3348    147.1401     63.7765   8.1355400796e+01   3.9997761418e+01    0.3214032    0.2123445  16.49  0.001241535    1.999    0.500
       168  -8.5542    146.6660     59.0902   7.9908774608e+01   4.0898339365e+01    0.3125357    0.2472483 -65.29 0.0008234476    1.638    0.389
       169  -8.4535    147.5978     53.8988   7.7924112022e+01   4.1507083144e+01    0.4716276    0.1925246 -26.73  0.001333313    2.729    0.634
       170  -8.4556    157.7587     63.0872   7.8646606265e+01   3.7497609933e+01    0.2304316    0.2048548 -44.19 0.0005135402    1.206    0.171
       171  -8.8044      9.6851     60.7612   1.2870277486e+02   6.2032232073e+01     0.385193    0.2289649  69.53  0.002086985    2.213    0.548
       172  -8.5146    175.9792     60.0055   7.3840906898e+01   3.3401240602e+01    0.2312923    0.2188643  14.23 0.0003673351    1.019    0.018
       173  -8.9199    181.2358     57.1507   7.1954218779e+01   3.2493196194e+01    0.4714011    0.2532217 -60.91  0.001569243    3.343    0.701
       174  -8.9906    129.9737     56.9723   8.3432693962e+01   4.5274654971e+01      0.51107    0.2238233 -32.17  0.001227429    2.341    0.573
       175  -9.1981    118.3047     55.4624   8.6169747764e+01   4.8216004440e+01    0.3546602    0.2656063 -57.32 0.0007284979    1.699    0.411
       176  -8.2304    119.6357     50.7042   8.4053525563e+01   4.8742847359e+01    0.3359203    0.1886258  32.13   0.00133554    2.041    0.510
       177  -8.8604    121.1014     46.8885   8.2218852928e+01   4.9043148720e+01    0.2936903    0.2378795 -39.09 0.0004906249    1.299    0.230
       178 -10.1723     50.0798     54.6655   1.1039163814e+02   6.0199326281e+01     0.568831    0.3847308 -72.14  0.002877115    1.905    0.475
       179  -9.8314     55.9422     43.4158   1.0409701518e+02   6.1851549751e+01     1.043689    0.5318784 -12.66  0.003396429    4.642    0.785
       180  -8.8091     53.4959     39.0420   1.0352211244e+02   6.3053164702e+01    0.3453131    0.1846749 -49.37   0.00119509    1.761    0.432
       181  -8.6334     44.2206     54.1819   1.1270543788e+02   6.0949081962e+01     0.384236    0.1582182 -39.18  0.000819623    2.445    0.591
       182  -7.9488    168.4768     55.4942   7.3902548683e+01   3.5984418181e+01    0.1526661    0.1485628  12.86 0.0002701281    1.030    0.029
       183  -9.0589    162.8320     54.1423   7.4624679127e+01   3.7625717192e+01    0.3098278     0.201609 -34.02 0.0007600468    1.540    0.350
       184  -9.1334    105.5371     51.7022   8.8681895059e+01   5.1661750550e+01    0.5886823    0.2695797 -31.77   0.00188444    2.294    0.564
       185  -8.3431    157.7108     49.5144   7.4165626264e+01   3.9624368866e+01    0.2634376    0.1732485 -48.67 0.0006491984    1.757    0.431
       186  -9.0538    139.5368     40.5508   7.5090989533e+01   4.5551136840e+01    0.4034344    0.2400034 -61.73 0.0006313864    2.861    0.650
       187  -9.0612    142.0144     48.7642   7.7461984216e+01   4.3701530557e+01    0.3337039    0.2195805 -28.42 0.0005428462    1.534    0.348
       188  -9.6922    149.7567     48.4041   7.5531465229e+01   4.1813327612e+01    0.8547578    0.2294472 -39.74  0.002430752    3.872    0.742
       189  -9.3455    130.2389     47.7053   8.0038959602e+01   4.6750740117e+01    0.5500394    0.2382747 -31.26  0.001527681    2.334    0.572
       190  -8.0993    132.6803     40.6547   7.6799114649e+01   4.7242115290e+01    0.3215911    0.1798119  25.04  0.001111013    2.423    0.587
       191  -9.0990    112.1642     45.8915   8.4438572819e+01   5.1241253846e+01    0.6256791    0.2915258 -23.59  0.001118414    2.694    0.629
       192  -7.6594    162.2355     46.4036   7.2176534296e+01   3.8914437305e+01    0.2032846    0.1489735  70.74 0.0004443733    1.538    0.350
       193  -9.5500    188.2810    233.8225   1.0944980108e+02   3.5968070229e+00    0.2155205    0.1901041  67.77  0.001247443    1.806    0.446
       194  -8.4551     50.0973     35.3093   1.0359927955e+02   6.4228652012e+01    0.3585902    0.1651982 -40.59  0.001477216    1.902    0.474
       195  -7.8817      7.8001    222.1677   1.4154442235e+02   2.8272396199e+01    0.1161373    0.1004517  71.13 0.0005862652    1.304    0.233
       196 -10.1328     46.3330     29.8346   1.0313688903e+02   6.5761639875e+01    0.4277674    0.2840976 -61.32  0.001042473    2.038    0.509
       197  -8.2383     42.2012     27.8779   1.0432324634e+02   6.6631130289e+01    0.2049843    0.1308203 -20.61  0.000214413    1.590    0.371
       198 -10.0004    156.5735    218.2315   1.1325173279e+02   1.0441861949e+01    0.2136266    0.1625287  36.61  0.000287945    1.055    0.052
       199  -9.9210     76.0749     31.9125   9.1085299522e+01   6.0888074200e+01    0.4315081    0.3673071  71.94  0.001132508    1.773    0.436
       200  -9.6674     60.0356     33.7222   9.8504790865e+01   6.3174775852e+01    0.7268142    0.2727802 -40.74  0.002912717    2.406    0.584
       201 -10.3049     31.1255    213.5217   1.3708299548e+02   2.7637114310e+01    0.4716446    0.2884599  64.44  0.002858722    1.298    0.229
       202  -9.0405      9.9553    207.5995   1.4065200809e+02   3.0595115247e+01    0.3192628    0.1853707  13.03  0.001987576    2.981    0.665
       203  -7.3312    158.3827    203.5466   1.1083307118e+02   1.2322446883e+01     0.124042    0.1032798  31.97 0.0001238506    1.028    0.027
       204  -9.2006     84.8483     21.6578   8.3137393088e+01   6.0846175149e+01    0.3025669    0.2463089  -6.72 0.0008185305    1.128    0.113
       205  -9.0819    153.4741     41.3256   7.2250001597e+01   4.1890116783e+01    0.3242237    0.2536562 -47.25 0.0005325268    1.418    0.295
       206  -8.2588    123.0125     40.6127   7.9305734440e+01   4.9589931067e+01    0.4722758     0.238919  15.41  0.001256677    5.176    0.807
       207  -7.8703    110.4009     26.8015   7.7245970020e+01   5.4566570195e+01    0.2938167    0.1389247 -18.43  0.001037527    2.517    0.603
       208  -9.3189    105.0596     39.9265   8.4281587657e+01   5.3792628567e+01    0.6047016    0.3207856 -27.30  0.002242988    1.953    0.488
       209  -9.2865    110.4027     33.3386   7.9976608778e+01   5.3630359498e+01    0.4110775    0.2429418 -38.98  0.001178184    1.786    0.440
       210  -8.6278    187.7104     37.7536   6.4821932757e+01   3.3454944468e+01    0.3678333    0.2152783  64.29  0.001610198    1.721    0.419
       211  -9.2554    183.6510     35.0031   6.4598426987e+01   3.4848068522e+01    0.5367417    0.3003931 -34.09  0.002329104    1.759    0.431
       212  -7.3650    160.0000     39.9249   7.0426007099e+01   4.0392847210e+01    0.2389505   0.08667772 -27.09 0.0007792564    2.812    0.644
       213  -8.8779    202.1074     37.8263   6.2715904120e+01   2.9763913365e+01    0.4735742     0.244229 -63.55  0.001698735    3.097    0.677
       214  -8.7255    132.6981     35.9562   7.5019789525e+01   4.7917021951e+01    0.3325712     0.233026 -31.66 0.0005385401    1.453    0.312
       215 -10.6415    134.0503     31.0841   7.2828998772e+01   4.8245226556e+01    0.3726856    0.2720975   1.35            0    1.517    0.341
       216  -8.7076    118.9020     34.7935   7.8148293201e+01   5.1437776655e+01    0.3056844    0.1967186 -32.06 0.0006193542    1.564    0.361
       217  -9.4831    101.1277     32.6286   8.2521231420e+01   5.5803552634e+01    0.4294782    0.2439456 -31.23  0.001212757    1.730    0.422
       218  -8.2416    153.6014     34.7551   6.9907702965e+01   4.2744640465e+01     0.206227    0.1384824 -36.34 0.0004595383    1.541    0.351
       219 -10.3920     62.6442     60.7695   1.0722273294e+02   5.7298302011e+01     1.059532    0.2913463  30.61  0.001223738    4.274    0.766
       220  -8.8274    144.1647     36.6266   7.2590141012e+01   4.4930136928e+01    0.2984412     0.213021 -52.69 0.0006652175    1.697    0.411
       221  -9.1777    226.5665     28.8856   5.7200876036e+01   2.4790813940e+01    0.4167486    0.2371581 -25.17  0.001250227    1.691    0.409
       222  -8.2588    178.6453     30.2252   6.3863718842e+01   3.6732052261e+01    0.2606586     0.213859 -47.85  0.000779365    1.288    0.224
       223  -9.2372    210.0254     29.1836   5.9176149962e+01   2.8785945807e+01    0.3992393    0.2532287 -64.51  0.001846871    1.887    0.470
       224  -8.4677    154.0357     27.2053   6.7127157225e+01   4.3576127263e+01    0.4437244    0.1567509  57.88  0.001539097    2.524    0.604
       225  -8.1484    144.4241     26.1588   6.8661278595e+01   4.6213519211e+01    0.2624566    0.1482362 -19.97   0.00106233    1.883    0.469
       226  -8.6839     92.0119     21.0071   8.0360970185e+01   5.9457825547e+01    0.3342776    0.1985425  25.45 0.0008870955    1.859    0.462
       227  -8.4673    128.3168     25.7784   7.2115129653e+01   5.0371625096e+01     0.266263    0.2068267 -49.84 0.0007113044    1.531    0.347
       228  -8.2017    200.7057     22.7154   5.8442675419e+01   3.1848074284e+01    0.3917293    0.1757775  81.74 0.0009971368    2.980    0.664
       229  -8.8969     91.4173     26.1057   8.2881984713e+01   5.8851233334e+01    0.3539983    0.2398006 -47.80 0.0009132079    1.857    0.462
       230  -9.0242    119.1612     21.6228   7.2686796825e+01   5.3152960967e+01    0.2814416    0.2453594 -14.54 0.0005420843    1.158    0.137
       231  -8.2950    111.4139     21.3076   7.4609058364e+01   5.5054367493e+01    0.3022729    0.2072245 -17.80  0.001470953    1.479    0.324
       232  -9.6819    192.4687    194.9690   1.0273833268e+02   7.9419248955e+00    0.6886504    0.3631265 -56.92  0.002599978    4.991    0.800
       233  -9.1795    103.0247     21.0762   7.6915364193e+01   5.7028644844e+01    0.3822567    0.1954862 -32.24  0.001034063    1.961    0.490
       234  -8.3300    103.9734     15.7864   7.4257043215e+01   5.7475955918e+01    0.3763033    0.1839789  18.43  0.001285753    3.338    0.700
       235  -8.8746     41.0118     20.6523   1.0174846363e+02   6.8124815129e+01    0.2355076    0.1528697 -31.75 0.0003709183    1.309    0.236
       236  -8.1116    230.4864    167.9945   9.0624286461e+01   5.1336680987e+00     0.277136    0.1835825 -50.79  0.001369815    2.623    0.619
       237  -8.2869    175.1550    169.1111   1.0158846097e+02   1.4890949896e+01     0.181954    0.1645891  58.09  0.001081499    1.360    0.265
       238  -9.3397    248.8505    162.3173   8.6333073152e+01   2.7753457672e+00    0.2464603    0.1985341  21.78 0.0003193447    1.194    0.163
       239  -9.0587    105.0873    160.3064   1.1598275038e+02   2.8752380652e+01    0.2034289    0.1827557 -77.25 0.0003119809    1.172    0.146
       240  -9.1261    249.7005    157.5191   8.5212596448e+01   3.2289368256e+00    0.2350009    0.1851528  -1.68 0.0005360355    1.045    0.043
       241  -9.0223    132.4452     17.2407   6.7756823118e+01   5.0337164205e+01    0.2760864    0.2141186 -27.11 0.0008821603    1.348    0.258
       242  -8.0357    128.9893     16.4567   6.8201322761e+01   5.1305090003e+01    0.3076417    0.2134457  66.52  0.001076318    1.514    0.340
       243  -8.7343     95.8561     16.8033   7.7164926207e+01   5.9184121742e+01    0.2689357    0.1944316 -29.16 0.0005364955    1.413    0.292
       244  -8.3387    171.0592    155.9953   9.9894106737e+01   1.7865628845e+01    0.2028904     0.180082  18.44  0.001169047    1.017    0.017
       245  -8.2248    120.4668     16.0490   7.0015425723e+01   5.3489419656e+01    0.3231839    0.1313199  32.30  0.001034831    3.392    0.705
       246  -7.6718    189.4628     15.5293   5.7674222227e+01   3.5497080017e+01    0.1403974    0.1343677 -81.50 0.0001717787    1.040    0.039
       247  -8.6670    249.7985    152.6432   8.4184721751e+01   3.8227647327e+00    0.2227925    0.1755193  -8.20  0.000473815    1.096    0.088
       248 -10.3075    217.7197    150.9189   8.9409997629e+01   9.7664768510e+00    0.2561226    0.2165845  18.79 0.0004138301    1.079    0.074
       249  -8.1569     45.2568     15.5626   9.7139365465e+01   6.8482603572e+01    0.1705177    0.1125213  13.42 0.0009374266    1.583    0.368
       250  -9.0194    133.7188    146.4509   1.0656830199e+02   2.6698001510e+01    0.6798661    0.2187913 -55.08   0.00205101    4.482    0.777
       251  -6.9150    171.7399     13.7064   5.9476884834e+01   4.0350958351e+01    0.1445623    0.1029093  32.75  0.000194354    1.499    0.333
       252  -8.5051    125.0619     13.0157   6.7666717653e+01   5.2670690357e+01    0.2190091    0.2058904  28.03 0.0005258619    1.056    0.053
       253  -7.5974    141.8110     12.6166   6.4039934464e+01   4.8395701464e+01    0.1977313    0.1371112  78.14 0.0004103437    1.617    0.382
       254  -9.5686    236.7855    146.3438   8.5022111942e+01   6.9102920643e+00    0.4327272    0.2130375  20.41  0.001754955    2.756    0.637
       255  -9.7765     66.9073    143.9645   1.2316576136e+02   3.7658207601e+01    0.4660887    0.3102058  71.84  0.001894569    1.659    0.397
       256  -8.6052    103.9003    145.0289   1.1375334959e+02   3.2143568800e+01    0.1916669     0.182549  48.35 0.0002909887    1.029    0.028
       257  -8.7120    135.7942    131.3064   1.0290336573e+02   2.9364611466e+01    0.5627138    0.1589891 -44.73  0.001736128    3.696    0.729
       258  -8.2743    132.3530    131.6718   1.0385014526e+02   2.9950275577e+01    0.3092241    0.1957562  64.44    0.0012782    2.317    0.568
       259  -8.4499    112.1746    133.8247   1.0951143094e+02   3.3170404811e+01    0.2940575    0.2042428  72.14  0.001354029    1.992    0.498
       260  -9.2173    236.6764    132.8980   8.2074848505e+01   8.7658102562e+00    0.2521455    0.1939487  30.92 0.0005979015    1.259    0.206
       261  -7.3253     86.9384    134.0000   1.1629540804e+02   3.7175630230e+01     0.222583   0.07572267  34.71 0.0008033303    2.949    0.661
       262  -7.7854    222.4594    131.9893   8.4341429042e+01   1.1621054044e+01    0.2024375     0.128115 -30.06 0.0003849218    1.524    0.344
       263  -9.7795     98.5448    128.8064   1.1217776596e+02   3.6546613367e+01    0.5798063    0.3564326  69.89  0.002113596    2.518    0.603
       264 -10.3611    116.8974    124.7234   1.0636054946e+02   3.4293564111e+01    0.8831239    0.6532062 -66.70  0.002554211    1.587    0.370
       265 -11.1811    149.3486    103.5222   9.2704703651e+01   3.2137594086e+01     1.189831    0.4779304 -38.68  0.002285343    2.551    0.608
       266 -11.3035    133.6359    109.5568   9.8311313378e+01   3.4263561163e+01     1.657241    0.4870712 -48.69  0.004807926    3.902    0.744
       267 -10.3013    128.6291    100.5790   9.7308639633e+01   3.7148791879e+01    0.9718961    0.6072142 -25.78  0.002375212    1.979    0.495
       268 -10.0639    108.5616    114.3810   1.0633834705e+02   3.8046541929e+01    0.5616064    0.3798284 -83.72  0.001526184    2.368    0.578
