#   1 NUMBER                 Running object number                                     
#   2 MAG_AUTO               Kron-like elliptical aperture magnitude                    [mag]
#   3 X_IMAGE                Object position along x                                    [pixel]
#   4 Y_IMAGE                Object position along y                                    [pixel]
#   5 X_WORLD                Barycenter position along world x axis                     [deg]
#   6 Y_WORLD                Barycenter position along world y axis                     [deg]
#   7 A_WORLD                Profile RMS along major axis (world units)                 [deg]
#   8 B_WORLD                Profile RMS along minor axis (world units)                 [deg]
#   9 THETA_WORLD            Position angle (CCW/world-x)                               [deg]
#  10 FWHM_WORLD             FWHM assuming a gaussian core                              [deg]
#  11 ELONGATION             A_IMAGE/B_IMAGE                                           
#  12 ELLIPTICITY            1 - B_IMAGE/A_IMAGE                                       
         1 -12.5962    162.1300     93.5013   5.7758629527e+01   3.1019590974e+01    0.9636785    0.6813463 -45.48  0.004618349    1.381    0.276
         2 -12.8406     10.8847     49.8678   9.5753998148e+01   6.5732118421e+01      1.66632    0.4607425 -46.68  0.007071918    2.599    0.615
         3 -13.3525     36.9208     48.5817   8.2896143485e+01   6.3509674983e+01    0.9995545    0.6735374 -42.85  0.005602964    1.437    0.304
         4 -10.3782     22.5679     13.2565   7.5059078951e+01   7.0791438194e+01    0.3788405    0.1824435 -15.26  0.001827172    2.606    0.616
         5 -11.0488     14.4964     22.9039   8.3949645175e+01   7.0257522323e+01     1.079276    0.3649545 -26.67    0.0037538    4.834    0.793
         6 -10.8063     24.5128     20.8064   7.7612134542e+01   6.9512275020e+01     0.402264     0.335658  68.92   0.00241467    2.699    0.629
         7 -11.3205     59.0338     21.7537   6.2462480608e+01   6.4288758013e+01    0.3753761    0.2878858  58.75  0.001467724    1.769    0.435
         8 -12.3935    128.5968     11.4212   4.0329958775e+01   5.0595245932e+01     0.387923    0.2757888 -88.98  0.002220149    1.539    0.350
         9 -12.5374    128.9193     19.2202   4.2731403917e+01   4.9780531021e+01    0.3684816    0.2409869 -18.58 0.0007020064    1.846    0.458
        10 -11.8980    165.0790     23.0683   3.8197443449e+01   4.0892782477e+01    0.2508151    0.2022008  69.92            0    1.119    0.106
        11 -12.0895      4.5242     17.8176   8.7463335365e+01   7.1924170371e+01    0.4162862    0.3509574  41.11  0.001953933    1.924    0.480
        12 -11.9426    237.9251     17.9051   2.9808407691e+01   2.5679441937e+01    0.2788546    0.1808122 -74.70 0.0003378096    1.308    0.235
        13  99.0000     43.4821      8.5582   6.2638059616e+01   6.8393954301e+01      1.00193    0.6951251 -62.34  0.004726953    4.167    0.760
        14 -11.9751     40.7415     16.7907   6.7808664985e+01   6.7876119326e+01    0.4768506    0.4694003 -13.52  0.002774703    1.575    0.365
        15 -10.8240     39.7211     11.0609   6.5517208560e+01   6.8710326142e+01     0.244385    0.1715258  28.67 0.0006567342    1.223    0.183
        16 -10.8320     33.1543     16.4498   7.1206089415e+01   6.9010129524e+01    0.4666169    0.2162174  19.71  0.001725102    2.565    0.610
        17 -10.5434     70.6697     14.0830   5.5030220714e+01   6.2976439882e+01    0.3371909    0.2073053 -12.50  0.001825716    1.805    0.446
        18 -10.8815     77.0277     11.2853   5.1881927378e+01   6.1985728825e+01    0.4172758    0.2082709  52.76  0.002136602    1.736    0.424
        19 -10.7323     72.2336      5.3107   5.0775956637e+01   6.3478074858e+01    0.2775774    0.2177415 -86.35 0.0008774259    1.995    0.499
        20 -10.0457     74.1657      2.3635   4.8950218823e+01   6.3330924133e+01    0.2105772    0.1745738  89.46 0.0008201514    1.680    0.405
        21 -10.3268     61.9137     14.6758   5.8272079322e+01   6.4570040318e+01    0.2943437    0.2029683  50.71  0.001752526    1.495    0.331
        22 -10.5713    118.0292     11.5088   4.2245295468e+01   5.3028852044e+01    0.4402446    0.2173247 -16.32  0.002095308    2.600    0.615
        23  -9.8995     14.9980     13.9658   7.9577968349e+01   7.1543682412e+01    0.1998612    0.1480777  -7.55 0.0007739644    1.023    0.022
        24 -10.8487     12.0535      2.2237   7.5287779556e+01   7.3413169425e+01    0.2468283    0.1457908   2.07 0.0009867682    1.544    0.352
        25 -10.5169     15.8771      6.5593   7.5367812066e+01   7.2443329350e+01    0.4818094    0.2229618 -36.15  0.002722744    2.115    0.527
        26 -11.4904     21.7300      5.2755   7.1448793049e+01   7.1899025413e+01    0.5378939    0.3908528 -42.14  0.003543471    2.016    0.504
        27 -10.8887     26.5284      2.5723   6.7497588875e+01   7.1572270733e+01    0.2464877    0.1774185  39.46  0.001154723    1.618    0.382
        28 -11.7451      8.4174      8.9022   8.0946466208e+01   7.2911401915e+01    0.4590684    0.2621377  21.41  0.002377832    1.618    0.382
        29 -10.9059    233.6720     10.5509   2.8693066372e+01   2.7332368914e+01    0.1904283   0.09082806 -38.10  0.001079241    1.965    0.491
        30 -10.5887    177.3578     10.2137   3.3441720887e+01   3.9390197601e+01    0.2974386    0.1377624  49.18  0.001406207    2.501    0.600
        31  -9.7746    138.2288     11.1992   3.8710800081e+01   4.8370009739e+01    0.1737488    0.1351718 -79.38 0.0004618074    1.351    0.260
        32 -12.0424    164.0397      8.0172   3.4368454241e+01   4.2651009915e+01    0.3942164    0.3075795   2.66 0.0009819726    1.794    0.443
        33 -12.5952    214.0936      5.9244   2.9181920466e+01   3.1791418772e+01    0.6966348    0.3729605 -71.42  0.003982308    1.740    0.425
        34  -9.5523    150.3426      5.6721   3.5415507914e+01   4.6035102447e+01    0.2078569    0.1134545  75.61 0.0006367195    1.629    0.386
        35 -11.3271    146.0446      6.9783   3.6351235418e+01   4.6921505592e+01    0.3064262    0.2655194  12.99 0.0004840496    1.444    0.308
        36 -11.0149    148.6941      2.0427   3.4617206030e+01   4.6724591974e+01    0.3080797    0.2175545  77.03  0.001662111    1.207    0.171
        37  -9.3876     55.3779      9.5050   5.8317047880e+01   6.6280102629e+01    0.1218355    0.0962085  19.22  0.000197575    1.046    0.044
        38 -10.6884    191.2413      7.6232   3.1455365746e+01   3.6531981715e+01    0.3597435    0.2195004 -33.62  0.001627415    1.782    0.439
        39 -10.6645    187.6274      6.3042   3.1486459414e+01   3.7461566596e+01     0.251226    0.1760335 -74.15   0.00101947    1.280    0.219
        40 -10.9850     98.3372      4.4381   4.3755322322e+01   5.8051436480e+01     0.342198    0.3264877  -7.60  0.002355103    1.224    0.183
        41 -10.7768     90.9584      6.6921   4.6303173692e+01   5.9476201144e+01      0.45873    0.1853069  49.73  0.002169226    1.956    0.489
        42 -10.6014    157.2234     12.1167   3.6295056597e+01   4.3846278998e+01    0.2367119    0.1520419 -55.09  0.001326352    1.650    0.394
        43 -10.1228    156.3356      6.1570   3.4795857883e+01   4.4601540469e+01    0.2076291    0.1391584  63.71 0.0003120699    1.300    0.231
        44 -11.8998    179.0294      4.1575   3.1801678674e+01   3.9588530595e+01    0.2295915    0.1883504 -76.82 0.0003113859    1.085    0.078
        45 -10.6523    203.5383      2.5534   2.9286394207e+01   3.4355424185e+01    0.4118175    0.1804773  48.56  0.001902571    3.318    0.699
        46 -10.2238     99.4632     13.0183   4.6669797530e+01   5.7075794067e+01    0.3655296    0.1943728  41.42  0.001860205    1.725    0.420
        47 -10.7414     67.9025      3.7496   5.1412946685e+01   6.4463787162e+01    0.2239164    0.1520505  43.36 0.0009080466    1.202    0.168
        48 -10.2971    243.1438      2.8608   2.6646488241e+01   2.6320558041e+01    0.1342761    0.1200004 -76.91  0.000584234    1.315    0.240
        49 -10.9945    194.7083      2.0736   2.9898934021e+01   3.6307228364e+01    0.3121176    0.1624554 -88.09  0.001689777    1.818    0.450
        50 -10.5094    126.5890      2.4975   3.7856414265e+01   5.1808376414e+01    0.2424247    0.1694629  37.65 0.0006149179    1.516    0.340
        51 -10.7055    237.4691      2.3279   2.6889093193e+01   2.7462814896e+01    0.1851885   0.08688805  80.32 0.0009722099    1.941    0.485
        52 -10.4922    230.9618      1.5849   2.7153837756e+01   2.8810339433e+01    0.1562816    0.1135741 -84.60 0.0003036984    1.134    0.118
        53  -9.8614     81.5042      5.9059   4.8401712591e+01   6.1540636038e+01     0.162651    0.1191128 -17.79 0.0004475272    1.531    0.347
        54  -9.4975    108.2190      1.3883   4.0654999628e+01   5.6083787869e+01    0.1615044     0.104692  72.53  0.000251512    1.463    0.317
        55  -9.6729     81.9318      1.3168   4.6418388614e+01   6.1814613503e+01    0.1896699    0.0789874  49.14 0.0007216847    1.863    0.463
        56  -9.9128     32.7900      1.4147   6.3809945227e+01   7.0792661490e+01    0.2114497    0.0992564  45.06  0.001127868    2.174    0.540
        57  -9.2940    111.6970    164.3476   8.7575640349e+01   2.5445666259e+01    0.1584716    0.1211107  78.01  0.000704005    1.692    0.409
        58 -11.5195     89.0280    249.5208   1.0559917778e+02   9.8037850579e+00    0.3038727    0.2263071  37.51 0.0007610647    1.180    0.152
        59 -10.2015     72.6085    250.1409   1.0911674525e+02   1.1874542298e+01    0.2038516    0.1670107  -0.64  0.001062191    1.685    0.407
        60 -11.6467      4.9572    235.9556   1.2175170470e+02   2.2395478223e+01    0.5638528     0.330413  39.81  0.003569284    1.581    0.368
        61 -12.8997     19.2496    237.2166   1.1903106291e+02   2.0746497989e+01     1.460092    0.3807968  55.35  0.005585266    3.786    0.736
        62 -13.3177      5.5860    245.2195   1.2208931330e+02   2.0448307993e+01    0.9823225     0.602181  31.92   0.00564497    1.736    0.424
        63 -12.6705     22.0967    249.0453   1.1917501682e+02   1.8040428760e+01    0.8201426    0.2363843  33.71  0.003715104    2.952    0.661
        64 -11.2425     17.2699    247.4077   1.2000334153e+02   1.8864351420e+01     0.264753    0.1717711  49.72 0.0007815312    1.276    0.216
        65 -10.2355      9.7789    162.7285   1.1561707396e+02   3.8918250758e+01    0.3108087    0.1435892  35.67  0.001502767    2.242    0.554
        66 -12.0288     18.9712    158.0600   1.1266893289e+02   3.9361084030e+01    0.3991766    0.2855979  89.28 0.0003472592    1.294    0.227
        67 -12.1993     23.2248    156.6027   1.1132493747e+02   3.9367407539e+01    0.5259503    0.4252204  56.52  0.002429313    1.289    0.224
        68  -9.5953    216.2272    155.1732   6.1713349582e+01   8.0622953831e+00    0.1818902    0.1537468 -54.65 0.0003347267    1.315    0.240
        69 -10.3041     11.3647    153.1704   1.1425027241e+02   4.1199870190e+01     0.244152    0.1868582  36.41   0.00146479    1.466    0.318
        70  -9.9353    177.1722    150.7419   6.8498104784e+01   1.6137731297e+01    0.2362773    0.1980337  68.45  0.001189956    1.495    0.331
        71 -10.1880    207.0665    146.6698   6.1576940625e+01   1.1302617796e+01    0.1921129    0.1814449   0.95 0.0005765998    1.112    0.101
        72 -10.6870     18.1509    146.8069   1.1162066201e+02   4.2292420118e+01    0.3220306    0.2034099 -20.48 0.0009922608    2.149    0.535
        73  -9.3766     41.1570    146.1721   1.0472038435e+02   4.0319533160e+01    0.1842076    0.1524102  73.56 0.0002518444    1.272    0.214
        74  -9.8223    220.4568    143.9594   5.8593059765e+01   9.4119584619e+00    0.2150542    0.1213242 -41.05 0.0007345066    1.546    0.353
        75  -9.9990     10.1869    144.5377   1.1366306654e+02   4.3467262910e+01    0.2660697    0.1292636  -0.61  0.001136901    3.227    0.690
        76 -10.4078     55.1259    138.9601   9.9236916139e+01   4.0585073374e+01    0.3469027    0.3048724  56.64  0.001517328    1.227    0.185
        77 -10.0505     13.8138    140.0181   1.1208325566e+02   4.4353010774e+01    0.1823599    0.1525042 -70.74 0.0003064854    1.016    0.015
        78  -9.2504     82.3037    139.6665   9.0975540655e+01   3.6578920645e+01    0.1559495    0.1186709  76.62 0.0007037265    1.660    0.398
        79  -9.7209     17.3980    137.7453   1.1072679289e+02   4.4663302469e+01    0.2054877    0.1000209 -60.76  0.000472009    1.679    0.404
        80 -10.7015      2.4766    136.7205   1.1506033448e+02   4.5938862251e+01     0.336599   0.09918172 -70.99  0.001310488    2.608    0.617
        81  -9.2473    143.6978    137.3255   7.3214678915e+01   2.5784947127e+01    0.1570816     0.126484 -88.45 0.0007030877    1.639    0.390
        82 -10.6760      9.2533    136.6067   1.1303904597e+02   4.5537515393e+01    0.2427345    0.1497428 -72.77  0.000279705    1.350    0.259
        83  -9.3488    122.7199    135.3178   7.8241052904e+01   3.0453749654e+01     0.155448     0.126298  88.64 0.0002666079    1.578    0.366
        84  -9.6570     20.9969    135.2444   1.0929616162e+02   4.5019552866e+01    0.1906786    0.1582169 -69.84 0.0009926802    1.031    0.030
        85  -9.8605    249.2818    134.0559   5.1996241745e+01   6.3174498001e+00    0.1876237    0.1422447 -38.85 0.0006668299    1.073    0.068
        86  -9.5896     79.6808    133.2719   9.0425787182e+01   3.8614942794e+01    0.1502274    0.1174048  69.52 0.0002914525    1.566    0.361
        87 -11.1422     54.5241    132.6463   9.8264592855e+01   4.2290305863e+01    0.3579101    0.2692088  47.76  0.001117467    1.469    0.319
        88 -11.4130     36.4666    130.2875   1.0365680859e+02   4.4906286794e+01    0.5384224    0.2668239 -44.47  0.002337525    1.996    0.499
        89 -11.1937     73.8117    129.3041   9.1414683970e+01   4.0516083591e+01    0.3392192    0.3037632 -57.94 0.0009881897    1.068    0.063
        90  -9.1784     29.6502    129.7241   1.0575989975e+02   4.5696145640e+01    0.1424882   0.09310688 -36.33  0.000700506    1.637    0.389
        91  -9.2367      9.2974    129.3211   1.1214540887e+02   4.7374137659e+01    0.1383591   0.08093663 -46.53 0.0002788009    1.619    0.383
        92 -10.5061     48.4694    125.9875   9.8968387619e+01   4.4722654064e+01    0.2644865    0.2206556 -82.52  0.000712488    1.261    0.207
        93 -10.9820     24.2246    126.0533   1.0694186866e+02   4.7102752969e+01    0.2513384    0.2075823  34.30  0.000487184    1.381    0.276
        94 -10.9024     21.4057    121.3568   1.0713917007e+02   4.8521491893e+01    0.3132482    0.1966704 -32.39   0.00113532    1.746    0.427
        95 -10.4239     17.9789    125.5119   1.0888345726e+02   4.7731498235e+01    0.3127187     0.181623 -36.87  0.001298766    1.844    0.458
        96 -10.8472     13.3106    126.0124   1.1045088814e+02   4.7940141059e+01    0.2499684    0.2236902 -47.65 0.0003252585    1.142    0.124
        97 -11.1029     10.8293    122.8414   1.1081596882e+02   4.8905605701e+01    0.2959859     0.232596 -66.22  0.001096119    1.055    0.052
        98 -10.0104    220.0305    124.2990   5.4421866244e+01   1.3104421581e+01    0.1870984    0.1751495 -43.66 0.0004875171    1.075    0.070
        99 -10.0918      2.7192    122.9464   1.1342008638e+02   4.9369833467e+01    0.2482258    0.1345433 -51.29 0.0003080628    1.598    0.374
       100  -9.9927      1.3660    119.1826   1.1338939281e+02   5.0379238925e+01    0.2722857    0.1746782  56.61 0.0006187513    1.851    0.460
       101  -9.3767     32.6207    121.7054   1.0345787929e+02   4.7470463816e+01    0.1490855   0.09227977 -34.21 0.0007021469    1.751    0.429
       102 -11.3514     15.1625    117.0327   1.0855606477e+02   5.0071539351e+01    0.4443977    0.2365142 -49.39  0.001565296    1.627    0.386
       103 -10.5851     72.4757    117.3327   8.9146641735e+01   4.3716086581e+01    0.3783862    0.1472102 -58.22  0.001299928    2.618    0.618
       104  -9.7866     85.9804    116.3278   8.4503314029e+01   4.1804722181e+01    0.2097921    0.1989496   9.87 0.0004497779    1.082    0.076
       105  -9.9908    214.0445    115.5091   5.3457842631e+01   1.5845870758e+01    0.1892678    0.1406375  50.66 0.0004566819    1.516    0.340
       106 -11.0175    249.3824    112.3484   4.7591598286e+01   9.9496044985e+00    0.2388162     0.185855 -51.53 0.0005781649    1.137    0.120
       107 -10.0460     94.9808    112.5069   8.0682990695e+01   4.1143802842e+01     0.247224    0.2064537 -46.12  0.001054006    1.157    0.136
       108 -11.8181     37.0402    110.2451   9.9785740188e+01   4.9928099887e+01    0.4408545    0.3067801  67.20   0.00216787    1.940    0.485
       109 -11.6420     15.6473    109.3214   1.0717122488e+02   5.1958743878e+01    0.3318944    0.2820899  72.40  0.001481285    1.355    0.262
       110 -10.6004      1.8805    108.0688   1.1175510183e+02   5.3091811511e+01    0.5065714    0.1520536 -69.35  0.001997961    2.621    0.619
       111 -10.5631     70.5146    108.6718   8.7708283640e+01   4.6127614240e+01    0.2527768    0.2249178 -47.39 0.0001999854    1.067    0.063
       112 -11.5202     23.8440    106.8635   1.0383749702e+02   5.1954612230e+01     0.298035    0.2640861  53.10  0.001826946    1.330    0.248
       113 -11.9400     55.1048    109.3784   9.3215664803e+01   4.8093976411e+01    0.4958171    0.2601066 -49.01  0.001271488    1.703    0.413
       114  -9.3898      5.6968    106.6310   1.1022710407e+02   5.3240644519e+01    0.1446038   0.07320864 -44.92   0.00070336    1.746    0.427
       115 -10.0374    243.5492    104.5238   4.6753708588e+01   1.2258698704e+01    0.1309877    0.1078309 -47.06 0.0001032306    1.004    0.004
       116 -11.0830    120.2294    101.2601   7.0138004420e+01   3.8718349617e+01    0.6744297    0.2871294 -30.41   0.00191597    4.066    0.754
       117 -11.4784     11.3159    110.1744   1.0881508649e+02   5.2034531513e+01    0.4279517    0.2716094 -33.84  0.001021927    1.617    0.381
       118 -10.0797     38.0092    103.7127   9.8074865104e+01   5.1441266046e+01    0.1914895    0.1776032 -37.83  0.001079932    1.066    0.062
       119 -10.2659     14.8292    103.0783   1.0640572595e+02   5.3550207368e+01    0.1875683    0.1649171 -84.23 0.0004155883    1.219    0.180
       120 -11.4532      5.4006     97.9613   1.0897682026e+02   5.5362352106e+01    0.3992474    0.2375886 -69.72  0.002155589    1.458    0.314
       121  -9.9284      1.3264     95.8390   1.1013160230e+02   5.6079024027e+01    0.2321303    0.1061075 -72.38 0.0006228397    1.947    0.486
       122 -11.4701    143.5731     98.5089   6.3306236631e+01   3.4217201684e+01    0.7015756    0.4043141  48.82  0.002946272    1.760    0.432
       123 -11.1624     62.3314     98.8867   8.8077573780e+01   4.9650975261e+01    0.3773481    0.3100162   9.41  0.001189226    1.291    0.225
       124 -10.5268     66.5510     98.4637   8.6461802168e+01   4.9141121940e+01    0.2500593    0.1962102 -45.91 4.557348e-05    1.188    0.158
       125  -9.8868     40.9825    100.5220   9.6275360582e+01   5.1906532577e+01    0.1943145    0.1383333  21.56 0.0004083712    1.538    0.350
       126 -10.3390     21.4906     99.5760   1.0331785645e+02   5.3923352135e+01    0.4287907     0.239785  -4.40  0.002028533    2.289    0.563
       127 -10.2583     20.9933     93.3519   1.0226231537e+02   5.5458054046e+01     0.584888   0.05131844 -61.18  0.001530488    5.548    0.820
       128 -10.8308     25.6082     91.2853   1.0003885395e+02   5.5579526815e+01    0.3035196     0.199003 -49.59 0.0008892755    1.275    0.215
       129 -11.3624     21.9845     87.1966   1.0056006415e+02   5.6833493855e+01    0.3335026    0.2709643  28.94  0.001665422    1.433    0.302
       130 -12.4139    226.0368    245.8483   7.6876399420e+01  -8.5851615049e+00    0.6655853     0.333625 -10.20  0.003165839    2.630    0.620
       131  -9.3314    250.2990     95.6814   4.4100739164e+01   1.2507843738e+01      0.12955   0.08334018 -62.05 0.0004996813    1.617    0.382
       132 -10.2147    163.7605     88.9893   5.6222401312e+01   3.1491872633e+01     0.306463    0.1928293 -51.13 0.0005508492    1.638    0.390
       133  -9.4078    113.3453     93.7661   6.9960787046e+01   4.1743088495e+01    0.2163398    0.1390393 -34.10 0.0009309792    1.643    0.391
       134  -9.4913     31.4544     92.9825   9.8155931760e+01   5.4662024475e+01    0.2013904     0.119164 -57.77  0.000358408    1.488    0.328
       135  -9.4780     46.5425     92.5569   9.2275999726e+01   5.3176308252e+01    0.1391592     0.126459 -38.51 8.259733e-05    1.049    0.047
       136 -12.3031    166.6541     83.9993   5.4314552299e+01   3.1735940183e+01    0.8223909    0.5786986  51.11  0.003441443    1.445    0.308
       137 -10.6481     96.0227     90.0522   7.4113698678e+01   4.5992502555e+01    0.3644985    0.2492508  15.21  0.001598961    1.865    0.464
       138 -10.8202     57.5068     90.0682   8.7488444512e+01   5.2359136363e+01    0.4295984    0.2444587  21.08  0.001608319    1.984    0.496
       139 -10.2820     82.9750     88.2658   7.7866645196e+01   4.8773597153e+01    0.3989816    0.1808363 -45.06  0.001550045    2.132    0.531
       140 -10.7143     78.4572     88.0898   7.9363914870e+01   4.9591266196e+01    0.3400088    0.2625987 -65.41  0.001678596    1.597    0.374
       141 -11.1344     66.9649     83.7862   8.2188991726e+01   5.2382229944e+01    0.5298616    0.2542655  37.50  0.002210159    2.161    0.537
       142 -10.9528     46.0715     86.6836   9.0928770990e+01   5.4585656768e+01    0.3976617    0.2596165  88.88  0.001639977    3.009    0.668
       143 -11.5287      5.0980     84.3837   1.0670196394e+02   5.8591769808e+01    0.7059474    0.1991794 -42.80  0.002775898    2.917    0.657
       144 -12.6863    157.5557     82.5036   5.5764475933e+01   3.4091322460e+01     1.020391    0.7765647 -17.94  0.004969941    1.613    0.380
       145  -9.5785    120.8284     86.8423   6.5836579917e+01   4.1560705369e+01    0.1998416    0.1807459 -74.69 0.0006097868    1.256    0.204
       146 -11.4689     30.9313     81.8126   9.5682652697e+01   5.7302383262e+01    0.3877617    0.3006133 -18.26  0.001312335    1.262    0.207
       147 -10.5057     74.2188     82.0933   7.9055149451e+01   5.1584494849e+01    0.3194114    0.1843757 -35.28   0.00135196    1.767    0.434
       148 -10.0825     65.1541     87.6352   8.3976612891e+01   5.1813545756e+01    0.2550208    0.2251423 -19.03 0.0008091709    1.061    0.057
       149 -11.6176     43.6645     38.1431   7.5834141740e+01   6.4420780254e+01    0.5089223    0.3041522  46.71  0.002586341    2.281    0.562
       150 -11.5730     21.7288     81.2467   9.9302992025e+01   5.8227211854e+01    0.4397161    0.2490429 -43.87  0.001124222    1.478    0.324
       151 -12.3238     32.0431     63.4329   9.0072413026e+01   6.1172617226e+01     1.027519    0.7975435  84.27  0.005546999    2.213    0.548
       152 -11.3004    238.1750    246.4026   7.4777798878e+01  -1.0085146770e+01    0.1626212    0.1517339 -35.79 0.0006547346    1.779    0.438
       153 -11.3183      6.1139     42.7530   9.5931862920e+01   6.7438007075e+01    0.6965085    0.1264306 -44.64  0.001270582    3.449    0.710
       154 -12.2329    232.5189    244.9799   7.5555702056e+01  -9.2347975449e+00    0.5438465    0.1953981 -33.75  0.002571819    2.601    0.615
       155 -12.9484     11.5444     75.3087   1.0216947960e+02   6.0295135485e+01     1.196283    0.4739015  20.86  0.005483233    2.745    0.636
       156 -14.1172     16.6917     67.5024   9.8034098762e+01   6.1664461262e+01    0.5817446    0.4530857 -19.52  0.001784111    1.191    0.160
       157 -11.2630     15.2361     59.6043   9.6542523015e+01   6.3444739559e+01    0.3156585    0.2019426 -11.08 0.0004783335    1.577    0.366
       158 -12.2662      6.1111     67.9865   1.0283104677e+02   6.2241211309e+01    0.2585719    0.1792258 -43.59 0.0003784928    1.142    0.124
       159 -12.6485      3.0149     62.7403   1.0297852902e+02   6.3543829775e+01    0.4588897    0.3107866 -84.39  0.001922702    1.988    0.497
       160 -10.1536     71.0819     79.1018   7.9264434671e+01   5.2726306062e+01    0.2117256    0.1983916 -19.39 0.0005413802    1.066    0.062
       161  -9.7933     48.6882     60.2893   8.1880788204e+01   5.9825011543e+01    0.1973686    0.1615582  13.48 0.0004256799    1.182    0.154
       162 -10.3943     60.7349     78.3655   8.2888361390e+01   5.4477689312e+01    0.3910606    0.2584684 -28.12  0.001406149    1.554    0.356
       163 -10.8047     61.8240     72.4280   8.0621379292e+01   5.5549616479e+01    0.4279434    0.2452218 -28.22 0.0009121305    1.945    0.486
       164 -12.1353     50.6611     69.2830   8.4024091460e+01   5.7776129909e+01    0.6559594    0.4398499 -70.28  0.001085117    2.383    0.580
       165 -11.0864     51.6318     62.7717   8.1501068599e+01   5.8943488903e+01    0.3439878    0.2237642 -29.09  0.001023896    1.483    0.326
       166  -9.0527    228.7070     78.6886   4.3203187051e+01   1.9233757676e+01      0.11812    0.1025226  -2.23 0.0003136425    1.590    0.371
       167 -12.7812     44.6811     75.2510   8.8279312373e+01   5.7281899776e+01    0.2736875    0.2565899  -6.51 0.0004736493    1.134    0.119
       168 -10.5161     77.1184     63.8901   7.2126397064e+01   5.4678494044e+01    0.3322235    0.2762043 -26.34  0.001860409    1.167    0.143
       169 -10.8712     76.0823     74.8329   7.6121087287e+01   5.2762624298e+01    0.3603635    0.2518325  11.31  0.001326944    1.671    0.402
       170 -11.4524     77.6943     70.0937   7.4008152021e+01   5.3411796412e+01    0.4917399    0.2851773  31.85  0.001560171    1.760    0.432
       171 -10.7285     90.7310     74.5865   7.1046664127e+01   5.0141960337e+01    0.2631567    0.1720755 -29.70 0.0004901185    1.623    0.384
       172 -10.7932    207.5205     73.4191   4.4832960320e+01   2.4416188737e+01     0.219975    0.1986002 -64.11 0.0002001337    1.033    0.032
       173 -11.3400     14.2965     96.9470   1.0550362039e+02   5.5073313392e+01    0.4659264    0.2043524 -58.60  0.002165942    1.783    0.439
       174 -10.0067    101.6684     72.7981   6.7031331371e+01   4.8305534354e+01    0.4024607    0.2498131  74.60  0.001405481    3.599    0.722
       175 -10.1081     50.8488     99.1741   9.2319182618e+01   5.1097564847e+01    0.1968645    0.1901462 -78.34 0.0004420221    1.178    0.151
       176 -10.1096    129.0506     71.4205   5.9072792897e+01   4.2600642452e+01     0.231341    0.2043504  -8.41 0.0003780742    1.244    0.196
       177 -11.2556     10.8149     90.3646   1.0559570676e+02   5.6865559247e+01    0.3627442    0.3411699  56.91  0.001138324    1.305    0.233
       178 -10.3053    167.8679     69.8326   5.0307571769e+01   3.3873803356e+01    0.1981715    0.1868791  42.00 0.0002951814    1.158    0.137
       179  -9.8464    122.9925     69.0012   5.9861426644e+01   4.4386887283e+01    0.1801241    0.1616335 -33.47 0.0003437984    1.148    0.129
       180  -9.7216     42.6858     68.2092   8.6975623307e+01   5.9005446879e+01    0.1995427    0.1694643 -57.90  0.001174973    1.371    0.270
       181 -10.0965     93.4942     66.9128   6.7648135690e+01   5.1034480156e+01    0.2357589    0.1862886  27.34  0.000322255    1.249    0.200
       182 -10.5584     96.2888     64.6504   6.6016580859e+01   5.0875806324e+01    0.2509055    0.2109523  49.56 0.0008784498    1.243    0.196
       183  -9.3659    127.5038     66.4986   5.7952824223e+01   4.3793279994e+01    0.1442478    0.1392388  46.44 0.0008106718    1.008    0.008
       184 -10.9006    122.8956     64.1513   5.8374791209e+01   4.5228793075e+01    0.2575448    0.2486418 -55.61 0.0002843363    1.101    0.092
       185 -10.7449    120.1454     60.6478   5.7966734621e+01   4.6421117258e+01    0.2731888    0.2184886  48.96  0.001447579    1.191    0.160
       186  -9.1650     33.2889     97.3186   9.8428920660e+01   5.3455224470e+01    0.1454714   0.08908219 -35.19 0.0002724886    1.597    0.374
       187 -11.4693     37.6338     94.7388   9.6196016621e+01   5.3642107103e+01    0.3427392    0.2881742  58.63 0.0009612282    1.492    0.330
       188 -10.7627     84.8157     61.6782   6.8711653923e+01   5.3654959477e+01    0.3508386    0.2152263  42.02  0.001673864    1.593    0.372
       189  -9.2113    202.4751     61.5179   4.2749407769e+01   2.7339040407e+01    0.1327238    0.1192459 -69.58 0.0008096937    1.031    0.030
       190  -9.4014     98.4128     60.4490   6.3953401367e+01   5.1162621157e+01    0.1409386    0.1317253  15.45 4.856098e-06    1.012    0.012
       191  -9.6750     69.4706     60.0287   7.3564864938e+01   5.6711166725e+01    0.2045663    0.1107197 -20.54 0.0008099489    2.600    0.615
       192 -11.8983     59.3221     59.0630   7.7123722103e+01   5.8525385166e+01     0.448153    0.2520812 -29.78  0.001392214    1.851    0.460
       193 -10.7503     62.3955     51.2146   7.3083118107e+01   5.9432753060e+01    0.4065595    0.2032842 -30.51  0.001098943    2.137    0.532
       194 -10.2356    147.4705     57.4555   5.0777732303e+01   4.0597464530e+01    0.3496574    0.2265254 -65.29  0.001586944    2.007    0.502
       195 -11.4445     75.2243     56.1768   7.0101568416e+01   5.6385645126e+01    0.2303864    0.2095709 -18.56 0.0003114804    1.114    0.103
       196  -9.7393     68.4485     56.4645   7.2683252746e+01   5.7519255323e+01    0.1381046    0.1221271   0.34 1.015505e-05    1.003    0.003
       197  -9.3012     48.3725     56.2356   8.0611250768e+01   6.0635791487e+01    0.1357438   0.09177548  -2.91 0.0006913082    1.611    0.379
       198 -12.6060    105.2173     52.6764   5.9331161519e+01   5.0971536222e+01    0.3487429    0.2878471  38.44 0.0004141183    1.131    0.116
       199 -11.8688    129.1529     49.2900   5.2204356266e+01   4.6084936862e+01    0.4454501    0.3965085  -9.44   0.00166092    1.247    0.198
       200  -9.9135     55.6837     53.8699   7.6732343851e+01   6.0020695958e+01    0.3063111    0.1874752   3.52  0.001423828    2.113    0.527
       201 -10.0347    120.1747     52.5686   5.5364144735e+01   4.7668520829e+01    0.2738496     0.185412  30.38 0.0008755407    1.680    0.405
       202 -10.6430     88.0688     51.3112   6.3998115289e+01   5.4749680742e+01    0.2617132     0.212294  -5.99 0.0007726191    1.277    0.217
       203  -9.5605    237.3888     50.7961   3.6379407165e+01   2.1643103041e+01    0.1642876    0.1082093 -32.57 0.0007906139    1.659    0.397
       204 -11.4141    199.6903     49.7361   4.0341604669e+01   2.9650044844e+01    0.3462764    0.2136685  56.74 0.0004246617    1.689    0.408
       205 -11.9599     26.9301     49.9368   8.8018939879e+01   6.4356886585e+01    0.5779414    0.3720518 -54.99  0.002113919    1.729    0.422
       206 -10.4179     53.2599     49.9342   7.6281291595e+01   6.1075226977e+01    0.2485548    0.1790395  19.56 0.0006302433    1.326    0.246
       207 -10.0881     77.5198     50.8664   6.7368116637e+01   5.6850637523e+01    0.2363087    0.1555106  43.78 0.0006902496    1.506    0.336
       208  -9.8787    168.9895     51.9987   4.5339261421e+01   3.6336642168e+01    0.2234324    0.1538585 -73.70  0.000812698    1.679    0.404
       209 -10.1799     78.7474     47.0955   6.5551230316e+01   5.7216489379e+01    0.1858111    0.1770355  -7.19  0.000442265    1.158    0.136
       210 -10.3394    142.8895     45.3368   4.8118591354e+01   4.3416298362e+01    0.2617521    0.2237103 -74.16 0.0004896231    1.253    0.202
       211 -10.6432    139.1107     43.1733   4.8211426307e+01   4.4597571382e+01    0.3172421    0.2429293 -15.56  0.000880326    1.570    0.363
       212  -9.7670     82.1247     54.5315   6.7111899270e+01   5.5386421794e+01    0.1942629    0.1728581  -9.62 0.0002830619    1.085    0.078
       213 -10.6704     91.7391     43.3258   5.9964190294e+01   5.5203572014e+01     0.435544    0.2481228 -45.48  0.002032331    2.119    0.528
       214  -9.9133     95.6120     43.1073   5.8731039265e+01   5.4427873265e+01    0.2219884    0.1710173  17.73 0.0004685794    1.366    0.268
       215 -11.0199     98.0024     39.5071   5.6747517698e+01   5.4416048171e+01    0.3303187    0.1921856  34.39  0.001566247    1.775    0.437
       216 -10.3195     83.6229     44.9996   6.3138569269e+01   5.6594401876e+01    0.3066264    0.1813775  54.39 0.0009263971    1.907    0.476
       217  -9.6691     51.0060     45.0013   7.5355156702e+01   6.2247918949e+01    0.1599698    0.1300893 -20.08  0.000514893    1.127    0.113
       218  -9.4334    236.3815     43.5480   3.5003021687e+01   2.2818690792e+01    0.1215812   0.09513547 -62.61 0.0001100898    1.033    0.032
       219 -10.3761    124.7879     42.1485   5.0910605627e+01   4.8079401847e+01    0.3196369    0.2200612 -79.40  0.001508797    2.115    0.527
       220  -9.9791    107.0229     42.7477   5.5431864825e+01   5.2018282695e+01    0.1939767    0.1614447  46.05 0.0003194739    1.101    0.092
       221 -11.1796     62.7373     40.6039   6.8887938691e+01   6.1085237766e+01    0.4192075    0.3120795  16.34  0.002419187    1.263    0.208
       222 -11.0097     69.6270     36.8146   6.4808852611e+01   6.0428856107e+01     0.517566    0.2355361 -22.87  0.002122643    2.860    0.650
       223 -11.0187     71.8161     41.6944   6.5933638237e+01   5.9322829954e+01    0.4311244    0.2827698 -43.29  0.001403338    1.769    0.435
       224 -11.2676     67.4100     41.9956   6.7661547391e+01   6.0066954645e+01    0.3331976    0.2501925  20.75 0.0008440308    1.240    0.194
       225 -11.0784      7.9804     33.5675   9.1801097598e+01   6.9011211700e+01      0.39834     0.374486  -2.93  0.002981515    1.392    0.281
       226 -10.1655      1.4687     25.9269   9.2580011281e+01   7.0803602579e+01    0.2127213    0.1181984 -33.41  0.000365899    1.408    0.290
       227 -11.0260     23.6386     41.3100   8.6536173442e+01   6.6275619649e+01    0.4695208    0.3263324  53.31  0.002516092    2.634    0.620
       228 -10.3660     18.5157     42.3293   8.9462632382e+01   6.6571234406e+01    0.4043719    0.1495873 -42.75  0.001585485    2.221    0.550
       229 -12.0058     36.9737    243.7872   1.1591732890e+02   1.7491225518e+01    0.6575103     0.310196 -87.90  0.003258846    2.310    0.567
       230 -11.0023      7.9597     25.0423   8.8518473679e+01   7.0482278169e+01    0.4433303    0.1495547  22.04  0.002090072    2.920    0.658
       231 -10.5143    250.2510    246.9637   7.2766958698e+01  -1.1499515518e+01    0.1663727    0.1182475 -13.11  0.001167457    1.082    0.076
       232 -11.2633     17.8982     31.1059   8.5536682424e+01   6.8602035233e+01     1.227408    0.4331297  31.87  0.005639588    2.975    0.664
       233 -11.5707     22.4276     25.7028   8.0889048861e+01   6.9012986447e+01    0.3350761     0.224241 -16.15 0.0007658976    1.289    0.224
       234 -13.0474     74.8181    238.1697   1.0748526235e+02   1.3997287711e+01    0.8100295    0.5420358 -68.23  0.004642834    1.602    0.376
       235 -12.6968     27.7241     38.0557   8.3282522031e+01   6.6419892526e+01    0.3559876    0.2661895  14.07 0.0003882173    1.271    0.213
       236 -11.4918     24.4738     34.9986   8.3697871162e+01   6.7288443802e+01    0.2423156    0.1740323 -20.92 0.0003729296    1.160    0.138
       237 -10.0124    131.0132     42.0122   4.9512445284e+01   4.6650784578e+01    0.2035563    0.1927249  61.35 0.0003293344    1.030    0.029
       238 -11.3878     53.1263     40.7365   7.2796194261e+01   6.2620710080e+01    0.3653609    0.2284551  31.73 0.0009022749    1.514    0.340
       239 -12.8615     57.5601     34.4942   6.8457801251e+01   6.2856092225e+01    0.3240582     0.274358  -6.96  0.002065359    1.099    0.090
       240 -10.7633    152.5706     39.0984   4.4527629850e+01   4.1946984289e+01    0.2407375    0.2022343  73.32 0.0004107758    1.101    0.092
       241 -11.1128    225.1336     38.2201   3.4964902421e+01   2.5770402115e+01    0.2542959    0.1831101  89.78  0.000442171    1.301    0.232
       242  -9.5666    116.4830     39.4872   5.1952477050e+01   5.0333559854e+01    0.1363758    0.1251377  49.92 3.540716e-05    1.023    0.023
       243  -9.5202     85.8477     38.8403   6.0121281156e+01   5.7032271281e+01    0.1639115    0.1496639  54.82            0    1.245    0.197
       244  -9.4267    160.4332     38.4017   4.3032326741e+01   4.0178328270e+01      0.13299    0.1188249  82.53 6.585336e-05    1.018    0.018
       245 -10.1018      1.5951     37.8176   9.6711879998e+01   6.8651344552e+01    0.1913794    0.1062666 -36.97  0.000723707    1.396    0.284
       246 -11.1405     81.2960     36.0418   6.0507699382e+01   5.8319963350e+01     0.395017    0.2357759 -35.48  0.001293895    1.803    0.445
       247 -11.7377     75.1392     35.6193   6.2395380348e+01   5.9569670521e+01    0.4948309    0.2992539  12.22  0.001819839    2.180    0.541
       248  -9.4154    172.9803     35.7414   4.0442037034e+01   3.7571498028e+01    0.1656905    0.1044624  67.58 0.0003110355    1.465    0.317
       249  -9.4733    134.5032     35.5147   4.6775678285e+01   4.6659733015e+01    0.1350768    0.1229202  67.97 0.0008103251    1.029    0.029
       250  -9.9137    201.9011     34.2772   3.6486162758e+01   3.1200544573e+01      0.17375    0.1444971  89.29 0.0004075939    1.086    0.079
       251 -10.1103    108.3206     34.2661   5.2153976060e+01   5.2833485839e+01    0.2302823    0.1773174  52.18 0.0006101978    1.177    0.150
       252 -11.1726    221.7528     32.1091   3.4000020127e+01   2.7237973427e+01    0.2059068    0.1621346 -68.40  0.000285237    1.046    0.044
       253 -10.1993    205.8928     32.4862   3.5650493778e+01   3.0552061014e+01    0.1822329    0.1493193 -57.62   0.00051639    1.129    0.114
       254 -10.9424    235.7973     30.8094   3.2498070965e+01   2.4563400814e+01    0.3408987     0.181686  46.04   0.00169843    3.088    0.676
       255 -10.0312    166.5075     32.0640   4.0393337765e+01   3.9530430777e+01    0.1847501    0.1287719 -34.44 0.0005111591    1.548    0.354
       256 -10.5553     48.4371     31.7477   7.1093860531e+01   6.4701754992e+01    0.2467581    0.1829485   6.28  0.000541064    1.223    0.183
       257 -10.9123     50.2108     27.8218   6.8656870833e+01   6.4981046113e+01    0.2858901    0.1712488  14.10  0.001098976    1.831    0.454
       258 -12.6749    101.0773     28.6354   5.1986401174e+01   5.5107257962e+01    0.4844396    0.3429061  48.77 0.0005865481    1.242    0.195
       259  -9.5759     89.0793     31.5396   5.6374397084e+01   5.7322770712e+01    0.2036367    0.1177298  48.89 0.0007384924    1.555    0.357
       260  -9.7239     44.3534     31.2748   7.2678991564e+01   6.5378531378e+01    0.1693468     0.132722   4.57 0.0005592003    1.080    0.074
       261 -10.4574    111.0057     28.1958   4.9399640364e+01   5.2948497996e+01    0.3054914    0.2064493  33.48 0.0008468532    1.534    0.348
       262 -10.9414     60.0512     27.0718   6.4369195898e+01   6.3448368857e+01    0.2418148    0.2059034 -23.00 -0.001320134    1.283    0.220
       263 -10.4779     61.2508    242.1024   1.1077012993e+02   1.4943533929e+01    0.4292589   0.07492854  42.16  0.001463883    3.880    0.742
       264  -9.8978    195.3974    238.7242   8.1576199195e+01  -3.5629840121e+00    0.2250633    0.1383967   8.73  0.001192521    1.710    0.415
       265 -10.2361    132.4608     25.7139   4.4120241502e+01   4.8273734027e+01    0.2447005    0.1758144 -21.44  0.001214945    1.627    0.385
       266 -10.3730    127.9954     26.5516   4.5232814117e+01   4.9225939060e+01    0.2522434    0.2229998  60.14 0.0008465109    1.005    0.005
       267 -10.8851    243.9515    237.3398   7.2260125489e+01  -9.5007395353e+00     0.194645    0.1431167 -29.89 0.0009194664    1.368    0.269
       268 -10.8377     69.6620     26.3544   6.0546078391e+01   6.1802270957e+01    0.4435913    0.1895601  35.01  0.001854108    2.362    0.577
       269 -10.3335    214.5228     25.6896   3.3306829062e+01   2.9525920362e+01    0.1999894    0.1659611  88.61 0.0002954915    1.126    0.112
       270  -9.8790    204.1678     25.9828   3.4368310256e+01   3.1709472462e+01    0.2136327    0.1072674 -58.21 0.0006247179    1.962    0.490
       271  -9.9368    169.1192     25.8755   3.8396672429e+01   3.9639456922e+01    0.1663787    0.1410065  51.61 -0.0006383859    1.279    0.218
       272  -9.2796    144.3184     26.6435   4.2314308974e+01   4.5381615973e+01     0.138469   0.09377537 -69.73 0.0007045306    1.754    0.430
       273 -10.1005     31.3241    236.6741   1.1656540856e+02   1.9591168998e+01    0.1895935    0.1094153 -84.88  0.001018534    1.665    0.400
       274 -10.9084    158.4615     22.7381   3.9022953696e+01   4.2477451082e+01    0.4560385    0.2036464  83.89  0.001763354    3.103    0.678
       275 -10.9103     90.2560     20.5825   5.1848252373e+01   5.8326895917e+01    0.5378413    0.2160915  66.06  0.001874649    3.987    0.749
       276 -11.2649     99.1644     23.0715   5.0444559340e+01   5.6145165846e+01    0.5160087    0.2446619  48.32  0.002305247    1.797    0.443
       277 -11.2015    108.2424     17.5394   4.6307724801e+01   5.4694391824e+01    0.3184384    0.1924572  42.52 0.0009807306    1.525    0.344
       278 -10.0159    103.4980     19.9081   4.8233811014e+01   5.5519830294e+01    0.2486581    0.1902541 -28.36  0.001013783    1.471    0.320
       279 -10.1988    186.0606     22.8280   3.5557094708e+01   3.6090603127e+01    0.1984852    0.1452353 -77.88 0.0007419136    1.268    0.212
       280  -9.1578    145.2906     21.3231   4.0597077677e+01   4.5725272930e+01    0.1296082   0.09151345  37.62 0.0007012665    1.609    0.379
       281 -11.3127     29.9815    233.0048   1.1658480983e+02   2.0512740686e+01    0.3304795    0.2211856 -61.55  0.002019168    1.646    0.392
       282 -10.7787      9.5694     16.0425   8.3686001698e+01   7.1770258109e+01    0.2298241    0.1435451  -9.66  0.001432877    1.386    0.278
       283 -10.2255    159.9829    236.0146   8.8477146848e+01   1.9925794985e+00    0.1597851    0.1404884  10.81  0.000455494    1.028    0.028
       284 -10.2248    172.8184     20.1805   3.6453033377e+01   3.9408455703e+01    0.1964251    0.1503731 -79.32 0.0006866658    1.227    0.185
       285  -9.4660    139.5266     19.9736   4.1128723957e+01   4.7220269765e+01    0.1670591    0.1057371  19.88 0.0008063384    2.330    0.571
       286 -10.1877    109.4731    242.8727   1.0043718526e+02   8.2144996576e+00    0.2501509    0.1498499  48.04 0.0007395438    1.586    0.370
       287 -10.7379     88.8209    241.3009   1.0476507886e+02   1.1454353789e+01    0.2363259      0.15594 -34.64  0.001227386    2.143    0.533
       288 -10.1563     38.2349    232.8366   1.1485373357e+02   1.9639059496e+01      0.18087    0.1375733  69.49 0.0005062231    1.123    0.110
       289 -10.5881     67.4793     21.5773   5.9302685958e+01   6.2778435291e+01    0.3668236     0.159129  52.79  0.001631834    2.436    0.590
       290 -11.2442    193.4986     25.9789   3.5483093851e+01   3.4059888223e+01    0.2774632    0.1682882 -59.42  0.001309291    1.594    0.373
       291  -9.5959    194.8825     17.1080   3.3281081253e+01   3.4746715622e+01    0.1510639    0.1331699  66.79 0.0003604111    1.264    0.209
       292  -9.6997    143.2947     17.2804   3.9727790980e+01   4.6605779502e+01    0.1268627   0.08796524  42.38 0.0001967003    1.534    0.348
       293  -9.3575     82.4924     17.5334   5.2835186062e+01   6.0262845858e+01      0.12939    0.1072907  33.85 4.148114e-05    1.020    0.020
       294 -10.1297     23.9022    232.6613   1.1780861705e+02   2.1228410739e+01    0.1876041    0.1460011 -76.44 0.0006030448    1.300    0.231
       295  -9.9521     74.8932     16.4234   5.4673849768e+01   6.1910402174e+01    0.3385213    0.1343819  48.34   0.00153931    2.106    0.525
       296  -9.7054    152.2006    229.8037   8.9200712434e+01   4.3034742975e+00    0.2192399    0.1450165  68.60 0.0009560598    2.864    0.651
       297 -11.0955      4.4953    226.7023   1.2136082732e+02   2.4385864502e+01    0.2988798    0.1886672  58.50   0.00191127    1.314    0.239
       298 -11.1080    120.8437    226.3281   9.5709932191e+01   9.8135538438e+00    0.2206389    0.1914875 -78.88 0.0007939907    1.344    0.256
       299  -9.9694     66.0564    226.3278   1.0821473939e+02   1.7669938944e+01    0.2025657    0.1730486 -63.29 0.0006778061    1.281    0.219
       300 -10.2597    184.5378     14.9563   3.3831558906e+01   3.7285343875e+01    0.1545493     0.106297  15.74 0.0008091393    2.529    0.605
       301 -10.7020     21.0773    222.0587   1.1768398734e+02   2.3813081983e+01    0.2091314    0.1126435  63.46 0.0007303543    1.698    0.411
       302  -9.5357     65.3685     12.2715   5.6001890030e+01   6.4173094120e+01    0.1329614   0.07682163  27.69 0.0003991894    1.669    0.401
       303 -10.0025    123.6869    221.6868   9.4385384913e+01   1.0327678747e+01    0.1377598    0.1050485  -8.84 0.0002968097    1.636    0.389
       304  -9.6046    170.1481    229.1614   8.5218420799e+01   1.6916605042e+00    0.1703093    0.1556052  43.66 0.0004783917    1.313    0.239
       305 -11.6661      9.7160    217.2145   1.1975423761e+02   2.5976318499e+01    0.3439176    0.1989308  56.98  0.001999546    1.500    0.333
       306  -9.8872     38.0048    217.5343   1.1366977872e+02   2.3029091466e+01    0.1820815    0.1170325  34.59 0.0007298308    1.555    0.357
       307 -11.1697     29.6041    215.9311   1.1539755371e+02   2.4303774588e+01    0.3215274    0.2699816   2.81  0.001529699    1.650    0.394
       308 -10.4338     23.4475    216.6832   1.1679820994e+02   2.4770482545e+01    0.1835403    0.1530283 -10.24   0.00116503    1.753    0.430
       309  -9.6476     31.0354     12.6899   7.0422425566e+01   6.9776344165e+01    0.1608275    0.1202776  13.84 0.0005551854    1.091    0.083
       310 -10.6980    228.8822     12.2885   2.9370299859e+01   2.8094320236e+01    0.2125578   0.08909573  83.88 0.0006183833    2.411    0.585
       311  -9.8034     84.4928     12.4988   5.0253769309e+01   6.0338713197e+01    0.1301157    0.1032118  35.44 -0.0001639325    1.080    0.074
       312 -11.7785    236.5624    213.8949   6.9488683869e+01  -5.1526047975e+00    0.6126129    0.3097832   8.23  0.002148044    3.020    0.669
       313  -9.5719    136.6490    215.7024   9.0472859880e+01   9.5137923798e+00    0.1439899    0.1057142  -4.17 0.0007035306    1.687    0.407
       314  -9.3887    190.4778    226.4856   8.0530329129e+01  -8.5294559813e-01    0.1336984    0.1105992   0.90 0.0008098163    1.037    0.036
       315 -10.3318     21.3486    212.5139   1.1695033734e+02   2.5923109589e+01    0.2753857    0.1170483  56.26   0.00128153    2.258    0.557
       316  -9.7039    208.8386    211.9167   7.4292638685e+01  -1.0369540554e+00    0.2092825    0.1517144  -9.47 0.0008468674    1.310    0.236
       317 -12.2005      4.1990    208.5436   1.2038951571e+02   2.8407614690e+01     0.553549    0.3524148 -85.60  0.003395639    1.328    0.247
       318  -9.1380    188.2626    205.3337   7.7240274628e+01   3.2442102034e+00      0.14021   0.09702416 -11.84  0.000367291    1.578    0.366
       319 -10.9272     20.2428    198.8130   1.1615050490e+02   2.9207776285e+01    0.3925566    0.2679851 -76.33  0.002317242    1.305    0.233
       320 -10.3863    175.3925    202.6924   7.9492870222e+01   5.8108047407e+00    0.2349168    0.2047965  26.13 0.0004866764    1.142    0.124
       321 -10.7368    244.4078    202.4509   6.6046041302e+01  -4.3756930992e+00    0.2370883    0.1166088  34.37  0.001221245    2.230    0.552
       322 -10.9838     16.5658    193.2746   1.1656328365e+02   3.0865659090e+01    0.3376703     0.251849  19.17  0.001651044    1.669    0.401
       323 -10.1644    244.9293    188.4755   6.3356184032e+01  -2.2047856989e+00    0.2026939    0.1406855 -30.06 0.0004820946    1.181    0.153
       324  -9.4117    212.4698    188.5139   6.9182635859e+01   2.5256468641e+00     0.135995    0.1183663 -17.85 0.0008092548    1.049    0.047
       325 -10.6491     10.8867    208.2872   1.1893588575e+02   2.7876788574e+01    0.2241235    0.1750549 -61.64 0.0003378193    1.410    0.291
       326 -11.5019     16.0803    183.0284   1.1583278213e+02   3.3382207098e+01    0.5134965    0.2533901  85.14  0.002390208    2.089    0.521
       327 -10.3131    167.9875    183.8140   7.7523851548e+01   1.0873075762e+01    0.2335695    0.1718085  63.35 0.0007931797    1.941    0.485
       328  -9.7712     58.8151    182.1878   1.0484270182e+02   2.9008851524e+01    0.1917846    0.1628056 -39.63  0.000852266    1.342    0.255
       329  -9.3294      1.5496    180.5319   1.1913889799e+02   3.5168329766e+01    0.1253126    0.1013111 -89.47   0.00016645    1.016    0.016
       330  -9.9025    244.4723    178.4882   6.1527790475e+01  -4.9423795402e-01     0.239151    0.1000795 -31.01  0.001025639    2.318    0.569
       331 -10.7622     46.4709    177.8362   1.0754343877e+02   3.1598194971e+01     0.318567     0.244376 -84.32  0.001065992    1.223    0.182
       332  -9.2763     69.4690    178.4210   1.0148684095e+02   2.8548141900e+01    0.1403934    0.1348192 -69.90 0.0002596511    1.073    0.068
       333 -11.0231     34.1028    174.2009   1.1038086439e+02   3.3861591827e+01    0.2632536    0.1857806 -68.38 0.0004209148    1.272    0.214
       334 -10.8152     18.1705    173.2816   1.1442999115e+02   3.5601555303e+01    0.3659724     0.197488  61.98  0.001778812    1.966    0.491
       335 -12.3367     36.8724    164.5706   1.0849121517e+02   3.6022547850e+01    0.8191175    0.5597171 -64.43  0.004350551    1.310    0.237
       336 -12.9666     49.4666    161.6838   1.0457746097e+02   3.5374175357e+01    0.5385075    0.4183059  39.65   0.00292177    1.352    0.260
       337  -9.3722    177.0120    168.7639   7.2441568577e+01   1.2391211077e+01    0.1845664    0.1235349  37.74 0.0002473431    1.544    0.352
       338 -10.2306      4.7962    168.8404   1.1744057362e+02   3.7774181282e+01    0.1762867    0.1273778  70.63 0.0006729372    1.300    0.231
       339  -9.4330     99.1732    164.8518   9.1088597261e+01   2.7459864043e+01    0.2019598    0.1756416 -25.05 0.0003359678    1.265    0.210
