#   1 NUMBER                 Running object number                                     
#   2 MAG_AUTO               Kron-like elliptical aperture magnitude                    [mag]
#   3 X_IMAGE                Object position along x                                    [pixel]
#   4 Y_IMAGE                Object position along y                                    [pixel]
#   5 X_WORLD                Barycenter position along world x axis                     [deg]
#   6 Y_WORLD                Barycenter position along world y axis                     [deg]
#   7 A_WORLD                Profile RMS along major axis (world units)                 [deg]
#   8 B_WORLD                Profile RMS along minor axis (world units)                 [deg]
#   9 THETA_WORLD            Position angle (CCW/world-x)                               [deg]
#  10 FWHM_WORLD             FWHM assuming a gaussian core                              [deg]
#  11 ELONGATION             A_IMAGE/B_IMAGE                                           
#  12 ELLIPTICITY            1 - B_IMAGE/A_IMAGE                                       
         1 -13.2610    196.2039     41.6149   4.4773408530e+01   3.1071193399e+01     1.116072    0.9977563 -56.03  0.003383503    1.111    0.100
         2 -13.8391    204.8453     33.0247   4.1520220896e+01   3.0125521196e+01     1.558243     1.037305 -14.45  0.001282854    2.128    0.530
         3 -13.0850    229.1208      6.5117   3.3114296681e+01   2.7665925742e+01    0.8590719    0.6692364 -85.87  0.004619203    1.096    0.087
         4  -9.7435     64.2439      9.0193   6.2701948742e+01   6.5426413664e+01    0.1671852    0.1351161  60.55 0.0008001391    1.639    0.390
         5 -10.4683     44.3408      4.6798   6.8620126274e+01   6.9238286857e+01    0.1859934    0.1100433 -26.88 0.0009962551    1.679    0.404
         6 -11.0786     56.5418      4.7437   6.3554220494e+01   6.7234403900e+01    0.3346824    0.1886773   3.58  0.001747635    2.075    0.518
         7 -10.7189    183.7888    212.4059   8.6662336175e+01   2.8106051942e+00    0.3075252    0.1953353  43.69  0.001581417    1.566    0.361
         8 -10.5653    140.6452    249.8000   1.0115839306e+02   3.5179672347e+00    0.3363944    0.1934432  42.13  0.001399008    1.429    0.300
         9 -11.3125    140.1278    244.7283   1.0061775092e+02   4.4362286888e+00    0.3679055       0.2845 -72.41  0.002263467    1.719    0.418
        10 -18.2423     19.5601    210.1268   1.2222573738e+02   2.7755821223e+01     12.54529     4.951828 -81.43   0.06180397    2.325    0.570
        11  -9.7948    149.1318    187.6002   8.9836364933e+01   1.3666346310e+01    0.2988129    0.2342523  86.71  0.001472933    1.750    0.428
        12 -10.2664    120.6450    195.1159   9.7796272575e+01   1.7177405948e+01     0.306581    0.2248969  82.00 0.0008400563    1.733    0.423
        13 -14.9615     70.6802    147.9386   1.0293081509e+02   3.6355485541e+01     4.342649     2.439261  74.04   0.01110648    2.803    0.643
        14 -10.1175    108.4015    249.5732   1.0760826664e+02   8.4548352027e+00    0.2657709    0.1942459  17.21   0.00157286    1.753    0.429
        15  -9.3712     91.3530    183.1414   1.0304472772e+02   2.4720417950e+01    0.2465906    0.2138723  58.58 0.0005241275    1.073    0.068
        16 -10.2382     99.4688    180.8632   1.0067760420e+02   2.3946393623e+01    0.2650236    0.2517179  79.51 0.0005664288    1.043    0.041
        17 -11.5962    196.7778    204.5783   8.2612091180e+01   1.9569894317e+00    0.6021228    0.2263935  31.00  0.002221268    2.994    0.666
        18  -9.7772    187.7773    176.1322   7.9007583448e+01   8.6903051998e+00    0.3586344    0.3195769 -59.12  0.001714825    1.340    0.254
        19  -8.8938    148.5372    175.5226   8.7703869883e+01   1.6323297305e+01    0.2506993    0.1842692 -73.01  0.000703502    1.803    0.445
        20  -9.8064    146.5158    172.0068   8.7497562703e+01   1.7468940985e+01    0.2859232    0.2350302  79.22  0.001324827    1.510    0.338
        21 -10.9613     48.8289    171.2417   1.1212398476e+02   3.3446181631e+01    0.4994233    0.2739345 -44.93  0.002028492    2.279    0.561
        22 -11.4829     45.5564    167.5856   1.1252098423e+02   3.4708990109e+01    0.6230136    0.3133626 -48.30  0.002822706    2.290    0.563
        23  -9.7295     90.0052    212.5138   1.0729398354e+02   1.8391505024e+01     0.240199    0.1877057 -82.28 0.0005200244    1.331    0.249
        24 -10.8160    240.8947    169.3439   6.7416695858e+01   4.6015923300e-01    0.3670293    0.1146044  38.38  0.001342471    3.580    0.721
        25  -9.0813    185.5004    169.0926   7.8043941931e+01   1.0481999234e+01    0.2213971    0.1422557 -42.18  0.001024894    1.570    0.363
        26  -9.7772    230.4855    166.9772   6.8759792437e+01   2.5964837416e+00    0.1868549    0.1122516 -56.35 0.0008102059    2.538    0.606
        27  -8.8559    137.3049    167.3570   8.8815730136e+01   2.0266653825e+01    0.2229324    0.1338618  47.96 0.0007249981    1.675    0.403
        28  -8.0381    134.3715    163.2895   8.8732281189e+01   2.1747344049e+01    0.1559764    0.1206393   0.02 5.353317e-05    1.718    0.418
        29  -8.6603    194.0192    171.3174   7.6711698303e+01   8.4270372956e+00     0.203913    0.1817989  27.28  0.001138541    1.102    0.093
        30 -11.4753     91.3307    151.9681   9.7874928152e+01   3.2206449362e+01    0.7109713     0.491266 -28.23  0.003191636    1.972    0.493
        31 -10.6950    133.9662    145.6973   8.5118497240e+01   2.5852941149e+01     1.200155    0.3328457 -55.16  0.002898667    5.323    0.812
        32  -9.2226    174.8712    149.1579   7.6045899136e+01   1.6627311369e+01    0.2304992     0.212874  85.19  0.000630384    1.256    0.204
        33  -9.1447    143.6217    145.8047   8.2688328683e+01   2.3860215130e+01    0.2280832    0.1473393 -58.84 0.0009517748    1.762    0.432
        34 -10.1533    104.4790    138.2027   9.1441316179e+01   3.3304632480e+01    0.5330718    0.3359259 -25.73  0.002089438    2.390    0.582
        35 -11.6053     91.8799    137.8316   9.4958608029e+01   3.5592894606e+01    0.2936069     0.259922 -39.15 0.0003803351    1.185    0.156
        36 -10.1719    105.9081    130.8167   8.9399870676e+01   3.4827513166e+01    0.3673275    0.3272004 -75.43  0.001258297    1.173    0.148
        37 -10.2535    136.0000    128.6484   8.0624614167e+01   2.9338282192e+01    0.5244161    0.0896349 -47.02  0.001147965    5.851    0.829
        38 -10.3366    112.9697    129.0557   8.6986567104e+01   3.3913547386e+01    0.4752937    0.3404174  -1.13  0.001438417    2.121    0.528
        39 -11.2308    119.4675    123.1139   8.3735549620e+01   3.4029785897e+01     0.622411    0.4534833 -11.87  0.002651912    1.946    0.486
        40  -9.4458    160.8830    128.0642   7.4295050027e+01   2.4074632781e+01    0.2497533    0.2213677 -83.07  0.001240356    1.296    0.228
        41 -10.3755    100.0932    125.0893   8.9771426064e+01   3.7270865510e+01    0.3043312    0.2551362 -10.10 0.0008024689    1.428    0.300
        42  -8.2927     87.3188    203.2944   1.0676821846e+02   2.0781643003e+01    0.1250395    0.1072099 -15.42  0.000587968    1.608    0.378
        43 -10.2556    135.0000    113.4308   7.7040271051e+01   3.2964612205e+01    0.6361373   0.08973116 -45.18  0.001265509    7.076    0.859
        44 -10.0163    231.4458    113.7223   5.7034597755e+01   1.1643338737e+01    0.2627097     0.245582 -16.34 0.0008056808    1.114    0.102
        45  -8.7739    167.9932    112.9872   6.8864019960e+01   2.5627578554e+01    0.2605668    0.1965202 -81.21  0.001137257    1.810    0.447
        46 -11.1875    115.7166    108.5049   8.1060563752e+01   3.8147384857e+01    0.4986041    0.4253154 -30.22  0.002487548    1.220    0.180
        47  -9.5153    205.5420    110.1789   6.0576321255e+01   1.7701429390e+01     0.299478    0.2135588  43.44 0.0008795587    1.513    0.339
        48  -9.2396    108.7886    118.2416   8.5576260588e+01   3.7276829618e+01    0.2148697    0.2065981  78.61 0.0004400396    1.083    0.076
        49 -10.0771    143.3685    211.3473   9.5168581044e+01   9.9308589024e+00    0.3290729    0.1375416 -56.74  0.001277303    3.044    0.671
        50  -8.4095    135.3319    102.3061   7.3958959306e+01   3.5302976679e+01    0.1609089    0.1257141   5.40 0.0007038948    1.662    0.398
        51 -11.4487    111.8703    204.7642   1.0130017062e+02   1.6592062500e+01    0.4431405    0.3028818 -84.02 0.0009911342    1.861    0.463
        52  -8.3524    129.6788     97.3212   7.4075477256e+01   3.7616439558e+01    0.1591199    0.1260993 -87.51 0.0007044852    1.672    0.402
        53 -10.6283     58.2603     96.4338   9.6388066781e+01   5.0683092511e+01    0.3599842    0.2420816  62.95 0.0009364251    2.126    0.530
        54  -8.6253     93.7801    205.4097   1.0555138946e+02   1.9337730054e+01     0.189198    0.1258104  27.78 0.0009527134    1.674    0.403
        55 -11.6663    107.7967    203.8517   1.0210988153e+02   1.7452378578e+01    0.5303952    0.3084861  60.02  0.001729886    1.973    0.493
        56  -8.9399    234.3416     85.6826   5.0234766785e+01   1.5749774795e+01    0.1443455   0.09674382 -66.72 0.0005471087    1.713    0.416
        57  -8.9086    157.4686     82.4993   6.2955168666e+01   3.4075039495e+01    0.1517359    0.1497341  68.17 2.224448e-05    1.012    0.012
        58  -8.7552    184.7009     76.9636   5.5920396434e+01   2.8459989851e+01    0.2091107    0.1868131 -43.64 0.0004910012    1.113    0.102
        59  -9.4935     60.9089     68.4165   8.7628073091e+01   5.6537772842e+01    0.2726091    0.2164717  58.20  0.001472152    1.711    0.416
        60 -13.0399    184.6224     50.8432   4.8899386807e+01   3.2607340585e+01    0.9562582    0.9501316 -38.32  0.000766014    1.143    0.125
        61  -9.6364     92.7445    249.3049   1.1069702941e+02   1.0785952279e+01    0.2661834   0.07368331  42.90  0.001083144    2.713    0.631
        62 -10.8347    192.6760    194.4472   8.1571342876e+01   4.4210500150e+00     1.147513     0.672658 -69.19  0.003489122    5.980    0.833
        63 -12.2979    113.2377    196.9249   9.9824257897e+01   1.8045690828e+01    0.5072002    0.4716886 -60.16  0.003015329    1.167    0.143
        64  -8.4215    223.7307    206.6699   7.7744791131e+01  -2.7369454080e+00    0.1315448    0.0879064  -3.45 0.0002522864    1.583    0.368
        65  -9.9718    198.1423     23.6031   3.9961164727e+01   3.2870478865e+01    0.2349756    0.1946435 -26.16 0.0007274573    1.428    0.300
        66  -9.0773     81.6432    195.2568   1.0707251977e+02   2.3417455104e+01    0.2903277    0.2032526 -15.45  0.001340987    2.572    0.611
        67  -8.9103    189.5191     15.0086   3.8764586323e+01   3.5910211550e+01    0.1828305    0.1275613 -33.50 0.0007887977    1.558    0.358
        68  -8.9274    157.9931    235.4912   9.5688174808e+01   3.1486972081e+00    0.1986407    0.1100044  36.42 0.0005231702    1.522    0.343
        69 -10.8785    150.8763    220.4387   9.4942694612e+01   6.9472387067e+00    0.3107905     0.210124  41.90  0.001667889    1.316    0.240
        70 -10.3896    164.5030    213.4953   9.0909894313e+01   5.8968868052e+00    0.2715279    0.1364964 -47.00  0.001228769    2.228    0.551
