#   1 NUMBER                 Running object number                                     
#   2 MAG_AUTO               Kron-like elliptical aperture magnitude                    [mag]
#   3 X_IMAGE                Object position along x                                    [pixel]
#   4 Y_IMAGE                Object position along y                                    [pixel]
#   5 X_WORLD                Barycenter position along world x axis                     [deg]
#   6 Y_WORLD                Barycenter position along world y axis                     [deg]
#   7 A_WORLD                Profile RMS along major axis (world units)                 [deg]
#   8 B_WORLD                Profile RMS along minor axis (world units)                 [deg]
#   9 THETA_WORLD            Position angle (CCW/world-x)                               [deg]
#  10 FWHM_WORLD             FWHM assuming a gaussian core                              [deg]
#  11 ELONGATION             A_IMAGE/B_IMAGE                                           
#  12 ELLIPTICITY            1 - B_IMAGE/A_IMAGE                                       
         1  -7.8557     83.4126     11.2105   6.4234604468e+01   6.1750138253e+01    0.1698774    0.1142244 -32.86 0.0004789326    1.611    0.379
         2  -8.5192     55.8242     10.1768   7.3458207360e+01   6.6835893674e+01    0.1728503     0.155024 -10.45 0.0006296849    1.265    0.209
         3  -8.7077     90.7101      9.1354   6.1147146030e+01   6.0475293914e+01    0.1947442    0.1552549 -35.47  0.000739887    1.454    0.312
         4  -7.9366    101.5042      8.4358   5.7962191245e+01   5.8219135728e+01    0.1308129    0.1181621  33.61 0.0002660313    1.065    0.061
         5  -8.4819     33.1973      5.2437   8.0901143860e+01   7.0683205430e+01    0.1932575    0.1415696 -47.82  0.001012872    2.055    0.513
         6  -8.4993     79.1174      3.9274   6.2171429660e+01   6.3341050124e+01    0.2889332    0.1505543 -32.86  0.001064856    2.078    0.519
         7  -7.8500     44.7005      3.3194   7.4567991500e+01   6.9359880133e+01    0.1028599   0.09228648 -37.35 0.0003082814    1.620    0.383
         8  -7.7080    115.3063      2.6201   5.2403810766e+01   5.5586466275e+01    0.1335822   0.09798923 -59.47  0.000702534    1.784    0.440
         9  -8.4322     62.4830      1.5956   6.6571068442e+01   6.6673997237e+01     0.168341     0.146079  63.34  0.001099432    1.652    0.395
        10  -7.4344     39.2786      1.6513   7.6094346077e+01   7.0330573694e+01    0.1030405   0.08827502 -36.68 0.0006842681    1.640    0.390
        11  -9.1943    210.9509    246.8685   9.4986959170e+01  -5.7838125514e+00    0.2192216    0.1653763 -41.61 0.0007909387    1.783    0.439
        12  -8.5782    248.8376    249.6290   8.8939565733e+01  -1.1497073351e+01    0.2554891    0.1476099  -8.17  0.001607339    1.790    0.441
        13  -8.1148    182.9971    250.5158   1.0048447032e+02  -1.9476505849e+00    0.1862134    0.0932983  38.79 0.0005157821    1.566    0.362
        14  -8.4072     93.8056    249.3356   1.1647576845e+02   1.1948002957e+01    0.1893289    0.1315125  76.30  0.001268695    1.416    0.294
        15  -9.0391    147.2886    246.2847   1.0644094192e+02   4.2875472967e+00     0.304907    0.2012767  80.15  0.001428508    2.476    0.596
        16  -8.7609    146.6306    240.5398   1.0585107913e+02   5.2651565829e+00     0.308708    0.1955194  72.16   0.00122835    2.400    0.583
        17 -10.0114    223.9285    244.0187   9.2285952128e+01  -7.3795948557e+00    0.4325253    0.2196933 -43.51  0.002352783    2.782    0.641
        18  -9.2329    120.0715    245.3317   1.1133790706e+02   8.6982193798e+00    0.3301949    0.2021499  84.16  0.001587285    2.393    0.582
        19  -8.7185     67.6290    245.5033   1.2075860274e+02   1.6199119148e+01    0.1680378   0.09694844 -75.86  0.001048468    1.818    0.450
        20  -8.4957     50.5214    245.9813   1.2372235938e+02   1.8289540462e+01    0.1551249   0.06834628  75.60 0.0007025161    2.481    0.597
        21  -9.3710     78.4415    243.7290   1.1871807018e+02   1.5052640987e+01    0.3887704    0.1614354  66.40  0.001746133    3.139    0.681
        22  -9.4232    248.5329    242.0401   8.7787097836e+01  -1.0658132350e+01    0.2806235    0.1852913 -30.98  0.001400785    1.753    0.429
        23  -9.0013    201.8675    243.5838   9.6112105694e+01  -3.9916375140e+00    0.2153965    0.1626675 -42.57 0.0008599038    1.735    0.423
        24  -8.5084    194.7854    243.4489   9.7365741798e+01  -2.8709179643e+00    0.2362905    0.1489859  19.15  0.000947681    1.645    0.392
        25  -8.7486    194.0665    239.8158   9.6962797089e+01  -2.2807130102e+00     0.172427    0.1686456 -24.12 0.0005887277    1.359    0.264
        26  -9.3179    169.2324    242.9224   1.0196022643e+02   1.2669158991e+00    0.2764738    0.1947514 -29.85  0.001024106    1.817    0.450
        27  -8.7723      9.4936    243.5076   1.3026438741e+02   2.3285477736e+01    0.2236695    0.0592484  82.78 0.0008103061    5.842    0.829
        28  -8.6846    214.0175    241.8158   9.3683380256e+01  -5.6356948224e+00     0.256618    0.1442337 -14.81  0.001382265    2.355    0.575
        29  -8.5864    178.3258    242.6408   1.0024788736e+02  -1.5281349976e-01    0.2341951    0.1507661  13.45  0.001101953    1.989    0.497
        30  -9.6065    160.2744    240.5460   1.0330305341e+02   3.0582265261e+00    0.3353017    0.2355613  88.85   0.00158538    2.480    0.597
        31  -9.0761    183.1705    240.3261   9.9030518805e+01  -6.1035368489e-01    0.3658604    0.2414598  66.45  0.001569362    2.604    0.616
        32  -8.5511     63.2331    248.6100   1.2174428547e+02   1.6236908575e+01    0.1463777   0.09139565  38.63 0.0009498107    1.643    0.391
        33  -8.1089     88.4234    242.0675   1.1678539192e+02   1.3943528404e+01    0.1553888    0.1064552 -76.44   0.00047771    1.589    0.371
        34  -8.8681    241.5190    237.7726   8.8275723909e+01  -9.2104137099e+00    0.4698043     0.193322 -17.19  0.001952568    4.034    0.752
        35  -7.8190    112.3001    240.6577   1.1227171067e+02   1.0655418993e+01    0.1236839   0.07712995  66.28 0.0007036692    1.673    0.402
        36  -8.1917    209.0054    238.8974   9.4127042606e+01  -4.5049453109e+00    0.1625608    0.1392221  58.04 0.0005450751    1.647    0.393
        37  -9.1807    135.5054    239.0726   1.0775636355e+02   7.2821546339e+00    0.2039624    0.1406862  57.68 0.0009302016    1.373    0.271
        38  -8.1794    129.4668    238.9713   1.0887856904e+02   8.2599557591e+00    0.1560554   0.09842638  84.46 0.0008083678    2.437    0.590
        39  -8.1316     40.6904    239.3271   1.2496353134e+02   2.0644541778e+01    0.1178542   0.05862214  65.76 0.0007039611    1.659    0.397
        40  -8.9106    230.6693    237.1813   9.0039794677e+01  -7.5725814211e+00    0.2024135    0.1932341 -57.52  0.000926333    1.750    0.428
        41  -8.7094    217.3150    236.2942   9.2240266412e+01  -5.4588915597e+00    0.2245215     0.136497  31.82 0.0006218241    1.340    0.254
        42  -9.5596    213.7689    231.8988   9.2174296492e+01  -4.3545022939e+00    0.3367444    0.2712526  88.17  0.001598292    2.632    0.620
        43  -8.3219     25.7889    237.1776   1.2733955686e+02   2.2712549004e+01    0.2005539   0.06575501  64.50 0.0009594295    2.903    0.656
        44  -9.3708    203.2947    234.9438   9.4546731567e+01  -3.1004921514e+00    0.2768055    0.1973341 -55.27  0.001292413    2.204    0.546
        45  -9.4618    186.5807    230.8839   9.7004794115e+01   1.5851543334e-01     0.305246    0.2366138 -89.92  0.001300802    2.321    0.569
        46  -9.7182    175.6596    233.3851   9.9424484494e+01   1.5964409160e+00    0.4083745    0.2552375 -60.73  0.002184669    2.512    0.602
        47  -8.4868    139.4337    244.2299   1.0764280414e+02   5.8459531532e+00    0.1498048    0.1126101 -82.29 0.0007887585    1.760    0.432
        48  -9.3179    109.0625    234.6481   1.1223406257e+02   1.2173234272e+01    0.4432224    0.1904186  54.69  0.001428313    2.257    0.557
        49  -9.3212     78.8848    234.7140   1.1786425191e+02   1.6582389648e+01    0.2740976    0.1454908  72.26 0.0009764946    2.062    0.515
        50  -9.0329    247.9123    234.5841   8.6674415993e+01  -9.7548669671e+00    0.2271188    0.1569458 -24.28 0.0008724225    1.506    0.336
        51  -9.3354    246.4377    229.0195   8.5992887490e+01  -8.9124781335e+00    0.3718858    0.1972405 -22.93  0.002137836    1.919    0.479
        52  -8.4883     99.6936    234.6413   1.1399587916e+02   1.3592540120e+01    0.2453805    0.1335854  66.23  0.001080752    2.022    0.506
        53 -10.0469      8.2615    234.5025   1.3007297067e+02   2.5006031683e+01    0.2257605    0.1107458 -72.42  0.001495738    1.982    0.495
        54  -9.4771     68.0696    231.7944   1.1959379228e+02   1.8587004909e+01    0.4695378    0.2342024  81.78  0.002437619    2.387    0.581
        55  -9.0260    236.2963    231.1011   8.8074159217e+01  -7.6827959610e+00    0.2317546    0.2045857 -46.19  0.001623822    1.787    0.440
        56  -8.4710    194.3562    232.8969   9.5867786127e+01  -1.3928177654e+00     0.159824    0.1429457  12.34 0.0006431807    1.145    0.127
        57  -7.8537    145.3259    233.6482   1.0521544117e+02   6.5609911462e+00    0.1897377    0.1031838  52.08 0.0008002636    1.730    0.422
        58  -8.7480    140.3115    230.3655   1.0575018886e+02   7.9185216834e+00    0.3931735    0.1725991  55.00  0.001695021    2.647    0.622
        59  -8.6474    132.7700    232.9583   1.0752779576e+02   8.7191416117e+00    0.1963393     0.129593  75.54  0.001068515    2.023    0.506
        60  -8.4277    158.0223    232.0671   1.0257948959e+02   4.7159189479e+00    0.1905247    0.1387631  67.04 0.0005382234    1.711    0.416
        61  -8.2585     92.2768    231.9541   1.1511797228e+02   1.5167401016e+01    0.2656666    0.1068559  57.97  0.001174403    2.673    0.626
        62  -8.9287      1.9294    231.0015   1.3094125238e+02   2.6248411648e+01    0.2181512   0.09794387  65.88 0.0009952285    1.659    0.397
        63 -10.0030    149.7449    226.2870   1.0337529511e+02   7.0223683033e+00    0.5869262    0.3536909 -87.13  0.002405682    4.027    0.752
        64  -8.1087    229.7753    228.9911   8.8857850319e+01  -6.4538312412e+00    0.1570175    0.1401618 -60.63  0.001055076    1.909    0.476
        65  -8.9013    162.1721    227.8987   1.0119728464e+02   4.6750276331e+00    0.2669857    0.2044973  73.90  0.001023726    1.750    0.429
        66  -9.0388    127.8199    227.2938   1.0777868616e+02   1.0481415679e+01    0.3015048    0.1891695  67.97   0.00120083    1.922    0.480
        67  -8.3535    120.1715    227.7937   1.0932633907e+02   1.1627499444e+01     0.214927    0.1381628 -82.38 0.0008442062    2.065    0.516
        68  -8.2885    122.8332    234.0993   1.0956164561e+02   1.0119120898e+01    0.1949632    0.1379718  64.25 0.0006700589    1.394    0.283
        69  -7.9840    223.4887    227.4935   8.9718748772e+01  -5.3046335126e+00    0.1834363    0.1135743 -30.02 0.0006714115    1.742    0.426
        70  -9.2182    225.3427    222.1196   8.8486581467e+01  -4.9041936427e+00    0.2831344    0.2215728  -3.13  0.001115348    1.192    0.161
        71  -8.7732    205.9795    226.4144   9.2705510580e+01  -2.3885900091e+00    0.1982607    0.1751276 -55.73 0.0006720145    1.631    0.387
        72  -8.3890     49.2620    227.0822   1.2264200710e+02   2.1870812562e+01    0.2377095   0.09934506  59.58  0.001239185    2.112    0.526
        73  -7.7471    197.3251    236.3048   9.5842541419e+01  -2.3316501513e+00    0.1241299   0.08183355  14.32 0.0004008668    1.644    0.392
        74  -8.7602    180.6086    224.3500   9.7131622254e+01   2.1117994415e+00     0.235541    0.1854363  65.96 0.0006160117    1.680    0.405
        75  -9.0858    104.5958    223.5809   1.1186900687e+02   1.4834707624e+01    0.3364481    0.2105096  89.49  0.001690173    1.993    0.498
        76  -8.8829     94.0906    224.1083   1.1396997601e+02   1.6333212204e+01    0.3534624    0.1622103  62.31  0.001601302    2.560    0.609
        77  -8.6128    216.3952    223.5510   9.0335104716e+01  -3.6778051688e+00    0.2196577    0.2076751  81.39  0.001042631    1.634    0.388
        78  -8.5803    173.0020    223.3054   9.8430772367e+01   3.5606071938e+00    0.2076021    0.1740976  83.88 0.0007213822    1.652    0.394
        79  -7.9641    113.9829    224.2222   1.1010662648e+02   1.3247516823e+01    0.1770852    0.1229377  76.27 0.0008080081    1.605    0.377
        80  -8.1865     59.7825    224.0164   1.2047959911e+02   2.1130708209e+01    0.1943891    0.1001339  72.21 0.0006640808    1.954    0.488
        81  -8.0184     38.2369    224.3367   1.2442906812e+02   2.3700380904e+01    0.1660466   0.07414906  89.36 0.0007078224    2.255    0.557
        82  -9.2890    192.4443    221.4107   9.4417729034e+01   5.5320383354e-01    0.2816989    0.2368103 -85.93  0.001097885    1.892    0.471
        83  -8.4413    140.1098    222.9922   1.0481024837e+02   9.1916674673e+00     0.198562    0.1399188  69.16 0.0008785849    1.683    0.406
        84  -9.0158    238.8979    221.6733   8.6028949059e+01  -6.9276666230e+00    0.2094253    0.1983806  14.55 0.0009454974    1.452    0.311
        85  -9.2092    160.0897    221.1004   1.0061119344e+02   6.1173714893e+00    0.4632699    0.2190565  56.93   0.00188557    2.996    0.666
        86  -9.4505    120.5652    219.5335   1.0823100982e+02   1.3038002594e+01    0.4688113    0.2420431  66.19  0.002015055    2.851    0.649
        87  -8.8165     82.8099    220.7207   1.1580711589e+02   1.8622516578e+01     0.281377    0.1623677  69.08  0.001491377    1.763    0.433
        88  -8.3068     27.5004    221.0826   1.2612919309e+02   2.5521380133e+01    0.1628797   0.08944023 -81.75  0.001036186    1.601    0.375
        89  -8.1812    202.6670    220.2059   9.2300868885e+01  -9.8193290323e-01    0.1665261    0.1605491 -50.76 0.0006085237    1.402    0.287
        90  -8.1465    210.0923    219.2963   9.0772389995e+01  -2.0798946664e+00    0.1704254     0.144481  25.11 0.0005450664    1.094    0.086
        91  -8.1842    183.7951    219.3816   9.5739932670e+01   2.3233963792e+00    0.1840237    0.1042425  32.29 0.0005869161    1.615    0.381
        92  -8.4394    248.5042    218.0290   8.3747486630e+01  -7.9089557816e+00    0.3059975    0.1560905  52.01   0.00137726    3.489    0.713
        93  -9.3801    132.9719    216.1855   1.0530330960e+02   1.1586186081e+01    0.4788371    0.2865576  77.53  0.002115205    2.857    0.650
        94  -8.6347     62.2408    217.6819   1.1948234558e+02   2.2033594238e+01    0.3253265    0.1461827  63.77  0.001591951    2.286    0.563
        95  -8.8014     51.5690    217.3101   1.2147337098e+02   2.3464811754e+01    0.2857358      0.15785  73.22  0.001046797    1.679    0.404
        96  -8.0891    179.2978    217.6395   9.6329529769e+01   3.3644041345e+00    0.1232604   0.09922305  72.17 0.0006419032    1.711    0.416
        97  -8.7732    169.4429    216.2299   9.8031698338e+01   5.2961250316e+00    0.2666691    0.2059078 -86.62  0.000911629    1.984    0.496
        98  -8.8128    142.9264    216.4829   1.0334425794e+02   9.8419040299e+00    0.2880519      0.19742 -89.22  0.001379354    2.212    0.548
        99  -8.2637    111.8161    217.0260   1.0966700195e+02   1.4913134140e+01    0.2082054    0.1305582  76.67 0.0007816874    1.996    0.499
       100  -8.2108     18.5161    216.0241   1.2741991119e+02   2.7439994540e+01    0.1631075   0.08655532 -83.85  0.001032797    1.591    0.371
       101  -8.4228    232.3013    214.8066   8.5984427318e+01  -5.0425730050e+00    0.1969078    0.1871847 -41.14 0.0008565668    1.545    0.353
       102  -8.2424    185.7011    214.3951   9.4562756216e+01   2.7625829249e+00     0.198857    0.1616255 -57.23 0.0006796381    1.620    0.383
       103  -8.1143    154.3976    215.1737   1.0085474592e+02   8.0896118757e+00    0.1654196    0.1250195 -69.74 0.0006535667    1.721    0.419
       104  -7.7600     41.0000    214.9755   1.2327194000e+02   2.5193607512e+01    0.1756146   0.05656381 -73.43 0.0007986483    2.916    0.657
       105  -9.4756    214.0387    212.2438   8.8833132295e+01  -1.7425242686e+00    0.3420913    0.2773472  57.28  0.001521946    1.679    0.404
       106  -8.8923     92.8252    213.9131   1.1311091702e+02   1.8460967855e+01     0.276423     0.155666  64.74  0.001045564    1.851    0.460
       107  -9.5066     73.7090    212.3981   1.1676115472e+02   2.1528636828e+01    0.6282598    0.2082972  57.88  0.002298682    3.849    0.740
       108  -7.9230    224.8834    212.7633   8.6947114468e+01  -3.5907832731e+00    0.1534652    0.1430709  25.09  0.001043217    1.320    0.242
       109  -8.8515    161.6783    212.5134   9.8990998524e+01   7.2698180871e+00     0.236872    0.1850033  78.72 0.0007371681    1.727    0.421
       110  -8.1759    106.5499    212.8021   1.1021069972e+02   1.6552019261e+01    0.1687371    0.1152194 -85.38 0.0009200994    1.678    0.404
       111  -8.9791    204.1869    210.8843   9.0434107750e+01   1.1293854377e-01    0.2418114    0.2035451 -53.94 0.0007021289    1.616    0.381
       112  -9.4464    175.3261    210.0173   9.5872805530e+01   5.2780301768e+00    0.3848446     0.262808  72.43  0.001403786    2.484    0.597
       113  -8.9140    148.0715    210.7692   1.0146744670e+02   9.9589915191e+00    0.3147417    0.2166171  78.31  0.001230052    2.142    0.533
       114  -8.2416    192.3541    210.5140   9.2627036660e+01   2.2079422515e+00    0.1950373    0.1588459 -66.95  0.000733328    1.805    0.446
       115  -9.0605    116.3665    210.5436   1.0792085138e+02   1.5398979072e+01    0.3364527    0.1988462  68.56  0.001175235    2.109    0.526
       116  -8.2975     32.6657    210.7057   1.2451910934e+02   2.6986629565e+01    0.2395193    0.1016413  78.77  0.000886881    2.526    0.604
       117  -9.8846      6.1447    208.0264   1.2917592062e+02   3.0203467493e+01    0.5215082    0.1495206  86.65  0.002083509    4.165    0.760
       118  -9.0682    236.6671    208.5320   8.4092828645e+01  -4.9028126792e+00    0.2624218    0.2435412 -70.28  0.001430527    1.786    0.440
       119  -8.8200     85.6806    209.5099   1.1406171742e+02   2.0391859259e+01    0.3259903    0.1870894  76.72  0.001386309    2.041    0.510
       120  -8.2959     46.6632    209.6868   1.2179618718e+02   2.5577314232e+01    0.2411395    0.1103675  80.07  0.001086799    2.472    0.596
       121  -8.3026    126.3354    208.4428   1.0558466763e+02   1.4134304617e+01    0.2110558    0.1505022 -89.29 0.0007581289    1.760    0.432
       122  -9.2773    246.3796    207.3627   8.2195484508e+01  -6.2577409497e+00    0.2517184    0.1907179 -22.07 0.0006400211    1.297    0.229
       123  -8.5057    139.2121    207.9767   1.0286230918e+02   1.2008971369e+01     0.252719    0.1811448  74.75  0.001038113    1.748    0.428
       124  -9.3459     99.3897    206.2465   1.1087317284e+02   1.8961777357e+01    0.3555963    0.2149923  80.16   0.00125066    2.077    0.519
       125  -8.2312    157.0413    207.3288   9.9111138484e+01   8.9836011624e+00    0.2006895    0.1517437  39.62  0.001142478    1.162    0.139
       126  -8.5317     56.3081    205.4518   1.1955236735e+02   2.5245737559e+01    0.2709682    0.1381809  66.68   0.00111459    1.932    0.482
       127  -8.3682     11.6693    206.7147   1.2811911520e+02   2.9944280841e+01   0.09396192    0.0776938 -63.42 0.0007010651    1.615    0.381
       128  -9.0418    183.8929    204.1635   9.3188986505e+01   4.7113027917e+00     0.312006     0.190662  58.04 0.0009447974    2.164    0.538
       129  -8.6291    131.4113    204.2521   1.0393064769e+02   1.4058834549e+01    0.2925324     0.167954  66.50 0.0009949334    2.422    0.587
       130  -7.8565    109.0099    205.3210   1.0875750496e+02   1.7612785233e+01    0.1859314    0.1489139  58.15 0.0004987077    1.081    0.075
       131  -9.3687    194.8822    203.5595   9.0929872924e+01   2.8494356300e+00    0.3370719    0.2627403 -31.76   0.00129894    1.390    0.280
       132  -9.2507    192.3937    197.4084   9.0313288409e+01   4.2832390586e+00    0.3252814    0.2635736 -54.47 0.0008533823    1.561    0.359
       133  -7.8594    176.6430    204.6743   9.4717957371e+01   5.9277715392e+00    0.1395536   0.09864242  10.14 0.0007044895    1.775    0.437
       134  -9.7903    163.8072    203.0223   9.7033829820e+01   8.5257108263e+00    0.3921488    0.2835672  62.68  0.001170233    1.648    0.393
       135  -9.3829    243.0389    200.7303   8.1544298706e+01  -4.8681200051e+00    0.3397849    0.1822279 -31.28  0.001068773    1.831    0.454
       136  -9.4876    250.0798    201.9632   8.0567888183e+01  -6.1258817832e+00    0.3643569    0.1684557 -32.97  0.001273896    2.114    0.527
       137 -10.0951    246.5787    195.4676   7.9940845025e+01  -4.7191162651e+00    0.4183189    0.2676493 -46.11  0.002255916    2.146    0.534
       138  -7.7077     66.6740    203.3336   1.1726942104e+02   2.4325446434e+01    0.1343987   0.07682442  68.48 0.0007051356    1.714    0.417
       139  -8.4113    210.9491    202.1097   8.7599070844e+01   2.5761884318e-01    0.1842921     0.172246  44.18 0.0005185733    1.313    0.239
       140  -8.9991    140.4387    201.1924   1.0157938053e+02   1.3055487056e+01    0.3417218    0.2354297  83.50  0.001279099    2.105    0.525
       141  -8.8612     80.1752    201.3227   1.1428101951e+02   2.2856157678e+01    0.3232221    0.1721456  71.06  0.001528669    2.230    0.552
       142  -7.6674     72.7264    202.3430   1.1593133604e+02   2.3701704270e+01    0.1308837   0.08014032  72.17 0.0004913232    1.618    0.382
       143  -8.4251     48.3919    201.8448   1.2080584038e+02   2.6970051543e+01    0.2152696    0.1011166 -79.56 0.0008091219    2.045    0.511
       144  -9.2731    237.0177    198.5760   8.2191879176e+01  -3.6110063125e+00    0.3282458    0.1745184 -38.83  0.001323473    2.043    0.511
       145  -8.7353    177.1495    199.3029   9.3690963588e+01   6.7434528420e+00    0.2420635    0.1916145  66.03 0.0006246467    1.587    0.370
       146  -9.4588    149.6171    198.7074   9.9260226902e+01   1.1874938733e+01    0.4193763    0.2798315  78.68   0.00168073    2.396    0.583
       147  -9.1425    123.9391    199.0947   1.0474865032e+02   1.6346082914e+01     0.371926    0.2176602 -75.98   0.00127842    2.433    0.589
       148  -9.6335    112.8185    198.4609   1.0702750872e+02   1.8354514993e+01    0.4296784    0.2485676  69.34  0.001558488    2.269    0.559
       149  -9.1897     88.7222    198.5911   1.1216996189e+02   2.2158453681e+01    0.3376894    0.2004534  81.34  0.001589825    2.039    0.510
       150  -8.1926    100.7857    199.2078   1.0969047803e+02   2.0161224923e+01    0.2012146    0.1012532  30.88 0.0008695693    2.474    0.596
       151  -8.2032    202.4112    198.2465   8.8516356573e+01   2.3484952550e+00    0.2097222    0.1609137  58.70 0.0006698134    1.684    0.406
       152  -9.2861     61.6485    196.9983   1.1766440450e+02   2.6313699443e+01    0.4382484    0.2119783  66.94  0.001449012    2.289    0.563
       153  -8.6466     12.6685    197.8467   1.2742264985e+02   3.1637103574e+01    0.2509955    0.0915099  76.18  0.001141141    2.949    0.661
       154  -8.8585    216.0397    195.6836   8.5454764026e+01   3.4123428260e-01    0.3109109    0.2036355 -55.30  0.001091071    2.391    0.582
       155  -8.2659     53.7168    196.8849   1.1928520561e+02   2.7351915562e+01    0.2765118    0.1231317  80.24  0.001159947    3.052    0.672
       156  -7.7571     29.3395    197.6768   1.2422411449e+02   3.0000889821e+01    0.1272634   0.06554242  67.07 0.0005195399    1.722    0.419
       157  -8.2001    133.0424    196.0827   1.0235191091e+02   1.5348359081e+01    0.2138612    0.1539679  75.51  0.000595881    1.694    0.410
       158  -8.7635    224.7160    194.2495   8.3580336097e+01  -9.4302695058e-01     0.278096    0.1626829 -47.77  0.001160811    2.286    0.563
       159  -7.5485    209.2897    195.6739   8.6724315257e+01   1.5285025382e+00    0.1195243    0.1081236  85.25 0.0006294858    1.614    0.380
       160  -8.8525    185.2512    194.8298   9.1263504869e+01   6.0175502342e+00    0.2256245    0.2030109 -82.08 0.0007329354    1.461    0.316
       161  -9.1589    161.0710    194.4992   9.6157862228e+01   1.0553462864e+01    0.2981016    0.2128197  65.25 0.0009742936    1.739    0.425
       162  -9.0279     43.9049    193.5879   1.2098958137e+02   2.9235615626e+01     0.398168    0.1775157  67.83  0.001871354    2.451    0.592
       163  -8.0579    230.8714    194.1538   8.2447089772e+01  -1.9722569065e+00    0.1805455    0.1696735  -0.42 0.0006158269    1.252    0.201
       164  -8.8666     77.1522    193.8845   1.1406900207e+02   2.4848766575e+01    0.2612664    0.1771157  68.79 0.0005947981    1.384    0.278
       165  -7.8457    241.4196    192.2125   8.0208736998e+01  -3.4426921360e+00    0.1592579    0.1139773 -36.33 0.0003127568    1.526    0.345
       166  -8.3143    199.0490    191.8729   8.7984093041e+01   3.9756340419e+00    0.1909162    0.1801224  64.02 0.0005586491    1.321    0.243
       167  -8.0913    179.0567    191.9242   9.1986665192e+01   7.6660521005e+00    0.2035806    0.1669985  80.62  0.000568988    1.689    0.408
       168  -8.4424    172.3043    191.7822   9.3345956365e+01   8.9533086124e+00    0.2499155     0.210537  87.68 0.0009978466    1.572    0.364
       169  -9.4523    139.5944    190.8833   1.0011148248e+02   1.5191594501e+01    0.3654898    0.2518773  79.17  0.001144873    2.038    0.509
       170  -7.6578    205.2563    191.6621   8.6740097881e+01   2.8812656051e+00    0.1202803    0.1086555 -80.57 0.0002517668    1.575    0.365
       171 -10.4640     92.3686    188.8653   1.1014820849e+02   2.3648205254e+01    0.9447975    0.2691356  50.52  0.003112247    3.882    0.742
       172  -9.1085    216.4995    188.4743   8.3991418947e+01   1.3646427325e+00    0.3001964    0.2315257 -26.50 0.0009920668    1.299    0.230
       173  -8.6840    148.5487    189.3231   9.7920350021e+01   1.3850104974e+01    0.2834543    0.2091029  85.52    0.0009903    1.877    0.467
       174  -8.9995    129.3147    188.8175   1.0201099203e+02   1.7457935007e+01    0.3190779    0.2207356  84.77 0.0008516426    1.947    0.486
       175  -8.1328      6.3499    190.6806   1.2819041327e+02   3.3688127360e+01    0.1222576    0.0593464  66.39   0.00068235    1.739    0.425
       176  -8.3201    237.1812    188.5216   8.0236305117e+01  -2.2192428864e+00    0.2336667    0.1611849 -27.50 0.0006236556    1.395    0.283
       177  -9.3988    156.0668    187.5401   9.5998938704e+01   1.2787656241e+01    0.3495848    0.2393323 -61.88 0.0009562986    1.795    0.443
       178  -9.8321    120.8838    186.8707   1.0355792845e+02   1.9347745937e+01    0.5228406    0.2895076 -74.95  0.002173617    2.672    0.626
       179  -8.7526     34.4833    188.4725   1.2247691280e+02   3.1390781001e+01    0.2781278    0.1233766  66.56 0.0009428016    2.329    0.571
       180  -8.1817    243.4501    184.4747   7.8346323807e+01  -2.6832199109e+00    0.2049095    0.1595531 -28.94 0.0008344189    1.293    0.226
       181  -8.9741    240.6106    180.7840   7.8105306860e+01  -1.6738790305e+00    0.3058224    0.1497018 -41.13  0.001418113    2.215    0.548
       182  -8.7828    191.5509    187.3851   8.8616927389e+01   6.1117354624e+00    0.2725775     0.217329 -86.03  0.001202763    1.995    0.499
       183  -9.3064    109.7141    186.4076   1.0596483782e+02   2.1362474744e+01    0.4015027    0.2526018  76.47  0.001514168    2.070    0.517
       184  -9.2608     54.7268    186.8164   1.1808670727e+02   2.9382966451e+01    0.4439479    0.2197663  76.08  0.001758154    2.399    0.583
       185  -8.1173    230.2619    187.2431   8.1220501626e+01  -8.5852361104e-01    0.1609804    0.1573621 -34.45 0.0009699223    1.371    0.271
       186  -8.8775    164.8237    186.5666   9.3963809839e+01   1.1315923494e+01       0.2846    0.2081631 -59.70 0.0008592706    1.652    0.395
       187  -8.6628    249.2784    185.6953   7.7588616702e+01  -3.8090793258e+00    0.2219883     0.203986 -55.20 0.0008326232    1.624    0.384
       188  -8.8751    182.9394    184.8388   8.9873791844e+01   8.1809737898e+00    0.2802895    0.1995896 -49.26  0.000741166    1.605    0.377
       189  -8.6748     21.9805    192.0037   1.2525523050e+02   3.1944359973e+01    0.2656508   0.09367093  49.37  0.001331793    2.406    0.584
       190  -9.3947    210.3557    183.7180   8.4225182066e+01   3.2287860800e+00    0.3910395    0.2082744 -27.42  0.001152667    2.111    0.526
       191  -9.1410     66.6767    184.4585   1.1524490678e+02   2.8343765902e+01    0.3552596    0.1953982  71.69  0.001023548    2.034    0.508
       192  -8.4281    224.1444    183.9097   8.1677413687e+01   7.1182316743e-01     0.184501    0.1787393  -6.01 0.0004371203    1.259    0.206
       193  -8.6933    197.2662    183.4265   8.6716425821e+01   5.7113010476e+00    0.2248253    0.1683044 -59.06 0.0008850603    1.815    0.449
       194  -9.0338    174.2665    183.3949   9.1392301279e+01   1.0099290698e+01    0.3270784    0.2383755 -60.71 0.0009099951    1.744    0.427
       195  -8.3211      1.7271    183.9200   1.2868415239e+02   3.5491279673e+01    0.1598781    0.1105097  79.26  0.001021801    1.069    0.064
       196  -8.9218     44.2778    182.3609   1.1987849356e+02   3.1617182626e+01    0.3173849    0.1681601  81.14  0.001035571    1.945    0.486
       197  -8.4145     20.3425    183.6625   1.2498077475e+02   3.3875557225e+01    0.1284826   0.06565813  67.91 0.0007049839    1.768    0.434
       198  -9.4880    147.5988    180.6878   9.6610828610e+01   1.5725074520e+01    0.3776872    0.2865618 -81.97  0.001130594    1.717    0.418
       199  -8.1124     83.3730    182.2303   1.1126642701e+02   2.6458799782e+01    0.1832516    0.1158009 -80.64 0.0005601765    1.653    0.395
       200  -8.1994    235.3735    181.2623   7.9122185227e+01  -8.4970173766e-01    0.1766277    0.1161148 -39.33 0.0005571035    1.630    0.386
       201  -8.0548     90.9845    181.5340   1.0945947463e+02   2.5450991254e+01    0.2002707    0.1262261  39.41  0.001022456    1.588    0.370
       202  -8.7030     26.7868    181.1533   1.2346356732e+02   3.3779633530e+01    0.2723055    0.1200538  56.34  0.001407068    2.105    0.525
       203  -8.8686     24.3267    176.9839   1.2363962841e+02   3.4934871000e+01    0.3416087    0.1377575  82.70  0.001483217    2.895    0.655
       204  -8.5918    137.5793    179.3462   9.8591579681e+01   1.7882211585e+01    0.2897451    0.2075375  84.06 0.0008770483    1.892    0.471
       205  -8.9867    205.0295    177.6695   8.4048824100e+01   5.2182682001e+00     0.287464    0.1864597 -45.55 0.0008639363    1.734    0.423
       206  -9.2743    191.3820    178.3925   8.6903213636e+01   7.7017077475e+00    0.2610287    0.2365169  68.11 0.0002296134    1.340    0.254
       207  -8.8758    129.2399    177.5506   1.0015353366e+02   1.9797959333e+01    0.3879202    0.2376033 -77.04  0.001272806    2.399    0.583
       208  -9.1074     35.8900    176.7299   1.2115021099e+02   3.3798812532e+01    0.5023436    0.1928084  80.61  0.001765395    4.351    0.770
       209  -9.4978    248.4278    176.6445   7.5928519297e+01  -2.3861109457e+00    0.4117751     0.248092 -46.67  0.002066256    2.149    0.535
       210  -8.6182    250.5153    172.9199   7.4820137373e+01  -2.1957329805e+00    0.1875401    0.1623252 -18.56 0.0004904465    1.155    0.134
       211  -8.4204    217.6112    177.4307   8.1593079287e+01   2.9093198610e+00    0.2400175    0.2013067 -61.61  0.000738553    1.667    0.400
       212  -7.9959    169.0585    178.5140   9.1560948970e+01   1.2014875072e+01    0.2157895    0.1326002  44.57  0.000494942    1.530    0.346
       213  -8.3804     97.4740    177.8146   1.0744894983e+02   2.5239382830e+01    0.2524453    0.1847306  20.08 0.0008432076    1.892    0.471
       214  -8.4601    231.0895    176.9467   7.9017479402e+01   5.5082474497e-01     0.224237    0.1631749 -45.29 0.0006793952    1.637    0.389
       215  -8.3826    202.9087    184.9083   8.5896596708e+01   4.4086970686e+00    0.1974675     0.171499  83.97 0.0006709368    1.664    0.399
       216  -9.4387    183.2420    175.5036   8.7993680139e+01   9.8018705746e+00    0.4607095    0.2559589 -36.48 0.0007785706    1.938    0.484
       217  -8.7573     89.1470    176.8060   1.0921259837e+02   2.6780690321e+01    0.2871302    0.2012005  75.66 0.0008668257    1.491    0.329
       218  -9.9963     57.2909    173.3305   1.1605145997e+02   3.2054053357e+01    0.7977696    0.3432236  81.58  0.002628713    4.628    0.784
       219  -8.7784     12.8292    176.6603   1.2600666405e+02   3.6082080734e+01    0.2349204    0.1072536  74.55   0.00122312    2.090    0.522
       220  -9.3170    158.8890    175.1745   9.3113198403e+01   1.4644517709e+01    0.3902429    0.2693844  77.91  0.001447694    2.279    0.561
       221  -9.4757    104.1584    174.4312   1.0539037175e+02   2.4885729642e+01    0.5217693    0.3395958  83.17   0.00174572    1.963    0.490
       222 -10.7748     75.4726    170.0088   1.1143444888e+02   3.0355332118e+01     1.174247     0.508394 -79.99  0.004201606    3.525    0.716
       223  -8.3957    224.5314    174.6971   7.9750605334e+01   2.0790665475e+00    0.1754684    0.1256701 -42.68 0.0009289879    1.553    0.356
       224  -9.5690    175.9140    172.1279   8.8852548557e+01   1.1874403935e+01    0.3952329    0.2761394 -48.31   0.00107726    1.558    0.358
       225  -9.0119    143.1990    172.8793   9.6161311602e+01   1.8151474914e+01    0.2825655    0.2107367  86.53 0.0008805355    1.783    0.439
       226  -8.9023    134.9818    171.9881   9.7861185836e+01   1.9902369372e+01    0.2955075    0.2143734  78.25  0.001231229    1.764    0.433
       227  -9.6631    121.4652    170.4172   1.0069724748e+02   2.2743549664e+01    0.4424533    0.2981576 -81.44  0.001244385    1.919    0.479
       228  -9.1449     45.0334    171.0388   1.1856837275e+02   3.4053905783e+01    0.3481964    0.1904813  84.85  0.001262447    1.884    0.469
       229  -8.7398    205.6915    170.1224   8.2375473462e+01   6.3744928658e+00    0.2797082    0.1599685 -40.92 0.0007648209    1.806    0.446
       230  -8.2101    237.1551    169.8160   7.6474459174e+01   5.6993168087e-01    0.1876027    0.1767061 -20.65  0.000555076    1.232    0.188
       231  -9.0702    230.2978    169.1849   7.7562312778e+01   1.9004411292e+00    0.4156128     0.186462 -46.52  0.001656533    2.824    0.646
       232  -8.5286    198.4109    170.0755   8.3803264596e+01   7.8004344094e+00    0.2339983    0.2012901  76.35 0.0007687919    1.554    0.356
       233  -9.2838    167.1853    168.6659   9.0027849718e+01   1.4281877737e+01    0.3730903      0.25685  71.10   0.00120954    2.127    0.530
       234  -8.8423    149.8488    169.6178   9.4046823124e+01   1.7532623283e+01    0.3250301    0.2515051 -74.22  0.001157352    1.587    0.370
       235  -8.2431    244.4237    169.2724   7.5101897943e+01  -6.2170023743e-01    0.1750986    0.1163749 -39.13 0.0004900271    1.561    0.359
       236  -8.3893    218.9349    168.4971   7.9503762312e+01   4.1168030456e+00    0.2008465    0.1793748 -13.55 0.0005053857    1.073    0.068
       237  -8.4109     88.7761    168.9432   1.0814773037e+02   2.8607265817e+01    0.2550878    0.1746065 -88.47 0.0008587795    1.589    0.371
       238  -8.0650    211.4440    168.0090   8.0820592844e+01   5.6251146735e+00    0.2111937    0.1333521 -36.57 0.0005640213    1.584    0.369
       239  -8.6558    111.7149    167.4937   1.0247816298e+02   2.5128811255e+01     0.340693    0.2146165  74.45  0.001121137    2.163    0.538
       240  -9.0735    191.7330    166.7359   8.4455586547e+01   9.7201753092e+00    0.2642404     0.239685 -19.43 0.0005954456    1.103    0.093
       241  -8.4063    184.9941    166.7490   8.5846759125e+01   1.1068531704e+01    0.2471868    0.1871403 -58.92 0.0007363478    1.631    0.387
       242  -9.9894     95.1929    163.0147   1.0568194111e+02   2.8939576941e+01    0.8724705    0.4669417  80.54  0.003006073    3.719    0.731
       243  -8.8669     20.4996    166.1781   1.2356244154e+02   3.7692016006e+01    0.3245647    0.1300801  60.16  0.001152702    2.624    0.619
       244  -8.4193    140.6528    166.3212   9.5500346018e+01   2.0014875706e+01    0.2381328    0.1435924  47.82 0.0009053031    1.600    0.375
       245  -9.7270    135.6548    163.9426   9.6199376846e+01   2.1489476139e+01    0.4236367    0.3182405  65.39  0.001021278    1.472    0.321
       246  -8.3499    233.8286    165.0625   7.6066707594e+01   1.9074097041e+00    0.1982358    0.1738002 -39.30 0.0005788414    1.297    0.229
       247  -8.8892    159.4016    164.4918   9.0894380361e+01   1.6677959315e+01    0.2981147    0.2468155  89.77 0.0008634358    1.507    0.337
       248  -9.3834     33.6768    163.6049   1.2037384079e+02   3.6983895733e+01    0.5141545    0.1903826  57.04  0.002154384    3.073    0.675
       249  -8.1864    240.0386    164.2867   7.4815075799e+01   9.0804910638e-01    0.1840888    0.1646839  -5.97 0.0006460808    1.070    0.065
       250  -8.6277    212.9009    163.5985   7.9608310669e+01   6.0926292534e+00    0.2628005    0.1962187 -41.58 0.0007372298    1.410    0.291
       251  -9.3963    233.3966    147.6540   7.2371761154e+01   4.7924544044e+00    0.4507723    0.3416619 -71.88  0.002209963    2.150    0.535
       252  -9.1915    239.7870    153.0446   7.2451213986e+01   2.7159002851e+00    0.3556028    0.2126979 -57.79 0.0009429706    2.923    0.658
       253  -8.9263    245.2940    158.6629   7.2724764722e+01   8.3720203179e-01    0.2312835    0.1741063 -36.36 0.0005033693    1.325    0.245
       254  -9.9024    250.1553    157.8765   7.1745829781e+01   9.8231635203e-02     0.370216    0.1820776 -34.01 0.0008251387    1.847    0.459
       255  -9.6278    246.5573    155.5176   7.1840021356e+01   1.0962765932e+00     0.243725    0.1805837 -25.02 0.0005681592    1.211    0.174
       256  -8.2256    204.9918    163.0238   8.1015951778e+01   7.7441962778e+00    0.2082871    0.1781465 -77.81 0.0005145913    1.627    0.385
       257  -9.1971      3.3302    162.4092   1.2698961434e+02   3.9982963686e+01    0.3519633    0.1472002  58.56  0.001627737    2.297    0.565
       258  -8.9958    151.5386    161.0416   9.1962453587e+01   1.8971268160e+01    0.3441281    0.2476677 -79.33  0.001029865    1.959    0.489
       259  -9.0586    177.4228    160.6270   8.6155118235e+01   1.3770375865e+01    0.2931939    0.2451029 -80.79  0.001096309    1.556    0.357
       260  -8.7264     60.6753    160.3391   1.1364641049e+02   3.4605843262e+01    0.3287587    0.1671061  65.21  0.001298166    2.409    0.585
       261  -8.9360    227.4790    159.2032   7.5953719924e+01   4.0276937926e+00    0.2984645    0.2076754 -55.20   0.00103204    1.961    0.490
       262  -8.4917    128.4625    159.4201   9.7021486298e+01   2.3853696524e+01    0.3242145    0.2126042  79.96 0.0008599836    2.321    0.569
       263  -8.4101    237.1557    159.1961   7.4234129876e+01   2.2253626108e+00    0.1777344     0.160644 -47.45 0.0004842292    1.348    0.258
       264  -9.6623    105.8105    157.6898   1.0218194264e+02   2.8376522567e+01    0.4930789    0.3533465 -72.89 0.0009065247    1.471    0.320
       265  -8.3652    196.8078    158.0907   8.1579116620e+01   1.0272595262e+01    0.2139247    0.2002385 -80.67 0.0007809823    1.299    0.230
       266  -8.3556    188.1758    157.7053   8.3261215270e+01   1.2114077689e+01    0.2525514    0.1942585 -48.95 0.0006566456    1.413    0.292
       267  -9.2323    167.4170    157.2097   8.7598893254e+01   1.6510063869e+01    0.3042114    0.2532666 -82.77 0.0005774247    1.516    0.340
       268  -8.1642     79.2449    158.5933   1.0887122164e+02   3.2442557130e+01    0.1800624    0.1345161  26.05 0.0009501339    1.668    0.401
       269  -8.4696    217.9713    156.4886   7.7113337425e+01   6.3139050005e+00    0.2708432    0.1869087 -50.35 0.0009530272    1.723    0.420
       270  -9.0071    157.7032    156.3700   8.9591367559e+01   1.8687580312e+01    0.2998881    0.2368971  86.79 0.0008199963    1.660    0.398
       271  -9.4406    119.5498    155.3155   9.8377111403e+01   2.6447548197e+01    0.4700024    0.2959814 -79.95  0.001380259    2.281    0.562
       272  -9.5067     81.6684    155.1116   1.0772437278e+02   3.2896447991e+01    0.4738822    0.2643163  67.17  0.001499356    2.348    0.574
       273  -9.4660     49.9278    155.5271   1.1562631936e+02   3.7057230389e+01    0.4287215    0.2102012  64.77  0.001705517    2.490    0.598
       274  -8.7948    144.5597    154.9427   9.2317669176e+01   2.1668811343e+01    0.3080961    0.2362153  82.58 0.0008170645    1.678    0.404
       275  -9.7753    132.8242    153.0096   9.4702810993e+01   2.4426446642e+01    0.4889489    0.3500089  82.35   0.00136993    1.903    0.474
       276  -9.1438    133.6560    148.6686   9.3602060403e+01   2.5224429655e+01    0.3935684    0.2270081 -45.64  0.001428442    1.785    0.440
       277  -9.6609     67.9325    153.9502   1.1097206629e+02   3.5141682196e+01    0.4274668    0.2464083  76.50  0.001150398    2.209    0.547
       278  -8.0608    232.8378    154.0706   7.3882631050e+01   3.8507746528e+00    0.2032597    0.1821602 -43.51 0.0007744508    1.277    0.217
       279  -8.2662    151.8044    152.9927   9.0222320729e+01   2.0608370897e+01    0.2422525    0.1736238 -77.22 0.0009656521    1.947    0.486
       280  -9.4197     20.1303    152.3126   1.2239627999e+02   4.0864781180e+01    0.2379189    0.1192563  76.66 0.0009368925    2.077    0.519
       281  -8.1451    182.4866    151.4744   8.3082994523e+01   1.4490831791e+01    0.2515712    0.1400606 -52.23 0.0008122531    2.120    0.528
       282  -8.7548     98.4174    150.8514   1.0278747712e+02   3.1224337460e+01    0.3228872    0.2217745 -89.60   0.00103845    1.773    0.436
       283  -9.7500     29.4621    150.6977   1.2001714826e+02   4.0376021946e+01    0.5056702    0.2219768  72.06  0.001923374    3.052    0.672
       284  -9.6520    248.8964    149.4672   7.0146297913e+01   1.6120889409e+00    0.3666092    0.1883742 -32.39 0.0009299548    1.760    0.432
       285  -8.7863    247.0560    144.0277   6.9257747573e+01   2.7992365599e+00    0.2574797    0.1695096 -30.13 0.0005191353    1.365    0.267
       286 -10.5489    242.7084    149.8727   7.1263314257e+01   2.6789178342e+00    0.7068629    0.3175011 -34.14  0.003049403    2.044    0.511
       287  -9.3746    240.3669    145.2186   7.0633741538e+01   3.8596145020e+00    0.2536051    0.1715511 -43.84 0.0005995589    1.545    0.353
       288  -9.6716    242.6747    143.3083   6.9822489958e+01   3.7310878729e+00    0.3748016    0.2267558 -19.48  0.001771371    1.766    0.434
       289  -8.9521    189.3941    150.0917   8.1325491139e+01   1.3300594655e+01    0.4305081    0.2305771 -47.71   0.00136938    2.027    0.507
       290  -8.3595    162.4895    150.4804   8.7238074716e+01   1.8909671826e+01    0.2548809    0.1441167 -55.93 0.0006300637    2.114    0.527
       291  -7.9059    204.8172    155.3615   7.9387359326e+01   9.1366424392e+00    0.1936774    0.1747452 -37.97 0.0004735012    1.164    0.141
       292  -8.1387    212.9890    149.7652   7.6564472498e+01   8.4705902565e+00    0.1948412    0.1815719   8.82 0.0004155578    1.039    0.037
       293 -10.0732     89.2638    146.3909   1.0431616995e+02   3.3776262497e+01    0.6958945    0.3809614  88.52  0.002439227    3.450    0.710
       294  -9.8925     39.7024    147.8794   1.1718832225e+02   3.9998312669e+01    0.5604816    0.2566218  66.61  0.002115872    2.928    0.658
       295  -8.3756    198.8838    149.0455   7.9155629408e+01   1.1505311353e+01    0.2196379    0.1990284 -74.07 0.0005967357    1.348    0.258
       296  -8.7019     78.1007    147.2118   1.0733481175e+02   3.5296521153e+01    0.2703468    0.1671708  86.20 0.0008254561    2.064    0.515
       297 -10.4145     54.5983    143.9061   1.1288283852e+02   3.9247623188e+01    0.9340281    0.4722316  86.79  0.003760858    2.841    0.648
       298  -8.2371    223.4798    146.9621   7.3984537227e+01   6.8479507466e+00    0.2130271    0.1330148 -35.15 0.0003448648    1.521    0.343
       299 -10.2643    149.1035    145.0751   8.9128091565e+01   2.2858860289e+01    0.6080142    0.4129699  84.97  0.001697587    2.455    0.593
       300  -9.6820    139.1405    145.0625   9.1502263338e+01   2.4918782268e+01    0.4223903    0.2802554 -72.98  0.001278422    2.083    0.520
       301  -9.4549     13.0841    145.9965   1.2346361136e+02   4.2903892585e+01    0.3664268    0.1805412  73.12  0.001283499    2.124    0.529
       302  -8.0374    206.7747    146.5887   7.7041550262e+01   1.0310496625e+01    0.1933607    0.1413427  56.68  0.000572271    1.583    0.368
       303  -8.1675    175.6438    146.3627   8.3401745701e+01   1.6951319776e+01    0.2192037    0.1797199 -89.49 0.0007120691    1.604    0.377
       304 -10.0196    125.1691    142.7943   9.4446612651e+01   2.8216694841e+01    0.5971302    0.3898643 -87.17  0.001830682    2.460    0.593
       305 -10.4154    106.6292    144.0484   9.9404152290e+01   3.1392407660e+01    0.8315877    0.5130102 -81.42  0.002265366    2.331    0.571
       306  -8.7714    165.4084    144.0886   8.5148358644e+01   1.9608683228e+01    0.2816411    0.2206765  57.72 0.0007067482    1.366    0.268
       307  -9.9315     73.0308    129.1301   1.0548346940e+02   4.0372427884e+01    0.4830756    0.2833498 -74.46  0.001230462    1.860    0.463
       308 -10.9112     69.0995    141.5136   1.0873054315e+02   3.7942361896e+01    0.9220594    0.4863038 -78.62  0.003931876    2.241    0.554
       309  -9.6579     69.5470    134.6434   1.0744124666e+02   3.9532520501e+01    0.4011622     0.271102  10.29  0.001765158    2.322    0.569
       310  -9.3204      2.6978    141.7566   1.2554985140e+02   4.4644619722e+01    0.3800473    0.1622214  77.11  0.001812879    2.529    0.605
       311  -9.6667    246.0547    163.0241   7.3520058908e+01   3.6394167765e-02    0.5186234    0.3783665  83.48   0.00237067    3.136    0.681
       312  -8.4353    182.1022    141.9049   8.0986828596e+01   1.6442829691e+01    0.2303791    0.2033299 -82.93 0.0005793674    1.369    0.270
       313  -8.4313    250.4976    140.9128   6.8012905399e+01   2.6543955975e+00    0.2072739    0.1204353 -33.71 0.0006053015    1.534    0.348
       314  -8.9446    134.4293    140.2846   9.1600452825e+01   2.6938196382e+01    0.2825377    0.1458564 -44.91 0.0008407735    1.978    0.494
       315  -9.9197     23.3594    137.9609   1.2011941707e+02   4.3908356324e+01    0.5562224     0.259508  73.87  0.002114468    2.723    0.633
       316  -8.4846    218.6285    138.7719   7.3005520444e+01   9.2446098671e+00    0.2044968    0.1285622 -43.60 0.0004376039    1.609    0.379
       317  -8.6426    172.1946    138.5658   8.2355209770e+01   1.9268998067e+01    0.3033749    0.2320884 -71.23 0.0008134799    1.701    0.412
       318  -8.2207    207.6521    138.1157   7.4918024255e+01   1.1660292709e+01    0.2329475    0.1766806 -54.32 0.0006971578    1.523    0.343
       319  -8.7786    197.5243    137.5394   7.6773028988e+01   1.3938253583e+01    0.2870002    0.2322285 -54.09 0.0008029263    1.375    0.272
       320  -8.7570    241.5585    137.2505   6.8652275706e+01   4.9205737787e+00    0.2102883    0.1234991 -22.80 0.0009613418    1.763    0.433
       321  -8.8024    162.7036    136.4243   8.3982439774e+01   2.1786493820e+01    0.2726718     0.189347 -56.89 0.0006881249    1.618    0.382
       322 -10.3664     83.3544    132.9344   1.0337310848e+02   3.7918798798e+01    0.6583518    0.3634053 -65.58  0.001786361    1.816    0.449
       323  -8.6603     84.4382    122.7223   1.0100586096e+02   4.0200219552e+01    0.3985586    0.2640253  11.40  0.001732593    2.406    0.584
       324  -9.5012     39.0650    136.2416   1.1585228438e+02   4.2821732534e+01    0.3006252    0.1786658  67.76 0.0008709613    1.887    0.470
       325  -9.1015    250.7352    130.1872   6.5582673562e+01   4.3018892529e+00    0.4639442    0.1154898 -34.23  0.001459825    3.659    0.727
       326  -9.0674    248.3802    135.3118   6.7106127076e+01   3.9327177582e+00    0.3119662    0.2034369 -38.15 0.0006180845    1.417    0.294
       327  -8.4895    246.9452    130.3121   6.6208234187e+01   5.0046947417e+00    0.2577114    0.1705915 -43.90 0.0005070472    1.507    0.336
       328  -7.8281    187.8490    135.8161   7.8342762179e+01   1.6378065770e+01    0.2026635    0.1817336 -76.78  0.000437418    1.312    0.238
       329  -8.8937    151.4125    135.8902   8.6485051923e+01   2.4348547470e+01    0.3203174    0.1999812  30.00   0.00130641    1.946    0.486
       330  -8.8069    179.4024    134.0284   7.9704049678e+01   1.8594534863e+01    0.3156775    0.2254092 -60.58 0.0008602959    1.710    0.415
       331  -8.2073    237.4755    133.5478   6.8491536529e+01   6.3225753837e+00    0.2579252    0.1156613 -44.59  0.001019341    2.329    0.571
       332  -7.9957    231.4715    134.0245   6.9621317990e+01   7.4399444351e+00    0.2130866    0.1311629 -33.49   0.00038447    1.504    0.335
       333 -10.3972    132.7315    131.6655   9.0061357202e+01   2.9219076119e+01    0.6565021    0.4722769 -85.93  0.002066961    1.958    0.489
       334 -11.3658    131.0711    118.5405   8.7302249378e+01   3.2513079529e+01     1.056631    0.5962036 -70.01  0.003200445    3.215    0.689
       335  -9.9369    133.5053    109.4813   8.4325143766e+01   3.4001127051e+01    0.7245061    0.3523781 -49.80  0.002020461    2.101    0.524
       336  -9.2730    112.6401    133.3786   9.5619061455e+01   3.2785206900e+01    0.3496748    0.2678532  88.22  0.000880959    1.581    0.368
       337 -10.4538     98.0535    130.1516   9.8812857399e+01   3.6174323027e+01    0.7471542    0.3240873 -57.51  0.001753044    2.282    0.562
       338  -8.8284     99.1877    120.6348   9.6401757587e+01   3.8230373068e+01    0.4762177    0.2872139   9.95  0.001625476    3.698    0.730
       339  -9.3077    142.9941    131.6091   8.7501450976e+01   2.7081913557e+01    0.3478651    0.2741213 -81.58 0.0008331332    1.582    0.368
       340  -9.1376    168.3536    129.5842   8.1055997148e+01   2.1957025716e+01    0.3389084    0.2552339 -64.15   0.00054015    1.596    0.373
       341  -9.8960     12.9844    129.4972   1.2183963293e+02   4.6722860562e+01    0.4283122    0.2134347  72.20  0.001568404    2.295    0.564
       342  -7.9928    220.6609    130.2848   7.0652812462e+01   1.0306636170e+01    0.1417916    0.1163332 -74.69 0.0007015292    1.632    0.387
       343  -7.9183    204.4390    130.2928   7.3683496465e+01   1.3784383067e+01     0.209171    0.1374509 -47.40 0.0009352344    1.593    0.372
       344  -7.9973    192.8842    130.1911   7.5952816770e+01   1.6349488901e+01    0.2266398    0.2008422 -66.23 0.0005257568    1.288    0.224
       345  -9.5151    152.8941    128.2808   8.4310941584e+01   2.5663135126e+01    0.6246489    0.2719387 -46.23  0.001469551    2.308    0.567
       346  -7.9430      2.3286    130.6488   1.2466439961e+02   4.7199090619e+01     0.125149   0.07045259  71.50 0.0002667166    1.767    0.434
       347  -8.1327    211.4990    129.0113   7.2031643130e+01   1.2485193654e+01    0.2107563    0.1214526 -56.85 0.0007304297    2.442    0.590
       348 -10.6769     44.8158    123.4267   1.1239475963e+02   4.5284770814e+01      1.07023     0.513618  78.42  0.003695433    4.212    0.763
       349 -10.3313     60.0570    125.2106   1.0839546875e+02   4.3067985217e+01    0.6767666      0.38931  79.30   0.00247816    2.588    0.614
       350  -9.9786    118.0042    125.1707   9.2341204458e+01   3.3661580267e+01    0.5766462     0.416465 -80.28   0.00167991    1.793    0.442
       351  -8.6875    228.3186    125.5252   6.8181267750e+01   9.5280559445e+00    0.2540036    0.1242938 -35.90 0.0007980312    1.888    0.470
       352  -8.9996    179.1463    124.8682   7.7516702546e+01   2.0478911694e+01    0.2959095    0.2579814  63.68 0.0006625567    1.246    0.197
       353 -10.3679     28.7366    122.7079   1.1678489306e+02   4.7036910284e+01    0.6592882    0.3195499  74.50  0.002776662    3.032    0.670
       354  -7.8742    243.6571    124.2365   6.5342315743e+01   6.6285624297e+00    0.1985051    0.1202267 -26.42 0.0004542278    1.595    0.373
       355  -9.2511    158.6742    121.6252   8.1290870195e+01   2.5791201636e+01     0.390887    0.2829155 -67.42  0.001111019    1.750    0.429
       356  -8.0198    202.7807    122.0051   7.1984172922e+01   1.5683997461e+01     0.201982     0.120028 -37.18 0.0003691611    1.620    0.383
       357  -8.0606    195.0173    122.0798   7.3527564583e+01   1.7417771517e+01    0.2410004    0.1870467 -74.11 0.0006718552    1.716    0.417
       358  -8.5766    171.9039    121.6602   7.8290383688e+01   2.2775611970e+01    0.2934591    0.2201494 -50.13 0.0004162726    1.376    0.273
       359  -9.5987     70.9824    119.7871   1.0424435510e+02   4.2916106240e+01    0.4102047    0.2559571 -81.18  0.001137955    1.957    0.489
       360 -10.1180    141.4611    117.8882   8.4496668741e+01   3.0425924354e+01    0.7048638    0.3211843 -49.65  0.001673218    2.267    0.559
       361  -9.5965      2.8689    117.3590   1.2320914558e+02   5.0217162636e+01    0.4612561    0.2047374  75.86  0.002127683    2.802    0.643
       362  -8.2293    231.5615    117.7432   6.5785404854e+01   1.0174483392e+01    0.2061184    0.1252864 -44.13 0.0005162556    1.604    0.376
       363  -8.7894     59.1621    115.4913   1.0684558912e+02   4.5525170677e+01    0.4210999    0.2456708 -19.35  0.001647858    3.433    0.709
       364  -9.3135    207.4468    115.1533   6.9395767295e+01   1.5893987758e+01    0.2622893    0.2475068  26.80 0.0003034319    1.094    0.086
       365  -8.2200    192.9894    115.4575   7.2264595779e+01   1.9139406583e+01    0.2406978    0.1989968 -38.71 0.0004474114    1.175    0.149
       366  -8.2663    185.8367    116.1330   7.3893613128e+01   2.0663340322e+01    0.2381987    0.2070275 -61.70 0.0004834631    1.255    0.203
       367  -9.1971    109.5287    107.7527   9.0352242319e+01   3.9316818760e+01     0.385072    0.2724697  13.75  0.001665282    2.030    0.507
       368  -8.4318    250.2753    115.0121   6.2191833101e+01   6.8104176454e+00    0.1965461    0.1680724 -29.99  0.001061785    1.028    0.027
       369 -10.0325     78.8561    112.4532   1.0038333343e+02   4.3521458141e+01    0.6074172     0.370594 -84.26  0.001927163    2.512    0.602
       370  -8.5115     78.7368    105.3727   9.8784617355e+01   4.5218531708e+01    0.2501852     0.187689  -4.64 0.0007042349    1.857    0.462
       371  -8.0734    167.3919    114.2692   7.7395102905e+01   2.5320345844e+01    0.2203375    0.1459252 -50.40 0.0006572831    1.579    0.367
       372 -10.1438     92.7446    112.5584   9.6345180616e+01   4.1254320470e+01    0.5674646    0.3454537 -71.78   0.00139486    2.119    0.528
       373  -8.9683     93.2729    104.8235   9.4291883796e+01   4.2972622427e+01    0.3543905    0.2482495  -1.08  0.001525673    2.269    0.559
       374  -9.2691     27.3172    113.7712   1.1590279212e+02   4.9282421837e+01    0.2834202     0.179469  10.59  0.001559261    2.227    0.551
       375 -10.3078    121.7500    112.1773   8.8136269611e+01   3.5879915877e+01    0.5003402     0.343029 -74.46   0.00128919    2.017    0.504
       376 -10.8097    109.6380     99.2945   8.8062616311e+01   4.1206634627e+01    0.9842145    0.5406581  67.48  0.002416174    3.930    0.746
       377  -9.1931    108.5991     92.3259   8.6403505579e+01   4.2951001209e+01    0.4974124    0.2801638  26.86  0.001814836    2.477    0.596
       378 -10.0198    248.6446    108.2273   6.0859524970e+01   8.2221740778e+00    0.4074026    0.3042813 -12.01  0.001938411    1.475    0.322
       379 -10.8461    249.5022    103.5026   5.9629995622e+01   8.8040191027e+00    0.6229849     0.283719 -41.67  0.002651974    1.969    0.492
       380 -10.1488     66.2908    110.2868   1.0366059999e+02   4.5845295905e+01     0.515629    0.3048386 -69.04  0.001901129    1.736    0.424
       381  -9.9679     14.1514    111.2198   1.1934392230e+02   5.0906090984e+01    0.3615538    0.1926334  72.36  0.001438403    2.318    0.569
       382 -10.0303    109.3390    114.2332   9.2048541611e+01   3.7863963036e+01    0.5279133    0.3682535 -81.43  0.001599509    2.002    0.501
       383  -8.8683     42.8729    109.4192   1.1057339487e+02   4.8849957567e+01    0.2730053    0.1368388  12.45  0.001144765    3.323    0.699
       384  -8.4931    189.4157    107.8361   7.1011607097e+01   2.1421200266e+01    0.3008487    0.1422147 -42.58 0.0009904371    2.064    0.516
       385  -9.3904    139.7305    104.7318   8.1446175548e+01   3.3658318462e+01    0.4225184    0.3166261 -78.75 0.0009532581    1.805    0.446
       386 -10.5699     45.5929    102.3458   1.0839433240e+02   5.0247302953e+01    0.7766002    0.4367789  76.08  0.003196158    3.079    0.675
       387  -9.1509     45.7117     92.7189   1.0634770339e+02   5.2500052319e+01     0.409302    0.2403795  -2.96    0.0018308    2.870    0.652
       388 -10.6806     22.9976    102.7627   1.1549232646e+02   5.2234187067e+01    0.7291737    0.3793995  75.22  0.002859619    2.876    0.652
       389  -8.4775    166.8171    104.4386   7.4901077047e+01   2.7443635522e+01    0.3111718    0.1994235 -56.94 0.0007194151    1.844    0.458
       390  -9.5863    150.4723    103.0117   7.8313271570e+01   3.1572837093e+01    0.4603832    0.2877384 -57.94  0.001123417    1.922    0.480
       391 -10.3110    128.6113    101.4351   8.3421518599e+01   3.6816194451e+01    0.5996377    0.3411472 -36.66  0.002149864    1.861    0.463
       392  -8.8444      6.9505    103.0253   1.2036703103e+02   5.3279636896e+01    0.2410506    0.1546086  76.14 0.0009682237    1.685    0.407
       393  -7.7177    175.4337    102.2341   7.2415667231e+01   2.5824665370e+01    0.2205654    0.1448336 -49.95 0.0004316807    1.594    0.373
       394  -8.4134    159.7335    100.9512   7.5553732410e+01   2.9824538795e+01    0.2931301    0.2076689 -56.05 0.0004802665    1.563    0.360
       395  -9.2551     82.1763    100.1648   9.6458621765e+01   4.5900578776e+01    0.3471774     0.239025 -74.89  0.001023932    1.799    0.444
       396 -10.1999     63.8526     96.3891   1.0128583073e+02   4.9461855809e+01    0.6188917    0.3877794 -80.04  0.001867281    2.189    0.543
       397  -9.3194     95.1304     97.0878   9.1714482992e+01   4.4422009405e+01    0.3192584    0.2432617 -64.85 0.0007105388    1.414    0.293
       398  -8.1350    151.3472     95.3239   7.5941898683e+01   3.2945162903e+01    0.1653997    0.1261725   9.64 0.0007049713    1.744    0.426
       399  -7.7075    188.5333     93.9919   6.7485666986e+01   2.4224620732e+01    0.2223334    0.1239864 -57.33 0.0004710089    2.373    0.579
       400  -8.2692    164.8668     94.1097   7.2470011011e+01   2.9954545044e+01    0.2432089    0.2122656 -69.53 0.0004599525    1.260    0.206
       401  -9.2970    139.0543     92.4579   7.8147293719e+01   3.6389623709e+01    0.3893629    0.2818637 -78.98 0.0008629847    2.012    0.503
       402  -9.2690    120.6075     93.1915   8.3253022854e+01   4.0306150379e+01    0.3101439     0.280515 -11.55  0.001590837    1.184    0.155
       403 -10.2932    124.4866     90.9014   8.1521882198e+01   3.9963041691e+01    0.6621898    0.3626453 -38.60     0.002199    1.838    0.456
       404  -8.7077    174.7152    111.8516   7.5141535970e+01   2.4099090978e+01    0.3031671     0.227112 -68.88  0.000744437    1.696    0.410
       405  -8.1622    176.2419     93.2101   6.9758800208e+01   2.7363074820e+01    0.2237041    0.1794356 -62.65  0.000738835    1.390    0.281
       406  -9.5854      5.2440     92.2067   1.1940366603e+02   5.5864737283e+01    0.3473116    0.1815152  55.43  0.001454386    2.493    0.599
       407  -8.0262    157.8335     91.5833   7.3343345444e+01   3.2145833726e+01    0.2601707    0.1825627 -45.02 0.0004810712    1.421    0.296
       408  -9.7710     34.8178     89.7974   1.0934180989e+02   5.4263909006e+01    0.4767183     0.267413 -87.96  0.001783698    2.613    0.617
       409  -9.2240     22.9439     90.3869   1.1339748540e+02   5.5123972414e+01    0.2998264    0.2378506 -14.20  0.001389557    1.544    0.352
       410  -8.6559    159.1236    111.6790   7.8606505122e+01   2.7769094939e+01    0.2777877       0.2099 -52.76 0.0006850825    1.378    0.275
       411  -8.1839    151.0007     89.2673   7.4272395540e+01   3.4238928294e+01    0.2144172    0.2108902  79.33 0.0004777029    1.040    0.038
       412  -8.6893     64.7329     87.9506   9.8900262717e+01   5.1292794443e+01    0.3397407    0.2141767 -10.78  0.001470664    2.578    0.612
       413 -10.2227     86.8223     85.3663   9.1004862200e+01   4.8491178327e+01    0.8450405    0.4834006 -41.02  0.001463685    1.679    0.405
       414  -7.8918    164.1684     87.1915   7.0642796848e+01   3.1457641609e+01    0.2200201    0.1850606 -69.59 0.0004723661    1.342    0.255
       415  -9.8990     48.6544     84.5001   1.0345833982e+02   5.4075143222e+01    0.5012176    0.3191556  73.80  0.001956104    2.665    0.625
       416  -7.3542    179.2996     85.6669   6.7008665339e+01   2.8014851724e+01    0.1619495    0.1207587 -69.27  0.000673307    1.650    0.394
       417  -9.7611    104.8011     83.2095   8.4827484610e+01   4.5659887538e+01    0.4354536    0.3045527 -67.27 0.0009002308    1.891    0.471
       418  -8.4745    157.9023     84.1165   7.1147151400e+01   3.3573455543e+01    0.2372634    0.2111078 -71.85 0.0003361346    1.229    0.186
       419  -8.9556    140.9527     82.9094   7.4826857047e+01   3.7869510245e+01    0.3300462    0.2230966 -50.94 0.0005021221    1.574    0.365
       420  -7.8815      5.6682     83.7172   1.1797743107e+02   5.7772103613e+01    0.1223111   0.06927768 -45.06 0.0003398911    1.612    0.380
       421  -9.0740    250.0071     81.9992   5.4492932058e+01   1.2077312981e+01    0.2702398    0.1149811 -50.38  0.001034202    2.586    0.613
       422  -8.4966     35.8353     82.1756   1.0734716413e+02   5.5922145017e+01    0.1838717    0.1331782 -38.00  0.001076894    1.332    0.250
       423  -9.6885     24.6683     80.6281   1.1091243163e+02   5.7228712878e+01    0.4080868    0.2397541  89.64  0.001220669    2.380    0.580
       424  -9.4390      9.6827     81.0224   1.1617392690e+02   5.8155756116e+01    0.3023688    0.1811606  65.86  0.001192637    2.292    0.564
       425  -8.5817    150.2333     80.6680   7.1892409309e+01   3.6091404498e+01    0.3278645    0.2324637 -62.93 0.0008771847    1.751    0.429
       426  -8.8526    119.3860     80.6254   7.9822088414e+01   4.3191151290e+01     0.309577    0.2432546 -81.38 0.0007548462    1.731    0.422
       427  -8.9015     74.5267     80.3601   9.3555267678e+01   5.1578916392e+01    0.3291801    0.2147333 -65.58  0.001036079    1.849    0.459
       428  -8.2473    166.8230     79.6393   6.7855832105e+01   3.2210879694e+01    0.2475051    0.1794809 -43.33 0.0002580992    1.370    0.270
       429  -9.6829    128.1406     75.9817   7.5977658220e+01   4.2178432414e+01    0.5870401    0.2506804 -45.00  0.002084783    2.390    0.582
       430  -8.2954    184.0000     78.5173   6.4053394309e+01   2.8125682696e+01      0.33055   0.08690494 -35.06 0.0009104249    3.741    0.733
       431  -9.9670     63.4770     73.9090   9.5452427191e+01   5.4590270261e+01    0.6652663    0.3031292 -62.81  0.002460474    3.078    0.675
       432  -8.6808    105.0055     77.0142   8.2847321706e+01   4.6909148054e+01    0.2410009    0.1822348   0.32 0.0008722238    1.691    0.409
       433  -8.3476     49.9692     77.6761   1.0127118918e+02   5.5466516142e+01    0.2050639    0.1066723  -1.37 0.0007046458    4.442    0.775
       434  -7.6296    157.3257     76.6938   6.9053946630e+01   3.5101556545e+01    0.1603266    0.1234465 -75.78 0.0003814774    1.648    0.393
       435  -8.3576    140.1141     75.2850   7.2682020563e+01   3.9534094535e+01    0.2169417     0.204399  67.65 0.0006567455    1.113    0.102
       436  -9.6706     82.3036     72.6033   8.8615615898e+01   5.1993419490e+01    0.4249042    0.2940817 -71.61 0.0008713198    2.148    0.534
       437  -9.2892     83.4342     65.4615   8.5917280745e+01   5.3258833642e+01    0.5343658    0.3002162 -14.87  0.001891511    3.431    0.709
       438  -8.5077    111.5202     73.9984   7.9963008003e+01   4.6189136198e+01    0.2277618    0.1446105 -38.66 0.0004923315    1.532    0.347
       439  -9.1631    115.6211     73.1227   7.8502443412e+01   4.5495078915e+01    0.3082241    0.2749468  24.39 0.0007735766    1.152    0.132
       440  -9.3442     95.0719     71.1355   8.4011684148e+01   5.0024977755e+01    0.4093713    0.2190853 -54.24 0.0009627395    2.202    0.546
       441  -8.5255     42.8580     72.7939   1.0253885816e+02   5.7331925123e+01    0.2378433    0.1633731 -83.67 0.0009240616    2.040    0.510
       442  -8.0350    175.4944     72.5038   6.3968573552e+01   3.1306652852e+01    0.1524359    0.1515642 -62.99 -7.859356e-05    1.018    0.018
       443  -9.4234    105.7657     71.3785   8.0807320315e+01   4.7890686372e+01    0.3558657    0.2247984 -48.70 0.0008115027    1.633    0.388
       444  -9.2881     29.7598     70.1785   1.0670868281e+02   5.9153888924e+01    0.4785453     0.221291 -20.99  0.001857952    3.926    0.745
       445  -9.5419     51.3781     69.6889   9.8561345662e+01   5.7055093020e+01    0.4044041    0.2269012 -67.15  0.001290887    2.282    0.562
       446  -9.1815     16.5525     69.2042   1.1141130743e+02   6.0369040892e+01    0.5371516    0.1844817 -66.90  0.002273293    2.651    0.623
       447  -8.8288    147.0358     68.2131   6.8779565670e+01   3.9160920662e+01    0.3221969    0.2146623 -42.58 0.0005839418    1.514    0.339
       448  -8.7343    138.7978     66.3974   7.0169839054e+01   4.1477782228e+01    0.3150431    0.2240409 -61.26 0.0007347921    1.759    0.431
       449  -8.8641    121.6769     66.1493   7.4521046232e+01   4.5494953379e+01    0.3219511    0.2366291 -61.71 0.0005574253    1.716    0.417
       450  -8.6816     37.3663     64.3145   1.0228911685e+02   5.9732041048e+01    0.2883542    0.1942607  86.69  0.001075385    2.594    0.615
       451  -9.0754    110.1715     63.6170   7.6909281196e+01   4.8467216507e+01    0.3232805    0.2479772 -53.34 0.0007466296    1.461    0.316
       452  -8.6139     64.8405     63.3583   9.1701885557e+01   5.6621313197e+01    0.4475833    0.2498919   1.39  0.001624463    3.802    0.737
       453  -7.5055    187.6565     63.3473   5.9032134283e+01   2.9751362817e+01    0.1652568    0.1129038 -67.77 0.0007044554    1.798    0.444
       454  -8.0925    158.1500     62.1040   6.4363715885e+01   3.7451666081e+01    0.2104356    0.1781696 -65.56 0.0004694092    1.302    0.232
       455  -9.5626     73.3215     59.6642   8.7429075889e+01   5.6080401229e+01    0.3616633    0.2292424 -55.04   0.00101778    1.792    0.442
       456  -8.3362    163.4766     73.4542   6.6724728986e+01   3.4159040428e+01    0.3016412     0.151201 -36.99 0.0008274446    1.970    0.492
       457  -9.2760     97.6604     60.6438   7.9657649011e+01   5.1568425477e+01    0.2886576    0.2449666  53.33 0.0009450887    1.333    0.250
       458  -8.1954    146.9691     59.2047   6.5895333511e+01   4.0726217211e+01    0.2229451     0.154758 -51.02 0.0005428399    1.588    0.370
       459  -9.4259      7.4828     57.2599   1.1224234266e+02   6.3502217880e+01    0.2971428    0.1766612 -85.79  0.001055156    2.217    0.549
       460  -8.2276    130.8657     57.9211   6.9329727524e+01   4.4838077221e+01    0.2287322    0.1821336 -72.62 0.0004815047    1.617    0.382
       461  -9.8311     23.4207     56.4947   1.0562286724e+02   6.2616290005e+01    0.3985803    0.2554853 -86.96  0.002045269    2.523    0.604
       462  -9.0825    139.9751     55.7542   6.6374246280e+01   4.3013024343e+01    0.4280629    0.1930545 -41.49 0.0009400027    2.270    0.559
       463  -9.4581    119.1534     55.5986   7.1598535977e+01   4.7933666918e+01    0.5068254    0.2398092 -43.15  0.001344603    2.207    0.547
       464  -9.3906     54.2901     55.4789   9.3026595553e+01   5.9646298433e+01    0.3368163     0.215757 -59.87 0.0009747305    1.847    0.459
       465  -8.8812     44.0721     55.5974   9.7055463273e+01   6.0851004207e+01    0.2402109    0.1664525 -61.59 0.0008757677    1.606    0.377
       466  -8.4864    105.6530     53.1744   7.4565366876e+01   5.1286927873e+01    0.2332459    0.2020407  59.36 0.0005752839    1.318    0.241
       467  -8.5713     74.5733     52.2831   8.4368633943e+01   5.7285779705e+01    0.4057186    0.2162133   9.36    0.0012938    4.673    0.786
       468  -9.4729     92.3572     50.6171   7.7728918497e+01   5.4407033357e+01    0.4037261    0.2322482 -47.20  0.001058593    1.918    0.478
       469  -8.5087    144.8456     49.1142   6.3033471862e+01   4.2863671021e+01    0.2276548    0.2014781 -59.40 0.0005698531    1.230    0.187
       470  -8.5196    129.6929     49.0224   6.6551491031e+01   4.6568491241e+01    0.2063893    0.1903368 -28.29 0.0004741267    1.102    0.092
       471  -8.6983    120.9294     47.3917   6.8205636491e+01   4.8873766322e+01    0.2559466    0.2069191 -17.96 0.0005405501    1.271    0.213
       472  -8.5220    112.2885     46.9111   7.0369173162e+01   5.0896546668e+01    0.2589001    0.2096241 -57.34  0.000663981    1.502    0.334
       473  -8.9364     82.1698     46.5282   7.9563925658e+01   5.7009699005e+01    0.2618398    0.2074946 -50.07  0.000567077    1.460    0.315
       474  -8.5600     45.1074     44.7659   9.2938062637e+01   6.2858108993e+01     0.208648    0.1586792 -51.03 0.0006097212    1.369    0.270
       475  -8.7960     16.5445     44.6907   1.0513952934e+02   6.5548278646e+01    0.2122877    0.1710647 -64.84 0.0006474784    1.354    0.262
       476  -8.8211    132.7863     43.6112   6.3900279524e+01   4.6650624141e+01    0.2787313    0.2316588 -51.77 0.0007051897    1.337    0.252
       477  -8.8260     92.9842     42.8068   7.4563678553e+01   5.5592730577e+01      0.32884    0.1851755 -16.61  0.001235779    2.311    0.567
       478  -8.9154     58.0136     42.3357   8.6819685234e+01   6.1628510832e+01    0.3593642    0.1810069 -53.91  0.001390452    2.629    0.620
       479  -9.3171     69.8046     41.6388   8.2053718529e+01   5.9959119546e+01    0.3875902    0.2482751 -56.72  0.001272308    2.264    0.558
       480  -9.5421      5.1561     41.9546   1.0938525227e+02   6.6795929975e+01    0.3379662    0.1835085 -74.92  0.001785807    2.305    0.566
       481  -8.8085    105.9619     41.6058   7.0175778873e+01   5.3103804387e+01    0.2603672    0.2007137 -36.53 0.0006142479    1.331    0.249
       482  -8.6748     36.8308     41.0926   9.5093163798e+01   6.4476205361e+01    0.2367015     0.158691 -56.06 0.0007251294    1.629    0.386
       483  -8.3447    140.1984     41.2599   6.1385189323e+01   4.5177187696e+01    0.2312573   0.09979327 -39.90  0.000760329    2.396    0.583
       484  -8.8016     95.4260     38.0428   7.1932879475e+01   5.5848585423e+01    0.2803869    0.1961756 -48.27 0.0008567692    1.712    0.416
       485  -8.4062     80.6102     36.7923   7.6256116933e+01   5.8894113037e+01    0.1872812    0.1199621 -42.28 0.0004666831    1.661    0.398
       486  -9.4462     26.1908     35.5099   9.7774540848e+01   6.6560402758e+01    0.2922576    0.1851578 -62.99 0.0008809228    2.016    0.504
       487  -7.5900    133.3546     36.2842   6.1168476858e+01   4.7552289706e+01    0.1550126    0.1043466  29.60 0.0004237763    1.665    0.400
       488  -8.2924    125.8474     35.8105   6.2751325711e+01   4.9426107136e+01    0.2158957    0.1831473  25.62 0.0003664856    1.172    0.147
       489  -8.9618    111.9523     34.5561   6.5808500077e+01   5.2816074901e+01    0.2665363      0.18865 -45.98 0.0007258586    1.626    0.385
       490  -7.6956    153.4907     34.5142   5.6363954643e+01   4.2749832217e+01    0.1451286    0.1387536  69.72 6.037788e-05    1.029    0.028
       491  -8.8910     48.4398     33.3508   8.7130177059e+01   6.4497054618e+01     0.247524    0.2024282 -45.05  0.000894773    1.384    0.277
       492  -8.9196    118.9158     32.6263   6.3267590043e+01   5.1487297333e+01    0.3361102    0.1829897 -35.51  0.001105937    1.888    0.470
       493  -8.6369     60.7624     32.6765   8.1837051267e+01   6.2867139394e+01    0.2421516    0.1632415 -42.47 0.0006423519    1.542    0.351
       494  -8.1812    139.1861     32.1231   5.8416435717e+01   4.6666600451e+01    0.2015663    0.1702033 -63.64   0.00106866    1.360    0.265
       495  -9.0682     72.0247     30.4403   7.6635546137e+01   6.1388608496e+01    0.3527644    0.1559104 -40.11  0.001304234    2.290    0.563
       496  -8.8508     12.9135     30.3312   1.0214527879e+02   6.8581934860e+01    0.2457599    0.1521229 -66.15  0.001426641    2.027    0.507
       497  -8.5367    101.6365     29.5054   6.6671305444e+01   5.5770435436e+01    0.2199446    0.1609228 -48.44 0.0006426442    1.674    0.403
       498  -8.7860      3.7781     28.0812   1.0583657216e+02   6.9571044673e+01    0.2135188    0.1363949 -64.49 0.0007974216    1.673    0.402
       499  -8.9065     81.4050     27.4060   7.2062428706e+01   6.0137563848e+01    0.2857954    0.2119082 -45.59 0.0008621017    1.643    0.391
       500  -8.7351     91.8534     26.5846   6.8363323102e+01   5.8203381519e+01    0.2544172    0.1846704 -35.93 0.0007288842    1.466    0.318
       501  -7.8482    145.6933     26.3007   5.5078635933e+01   4.5756143398e+01    0.1434924    0.1084794 -68.52 0.0002939956    1.596    0.373
       502  -7.8361    150.3197     25.6459   5.3986644522e+01   4.4660499996e+01     0.151237    0.1059319 -64.78 0.0007046647    1.751    0.429
       503  -8.7940    104.3094     22.9196   6.3257102928e+01   5.6029107723e+01    0.1901986    0.1667697   8.00 0.0003993605    1.080    0.074
       504  -8.0577     34.9629     23.4699   8.8881143426e+01   6.7781770014e+01    0.1463936    0.1029099  52.61 0.0008096347    2.538    0.606
       505  -8.9340     63.5615     21.0750   7.5642538513e+01   6.4162888872e+01    0.2691835      0.19892 -50.23 0.0009153545    1.904    0.475
       506  -8.9120     48.4804     21.7785   8.2081192127e+01   6.6346712521e+01    0.2130456    0.1801263 -30.74 0.0006022599    1.290    0.225
       507  -7.8628     19.6033     21.7629   9.5556080145e+01   6.9597309131e+01    0.1502513   0.09687942 -50.61 0.0003790038    1.577    0.366
       508  -7.8727    120.4406     21.2152   5.8547853617e+01   5.2541805160e+01    0.1921285    0.1258734 -37.91 0.0009466402    1.662    0.398
       509  -9.0776     73.9623     19.2822   7.1022150490e+01   6.2600968137e+01    0.2838612    0.1641532 -38.33 0.0007898773    1.885    0.469
       510  -7.7109     12.2791     20.6840   9.8826291807e+01   7.0369175111e+01   0.09622351   0.08646525 -63.37 0.0002436069    1.573    0.364
       511  -8.2512     87.9034     18.0883   6.5930144051e+01   6.0071389820e+01     0.188814    0.1755623 -33.50 0.0005101601    1.289    0.224
       512  -8.2183     38.5430     18.0759   8.4775233526e+01   6.8205871327e+01    0.1814825    0.1019693 -36.49  0.001021916    1.576    0.366
       513  -7.8401    112.8288     16.8518   5.8634628808e+01   5.4803146553e+01    0.1755243    0.1587977 -53.59 0.0003770651    1.317    0.241
       514  -7.9447     29.8279     15.8390   8.7853493387e+01   6.9562554459e+01    0.1496025    0.1258105 -32.70 0.0005082363    1.331    0.249
       515  -8.2311      7.4981     15.5523   9.9235619483e+01   7.1593843209e+01     0.181588   0.09798303 -58.95 0.0009575928    2.224    0.550
       516  -8.2478     97.0150     15.0165   6.1950452631e+01   5.8523394724e+01    0.1927349    0.1599805 -57.04 0.0004565627    1.604    0.377
       517  -8.3745    134.5998     13.7408   5.2771366934e+01   4.9909840378e+01    0.1945607    0.1233063 -36.44 0.0009555479    1.706    0.414
       518  -7.7388     17.1240     14.1547   9.3506331940e+01   7.1077795436e+01     0.141654    0.1228367 -32.40 0.0005533855    1.335    0.251
       519  -8.5724    218.6588    247.9170   9.3795358450e+01  -7.0562561080e+00    0.2430433    0.1327772 -37.79  0.001046544    2.238    0.553
       520  -7.9079    191.2159    249.4166   9.8859406913e+01  -3.0823953949e+00    0.1691398   0.09109169  45.98 0.0009403811    1.711    0.416
       521  -7.7718     47.5176     10.5049   7.7072532058e+01   6.8061434835e+01     0.120722   0.09990711  -5.06 9.648743e-05    1.092    0.084
       522  -8.9863    175.5371    247.6093   1.0143882677e+02  -3.8991509369e-01    0.2659408    0.2087716  75.78  0.001000874    1.910    0.476
       523  -9.1018    156.2578    248.0885   1.0501841484e+02   2.5994124984e+00    0.2353136    0.1752271  63.96 0.0007993945    1.556    0.357
       524  -8.9118    132.4246    248.0826   1.0937917900e+02   6.3530465413e+00    0.2840489     0.175074  64.34 0.0007579028    1.853    0.460
       525  -8.7376    113.0545    248.5221   1.1294932831e+02   9.2525801176e+00    0.2054805    0.1664881 -82.77 0.0009681968    1.406    0.289
       526  -9.3408    103.8583    247.0165   1.1446105829e+02   1.0868590831e+01    0.4074436    0.2129662 -86.80  0.001881563    3.060    0.673
       527  -8.7262    242.8136    246.6956   8.9481942196e+01  -1.0370669659e+01    0.2764351    0.1260524 -20.87  0.001477594    2.564    0.610
       528  -8.9151    232.7833    247.0902   9.1237788347e+01  -9.0088106865e+00    0.2502899    0.1437858 -22.52  0.001550391    1.884    0.469
