#   1 NUMBER                 Running object number                                     
#   2 MAG_AUTO               Kron-like elliptical aperture magnitude                    [mag]
#   3 X_IMAGE                Object position along x                                    [pixel]
#   4 Y_IMAGE                Object position along y                                    [pixel]
#   5 X_WORLD                Barycenter position along world x axis                     [deg]
#   6 Y_WORLD                Barycenter position along world y axis                     [deg]
#   7 A_WORLD                Profile RMS along major axis (world units)                 [deg]
#   8 B_WORLD                Profile RMS along minor axis (world units)                 [deg]
#   9 THETA_WORLD            Position angle (CCW/world-x)                               [deg]
#  10 FWHM_WORLD             FWHM assuming a gaussian core                              [deg]
#  11 ELONGATION             A_IMAGE/B_IMAGE                                           
#  12 ELLIPTICITY            1 - B_IMAGE/A_IMAGE                                       
         1 -14.9945      8.1813    150.0355   1.4564355532e+02   4.3090275027e+01     10.68634      3.88034  67.06   0.04655217    3.298    0.697
         2 -13.4514      4.2456    169.6530   1.4789105009e+02   3.9175636631e+01     2.263019    0.3397777 -75.65  0.007962033    4.797    0.792
         3 -11.2950      2.0726     49.3173   1.3368500542e+02   6.5779918075e+01    0.4756832   0.07748913 -60.55  0.001862661    3.362    0.703
         4 -13.5171    193.3945     28.1163   7.0198384007e+01   3.3648111488e+01     1.418748     1.356073 -36.75  0.006619481    1.121    0.108
         5 -13.6133    208.4088      8.8640   6.3075661846e+01   3.1982476387e+01     1.394112     1.039504  39.50  0.007607657    1.630    0.387
         6 -12.8655      3.5217      7.8788   1.1933436221e+02   7.3482573420e+01     1.034903    0.3828117 -47.32  0.005687214    2.028    0.507
         7 -10.0186    152.4786    248.4819   1.2714579585e+02   4.5066863421e+00    0.1173644   0.09099717  45.35 9.416722e-05    1.006    0.006
         8 -12.1243    139.7076    248.9486   1.2942581737e+02   6.4444188472e+00    0.4962485    0.2769875  50.26  0.002988542    1.441    0.306
         9 -12.3327    126.1604    249.8405   1.3187624797e+02   8.4056249456e+00    0.8380028    0.3274331  33.27  0.003525274    3.497    0.714
        10 -10.0004     98.5887    250.1215   1.3664627505e+02   1.2461477137e+01    0.2599751    0.1342756  41.40  0.001545428    1.670    0.401
        11 -10.8206    101.9206    247.3819   1.3582936606e+02   1.2413187502e+01    0.2635906    0.1726828  68.66 0.0009768808    1.412    0.292
        12 -10.4407      2.7706    249.2284   1.5194207490e+02   2.4245813960e+01    0.2379861    0.1606622  70.25  0.001344068    1.079    0.073
        13 -10.6554    197.7140    247.1962   1.1916020079e+02  -2.4563627677e+00    0.3544573    0.1029442 -39.10  0.001536421    4.342    0.770
        14  -9.4870    186.6646    241.6662   1.2030100738e+02  -2.3986820494e-02     0.119602   0.08007523  16.97 0.0007052146    1.739    0.425
        15 -10.1993    248.9326    249.4012   1.1105090248e+02  -1.0228015610e+01    0.2297165    0.1037919  28.91  0.001320879    1.868    0.465
        16 -10.5688    173.7939    222.5141   1.1988176622e+02   4.7671851059e+00    0.3583993    0.2687093  75.08  0.002101759    1.872    0.466
        17 -12.8218      9.0621    207.3886   1.4915089491e+02   3.1122358740e+01    0.6774874    0.5704677  42.62  0.004003885    1.597    0.374
        18 -10.9407    153.6088    229.2028   1.2453586934e+02   7.1581409167e+00    0.3501228    0.1150624  45.01  0.001487385    2.485    0.598
        19  -9.4753     28.4746    214.7360   1.4616550887e+02   2.7741945679e+01    0.2624657   0.09688278  58.50   0.00122377    2.243    0.554
        20  -8.7474    152.6481    213.0284   1.2247700165e+02   9.9145717495e+00    0.1626443     0.150728  59.52 0.0004054863    1.107    0.097
        21 -11.5785     62.9882    199.4998   1.3852173056e+02   2.6602315857e+01    0.2913041    0.2227071 -52.79  0.001101254    1.740    0.425
        22 -10.7816     19.9343    199.9733   1.4678758786e+02   3.1507575677e+01    0.2180974    0.1541512  63.27 0.0003488187    1.172    0.147
        23 -11.3063     16.0492    197.7173   1.4736324217e+02   3.2341650037e+01    0.2333576    0.1556621  62.51 0.0004675048    1.215    0.177
        24 -10.0121    193.4908    195.9880   1.1189957424e+02   5.3514535768e+00    0.6582166    0.3261977 -62.27  0.001849764    7.521    0.867
        25  -8.7239     51.6992    197.5583   1.4056610266e+02   2.8437681935e+01    0.1605861   0.08846556  54.45 0.0008542451    1.548    0.354
        26 -11.7924     68.9266    191.3404   1.3650012180e+02   2.7476620357e+01    0.2543775     0.216985 -72.67 0.0004358195    1.299    0.230
        27 -13.1183     65.6821    176.4737   1.3552873189e+02   3.1076425701e+01    0.4623041     0.268324 -48.47  0.001643062    2.242    0.554
        28 -10.8384     78.7202    178.4224   1.3292550794e+02   2.8829094461e+01    0.2306702    0.1982607  85.17 0.0002895025    1.065    0.061
        29  -8.4243    101.3126    177.6894   1.2787685799e+02   2.5489436188e+01     0.140276   0.09319623  73.23 0.0003615665    1.629    0.386
        30 -11.7475     86.2193    168.9529   1.2998609153e+02   2.9773675606e+01    0.5954535    0.5508042 -62.85  0.003787229    1.269    0.212
        31  -9.9255     98.4788    152.8640   1.2458876737e+02   3.1407547774e+01    0.3010711    0.2480517 -61.32 0.0007842954    1.209    0.173
        32  -9.2080    101.2629    148.7486   1.2318861228e+02   3.1869007493e+01    0.2137495    0.1834189 -45.25  0.000448967    1.326    0.246
        33  -9.3430    188.5584    151.9487   1.0419692822e+02   1.3858068696e+01    0.4286737    0.2739198 -89.00  0.001451415    3.997    0.750
        34 -12.0019     87.1425    152.1076   1.2719745586e+02   3.3412640980e+01    0.2771312    0.2444961 -51.69 0.0006148294    1.291    0.225
        35 -12.4171     67.2176    143.9069   1.3080294079e+02   3.8219865006e+01     0.693146    0.4407578  68.10  0.003239117    1.708    0.414
        36 -12.6829     36.9390    234.0805   1.4588368778e+02   2.3236102318e+01    0.2710453    0.2146117 -89.79 0.0007877373    1.316    0.240
        37  -8.4469    192.0243    144.2496   1.0179770176e+02   1.4536762749e+01    0.1792853    0.1230001  45.68 0.0003005126    1.438    0.305
        38  -9.7062    109.9885    137.6937   1.1891316764e+02   3.2842393294e+01    0.3797809    0.2631836 -22.28  0.001440865    2.385    0.581
        39 -10.4188     97.1857    135.0000   1.2161432774e+02   3.5714674331e+01    0.2491679    0.2170793 -41.90 0.0004168264    1.297    0.229
        40  -8.5776    181.6536    145.2130   1.0411419407e+02   1.6583290156e+01     0.188604     0.137881 -31.91 0.0002917402    1.452    0.311
        41 -10.2653     82.3401    133.6723   1.2520161688e+02   3.8423983791e+01    0.2603146    0.2108516  80.97 0.0006984986    1.232    0.189
        42 -10.9129     34.8649    133.4996   1.3753418717e+02   4.4460934143e+01    0.3007227    0.1876289  72.40  0.001013729    1.656    0.396
        43  -9.2123     92.6492    132.6702   1.2232647634e+02   3.7014698035e+01    0.1888247    0.1487408  82.23  0.000992763    1.338    0.252
        44  -9.0796    106.9816    124.0999   1.1678888970e+02   3.6497048368e+01    0.2053579    0.1943363 -76.78  0.000299316    1.028    0.028
        45 -14.2388     42.4448    226.3088   1.4446583836e+02   2.3996856481e+01     1.322417     1.185602   6.96  0.006351183    2.047    0.511
        46 -10.0341    167.7144    112.9023   9.9285974341e+01   2.6043270875e+01    0.3146102    0.2578427 -65.01 0.0006277052    1.348    0.258
        47  -9.1052    203.4743    111.4860   9.1718366017e+01   1.7963658564e+01    0.2600734    0.1456021 -24.61 0.0007883096    2.138    0.532
        48 -10.1247    173.2694    247.8428   1.2345020492e+02   1.3028069750e+00    0.2736829    0.1698491  82.40  0.001146741    4.917    0.797
        49  -8.4499     69.6348     84.3064   1.1790456404e+02   5.1739673248e+01    0.1383935    0.1054667  81.58 0.0007037356    1.745    0.427
        50  -8.6790    184.4068     77.8161   8.6210166516e+01   2.8567808682e+01    0.2190861    0.1495184 -21.99 0.0009478826    1.678    0.404
        51  -9.1797    156.6407     76.1939   9.1394533741e+01   3.5787258684e+01    0.2229113    0.1472316 -25.20 0.0005377655    1.717    0.417
        52 -10.8062      1.7556     61.0631   1.3632341183e+02   6.3329890797e+01    0.5010709   0.07589094 -67.61  0.001598997    5.053    0.802
        53 -10.3695     26.5170     59.9294   1.2658756738e+02   6.1940364808e+01    0.3637026    0.1574789  40.13  0.001748314    2.974    0.664
        54 -10.6611     19.1781     57.1562   1.2872308459e+02   6.3098970913e+01    0.3447861    0.1566513  38.03  0.001769567    2.798    0.643
        55 -10.8613    161.0353    247.9513   1.2559043969e+02   3.2269745749e+00    0.3797629    0.2093776  68.80  0.001694383    3.732    0.732
        56  -9.4834     46.5582    248.8828   1.4518646854e+02   1.9555436001e+01    0.2452438    0.1020054  63.64  0.001217193    2.017    0.504
        57 -11.0329     35.0734    245.4013   1.4682476270e+02   2.1483897857e+01    0.4229907    0.2273675 -62.53  0.002812962    2.354    0.575
