#   1 NUMBER                 Running object number                                     
#   2 MAG_AUTO               Kron-like elliptical aperture magnitude                    [mag]
#   3 X_IMAGE                Object position along x                                    [pixel]
#   4 Y_IMAGE                Object position along y                                    [pixel]
#   5 X_WORLD                Barycenter position along world x axis                     [deg]
#   6 Y_WORLD                Barycenter position along world y axis                     [deg]
#   7 A_WORLD                Profile RMS along major axis (world units)                 [deg]
#   8 B_WORLD                Profile RMS along minor axis (world units)                 [deg]
#   9 THETA_WORLD            Position angle (CCW/world-x)                               [deg]
#  10 FWHM_WORLD             FWHM assuming a gaussian core                              [deg]
#  11 ELONGATION             A_IMAGE/B_IMAGE                                           
#  12 ELLIPTICITY            1 - B_IMAGE/A_IMAGE                                       
         1 -14.8218    245.7143     11.8396   3.4740161733e+02   2.5230299578e+01     1.914635    0.4910312 -37.83  0.009544268    2.433    0.589
         2 -12.7398     20.3688     26.0945   4.0705360525e+01   7.2821463489e+01     0.737684    0.3211221 -36.60  0.003115975    2.528    0.604
         3 -12.1027      1.6841     21.6294   5.3590739157e+01   7.5677588878e+01    0.5230572    0.1515687 -60.45  0.002008639    3.316    0.698
         4 -11.8245     11.6682      1.8054   3.1763840640e+01   7.8142030803e+01    0.4478246    0.1966381  40.54   0.00215773    2.223    0.550
         5 -13.2666      9.4305     14.8263   4.3020691861e+01   7.6275718507e+01    0.6418612    0.4227991  -8.59  0.003563211    1.635    0.388
         6 -12.4943      9.5142      7.2120   3.7885596613e+01   7.7594396138e+01    0.4582269    0.3194491 -12.22  0.002062798    1.464    0.317
         7 -12.2777     16.2213      8.2996   3.2871938606e+01   7.6494449048e+01    0.4249122    0.2508018 -23.48  0.002147478    1.902    0.474
         8 -11.5218     19.6839      2.3226   2.5605088803e+01   7.6807385149e+01    0.3441757    0.2051529  23.36  0.001823211    1.785    0.440
         9 -12.7629     23.2040     12.9931   3.0814709367e+01   7.4688889795e+01    0.4198111    0.2833761 -10.94  0.002274643    1.722    0.419
        10 -11.7633     29.9999      4.9887   2.0669782452e+01   7.4621570569e+01    0.4487867    0.1732924 -36.78  0.001953752    2.790    0.642
        11 -11.9988      2.2471      4.1070   4.2781571708e+01   7.8971856126e+01    0.4406105    0.2191871 -44.93  0.002110371    1.937    0.484
        12 -10.6835     38.5025      5.0183   1.5964876578e+01   7.2943286173e+01    0.2805343    0.1288639 -19.70  0.001220806    2.734    0.634
        13 -11.9040    108.9866    241.3047   5.4822004423e+01   1.0364457932e+01    0.2172359    0.1646805  59.60  0.001357794    1.669    0.401
        14 -12.3470    247.3659    226.5651   2.7082864158e+01  -2.7675535692e+00    0.4136697    0.1691078 -27.40  0.002480197    2.017    0.504
        15 -11.4321    248.0229    233.7879   2.8049057605e+01  -3.6560513654e+00    0.2263974    0.1167122 -29.05  0.001173244    1.560    0.359
        16 -12.7840    243.2971    245.2233   3.0376425183e+01  -4.5272573625e+00    0.5239909    0.2088778 -24.06  0.003130784    2.233    0.552
        17 -11.5427    248.9973    249.1113   3.0080835136e+01  -5.4247585750e+00    0.3207156    0.1652259 -22.56  0.002336189    1.499    0.333
        18 -12.2578    249.1548    240.7778   2.8889226331e+01  -4.5342976016e+00    0.4103741    0.1725082 -30.33  0.002656065    1.921    0.480
        19 -12.6175    234.1367    244.3764   3.1640154426e+01  -3.6356363578e+00    0.3949939    0.1822349 -16.86  0.002397995    2.096    0.523
        20 -10.4145    212.9972    250.2440   3.5822898923e+01  -2.3827367166e+00    0.1359186   0.07147043  21.67 0.0008926892    1.627    0.386
        21 -11.7324     65.2589    249.4241   6.5252400949e+01   1.3933511016e+01    0.3562887    0.1588203  37.29  0.001874209    1.702    0.412
        22 -11.1092     51.2025    250.0871   6.8406368487e+01   1.5302183273e+01    0.2887411    0.1281493  32.36  0.001526757    1.692    0.409
        23 -10.0866     27.7945    250.3738   7.3550142630e+01   1.7567528104e+01    0.1616209    0.1162268  50.25  0.001097312    1.129    0.114
        24 -11.5268     21.2991    248.8319   7.4892397867e+01   1.8458981548e+01    0.3801726    0.1728699  42.71  0.002089507    1.606    0.377
        25 -10.9061     11.2937    248.8281   7.7046042035e+01   1.9352331334e+01    0.3953299     0.135277  42.93  0.002039059    1.980    0.495
        26 -10.8418     62.4537    241.3547   6.5276466474e+01   1.5723839421e+01     0.335415    0.1321535  46.76  0.001561424    2.282    0.562
        27 -11.4952     54.2785    240.4319   6.7072891648e+01   1.6782551571e+01    0.3406786    0.1810612  62.48  0.001786526    2.113    0.527
        28 -10.9900     38.4769    241.4543   7.0729699784e+01   1.8219768442e+01    0.2914935    0.1131722  52.44  0.001375398    2.354    0.575
        29 -12.1378     16.9334    239.6329   7.5481911427e+01   2.0619821057e+01     0.628621    0.1899044  42.19  0.002969325    2.235    0.553
        30 -12.2592    241.9865    237.2881   2.9443591298e+01  -3.5234300510e+00    0.3750765    0.1711377 -19.38  0.002195708    1.992    0.498
        31 -11.6553     83.9036    239.2471   6.0215961422e+01   1.3690429461e+01     0.339461    0.1469193  48.92  0.001551364    2.484    0.597
        32 -10.7669     45.5370    237.1310   6.8856012193e+01   1.8340781687e+01    0.3136596    0.1528009  56.10  0.001604482    2.018    0.504
        33 -12.3492    231.5243    234.6177   3.0646707574e+01  -2.2606461817e+00    0.2673783    0.1524529 -10.50  0.001823476    1.501    0.334
        34 -11.6978     89.9420    247.6090   5.9642913054e+01   1.1501379434e+01    0.3087697    0.1775813  54.46  0.001688613    2.034    0.508
        35 -11.1324      7.2002    235.2042   7.7493019093e+01   2.2345045350e+01    0.2542533    0.1531303  66.76  0.001234267    1.485    0.326
        36 -11.7177     32.5667    232.3920   7.1575972198e+01   2.0593256472e+01    0.4073383    0.2088253  61.94  0.002154185    1.926    0.481
        37 -10.2199      1.3992    234.6458   7.8766952805e+01   2.2937728221e+01    0.2052926   0.09949627  85.02  0.001130174    2.084    0.520
        38 -11.0792     63.5399    230.8847   6.4194189341e+01   1.7621351479e+01    0.3486045    0.1693378  67.72  0.001524195    3.012    0.668
        39 -11.7436     22.0574    229.3994   7.3869703454e+01   2.2205310413e+01    0.4368568    0.2628348  55.18  0.002585391    1.414    0.293
        40 -11.5859      5.9773    227.6256   7.7518386748e+01   2.3986609783e+01      0.39237    0.2003811  79.04  0.002164006    1.931    0.482
        41 -11.8443      2.4401    220.7475   7.8112540448e+01   2.5715459420e+01    0.4099014    0.2021766  81.66  0.002015115    1.987    0.497
        42 -12.1184    236.9004    227.6345   2.8794566281e+01  -1.9291909385e+00    0.2983575    0.1174341 -28.60  0.001692571    2.185    0.542
        43 -10.8505     12.1383    226.4640   7.6052352724e+01   2.3702498125e+01    0.3131446     0.128205  51.45   0.00155181    1.962    0.490
        44 -10.5458     40.5642    230.7074   6.9603884133e+01   2.0132000581e+01    0.2772203    0.1212287 -81.07  0.001313452    2.723    0.633
        45 -10.5616     44.1412    221.2203   6.8109359590e+01   2.1719790836e+01    0.2582445    0.1319198  62.71  0.001250681    2.115    0.527
        46 -12.0437     15.4305    218.7926   7.4949765127e+01   2.5033666577e+01    0.7394458    0.1808356  48.93  0.002890447    3.089    0.676
        47 -11.6522    239.8071    219.5260   2.7135248453e+01  -1.2226914512e+00    0.2244921    0.1275883 -12.72   0.00150104    1.523    0.343
        48 -12.4706    248.1043    214.0851   2.5085959859e+01  -1.3530382985e+00    0.4006588    0.1907111 -29.81  0.002571743    1.651    0.394
        49 -11.2343     25.5412    211.2343   7.2073701804e+01   2.5754187529e+01    0.4619955    0.2269233  89.71  0.002244357    2.218    0.549
        50 -11.6953      3.0945    212.4445   7.7678724259e+01   2.7452917421e+01    0.4195819    0.2425565  60.26  0.002165564    1.463    0.317
        51 -11.1120      2.4494    206.1111   7.7612613852e+01   2.8909022768e+01    0.3145484    0.1955507  68.13  0.001660919    1.416    0.294
        52 -12.0508     13.1996    204.7865   7.4852682177e+01   2.8321836874e+01    0.5822067    0.2715165  58.64  0.002835441    1.933    0.483
        53 -11.0729     34.9283    215.7453   7.0006082523e+01   2.3843511682e+01    0.3758844    0.1529884  53.57  0.001664054    2.328    0.570
        54 -10.6252    250.4273    200.2604   2.2583257893e+01   1.2359322313e-01    0.3068424   0.07972807 -35.56  0.001413812    3.067    0.674
        55 -10.4465    243.5687    199.7251   2.3471725346e+01   8.8587703259e-01    0.2154739   0.08084617 -32.44  0.001150326    2.160    0.537
        56 -12.2744      3.7423    188.2473   7.6571069771e+01   3.2951480497e+01    0.3813326    0.2424278  73.22  0.001833605    1.421    0.296
        57 -12.4910     18.7893    194.1122   7.2825265799e+01   3.0303138766e+01    0.8952217    0.2788098  58.96  0.003167122    3.523    0.716
        58 -12.8022      5.8207    196.0085   7.6355316406e+01   3.0955175234e+01     0.600566    0.3750853  71.43  0.003004624    1.450    0.311
        59 -11.8208     27.8515    187.5272   6.9914677611e+01   3.1033053541e+01    0.4362926    0.1799633  50.64  0.001839151    2.236    0.553
        60 -10.4610    249.5840    184.2751   2.0083794273e+01   2.2550684050e+00    0.2109588   0.08295312 -38.08  0.001142895    2.099    0.524
        61 -11.0766     16.2795    182.2149   7.2797127762e+01   3.3394020976e+01    0.4087985    0.1972699  68.99  0.001829049    2.112    0.526
        62 -13.6898      6.2664    174.7193   7.5221370012e+01   3.6067272489e+01     1.043063    0.4813704  85.32  0.004671879    2.135    0.532
        63 -11.7645     31.0408    172.9081   6.7820629804e+01   3.4342981644e+01    0.5916733    0.2073317 -84.79  0.002001899    3.542    0.718
        64 -12.2124     10.5400    166.6498   7.3497128302e+01   3.7777917123e+01    0.3407362     0.181983  73.29   0.00122437    1.840    0.456
        65 -11.9717     19.3953    172.2506   7.1228950666e+01   3.5609336505e+01    0.5364238    0.2708129  83.98  0.002385542    2.070    0.517
        66 -13.4534     10.8739    153.9564   7.2538382220e+01   4.1051062589e+01     1.014173    0.4391977  58.63  0.004144199    2.341    0.573
        67 -10.8729     34.8908    146.7526   6.3909185474e+01   4.0788756653e+01    0.4262663    0.1855645  69.55  0.001391252    3.472    0.712
        68 -11.5962     20.4688    141.9567   6.8312518845e+01   4.3473954435e+01    0.4892765    0.2619958 -89.29  0.002128218    1.912    0.477
        69 -12.2050      9.8683    137.2060   7.1575186389e+01   4.5602341069e+01    0.6457516    0.3147325 -75.90  0.002834626    1.872    0.466
        70 -10.6211     32.7230    133.3040   6.2966025527e+01   4.4658059351e+01    0.4757262    0.1394424 -80.05  0.001219229    5.170    0.807
        71 -12.0086      5.5252    125.6317   7.2168399794e+01   4.9039187757e+01    0.6886693     0.372492  75.62  0.003081687    1.896    0.473
        72 -11.4608     21.8504    123.4569   6.5739037278e+01   4.8401618122e+01    0.6907649    0.2124004 -73.37  0.002291905    3.048    0.672
        73 -11.9472     10.0393    113.4699   6.9214647823e+01   5.2067719523e+01    0.7650401    0.3505143 -89.35  0.003037943    2.310    0.567
        74 -10.7111     21.8288    107.6983   6.3572877124e+01   5.2730274564e+01    0.3430553    0.1892331 -74.30  0.001500593    1.729    0.422
        75 -11.1983     13.9316     99.4654   6.5770171813e+01   5.5620716528e+01    0.4359812    0.2026663 -73.96  0.001799492    2.002    0.501
        76 -11.5868      2.7177     95.3654   7.0288338716e+01   5.7444599619e+01    0.6661388    0.2769728 -87.32  0.002571386    2.522    0.603
        77 -11.6302     16.6314     84.8180   6.2074422585e+01   5.9356553282e+01    0.6922678    0.1428759 -61.78   0.00216665    3.425    0.708
        78 -11.7020      9.3183     71.4373   6.3274950425e+01   6.3407390269e+01    0.6799783    0.2312648 -46.42  0.002529599    2.697    0.629
        79 -11.7616     16.3161     53.5253   5.4684107757e+01   6.7322097286e+01     0.710148    0.2747781 -65.65   0.00274067    2.670    0.625
        80 -12.1061      2.9735     51.2004   6.2594939520e+01   6.8885671165e+01    0.6493996     0.234567 -59.07  0.002714385    2.237    0.553
        81 -10.8131     24.6984     42.8134   4.5559328528e+01   6.8855903430e+01    0.4342439    0.1915029 -38.46  0.001748993    2.480    0.597
        82 -12.4959     12.5078     39.6533   5.2485907485e+01   7.0880834511e+01    0.7186212    0.2591247 -50.38  0.002959348    2.385    0.581
        83 -11.8986      1.4615     38.3165   6.0094255625e+01   7.2028764259e+01    0.5615916    0.1248342 -68.23  0.001754635    4.545    0.780
        84 -10.6815    200.7110    249.3021   3.7764695609e+01  -1.0820611294e+00    0.2246514    0.1036592   7.87  0.001179711    2.511    0.602
        85 -10.9011     37.5600     28.5599   3.0929246909e+01   6.9724838321e+01    0.4054978    0.1250096 -38.86  0.001397097    3.562    0.719
        86 -11.3923    125.5141    250.0000   5.2245928623e+01   6.9984260328e+00    0.2720623    0.0550338  28.85  0.000940392    3.980    0.749
        87 -12.4717     99.4644    246.1788   5.7414861831e+01   1.0649709978e+01    0.4973361    0.2893756  63.22  0.002525683    2.703    0.630
        88 -11.4814     77.0077    248.2457   6.2556344326e+01   1.2852264045e+01    0.3224707    0.1799293  49.87  0.001805485    1.765    0.433
        89 -11.2022     35.1814    248.3067   7.1835902040e+01   1.7244248769e+01    0.3134481    0.1496317  43.73  0.001579779    1.601    0.375
        90 -11.2544     83.5922    246.9041   6.0981784101e+01   1.2348559203e+01    0.2656291    0.1148321  40.55  0.001327867    1.921    0.479
        91 -12.3577      3.9988    242.9765   7.8433808428e+01   2.1087684031e+01    0.5275247    0.2589087  65.09  0.002818232    1.812    0.448
        92 -11.0992     45.7631    244.9131   6.9293787773e+01   1.6822867466e+01    0.2750025    0.1829547  59.74  0.001629082    1.447    0.309
        93 -10.5481     35.3012     15.7038   2.4776781902e+01   7.2187276318e+01    0.2689501    0.1567914 -11.10  0.001191401    2.571    0.611
        94 -12.0814    224.0848    242.0346   3.2881355901e+01  -2.4476498318e+00     0.370006    0.1406332 -38.97  0.002083764    2.609    0.617
        95 -11.6405     72.7336    241.2069   6.2926768672e+01   1.4608863844e+01    0.3335798     0.185593  68.82  0.001681581    2.515    0.602
        96 -11.1019     29.8071    242.2237   7.2721215525e+01   1.8920189722e+01    0.3804026    0.1426804  40.04  0.001907007    1.914    0.477
