#   1 NUMBER                 Running object number                                     
#   2 MAG_AUTO               Kron-like elliptical aperture magnitude                    [mag]
#   3 X_IMAGE                Object position along x                                    [pixel]
#   4 Y_IMAGE                Object position along y                                    [pixel]
#   5 X_WORLD                Barycenter position along world x axis                     [deg]
#   6 Y_WORLD                Barycenter position along world y axis                     [deg]
#   7 A_WORLD                Profile RMS along major axis (world units)                 [deg]
#   8 B_WORLD                Profile RMS along minor axis (world units)                 [deg]
#   9 THETA_WORLD            Position angle (CCW/world-x)                               [deg]
#  10 FWHM_WORLD             FWHM assuming a gaussian core                              [deg]
#  11 ELONGATION             A_IMAGE/B_IMAGE                                           
#  12 ELLIPTICITY            1 - B_IMAGE/A_IMAGE                                       
         1 -14.8894     15.1128    164.7694   1.4965878050e+02   3.8741963851e+01     6.469022     1.566711  85.38   0.02156697    5.337    0.813
         2 -11.8247      2.2925     33.1001   1.4349560443e+02   7.0645085411e+01     1.274001    0.1950115 -78.41  0.003280983    7.097    0.859
         3 -13.2710      4.1172      8.6495   1.3602366773e+02   7.6220551773e+01        1.615    0.9989517 -45.22  0.009774484    1.281    0.219
         4 -13.6149    204.4464     10.0801   6.4536816755e+01   3.1840779416e+01     1.595611     1.082862  39.82  0.008140706    1.735    0.424
         5 -13.2836    190.7390     28.2167   7.1393536239e+01   3.3486085630e+01     1.315227     1.208967  78.57  0.005958826    1.076    0.071
         6  -9.7876     81.8356    249.0809   1.4002518784e+02   1.6502798239e+01    0.1765342    0.1058748  49.96  0.001235851    1.302    0.232
         7 -10.8709    139.1395    248.3414   1.2907987064e+02   9.3493963848e+00    0.2799335    0.1884753 -41.65  0.001994289    2.068    0.516
         8 -11.2031    126.0641    249.0552   1.3161839845e+02   1.0977611898e+01    0.3282084    0.1723861  22.60  0.001897754    1.977    0.494
         9 -10.3354     98.7788    250.0088   1.3687784766e+02   1.4322059458e+01     0.268979    0.1635814  23.30  0.001757341    1.678    0.404
        10 -10.5057    101.8921    247.1086   1.3606132831e+02   1.4340529310e+01     0.247336    0.1556629  54.48  0.001010835    1.504    0.335
        11  -8.6095     67.4545    250.5173   1.4281489098e+02   1.7949138317e+01    0.1087722   0.07230185  46.32 0.0008080968    1.053    0.050
        12  -9.6681     25.1305    247.0739   1.5043360195e+02   2.2824279681e+01    0.2337876   0.07632507  43.57  0.001078744    1.826    0.452
        13  -9.8172     29.0244    249.6572   1.4981327670e+02   2.2064578430e+01    0.2225424    0.1192067  47.72 0.0007475868    1.228    0.186
        14 -10.8846     35.1379    244.9795   1.4855178405e+02   2.2189436918e+01    0.4911552    0.3095035 -72.66  0.003744884    2.000    0.500
        15 -10.5815      2.0902    248.9905   1.5450720087e+02   2.4552550462e+01    0.4377368     0.145254  88.25  0.002667665    3.082    0.676
        16 -10.4120      5.5901    241.1775   1.5377594155e+02   2.5465373089e+01    0.1534232    0.1178238  38.27 0.0003382071    1.329    0.247
        17 -10.4893      2.4551    240.5001   1.5431725850e+02   2.5830629200e+01    0.2287984     0.139105  75.67  0.001378416    1.467    0.318
        18 -10.0301     81.5267    242.1111   1.3962232832e+02   1.7565827694e+01    0.2899991    0.1099249  52.24  0.001519618    2.380    0.580
        19  -9.2103     72.1796    241.2804   1.4137859187e+02   1.8792270412e+01    0.1678037    0.1370828 -34.93  0.001272714    1.908    0.476
        20  -9.4819     12.6912    241.0800   1.5251119683e+02   2.4875627635e+01    0.1767519   0.06909016  80.75  0.001088332    2.530    0.605
        21  -9.8794    194.4593    237.9868   1.1766476853e+02   3.1154044962e+00    0.1410997    0.1035674 -20.99 0.0007718058    1.608    0.378
        22  -9.4189    183.4685    238.5103   1.1971468244e+02   4.5405722796e+00    0.1159197    0.0805688  23.98 -7.338781e-06    1.023    0.022
        23 -10.1170    233.0096    235.9893   1.1078831958e+02  -1.6711404459e+00      0.17983    0.1515403 -45.28  0.001314611    2.603    0.616
        24 -12.1102     21.2685    200.6058   1.4967621742e+02   3.1068908522e+01    0.7423566   0.06400097  41.25  0.001845849    3.432    0.709
        25 -13.5755      8.1532    207.3353   1.5259718149e+02   3.0948881585e+01     1.397266    0.7803365 -83.93  0.005230224    1.817    0.450
        26 -11.8402      2.4007    152.4565   1.5238221549e+02   4.2284295693e+01    0.6090117    0.2372611  86.35  0.003047948    2.278    0.561
        27 -10.3776    248.7926    249.0606   1.1009968057e+02  -4.6684549369e+00    0.2779497    0.1196549  18.31  0.001701648    1.949    0.487
        28 -10.6757    141.2399    230.5421   1.2678873019e+02   1.1404161043e+01    0.3103375   0.08985267  34.20  0.001318672    2.651    0.623
        29  -8.7037    152.5087    212.9140   1.2236879546e+02   1.2243534084e+01    0.1403302    0.1233469 -33.58 0.0003624073    1.448    0.309
        30 -14.1347     55.0338    212.1537   1.4305228589e+02   2.5561859962e+01     7.672877          nan  39.43   0.02155586    6.718    0.851
        31 -10.0783    193.9975    197.1552   1.1178656198e+02   8.0311146358e+00    0.4135186    0.2293947 -56.11  0.001682122    4.900    0.796
        32 -11.2303     65.8479    198.5427   1.3972443437e+02   2.6801158390e+01     0.311241    0.2265182 -40.41  0.001366696    1.987    0.497
        33  -8.5696     51.3991    197.2178   1.4289348329e+02   2.8714675027e+01    0.1452061   0.09553756  75.23 0.0003388769    1.482    0.325
        34 -10.0159     42.7685    192.2738   1.4453593241e+02   3.0590008920e+01    0.4699444    0.2270932  38.82  0.000950559    1.621    0.383
        35 -11.5566     71.3166    190.7671   1.3781199855e+02   2.7612060843e+01    0.2306045    0.2292351  74.79 0.0004464076    1.279    0.218
        36 -10.6934     80.6267    178.0140   1.3431131960e+02   2.8921221595e+01     0.223073    0.1986144  51.03 0.0004068144    1.074    0.069
        37 -13.0429     67.8948    175.9221   1.3725739940e+02   3.1003823407e+01    0.4603153    0.2817972 -42.01  0.001837773    2.322    0.569
        38  -8.2276    171.0241    173.0267   1.1231582629e+02   1.5282058062e+01    0.1604621    0.1338053  22.00 0.0003398199    1.013    0.013
        39 -11.6794     87.8397    168.2700   1.3135404934e+02   2.9910482319e+01     0.657131    0.5359558  36.81  0.003971929    1.126    0.112
        40 -11.4948      8.7364    226.3568   1.5291722726e+02   2.7599058956e+01    0.4134409    0.1909217 -80.72  0.002724465    2.317    0.568
        41 -13.0772      2.4947    181.8716   1.5317386146e+02   3.6191861452e+01      1.82749    0.6002764 -81.16  0.006908588    2.850    0.649
        42  -9.8107     99.7554    152.4662   1.2599094566e+02   3.1440860184e+01    0.2565489    0.2424306  49.14 0.0006984465    1.064    0.060
        43 -11.9238     88.4903    151.7852   1.2894908426e+02   3.3329953256e+01    0.2687753    0.2468802  -2.80 0.0005688342    1.291    0.226
        44 -12.3877     67.1184    143.9986   1.3389088205e+02   3.8069235792e+01    0.7973467    0.4991103  64.67  0.003612224    1.707    0.414
        45 -11.4031     57.8304    132.4579   1.3515297301e+02   4.1926265591e+01     1.303436    0.4693342 -86.44  0.003172958    7.661    0.869
        46  -8.8826    102.5694    148.2058   1.2454207593e+02   3.1900528706e+01    0.1817564    0.1325865 -43.62   0.00043447    1.579    0.367
        47  -9.6807    183.4918    146.6426   1.0455501394e+02   1.7221858383e+01    0.2409527    0.2276108 -77.61 0.0005643508    1.465    0.317
        48  -8.9135    180.0783    142.8703   1.0447443540e+02   1.8494719998e+01    0.1982463    0.1844687  41.91 0.0003290829    1.233    0.189
        49 -10.4800    189.3568    152.7988   1.0462088413e+02   1.5147684021e+01    0.3738424    0.2993965  88.21  0.001632302    2.369    0.578
        50  -8.3105    192.2070    143.9801   1.0220779507e+02   1.5978850669e+01    0.1666141    0.1078637 -31.77 0.0003805639    1.593    0.372
        51  -9.5848    110.5903    137.2269   1.2038547903e+02   3.2911027742e+01    0.3414966    0.2304942 -18.48   0.00127139    2.309    0.567
        52 -10.1755     86.5515    136.4625   1.2712171527e+02   3.7056646751e+01     0.273436    0.2057905  59.90 0.0005147779    1.347    0.258
        53  -9.2277     32.4031    228.0391   1.4844474200e+02   2.5175785985e+01    0.1595468     0.106437  45.98 0.0004571535    1.091    0.083
        54 -10.3817     98.0437    134.6669   1.2346489006e+02   3.5628674131e+01    0.2728174    0.2314505  -6.01 0.0005636858    1.445    0.308
        55 -10.5474    173.5941    222.3547   1.1945239488e+02   7.8542891950e+00    0.3723291    0.2356335  50.79  0.002180194    2.034    0.508
        56 -12.4211     40.5692    233.2112   1.4707197200e+02   2.3512666821e+01    0.2392597    0.2252875  50.68 0.0007734409    1.393    0.282
        57  -9.9761    163.0812    127.5802   1.0484183602e+02   2.4574689910e+01    0.3925813    0.2847832  80.71  0.001586862    2.448    0.592
        58  -9.4551    107.5117    124.0101   1.1862911223e+02   3.6376285020e+01    0.2101007    0.1852228  40.09 0.0002699951    1.067    0.063
        59 -13.8081     46.6787    225.7543   1.4552969140e+02   2.4114032844e+01    0.8476641    0.5739045  58.13  0.003815573    1.184    0.155
        60  -9.6808    229.6198    229.8758   1.1046799694e+02  -6.7052286245e-01    0.1931104    0.1722705 -58.38  0.001370863    2.771    0.639
        61 -10.3931    167.9812    113.2017   1.0025732553e+02   2.6127681865e+01    0.3322984    0.3002684  82.83 0.0009678538    1.389    0.280
        62  -9.3690    203.2132    111.5592   9.2661950006e+01   1.8791801738e+01     0.202915    0.1241677  34.86  0.000938866    1.657    0.397
        63  -9.5431     35.0160     93.1319   1.3748899066e+02   5.3992636678e+01     0.312843    0.1528201  38.65  0.001052403    2.057    0.514
        64  -8.1533     75.7391     87.7155   1.2076439481e+02   5.0358150409e+01     0.142177    0.1119934 -24.96 0.0001599224    1.484    0.326
        65  -9.6500    240.6740     83.3092   7.9902363783e+01   1.5022917384e+01    0.1317136   0.09597515 -54.15 0.0003075622    1.656    0.396
        66 -11.7584      5.8012     62.6482   1.4576982670e+02   6.3385860194e+01     0.468394    0.4128464  18.35  0.001207481    1.337    0.252
        67 -11.8352      2.0665     51.1236   1.4624808483e+02   6.6313333289e+01    0.8523506    0.1813238 -78.66  0.002885062    3.927    0.745
        68 -10.8681     14.9618     65.6966   1.4190335481e+02   6.2251500567e+01    0.3359071    0.2122748  30.71 0.0009572707    1.754    0.430
        69  -9.1320     31.7067     61.6217   1.3320230018e+02   6.2163754529e+01     0.220691    0.1610272  35.53 0.0008116376    1.501    0.334
        70 -10.8135     11.7478     54.8036   1.4181848200e+02   6.5093050789e+01    0.3734034    0.1391193  23.35  0.001230266    2.875    0.652
        71  -9.2823     47.1489    248.9458   1.4650095544e+02   2.0373432492e+01    0.1650654   0.09330133  51.22 0.0004888875    1.261    0.207
        72 -10.0801     10.2779    249.4052   1.5310662017e+02   2.3800365250e+01    0.2147369    0.1004016  27.52  0.001434458    2.041    0.510
        73  -9.1107    152.3453    248.2984   1.2660286586e+02   7.5985796241e+00    0.1122318   0.06929729  16.01 0.0002889597    1.676    0.403
