#   1 NUMBER                 Running object number                                     
#   2 MAG_AUTO               Kron-like elliptical aperture magnitude                    [mag]
#   3 X_IMAGE                Object position along x                                    [pixel]
#   4 Y_IMAGE                Object position along y                                    [pixel]
#   5 X_WORLD                Barycenter position along world x axis                     [deg]
#   6 Y_WORLD                Barycenter position along world y axis                     [deg]
#   7 A_WORLD                Profile RMS along major axis (world units)                 [deg]
#   8 B_WORLD                Profile RMS along minor axis (world units)                 [deg]
#   9 THETA_WORLD            Position angle (CCW/world-x)                               [deg]
#  10 FWHM_WORLD             FWHM assuming a gaussian core                              [deg]
#  11 ELONGATION             A_IMAGE/B_IMAGE                                           
#  12 ELLIPTICITY            1 - B_IMAGE/A_IMAGE                                       
         1 -11.7780    217.1084     37.3147   3.6136516454e+01   2.7430109514e+01    0.8618243    0.5591401 -58.26  0.004380177    1.376    0.273
         2 -11.4575    224.1527     31.5867   3.4213107048e+01   2.6663207065e+01    0.5692484    0.4449716  40.76  0.002060715    1.844    0.458
         3 -11.5429    239.1077     18.6965   3.0355221255e+01   2.5162335322e+01     0.642283    0.4575207 -62.94  0.002811045    1.114    0.102
         4 -10.2884      2.1630     13.3167   8.8357431955e+01   7.2967400595e+01    0.3728221   0.09343268 -49.54  0.001527065    3.937    0.746
         5  -9.4660     12.4096      7.2736   7.9140677370e+01   7.2937461081e+01     0.211063   0.08865114 -33.81  0.001059713    2.131    0.531
         6 -10.9807    126.8692    230.8877   9.6069569422e+01   8.0618715145e+00    0.5718122    0.3236679  48.58  0.002740215    1.808    0.447
         7 -12.5334     68.6739    243.4585   1.1028243110e+02   1.3916826225e+01     1.945072    0.9591494  20.69    0.0084437    3.016    0.668
         8 -11.0843     57.5110    240.8032   1.1238529723e+02   1.5883066025e+01    0.6101055    0.3964862  85.27  0.001978909    1.589    0.371
         9 -13.0349      8.7593    207.7310   1.2023491391e+02   2.8377583680e+01     1.660402    0.9629752 -76.56  0.005341297    1.510    0.338
        10 -12.2013     36.3276    249.0769   1.1728705030e+02   1.6731537991e+01     2.016595    0.5836782  28.91  0.007843248    4.022    0.751
        11 -11.2006     15.3917    248.5373   1.2124619957e+02   1.9081030349e+01    0.7267889    0.5645441  48.35  0.003879174    1.237    0.192
        12 -11.5880      3.2172    245.8170   1.2335616759e+02   2.0807119611e+01      1.77005    0.4249057 -81.34  0.007232519    4.036    0.752
        13 -11.3629     22.8848    203.5487   1.1684424081e+02   2.8007850456e+01    0.4290563    0.3477599 -42.42 0.0009048864    1.600    0.375
        14 -13.8179     33.6353    193.1101   1.1344558489e+02   2.9377615474e+01     8.061574     2.963029  83.31   0.02241429    6.053    0.835
        15 -10.3761     84.0031    218.3478   1.0422947313e+02   1.7135518736e+01    0.4515052    0.2774923 -85.12  0.002174844    2.005    0.501
        16  -8.2719    144.6622    227.6666   9.1627347376e+01   5.9089902969e+00    0.1408363    0.1008949  -4.30 -6.060553e-05    1.744    0.427
        17  -8.1411    163.6770    217.6841   8.5811770290e+01   4.7835339856e+00    0.1426714    0.1010727  -3.71 0.0004817703    1.664    0.399
        18  -9.2281     22.4180    223.5079   1.1838458007e+02   2.3563153175e+01    0.2853148    0.1670871  69.49  0.001639382    1.523    0.344
        19  -9.6754     47.9345    182.2517   1.0873037122e+02   3.0446069699e+01    0.5234386    0.2294309  45.42  0.001988576    2.246    0.555
        20 -10.4489      1.8341    163.8660   1.1872758492e+02   3.9321225853e+01    0.5277041    0.1634841 -74.55  0.002161637    2.567    0.610
        21 -10.5592      2.6909    178.8465   1.1965691068e+02   3.5623311647e+01    0.4314915    0.2043055 -74.47  0.002207494    1.734    0.423
        22 -10.0920     53.4785    177.2638   1.0666624093e+02   3.1030808603e+01    0.4684851    0.2895227 -34.02  0.002124646    2.241    0.554
        23 -10.1583     59.7185    171.5495   1.0421784066e+02   3.1695102373e+01    0.3358719    0.2742269 -38.87 0.0008453156    1.391    0.281
        24  -8.4376     72.9435    173.0369   1.0083536561e+02   2.9532598563e+01    0.2108407    0.1986846 -67.68  0.001199755    1.066    0.062
        25  -9.4412     91.8223    167.9939   9.4827308485e+01   2.7959445999e+01    0.4353565    0.1538285  52.59  0.001108934    5.229    0.809
        26  -9.9570     70.6450    162.0087   9.9719679285e+01   3.2668719025e+01     0.366915    0.2532717 -59.03 0.0003917148    1.367    0.268
        27 -11.6118     57.0140    158.2000   1.0300319075e+02   3.5462613574e+01    0.5564379    0.3175171 -39.42  0.001403135    2.104    0.525
        28 -11.1728     78.0097    155.4804   9.6483066997e+01   3.3281048351e+01    0.8012164    0.6295536  14.52  0.002048572    1.497    0.332
        29 -11.9082     11.2599    233.2802   1.2122068116e+02   2.2588386699e+01     1.236991    0.5037415 -86.13  0.003611823    2.320    0.569
        30 -11.1644     69.7001    146.0143   9.7207253746e+01   3.6928487305e+01    0.6354333    0.4908215  37.07  0.001716595    1.359    0.264
        31 -11.0191     67.5455    142.5045   9.7207418091e+01   3.8137321133e+01    0.8243829    0.3446826  42.06  0.001237105    2.535    0.606
        32  -9.6019     94.1667    142.5746   8.9209044356e+01   3.4002606229e+01    0.3984347    0.2614816 -25.54  0.001370755    2.053    0.513
        33 -10.5460     81.9916    140.3669   9.2387649090e+01   3.6551871928e+01    0.3484349    0.2896335 -47.30 0.0005366735    1.164    0.141
        34  -9.9685     75.9888    222.0791   1.0651009184e+02   1.7437211875e+01     0.342475    0.2203757 -80.42 0.0009439604    1.707    0.414
        35 -10.0485     56.6759    127.6612   9.7779607649e+01   4.3403093923e+01    0.3948632     0.246071  86.80  0.001625353    2.373    0.579
        36  -8.9496    106.4420    131.3690   8.3070863890e+01   3.4609450713e+01     0.320855     0.293248 -13.70 0.0008972338    1.157    0.135
        37  -9.5130     93.5929    127.3865   8.5980119114e+01   3.7906675515e+01    0.3300239    0.2468219 -37.29 0.0005386164    1.370    0.270
        38  -8.7048     12.7681    127.6837   1.1192651393e+02   4.7626544631e+01    0.1747879    0.1367652  76.95 0.0007311645    1.343    0.256
        39 -10.7594     58.9385    121.5497   9.5789365927e+01   4.4671306503e+01    0.8226629    0.4351266  54.00  0.001605774    2.656    0.624
        40  -8.0549    104.9908    119.4655   8.0581070301e+01   3.7761141159e+01    0.2380177    0.1965517 -47.79 0.0001120768    1.178    0.151
        41  -8.0528    205.4965    110.3605   5.4594103694e+01   1.8334426584e+01    0.2276504    0.1385535  52.73  0.001057799    1.805    0.446
        42  -8.5846     41.6717     92.0744   9.5259375437e+01   5.3957669732e+01    0.2018925    0.1621846 -45.02 0.0005903937    1.088    0.081
        43  -9.7253      1.8196     85.5526   1.0940524007e+02   5.8539589685e+01    0.3294676    0.1094482 -66.91  0.001390222    2.415    0.586
        44  -8.0297    162.6951     83.6594   5.5924362246e+01   3.2755729770e+01    0.1499926    0.1191535  10.62 0.0007040785    1.680    0.405
        45  -8.3221     59.3817     75.2979   8.3714560983e+01   5.5492722616e+01    0.1507313     0.100988 -12.47 0.0007021085    1.766    0.434
        46  -9.4772      2.3998     73.4760   1.0689025855e+02   6.1281294697e+01    0.2140137    0.1756897 -15.78  0.001147889    1.273    0.214
        47  -9.0590      2.3977     65.7805   1.0524709119e+02   6.2987856650e+01    0.1887793   0.08262815 -52.61 0.0009523921    1.685    0.407
        48  -9.0415     13.1928     59.9290   9.8902434585e+01   6.3624757579e+01    0.1772384    0.1605575 -54.25 0.0006118059    1.256    0.204
        49 -11.6650    209.5750     42.5804   3.8129398722e+01   2.8373474190e+01    0.5457765    0.4735925 -26.18  0.002700194    1.415    0.293
        50  -9.4782    133.4323    227.4357   9.4101100949e+01   7.7182959832e+00    0.2675444    0.1777288  65.41  0.001268361    2.166    0.538
        51  -8.6470     26.3257    239.8505   1.1865353919e+02   1.9695086770e+01    0.2070859    0.1298441  51.20  0.001114827    1.317    0.241
        52  -7.9306    128.7708     28.5905   4.6483509798e+01   4.9036840373e+01    0.1845891    0.1210669  73.50 0.0003144058    1.588    0.370
        53  -9.7641      2.2768     45.1790   1.0001965590e+02   6.7293436101e+01    0.3891945    0.0896742 -59.71  0.001454355    3.745    0.733
        54 -11.8581    112.5873    230.5632   9.9231149939e+01   1.0314095812e+01    0.9861048     0.356788  38.84  0.003958732    2.368    0.578
        55 -11.7549    100.1089    229.1189   1.0186015583e+02   1.2479283871e+01    0.7889802     0.526293  37.06  0.003522399    1.345    0.256
        56  -7.8863    189.6665     15.6833   3.4004877741e+01   3.6063508306e+01    0.1215462   0.08879654  45.36 0.0007047531    1.691    0.409
