#   1 NUMBER                 Running object number                                     
#   2 MAG_AUTO               Kron-like elliptical aperture magnitude                    [mag]
#   3 X_IMAGE                Object position along x                                    [pixel]
#   4 Y_IMAGE                Object position along y                                    [pixel]
#   5 X_WORLD                Barycenter position along world x axis                     [deg]
#   6 Y_WORLD                Barycenter position along world y axis                     [deg]
#   7 A_WORLD                Profile RMS along major axis (world units)                 [deg]
#   8 B_WORLD                Profile RMS along minor axis (world units)                 [deg]
#   9 THETA_WORLD            Position angle (CCW/world-x)                               [deg]
#  10 FWHM_WORLD             FWHM assuming a gaussian core                              [deg]
#  11 ELONGATION             A_IMAGE/B_IMAGE                                           
#  12 ELLIPTICITY            1 - B_IMAGE/A_IMAGE                                       
         1 -12.6565    202.9455     35.6769   4.6547379117e+01   3.0105331897e+01     1.252293     1.011965  29.36  0.005788181    1.582    0.368
         2 -12.0329    217.2545     20.3077   4.0983777535e+01   2.8542181873e+01    0.7680804    0.6783205 -65.58  0.002954561    1.065    0.061
         3  -8.7859     33.0000      7.9896   8.0323113498e+01   7.0369453782e+01    0.1873047   0.05756244 -36.85   0.00080584    2.966    0.663
         4  -9.0908     56.7213      6.5446   6.9048797858e+01   6.7103237778e+01    0.1921975    0.1390964 -39.63 0.0007721227    1.769    0.435
         5  -9.9746     12.3498      5.3322   8.9986417686e+01   7.2920595931e+01     0.259877    0.1557806 -51.19   0.00157436    2.148    0.534
         6  -9.1151    240.4240      1.6019   3.4711064750e+01   2.5313913910e+01    0.3739565    0.1411958  77.02  0.001702857    2.514    0.602
         7  -9.8352     54.0778    230.9461   1.2018804212e+02   2.0016666380e+01     0.264007    0.1533711 -82.66  0.001259567    1.675    0.403
         8 -12.4737     46.8644    221.8496   1.2085801506e+02   2.2676390790e+01     1.203324    0.8607125 -64.06  0.001532084    1.610    0.379
         9 -12.7614     85.8577    227.4863   1.1377176260e+02   1.6394298763e+01     2.422305    0.9046363  54.82   0.01033311    2.730    0.634
        10 -10.3339    149.1406    230.7352   1.0152640008e+02   5.8779068100e+00    0.2515523    0.1910326  27.28  0.001519789    1.296    0.228
        11 -10.4951     54.3861    184.7840   1.1597334945e+02   2.9613310802e+01    0.8671453    0.3012572  51.08  0.003545914    2.841    0.648
        12  -8.1000     99.4976    180.5374   1.0501611801e+02   2.4079564080e+01    0.1382218    0.1269607  71.01 0.0001574901    1.035    0.034
        13 -10.3070     65.8045    178.6404   1.1266419561e+02   2.9531866933e+01    0.4005918    0.2856191 -35.76  0.001671675    2.049    0.512
        14 -10.2889     70.5514    173.2902   1.1086379680e+02   3.0118206316e+01    0.3210767    0.2619038 -34.13 0.0009695228    1.650    0.394
        15  -9.2306     42.1969    179.8695   1.1820053972e+02   3.2173587436e+01    0.1908611    0.1843567 -88.74 0.0008666127    1.305    0.234
        16  -8.6284    114.8643    173.4621   1.0023167519e+02   2.3060917201e+01    0.2393945    0.1673955 -52.66    0.0011802    1.488    0.328
        17  -9.9823     50.9523    181.5101   1.1639863640e+02   3.0774786299e+01    0.4677342    0.2413557 -81.01  0.002120115    1.896    0.473
        18  -9.7325     94.9148    169.1305   1.0434940033e+02   2.7424341202e+01    0.4649652    0.2256995  57.78  0.001815626    2.549    0.608
        19 -10.8658     80.1421    163.3928   1.0711182133e+02   3.1063295289e+01    0.5579816    0.3354737  42.28 0.0005958995    1.646    0.392
        20 -10.7830     86.0408    157.4512   1.0467647490e+02   3.1580098652e+01    0.6410057    0.4447468 -27.19  0.001638941    2.194    0.544
        21 -11.8298     67.3469    159.5666   1.0976082996e+02   3.3794464320e+01    0.4832746    0.3437423 -49.85  0.001226522    1.529    0.346
        22 -12.2364     68.8498    145.3478   1.0719333293e+02   3.7022854404e+01     1.324003    0.7042366 -86.96   0.00522414    2.697    0.629
        23 -14.6524      8.5895    240.7258   1.2873500143e+02   2.3267932777e+01     2.993008     1.759757 -71.76   0.02131884    1.789    0.441
        24 -10.8574     22.4987    155.6665   1.2040067685e+02   3.9769793455e+01    0.3423543    0.2236829 -64.06  0.002055558    1.396    0.284
        25  -9.0139    134.0000    143.0263   8.9570249645e+01   2.6357086533e+01    0.4330077   0.08715594 -49.12  0.001057588    4.991    0.800
        26  -9.1331     32.5796    143.7096   1.1657997062e+02   4.1661469386e+01    0.2659974   0.09627046 -65.03  0.001148069    2.219    0.549
        27 -10.4837     88.4111    141.2415   1.0118106832e+02   3.5110904956e+01    0.2943429    0.2490158 -42.20 0.0005478918    1.284    0.221
        28  -8.5966     82.1794    142.1509   1.0304215202e+02   3.5865848896e+01    0.2053267    0.1916611 -51.37 0.0005094308    1.148    0.129
        29  -9.2163    101.0720    141.2767   9.7769811785e+01   3.2986284751e+01    0.5149429    0.2953869 -33.92  0.002014778    2.496    0.599
        30 -10.5994     58.6525    131.5253   1.0770348626e+02   4.1744259056e+01    0.5448018    0.2105625 -61.89  0.002179043    2.257    0.557
        31  -7.9685    105.6010    130.7372   9.4318490010e+01   3.4703216365e+01    0.2183525    0.1418071 -64.26 0.0009541017    1.644    0.392
        32  -8.9959     97.8857    127.5151   9.5753873293e+01   3.6847964975e+01    0.2810189    0.2186497 -29.16  0.001349996    1.530    0.347
        33  -8.8908    110.6508    131.2236   9.3046736388e+01   3.3656646511e+01    0.3349738    0.2405345  10.86  0.001328914    2.037    0.509
        34 -11.9376      9.4530    188.6058   1.2586108460e+02   3.3534407326e+01    0.7393127    0.3608448 -60.68 0.0008500481    2.126    0.530
        35  -8.0746    134.7746    119.9763   8.3932630258e+01   3.1422006106e+01    0.2150584    0.1282264 -46.06 0.0008754116    1.658    0.397
        36  -8.1690    107.4895    119.8673   9.1293908466e+01   3.6934450425e+01    0.2171991    0.1462074 -51.11 0.0004161523    1.433    0.302
        37  -7.9442    168.7966    113.8240   7.4097240983e+01   2.5133983746e+01    0.2223479     0.187807 -76.05 0.0006259327    1.387    0.279
        38  -9.2908     33.3381    109.8279   1.1153173611e+02   4.9770011007e+01    0.3671185   0.04230422 -57.73  0.001104666    4.262    0.765
        39  -8.0404    205.5152    110.4444   6.5715023712e+01   1.7353135616e+01    0.1501194    0.1421943 -47.35 0.0008074425    1.045    0.043
        40 -11.7670     39.7971    206.4868   1.2105160315e+02   2.6640407820e+01    0.5565053    0.4786901  71.50 0.0009741935    1.172    0.147
        41  -7.9138     41.5084     92.4022   1.0554467909e+02   5.3136338712e+01    0.1321071    0.1133789 -52.19 8.563866e-05    1.028    0.027
        42 -13.1845     49.8591    195.2589   1.1800902943e+02   2.7850179494e+01     2.084653     1.131771  64.49   0.01047686    1.771    0.435
        43  -7.5775     74.3713     84.7307   9.2379625523e+01   5.0741676185e+01    0.1391079    0.1114924  73.42 0.0006995347    1.671    0.402
        44  -7.7167     70.2819     81.6881   9.2913359339e+01   5.2031982076e+01    0.1338359    0.1109395 -89.14 0.0003190863    1.570    0.363
        45  -8.7426     93.9893    220.4747   1.1139998294e+02   1.6550092418e+01    0.1825567    0.1569652  87.06 0.0005480288    1.164    0.141
        46 -10.4516     13.4322     60.1731   1.0868344888e+02   6.2661760882e+01     0.270168    0.1968551 -79.97  0.000933249    1.579    0.367
        47 -14.6583      4.8455    171.7303   1.2571393780e+02   3.7605737716e+01     14.59599     1.014125 -76.50   0.03160222   11.445    0.913
        48  -9.0039    141.3147     46.7291   6.0455155606e+01   4.4100429494e+01    0.3281989    0.2408513 -85.67 0.0007836853    1.822    0.451
        49 -11.6370    193.7144     41.6386   4.9419621964e+01   3.1601183089e+01    0.5631471    0.4315089 -15.62  0.001646917    1.577    0.366
        50 -13.9217     70.1110    247.3285   1.1851226491e+02   1.4924908351e+01     6.286739     1.912357  31.59   0.01813493    5.796    0.827
        51 -10.7160    211.9263     26.5145   4.3096320349e+01   2.9074153330e+01    0.4128161    0.3244244  43.72  0.001158966    1.531    0.347
        52  -8.7947    183.7346    214.9957   9.2217144004e+01   2.6366444587e+00    0.1594991    0.1146135 -38.55 0.0008975728    1.556    0.357
        53  -8.0176    144.4451     41.2779   5.7960080551e+01   4.4115296793e+01    0.2001749    0.1325846 -45.24  0.000929013    1.628    0.386
        54  -9.5839     55.0504    222.9801   1.1937840214e+02   2.1443085894e+01    0.3532069    0.1426265  57.72  0.001165214    2.309    0.567
        55 -13.3154      9.3200    207.1930   1.2697813795e+02   2.9659135568e+01     1.358794     1.112409 -23.67  0.004049904    2.198    0.545
        56  -9.6413     50.2796    234.7077   1.2116717726e+02   1.9773421614e+01    0.2925454    0.1320496  63.91  0.001550119    2.070    0.517
        57  -8.3082    171.0001    232.8115   9.7515748592e+01   1.9486444350e+00    0.1598179    0.1380064 -84.75 0.0006460403    1.622    0.383
