#   1 NUMBER                 Running object number                                     
#   2 MAG_AUTO               Kron-like elliptical aperture magnitude                    [mag]
#   3 X_IMAGE                Object position along x                                    [pixel]
#   4 Y_IMAGE                Object position along y                                    [pixel]
#   5 X_WORLD                Barycenter position along world x axis                     [deg]
#   6 Y_WORLD                Barycenter position along world y axis                     [deg]
#   7 A_WORLD                Profile RMS along major axis (world units)                 [deg]
#   8 B_WORLD                Profile RMS along minor axis (world units)                 [deg]
#   9 THETA_WORLD            Position angle (CCW/world-x)                               [deg]
#  10 FWHM_WORLD             FWHM assuming a gaussian core                              [deg]
#  11 ELONGATION             A_IMAGE/B_IMAGE                                           
#  12 ELLIPTICITY            1 - B_IMAGE/A_IMAGE                                       
         1  -9.9737    249.4518      5.0142   5.6378291389e+01   2.2684474073e+01    0.6401973    0.2090272 -30.75  0.002770449    2.819    0.645
         2  -9.7644    250.1517     19.0310   5.9404326625e+01   2.0982148319e+01    0.5163049    0.2232235 -31.39   0.00239136    2.179    0.541
         3  -9.8203    231.4476     12.0023   5.9319163269e+01   2.5948247217e+01    0.7000093     0.445871 -20.35   0.00376968    1.872    0.466
         4 -10.8824    248.7947     32.0457   6.2449848374e+01   1.9719005097e+01     1.366655    0.2786503 -39.20  0.004839621    3.398    0.706
         5 -10.3371    225.4595     23.3809   6.2595324939e+01   2.6053055423e+01    0.5992736    0.3994248 -74.47  0.003217306    1.509    0.337
         6 -10.3687    221.5889     15.9547   6.1141115542e+01   2.7810721118e+01    0.6874641    0.4600696  87.11  0.003780278    1.445    0.308
         7  -9.5236    240.0787      2.3964   5.6453767154e+01   2.5012471334e+01     0.409421    0.2155069  83.65  0.001530861    1.832    0.454
         8 -10.0201    245.7508     13.6773   5.8554953552e+01   2.2550040889e+01     0.592861    0.2319481  65.23  0.002726817    2.497    0.600
         9 -10.6710    238.9250     17.5662   5.9988848014e+01   2.3629918090e+01     0.812102    0.4049247 -57.34  0.003944367    1.938    0.484
        10 -10.2235    238.2125      8.3487   5.7932537839e+01   2.4806183044e+01    0.6523239     0.281202 -56.45  0.002066249    2.249    0.555
        11  -9.5097    231.8390      2.8869   5.7165380961e+01   2.6817172170e+01      0.37787    0.1986571 -84.15  0.001489459    1.941    0.485
        12  -9.4546    199.5904     15.6096   6.3276384962e+01   3.3172732587e+01    0.3141936    0.2205065 -66.92 0.0007919524    1.426    0.299
        13  -9.7485    198.2120     10.5871   6.2077100599e+01   3.4039514093e+01    0.5520727    0.2968419   3.59  0.002168681    3.573    0.720
        14  -8.7271    140.6191     13.4736   7.0796945901e+01   4.8199901059e+01    0.2804827    0.2166074  57.34  0.001222075    1.174    0.148
        15  -8.8913    129.0907     12.6523   7.2620472891e+01   5.1095422400e+01    0.2520692    0.1988049   1.53  0.001007526    1.384    0.278
        16  -9.8989    212.7813      8.8160   6.0182969387e+01   3.0672328494e+01      0.57797    0.3253764 -38.95  0.002981522    1.681    0.405
        17  -9.7875    192.7788     11.3835   6.2878032571e+01   3.5304940890e+01    0.6106847    0.4480335 -75.43  0.003206687    1.351    0.260
        18  -8.9814    188.5331     11.2395   6.3314486737e+01   3.6378701448e+01    0.5751234    0.3422036  69.74  0.002892019    1.538    0.350
        19 -10.1583    112.3824     10.3995   7.5216530650e+01   5.5247111474e+01    0.4434032     0.230547 -33.02  0.002110891    2.046    0.511
        20  -9.0163     84.5315     11.0584   8.2603433827e+01   6.1196579768e+01    0.3442189    0.1916278  -7.61  0.001677125    2.051    0.512
        21 -10.5090    155.4844     10.2067   6.7306402954e+01   4.4805654367e+01    0.3706901    0.2722355 -62.03  0.001940638    1.522    0.343
        22  -9.9579    119.0096      4.2648   7.1443278098e+01   5.4257983803e+01    0.3176361     0.268805  33.51  0.001501646    1.103    0.093
        23  -8.8250     72.7587     10.6256   8.6053029584e+01   6.3520330008e+01     0.208217    0.1552418  50.62 0.0005474491    1.462    0.316
        24  -9.6335    222.9865      6.3834   5.8689544402e+01   2.8503946047e+01    0.4452296    0.2983497  68.93  0.001967574    1.444    0.307
        25  -9.4044    220.5970      3.7263   5.8247511879e+01   2.9333740766e+01    0.2327928    0.1991017 -17.89     0.001474    1.413    0.292
        26  -8.4362    139.8649      9.0396   6.9388439201e+01   4.8807179735e+01    0.2064889    0.1773037 -73.49 0.0007914799    1.293    0.226
        27  -8.5121    206.0228      7.5446   6.0494154866e+01   3.2434492237e+01    0.3032483    0.2146418 -72.37  0.001696593    1.356    0.262
        28 -10.0442    205.2323      4.3757   5.9752442252e+01   3.2940619642e+01    0.5012739     0.233584  52.64  0.002279434    2.276    0.561
        29  -8.2258    132.1708      7.1796   7.0064818236e+01   5.0858396289e+01    0.1806578    0.1547672 -73.42 0.0007341073    1.332    0.249
        30  -9.8949    171.1250      5.8923   6.3839073998e+01   4.1268036284e+01    0.3348647    0.2117331 -70.00  0.001621618    1.788    0.441
        31 -10.6381    118.8462     11.0778   7.4088762475e+01   5.3683447914e+01    0.5910491    0.2430457  66.97  0.002333072    2.652    0.623
        32  -9.4787    135.3115      4.9900   6.8738628732e+01   5.0284213649e+01    0.4497198    0.2210371 -84.34  0.001566009    3.957    0.747
        33  -9.3856    138.2563      1.9077   6.7174061798e+01   4.9820784193e+01    0.2701207    0.2138364 -89.18  0.001551749    1.358    0.263
        34 -10.1978    144.6983      4.7655   6.7142889024e+01   4.7991936301e+01    0.3231673    0.2212767  69.32  0.001730842    1.345    0.257
        35  -9.4775     60.2480      5.3469   8.7813858933e+01   6.6327025190e+01    0.2219224    0.1833199  -7.34 0.0008265736    1.137    0.120
        36  -9.7187     54.6534      4.5531   8.9493607546e+01   6.7351274530e+01    0.3727048    0.1522105 -35.48  0.001766465    2.587    0.613
        37  -9.2920    165.1466      3.8296   6.3967010654e+01   4.2957822608e+01    0.3542798    0.1874751 -23.35  0.001683983    2.072    0.517
        38  -9.2264    152.3310      2.7022   6.5331210793e+01   4.6268098792e+01    0.3944137    0.1491568 -45.60  0.001506748    3.149    0.682
        39  -8.9703     47.8588      3.7072   9.1737648105e+01   6.8525611245e+01    0.2397534    0.1200737 -14.20  0.001214145    2.146    0.534
        40  -8.3276    194.2679      2.2350   6.0239333337e+01   3.5827659162e+01    0.2406158    0.1345715 -63.89  0.001154854    1.910    0.476
        41  -9.0690    189.9964      2.4802   6.0734738207e+01   3.6860708963e+01    0.2956705    0.2125498  63.19  0.001539314    1.308    0.236
        42  -8.5917    159.5135      3.4758   6.4592575973e+01   4.4403702783e+01    0.1343906    0.1201282  67.73 0.0001052079    1.018    0.018
        43  -9.7709     99.5678      2.6048   7.4957692504e+01   5.8824068302e+01    0.4677253    0.2091414  59.50  0.002145098    2.074    0.518
        44  -8.6145     89.2011      2.9929   7.7708505486e+01   6.1013949680e+01    0.1988815    0.1356718 -49.64  0.001068431    2.033    0.508
        45  -9.2114     79.6210      2.6381   8.0198495641e+01   6.2999026426e+01    0.2262858    0.2134269  17.41 0.0009909505    1.196    0.164
        46  -9.4065     63.9349      2.2753   8.4981374728e+01   6.5995625279e+01    0.2182227    0.1875178  -8.04 0.0008366486    1.189    0.159
        47  -9.2280     15.1718    112.2460   1.3753432347e+02   5.0788819554e+01    0.2271867    0.1617727 -76.46 0.0005941978    1.147    0.128
        48  -8.8601    104.7164    112.0215   1.1138838358e+02   3.9352115576e+01    0.2385755    0.2133093  38.57 0.0004377612    1.181    0.153
        49  -9.3757    248.9605    106.5250   7.9769400039e+01   9.0070101338e+00     0.361157    0.2288546 -34.35  0.001840737    1.389    0.280
        50  -9.3566    247.8159    102.8837   7.9089634736e+01   9.8038734380e+00    0.2207598    0.1874817 -41.99 0.0009463438    1.093    0.085
        51  -8.2218    211.0157    101.4526   8.4495400199e+01   1.7949407660e+01    0.2243366    0.1464778  52.90  0.001035215    1.614    0.380
        52  -9.0435    249.6837     98.9381   7.7913152079e+01   1.0039384226e+01    0.2002143    0.1574563 -37.95 0.0006777283    1.121    0.108
        53  -7.6255    196.9768    104.0000   8.7665105854e+01   2.0718730324e+01    0.2383359   0.08682232  52.92  0.000789429    2.853    0.649
        54  -8.5851    130.5999     98.1374   1.0074609485e+02   3.7165131493e+01    0.2210422    0.1807052 -38.52 0.0007326689    1.207    0.171
        55  -7.9274    236.5255     97.4680   7.9443221090e+01   1.2995683473e+01    0.1412635    0.1277038 -36.58 0.0001290052    1.005    0.005
        56  -9.4153    230.9741     94.5674   7.9568141478e+01   1.4654268578e+01     0.337143     0.237995 -33.60   0.00126542    1.304    0.233
        57  -9.5213    242.7725     93.3374   7.7560536795e+01   1.2329406407e+01    0.2392248    0.1926488 -30.65 0.0009495324    1.142    0.124
        58  -8.5971    172.2584     91.4438   8.9162229724e+01   2.8854858014e+01    0.2861645    0.1453226  47.47  0.001017234    2.003    0.501
        59  -9.7690    236.9601     83.6157   7.6039601385e+01   1.5081559354e+01    0.3104567    0.2138165 -67.22  0.001521184    1.770    0.435
        60  -9.4674    237.2766     90.1710   7.7579502977e+01   1.3990655497e+01    0.3332419    0.2470096  84.67  0.001711686    1.718    0.418
        61  -9.8100    232.3275     84.6691   7.6947757627e+01   1.5931618697e+01     0.532383    0.2898393 -56.64  0.002230113    2.256    0.557
        62  -8.3695     28.6718     90.6636   1.2981834117e+02   5.4693719511e+01    0.1346255   0.07902842 -39.83 0.0007051898    1.727    0.421
        63 -10.0024    248.2827     87.9829   7.5548286910e+01   1.2007120992e+01    0.3923955    0.2362529 -48.84  0.001925788    1.615    0.381
        64  -9.1157    242.6006     88.7596   7.6497361801e+01   1.3076412575e+01    0.2792313    0.1271208 -29.63  0.001139584    2.166    0.538
        65  -8.0939     12.6643     89.6811   1.3488476376e+02   5.6134708928e+01     0.128086   0.07175888 -43.66  0.000419162    1.701    0.412
        66  -8.9603    226.3124     86.2881   7.8225898212e+01   1.7012183593e+01    0.3670326    0.1816824 -21.23   0.00136445    2.731    0.634
        67  -8.3941     21.5506     87.2284   1.3151349167e+02   5.6055446364e+01    0.1886263    0.0866808 -54.47 0.0009479463    1.697    0.411
        68 -11.3473    244.1620     78.7954   7.3918330691e+01   1.4265645712e+01     1.700623    0.6890865 -58.35  0.004863838    5.371    0.814
        69  -9.3266    235.4712     76.5030   7.4512880144e+01   1.6500071619e+01    0.2563483     0.222453  45.70 0.0007482487    1.295    0.228
        70  -9.9443    234.6277     72.7966   7.3719230188e+01   1.7248351787e+01    0.4048075    0.2081974 -30.65  0.001780434    1.879    0.468
        71  -8.2916    135.2301     83.4426   9.5293058332e+01   3.9095340034e+01    0.2077292    0.1494072  63.48 0.0009262054    1.607    0.378
        72  -8.9082     44.7490     80.9942   1.2222041029e+02   5.5307870732e+01    0.1811091   0.09746516 -56.23 0.0006726544    1.585    0.369
        73  -8.9331    196.0439     78.8502   8.1155124642e+01   2.5307713855e+01    0.4300027    0.1580025 -45.53  0.001429092    2.852    0.649
        74  -7.9496    148.6897     78.2989   9.0500958512e+01   3.6931663288e+01     0.154283    0.1215357 -76.09 0.0005685911    1.600    0.375
        75  -8.1346    175.3462     77.6588   8.4637242745e+01   3.0569260714e+01    0.1636258    0.1175797 -71.08 0.0007046503    1.789    0.441
        76  -9.0831    214.2310     78.3208   7.8036671257e+01   2.1056225917e+01     0.552024    0.2169346 -56.30  0.001448822    5.383    0.814
        77  -8.3053    250.4456     70.4893   7.1180244506e+01   1.4160665703e+01    0.2003619    0.1331117  62.22 0.0005863209    1.671    0.401
        78  -9.5956    249.9148     66.0698   7.0210213341e+01   1.4910674981e+01    0.3848078    0.1939672 -46.12  0.001285879    1.788    0.441
        79  -8.5951      6.9642     70.6818   1.3338357588e+02   6.0708240487e+01    0.1789806   0.07261668 -19.97 0.0007046465    4.393    0.772
        80  -8.3785     45.3416     69.3324   1.1891930769e+02   5.7778424138e+01    0.1392239   0.08723526 -28.06 0.0007051185    1.752    0.429
        81  -9.0331     15.8346     68.8583   1.2973592001e+02   6.0545709433e+01    0.1610982    0.1339999 -82.65  0.001087069    1.334    0.250
        82 -11.0269    225.7994     67.1329   7.3496469856e+01   2.0098950137e+01    0.5574738    0.3542315  76.56  0.002643124    1.854    0.461
        83  -9.8495    239.4045     64.8675   7.1179987828e+01   1.7361817296e+01    0.3861882    0.1928946  63.70  0.001623995    2.178    0.541
        84  -8.2637     43.5219     62.5356   1.1761983788e+02   5.9406737036e+01    0.1297694    0.1090882 -38.61 2.145026e-05    1.003    0.003
        85  -8.1744    234.8542     60.1858   7.0600949146e+01   1.9053640108e+01    0.1783866    0.1640237  11.81 0.0007528932    1.304    0.233
        86  -9.2007    171.5609     59.6962   8.0091727196e+01   3.4468499688e+01    0.3630026    0.2274658  55.35   0.00105983    1.567    0.362
        87  -8.0875    127.1126     58.8434   8.9500617555e+01   4.5418437402e+01    0.2081459    0.1678703  26.01 0.0006110261    1.324    0.244
        88  -9.8401    214.0250     57.6037   7.2661523300e+01   2.4276782729e+01     0.341116     0.248467  49.94  0.001528317    1.483    0.326
        89  -8.7674    250.4326     54.5925   6.7479218509e+01   1.6412215529e+01    0.4041972    0.1351672 -35.87  0.001600709    2.488    0.598
        90 -10.0036    244.3952     42.0868   6.5192639511e+01   1.9404997095e+01    0.4127302    0.3275827 -40.21  0.001692273    1.167    0.143
        91  -9.3003    236.9796     54.0225   6.8845315892e+01   1.9446633258e+01    0.3434468    0.2339012 -78.43  0.001102874    1.676    0.403
        92  -8.4411    241.1849     54.6195   6.8505876803e+01   1.8424477677e+01    0.2439622    0.1607962  62.77  0.001022353    1.620    0.383
        93 -10.1192    244.7607     51.7587   6.7428646656e+01   1.8030492526e+01    0.4466965    0.3025964 -64.82  0.001772412    1.519    0.341
        94  -8.6803    249.2355     48.6141   6.6218616772e+01   1.7482121328e+01     0.248782    0.2135864  54.17  0.001325985    1.357    0.263
        95  -9.3303    249.8744     44.7616   6.5263021569e+01   1.7856670422e+01    0.3825544    0.1669767 -43.64  0.001734561    1.950    0.487
        96 -10.1733    199.3893     54.0662   7.3814801645e+01   2.8356502289e+01    0.3804588    0.3526968  87.72  0.001346764    1.061    0.057
        97 -10.4495    229.6629     52.3540   6.9301651613e+01   2.1345592787e+01    0.4800324    0.3789727  47.13  0.002673386    1.454    0.312
        98  -8.0088    163.6217     53.8115   7.9801708161e+01   3.7365412249e+01    0.2170409    0.1317644 -42.62 0.0009479754    1.671    0.401
        99  -8.9290    220.9872     53.6577   7.0710707483e+01   2.3187059366e+01    0.2675551    0.1152578  56.42 0.0009933434    2.349    0.574
       100  -7.9109    145.6918     48.3277   8.1666880893e+01   4.2647161393e+01    0.1511982    0.1136536 -67.92 0.0007038686    1.657    0.397
       101  -9.3586    238.3462     44.8589   6.6481784259e+01   2.0387734236e+01     0.219879    0.1721722 -81.00 0.0007048807    1.285    0.222
       102  -9.1877    189.7515     43.6319   7.2331720412e+01   3.2229297351e+01    0.3420467    0.1858035 -34.58    0.0015061    1.801    0.445
       103  -8.3633    222.6320     43.2043   6.7846390028e+01   2.4235310330e+01    0.1871185    0.1293283 -21.17 0.0006829766    1.643    0.391
       104  -9.3139    215.4406     41.9960   6.8403209795e+01   2.6111052719e+01    0.3222511    0.2341386  22.73  0.001598161    1.945    0.486
       105  -8.2806    134.9790     43.4745   8.2372128123e+01   4.5959910897e+01    0.1970427    0.1296594  89.18 0.0006097154    2.384    0.581
       106  -7.3764    116.2974     43.3082   8.6829868786e+01   5.0336800450e+01    0.1468116     0.106553  17.33 0.0006381063    1.592    0.372
       107  -9.1435    238.3636     38.6229   6.4988538382e+01   2.1201013981e+01     0.289364    0.2451133 -67.79  0.001018913    1.072    0.067
       108  -8.1365    165.9743     40.4994   7.5236152109e+01   3.8672188588e+01    0.2048512     0.124092 -84.86 0.0006834566    2.431    0.589
       109  -9.4913    201.0819     39.0893   6.9465773855e+01   3.0004492417e+01    0.2142124    0.1923061  36.29  0.001221121    1.270    0.213
       110  -9.9789    185.6671     37.3192   7.1124425726e+01   3.4097177958e+01    0.4556377    0.2449514 -38.50  0.002027288    1.815    0.449
       111  -8.4132    182.6793    244.6917   1.1856660116e+02  -3.4709831210e-01    0.1189046   0.08075166  15.17 0.0007033925    1.642    0.391
       112  -9.8707    227.4124     32.9255   6.4744219961e+01   2.4439544596e+01    0.5168318    0.3334437 -40.08  0.002416393    1.425    0.298
       113  -9.3645    171.9099    234.3205   1.1906762699e+02   2.8180282283e+00    0.3129368     0.196937  45.80  0.001826898    1.409    0.290
       114  -8.6682    164.1720    228.3928   1.1966822156e+02   4.9745929911e+00    0.1887054   0.09890534  48.18  0.000954942    1.765    0.434
       115  -8.3146     99.4829    226.5137   1.3184573480e+02   1.5635446496e+01    0.1240425   0.09814828  61.10 0.0008097074    1.053    0.051
       116  -8.5617     48.3037    219.9205   1.4091367050e+02   2.3820188855e+01    0.1614334    0.1244605  80.44 0.0005786896    1.089    0.082
       117  -8.3952    212.2526    219.6468   1.0937066369e+02  -1.6622672054e+00    0.1805521   0.09732747  31.43 0.0009437442    1.664    0.399
       118  -7.8831    160.4601    218.5239   1.1892999479e+02   7.1620737068e+00    0.1282372    0.1099986  36.53 8.230119e-05    1.021    0.021
       119  -7.7135     55.7850    217.0026   1.3927553765e+02   2.3464149930e+01    0.1366912   0.08374118 -77.52 0.0008337062    1.562    0.360
       120  -9.4076    247.8107    216.1469   1.0259665081e+02  -6.6929162934e+00    0.3244432    0.1477161  38.85  0.001697214    2.052    0.513
       121  -9.1845    234.2593     20.2668   6.1023800293e+01   2.4378250671e+01    0.2990276    0.2117451  45.71  0.001667729    1.762    0.432
       122  -7.8020    132.6845    213.6879   1.2372229844e+02   1.2688202152e+01    0.1221411   0.09947129   7.27 0.0003463127    1.639    0.390
       123  -8.0205    235.2961    210.6655   1.0374909334e+02  -4.1137520687e+00    0.1038858    0.1005328 -82.84 0.0007029089    1.646    0.392
       124  -8.4425    162.5468     37.5225   7.4903350403e+01   3.9935158942e+01    0.1433886    0.1367222  53.13 0.0008080634    1.039    0.038
       125  -8.2950     49.9704     36.5005   1.0599939507e+02   6.3553327375e+01    0.1759863    0.1204677  31.04 0.0007209069    1.563    0.360
       126  -8.7850    242.7560     34.7183   6.3630360977e+01   2.0714588302e+01    0.2218622     0.170825 -46.76 0.0008111922    1.150    0.130
       127  -9.1270    221.4393     31.2224   6.4956691353e+01   2.6057465740e+01    0.3541105    0.2592526 -56.23  0.001962642    1.274    0.215
       128  -9.7685    213.9198     30.9833   6.5728743703e+01   2.7888238275e+01    0.5291388    0.3608719  60.45  0.002797807    1.479    0.324
       129  -8.4720     93.5094     31.9839   8.8823796750e+01   5.6839527291e+01    0.2042823    0.1289106 -27.44 0.0006588731    1.566    0.361
       130  -8.2697    145.7748     31.3940   7.5986705573e+01   4.4929687713e+01    0.2093071    0.1215982  51.34 0.0005859316    1.606    0.377
       131  -8.2746    153.9123     30.4600   7.4164953348e+01   4.3008769615e+01    0.2172266    0.1347255  63.60 0.0008709225    1.542    0.352
       132  -8.4338     26.4524     29.1622   1.1322132836e+02   6.7549654849e+01    0.2735564    0.1084221 -55.18  0.001149131    3.276    0.695
       133  -8.3255    197.3406     28.7103   6.7104223846e+01   3.2239411832e+01    0.1473165    0.0972338 -67.54 0.0007023495    1.646    0.392
       134  -8.8243    201.2680     26.1826   6.5933460607e+01   3.1565170997e+01    0.3756912    0.1461498 -38.84  0.001518928    2.364    0.577
       135  -8.7212    110.2748     26.7246   8.2130545649e+01   5.3943303599e+01    0.3066276    0.1936986  60.94  0.001498319    1.684    0.406
       136  -9.3075     59.2231     26.7729   9.8261311234e+01   6.3759383565e+01    0.3112235    0.1412699 -16.39  0.001069763    4.258    0.765
       137  -9.1379    207.7344     25.2194   6.4925527195e+01   3.0087072268e+01    0.5302111    0.2428794  77.31  0.002206225    2.353    0.575
       138  -9.0252    119.1863     26.1662   7.9754769464e+01   5.1979108998e+01    0.2159369     0.169475 -70.43 0.0006877877    1.685    0.407
       139  -8.4238    116.8589     22.8034   7.9021286394e+01   5.2912981325e+01    0.2156903    0.1684405 -66.69  0.001085265    1.687    0.407
       140  -9.2106    237.1661     30.6868   6.3220158006e+01   2.2472713350e+01    0.2547346    0.1825805  42.87 0.0009137046    1.778    0.438
       141  -9.4138     67.8123     26.1992   9.4815664376e+01   6.2444443322e+01    0.3115834    0.1338429  24.83  0.001065276    4.212    0.763
       142  -8.8658    176.5233     21.9983   6.7937401522e+01   3.8263899177e+01    0.3672503     0.221196 -11.11  0.001540727    2.145    0.534
       143  -9.5613     98.0189     22.8280   8.3807026958e+01   5.7089224586e+01    0.1944902    0.1840995  81.53 0.0009292897    1.306    0.234
       144  -8.8839     86.1377     23.1459   8.7393355512e+01   5.9483111467e+01    0.1670313     0.163798 -83.65 0.0009046224    1.318    0.241
       145  -8.0552    132.4940     22.5022   7.5514476918e+01   4.9242266795e+01    0.1386184    0.1292087  45.70 0.0008106363    1.012    0.011
       146  -8.2744    199.7203     20.8519   6.4674110996e+01   3.2563732923e+01    0.1972898    0.1730181   1.02 0.0005703471    1.391    0.281
       147  -9.8343     74.8889     18.1829   8.8811107887e+01   6.2248745886e+01    0.2342972    0.2075546 -41.09  0.001231327    1.411    0.291
       148  -9.2941    165.9458     20.1206   6.8890589044e+01   4.1154644541e+01    0.2185786    0.1952669  66.43 0.0006576477    1.045    0.043
       149  -8.8764     68.1058     18.6587   9.1349263850e+01   6.3408214376e+01    0.1841346    0.1651744  52.29  0.001187751    1.440    0.305
       150  -8.1722    186.9795     17.4688   6.5252245983e+01   3.6118344111e+01    0.2132212    0.1844096  32.29 0.0007873043    1.335    0.251
       151  -8.6523    142.7715     17.9825   7.1972835736e+01   4.7209686304e+01    0.4727736     0.183323  66.52  0.001791314    2.562    0.610
       152  -9.0902    149.5717     16.8477   7.0417003889e+01   4.5632771996e+01    0.3400862    0.2238858  88.74  0.001636328    1.796    0.443
       153  -9.3165     57.6890     18.2052   9.4985331391e+01   6.5206045030e+01    0.2045248    0.1639361  37.89  0.001304055    1.382    0.276
       154  -8.3260     64.9915    203.3335   1.3621162291e+02   2.4999095339e+01    0.1736037    0.1385895  66.53 0.0007209458    1.050    0.047
       155  -8.5594     16.0268    202.2650   1.4567644278e+02   3.0822866108e+01      0.15478    0.1155634  70.76 0.0005980889    1.076    0.070
       156  -8.2866    162.8457     16.3221   6.8163852632e+01   4.2342624108e+01    0.2118098    0.1079866  58.05 0.0009449697    1.753    0.430
       157  -9.4197    116.9391     15.9900   7.6388017156e+01   5.3639381152e+01    0.3687299    0.1968702  58.27  0.001729993    1.741    0.426
       158  -7.9357    207.3860     14.2636   6.2098274460e+01   3.1404130321e+01    0.1354363   0.09243821  46.02 0.0006980404    1.692    0.409
       159  -8.5682     51.3301    201.0059   1.3873940602e+02   2.7213872970e+01    0.1871629   0.06431855 -51.40 0.0007052086    4.382    0.772
       160  -9.0979     68.4056     13.8448   8.9024259523e+01   6.3946366084e+01    0.2120207     0.136085  37.73  0.001178019    1.461    0.315
       161  -7.7175    169.3160     13.6700   6.6423428954e+01   4.0975702543e+01    0.1448009   0.09669116 -64.37 0.0004883285    1.681    0.405
       162  -8.3010    238.2554    193.4394   1.0007295280e+02  -2.2649126567e+00    0.2303787    0.1106845  36.71  0.001123209    1.980    0.495
       163  -8.2523     97.1743     13.3926   8.0111254839e+01   5.8328429231e+01    0.1819678    0.1240489  66.76 0.0009501387    1.727    0.421
       164  -8.6861    111.6665    188.6674   1.2451186039e+02   2.1038575378e+01    0.1294428    0.1078057  -9.45 0.0007052233    1.731    0.422
       165  -8.2112    158.4897    178.4931   1.1261720977e+02   1.4637826062e+01    0.1404714    0.1311767  34.15 0.0001954422    1.023    0.022
       166  -8.2793    152.9115    178.4331   1.1380170866e+02   1.5708528245e+01    0.2195643    0.1299897  43.38  0.001019045    1.580    0.367
       167  -8.1722     16.0440    177.3149   1.4394907831e+02   3.6010151297e+01    0.1533833   0.09339589  -9.57 0.0007043509    4.395    0.772
       168  -9.1878    147.1842    168.5774   1.1319912671e+02   1.8761965032e+01    0.2337853    0.1968351 -68.10 0.0005765721    1.318    0.241
       169  -8.2517     58.5035     12.4973   9.1969435495e+01   6.5802812360e+01    0.1249111    0.1029407   3.25 0.0003692671    1.008    0.008
       170  -8.1345     52.0505    159.9610   1.3417412121e+02   3.6083712139e+01    0.2135153    0.1308152  71.16 0.0009042333    1.733    0.423
       171  -8.6300     80.1629    156.1360   1.2679811788e+02   3.3190622539e+01    0.2011367    0.1803172 -53.85 0.0006250338    1.223    0.182
       172  -8.7403    118.3809    153.6958   1.1699733182e+02   2.7381223689e+01    0.2561325    0.1854924 -44.43  0.001268191    1.467    0.318
       173  -8.3793     39.2183     10.4249   9.8879072394e+01   6.8951396129e+01    0.1502222    0.1085392  40.97 0.0009524547    1.711    0.416
       174  -8.1555    250.0000    152.0065   8.9737662446e+01   1.7715245389e+00    0.2194551   0.06800131 -34.55 0.0007989338    2.918    0.657
       175  -7.9833    112.0197    148.2148   1.1748192213e+02   2.9765299956e+01    0.1911551    0.1160876  41.37 0.0008601854    1.659    0.397
       176  -8.8073      8.6848    141.3366   1.4254837040e+02   4.4592778127e+01    0.1950682    0.1112418  70.19  0.001119039    1.744    0.427
       177  -8.6903    210.1763    138.1763   9.3545203478e+01   1.1693768488e+01    0.1929384    0.1760466 -73.89  0.000702303    1.326    0.246
       178  -8.8418    249.5155    136.2793   8.6407369309e+01   4.2608601848e+00    0.2278706    0.1842701  44.08 0.0009176318    1.381    0.276
       179  -9.0472    243.1737    135.3324   8.7197949096e+01   5.5947930585e+00    0.2577734     0.191817  15.50  0.001000374    1.522    0.343
       180  -9.1080    169.8845    134.8119   1.0088691845e+02   2.0951176954e+01    0.2466426    0.2403137  -5.73 0.0005252837    1.019    0.018
       181  -8.7222    213.7711    134.5659   9.2048352538e+01   1.1578911584e+01    0.1966836    0.1423635  60.57 0.0009534023    1.664    0.399
       182  -8.4049    249.5947    130.9960   8.5225706976e+01   5.0649353450e+00    0.2014129    0.1742067  38.64 0.0007826974    1.276    0.216
       183  -8.1505    226.6845    131.3248   8.9016889163e+01   9.4805961805e+00    0.1403222    0.1106642 -65.69 0.0006094353    1.668    0.400
       184  -8.8020    206.7687    127.3638   9.1642253872e+01   1.4330408409e+01    0.2030462    0.1347209  39.08  0.000718379    1.589    0.371
       185  -8.8266    189.2453    124.2400   9.4273355029e+01   1.8741934485e+01    0.3349649    0.1982591 -35.10  0.001433474    1.685    0.406
       186  -9.2933    241.3003    124.3485   8.5016015069e+01   7.7041221372e+00     0.278318    0.1824131  58.61   0.00138458    1.860    0.463
       187  -7.8500    161.4920    124.5321   1.0025871015e+02   2.4867656052e+01    0.1533141    0.1483399 -80.40 0.0003232727    1.080    0.074
       188  -7.9871      3.6811    123.6684   1.4205084933e+02   4.8959884016e+01    0.1206738    0.0706792 -51.42 0.0003307994    1.692    0.409
       189  -8.0725    124.9918    120.0375   1.0795784969e+02   3.3621917304e+01    0.1789051    0.1711211  52.61  0.000324407    1.065    0.061
       190  -8.8312    231.9788    116.9770   8.4790215363e+01   1.0780640209e+01    0.1695857    0.1604052 -16.75 0.0007997036    1.046    0.044
       191  -8.1446    227.7427    116.3847   8.5340164375e+01   1.1760749479e+01    0.1927087    0.1319826  39.60 0.0009106563    1.593    0.372
       192  -9.2182    218.8634    115.7002   8.6668664485e+01   1.3764606455e+01    0.3286149    0.1814696  55.80   0.00141683    2.030    0.507
       193  -8.3852    182.7260    116.0112   9.3540913632e+01   2.1769569241e+01    0.2122466    0.2069625  -4.28 0.0007159646    1.022    0.022
       194  -9.2732    248.4599    113.2210   8.1381121627e+01   8.0596695131e+00    0.2398475     0.218069 -65.64 0.0006488139    1.264    0.209
       195 -10.1329    244.7751    110.6015   8.1320476894e+01   9.2032708491e+00    0.4128677    0.3119071 -67.79  0.002169877    1.715    0.417
