#   1 NUMBER                 Running object number                                     
#   2 MAG_AUTO               Kron-like elliptical aperture magnitude                    [mag]
#   3 X_IMAGE                Object position along x                                    [pixel]
#   4 Y_IMAGE                Object position along y                                    [pixel]
#   5 X_WORLD                Barycenter position along world x axis                     [deg]
#   6 Y_WORLD                Barycenter position along world y axis                     [deg]
#   7 A_WORLD                Profile RMS along major axis (world units)                 [deg]
#   8 B_WORLD                Profile RMS along minor axis (world units)                 [deg]
#   9 THETA_WORLD            Position angle (CCW/world-x)                               [deg]
#  10 FWHM_WORLD             FWHM assuming a gaussian core                              [deg]
#  11 ELONGATION             A_IMAGE/B_IMAGE                                           
#  12 ELLIPTICITY            1 - B_IMAGE/A_IMAGE                                       
         1 -13.2441    177.3791     40.9448   6.5501728388e+01   3.5806173330e+01     1.112502    0.9717302  10.90  0.004545073    1.586    0.369
         2 -12.9879    197.0137      9.4025   5.5944961465e+01   3.5043612140e+01    0.8861421    0.7365021  74.76  0.004226909    1.198    0.165
         3 -10.2160     87.1503    203.0209   1.2376238375e+02   2.0399450237e+01    0.4481744    0.3162543  52.22  0.001402641    1.372    0.271
         4 -11.8278    248.1046    245.8684   9.6763033389e+01  -1.3885303339e+01    0.6266056    0.3362911 -40.76  0.003541106    1.908    0.476
         5  -9.9371    192.9748    194.9704   9.8012093558e+01   3.2321139906e+00    0.7751786    0.3610424 -63.27  0.001929672    6.951    0.856
         6 -11.4126     74.1671    194.6275   1.2565117695e+02   2.4426001027e+01    0.6543444    0.3398497 -53.62  0.002211957    1.917    0.478
         7 -10.8219     81.9689    194.9812   1.2381246942e+02   2.3155433748e+01    0.4286173    0.3582338 -57.32  0.001811084    1.227    0.185
         8  -8.9704    151.2923    196.3474   1.0743718820e+02   1.0654441540e+01    0.1519248    0.1170871 -13.56 0.0003837242    1.667    0.400
         9  -8.6253    167.6717    229.2870   1.0968435794e+02   8.7649597454e-01    0.1746183     0.124336 -37.92 0.0004931227    1.494    0.331
        10  -9.1745    154.0092    185.9660   1.0480263198e+02   1.2466900222e+01     0.241141     0.188244  81.88 0.0006520239    1.672    0.402
        11 -11.2023     99.5195    180.2294   1.1702895090e+02   2.3929287345e+01    0.5047091    0.2926411 -48.47  0.001801923    1.761    0.432
        12  -9.1699    196.3350    175.5108   9.3382094133e+01   6.5933664063e+00    0.2890837    0.2511948  65.29  0.001548635    1.358    0.264
        13  -9.2490    184.3680    212.1814   1.0310382813e+02   1.3295673296e+00    0.1957416    0.1315182 -55.38 0.0009433872    1.731    0.422
        14  -9.0716    204.4110    175.3441   9.1719505198e+01   5.1198678675e+00    0.2622566    0.1836474  44.79 0.0007575403    1.542    0.351
        15  -8.6260    188.5236    175.4616   9.4993136027e+01   8.0903963801e+00    0.1483733    0.1399539 -23.56 7.326908e-05    1.028    0.027
        16  -9.3198    140.5112    175.5042   1.0590193422e+02   1.7502643048e+01    0.1532309    0.1500093 -85.18  4.92443e-05    1.009    0.009
        17 -19.5268     43.6971    152.3464   1.2710695628e+02   3.9045204102e+01      21.8568     3.948081 -65.21   0.05547652    5.606    0.822
        18 -11.4072    112.5297    169.9637   1.1178028897e+02   2.4162079891e+01    0.7061262    0.4395982  77.60  0.002614141    2.674    0.626
        19 -11.6300    103.5456    172.1217   1.1451166995e+02   2.5241741554e+01    0.5128368    0.3945158  55.21  0.002361043    1.345    0.257
        20  -9.9260    124.2380    171.7528   1.0915942665e+02   2.1538528409e+01    0.2162288    0.1870628 -20.82  0.001070735    1.355    0.262
        21 -10.3639     98.5782    157.2772   1.1292062771e+02   2.9813722075e+01    0.2989772    0.2690369 -38.69 0.0002419237    1.174    0.148
        22 -11.2788    102.8015    151.1399   1.1050801812e+02   3.0590597146e+01    0.6676552    0.4080017 -35.90    0.0017031    1.969    0.492
        23  -9.1581    188.9821    155.2520   9.0573444782e+01   1.2301297360e+01    0.3675324     0.131204  44.93  0.001230372    2.961    0.662
        24 -11.8841     88.1906    151.3229   1.1455177159e+02   3.3068904687e+01    0.4234659    0.3133222 -33.46  0.001052796    1.561    0.359
        25  -9.8428    134.3541    147.9742   1.0151180672e+02   2.5269913648e+01    0.7599415    0.1982131 -54.43  0.001801987    5.122    0.805
        26 -10.2787     11.6567    205.9047   1.4107013158e+02   2.9369206509e+01     0.197654    0.1782088 -86.56 0.0008036782    1.241    0.195
        27  -8.5222    161.6382    149.3306   9.5226613982e+01   1.9275047226e+01    0.1650494    0.1242062  88.52 0.0007039694    1.803    0.445
        28  -9.2227    129.5496    140.1895   1.0094686219e+02   2.8091783088e+01    0.2540392     0.189599  36.35 0.0005110716    1.419    0.295
        29 -10.5393    111.8899    137.1456   1.0492291318e+02   3.2316996061e+01    0.4658805     0.374758 -30.89   0.00202934    1.369    0.269
        30 -10.9138    101.3374    136.6166   1.0771604944e+02   3.4415498577e+01    0.3102999    0.2836892 -25.70 0.0008491816    1.165    0.142
        31 -10.2337    105.9639    131.0285   1.0512184195e+02   3.4902068113e+01     0.392825    0.3374548 -63.29  0.001207936    1.175    0.149
        32  -9.2483    117.6836    128.8260   1.0137247993e+02   3.3153523958e+01    0.2468867    0.1881855 -32.47  0.000630317    1.435    0.303
        33  -9.4378    160.6774    127.6747   9.0372027973e+01   2.4302317528e+01    0.3215097    0.2268296 -85.71  0.001326412    2.059    0.514
        34  -9.4789    105.9649    124.3941   1.0352245949e+02   3.6463704012e+01     0.281901    0.2141133 -38.92 0.0007010972    1.332    0.249
        35  -8.5136    112.0663    118.2570   1.0028701773e+02   3.6695622613e+01    0.2110777    0.1946885  37.25 0.0004373809    1.113    0.101
        36  -9.4171    167.8038    112.8101   8.5168944183e+01   2.5863401228e+01    0.4052854    0.2582675 -82.70  0.001368557    2.689    0.628
        37  -8.9515    205.7323    110.0517   7.7212783993e+01   1.8019226369e+01    0.2051282     0.180739 -55.08 0.0004553575    1.049    0.047
        38  -9.8032     84.0025     77.0002   9.7176212991e+01   5.0493414930e+01     0.213194    0.1932255   0.74 0.0003547535    1.038    0.036
        39 -10.1867    175.2482     73.9297   7.3994769036e+01   3.1407737500e+01     0.359109     0.245939 -87.04 0.0007752196    1.786    0.440
        40 -12.1620    163.6561     55.5050   7.1377464766e+01   3.6986784509e+01    0.5495602    0.4750172 -64.20  0.001190222    1.171    0.146
        41 -10.4024     59.6540    202.3757   1.3013318871e+02   2.4609685176e+01    0.2506047    0.2270884 -72.31 0.0001578012    1.165    0.141
        42 -11.6837    182.4685     33.9375   6.3111694144e+01   3.5526795626e+01    0.4837495    0.4132455  39.37  0.001776336    1.478    0.324
