#   1 NUMBER                 Running object number                                     
#   2 MAG_AUTO               Kron-like elliptical aperture magnitude                    [mag]
#   3 X_IMAGE                Object position along x                                    [pixel]
#   4 Y_IMAGE                Object position along y                                    [pixel]
#   5 X_WORLD                Barycenter position along world x axis                     [deg]
#   6 Y_WORLD                Barycenter position along world y axis                     [deg]
#   7 A_WORLD                Profile RMS along major axis (world units)                 [deg]
#   8 B_WORLD                Profile RMS along minor axis (world units)                 [deg]
#   9 THETA_WORLD            Position angle (CCW/world-x)                               [deg]
#  10 FWHM_WORLD             FWHM assuming a gaussian core                              [deg]
#  11 ELONGATION             A_IMAGE/B_IMAGE                                           
#  12 ELLIPTICITY            1 - B_IMAGE/A_IMAGE                                       
         1 -14.7280    120.0721     54.5600   5.6500938934e+01   4.7287657747e+01    0.9273351    0.7368817  30.95  0.003102906    1.303    0.233
         2 -13.7026    120.1981     26.0556   4.7053478821e+01   5.1003558410e+01     1.348649    0.7172583  20.71  0.005344311    3.303    0.697
         3 -14.6912    166.4175     28.7607   3.9879384821e+01   3.9763437119e+01     1.100428     0.900945  77.21   0.00450417    1.092    0.084
         4 -14.9641    147.2458     29.6315   4.3078943610e+01   4.4218784390e+01     1.519467    0.8581898  58.02  0.007575525    1.571    0.364
         5 -13.5684    138.3018     21.9428   4.2300637952e+01   4.7192180688e+01    0.9206164    0.3214798  64.77  0.002445877    2.563    0.610
         6 -14.5648    122.1291     37.1215   5.0301070892e+01   4.9248905555e+01     1.529365    0.4836293  45.05  0.005259149    3.245    0.692
         7 -13.3425    132.2855     32.9603   4.6822741485e+01   4.7381033585e+01    0.5896057    0.5035331  -9.14  0.002091773    1.360    0.264
         8 -13.8923    188.6763     25.7624   3.6288816319e+01   3.4936241660e+01     1.442838    0.6986027 -61.09  0.006624207    2.335    0.572
         9 -13.6905    187.3196     11.7830   3.3092688685e+01   3.6769912232e+01     1.117621    0.5547925 -52.70  0.005772691    1.974    0.493
        10 -13.4782      2.8260     10.5537   8.5504055723e+01   7.3093179620e+01     0.803083    0.3393711 -45.11  0.004404265    2.273    0.560
        11 -13.3885      8.8392      3.0386   7.8017335962e+01   7.3579971720e+01    0.6183126    0.3721138  40.67  0.003717542    2.530    0.605
        12 -16.0835     13.9263     20.6022   8.3631802511e+01   7.0596125502e+01     1.874438     1.008737 -22.38   0.01058032    1.709    0.415
        13 -14.8128     22.8142     13.3617   7.5388073246e+01   7.0680668923e+01    0.9918618    0.4931467  35.42  0.005546464    2.071    0.517
        14 -14.3705    217.0964     14.1717   3.0928698610e+01   3.0001523923e+01     1.081528     0.854541 -35.89   0.00623735    1.458    0.314
        15 -12.4169     59.7488     16.8955   6.0501606399e+01   6.4672900500e+01    0.5344831    0.4132989  85.67  0.002896126    2.634    0.620
        16 -12.5175    224.6276      4.6808   2.8427112175e+01   2.9453100052e+01    0.3476712    0.2165263  51.28  0.001256003    2.165    0.538
        17 -15.3580     99.2990     11.5586   4.6574465435e+01   5.7185921412e+01     1.478612    0.7455845  57.40  0.004401543    1.676    0.403
        18 -12.2845     70.2323     16.2310   5.6537005726e+01   6.2793505457e+01    0.3610349    0.3040792  52.95  0.001481853    1.325    0.245
        19 -12.0713     46.7619     13.2150   6.3936431066e+01   6.7301940049e+01    0.2601516    0.2160612  23.60  0.001266868    1.160    0.138
        20 -14.0138     41.7341      4.6111   6.1865832659e+01   6.9028419757e+01    0.6944391    0.4638378  14.66  0.003620635    1.312    0.238
        21 -12.2116    152.8426      8.4957   3.6202182344e+01   4.5067005595e+01    0.3314889    0.2042783  78.75  0.001591834    1.472    0.320
        22 -10.2757    145.3165      8.2944   3.7164548649e+01   4.6854279394e+01    0.1282412   0.08380905  44.59 0.0002671153    1.603    0.376
        23 -13.0037     85.2572     14.3392   5.1205338336e+01   5.9955236826e+01    0.4251367    0.3241576  15.36   0.00202511    1.329    0.248
        24 -12.1704    120.6952      3.9374   3.9638313515e+01   5.2972148425e+01    0.3690379    0.1778263  75.48  0.001722989    2.144    0.534
        25 -11.2290    117.0442      1.4991   3.9462723829e+01   5.4000907525e+01    0.2779872    0.1045275  65.65  0.001022931    2.214    0.548
        26 -10.8848     67.2678      4.3848   5.2320374758e+01   6.4489583474e+01    0.1631443    0.1053385  57.77  0.000510155    1.583    0.368
        27 -11.6987     61.2603      1.6750   5.3036494990e+01   6.5867829525e+01    0.3402342    0.1339496  54.09   0.00143579    2.313    0.568
        28 -12.2481     75.7690     10.8421   5.2502220180e+01   6.2233994873e+01    0.3011052    0.2136403  75.41  0.001005153    2.006    0.501
        29 -10.8831    232.9547      1.5196   2.7260644788e+01   2.8103095021e+01     0.165675   0.09295313  82.38 0.0009797973    1.579    0.367
        30 -11.7287     81.7896      1.4281   4.6906703017e+01   6.1789820979e+01    0.4187973   0.09406716  58.27  0.001518898    3.500    0.714
        31 -11.3729      1.8670    158.9946   1.1771515228e+02   4.0375187768e+01    0.3134702    0.1557358 -78.23  0.001271348    1.662    0.398
        32 -12.9134    107.7339    246.4010   1.0181294332e+02   7.6394636810e+00    0.6874263    0.5178807  89.99  0.004032789    1.660    0.397
        33 -14.3111     97.3456    239.0953   1.0320479613e+02   1.0569477340e+01    0.8332689    0.6923794  63.43  0.005179068    1.187    0.157
        34 -12.9175     57.6908    246.7131   1.1239577274e+02   1.4400705637e+01    0.5087327    0.3439679  27.67  0.003019826    1.620    0.383
        35 -10.4979     41.3354    250.3138   1.1595457647e+02   1.5659467868e+01    0.1044719   0.09181105 -29.39 0.0007046318    1.688    0.408
        36 -12.6131      2.8745    248.8089   1.2312555277e+02   2.0027231904e+01    0.4635245    0.2645106  76.44  0.003009345    1.439    0.305
        37 -13.6340      9.4941    246.0316   1.2178208442e+02   1.9937178064e+01    0.7315393     0.364821  61.21   0.00361451    1.639    0.390
        38 -12.0445     76.8713    156.8655   9.6458138245e+01   3.2862115372e+01     0.392624    0.3422144  18.59  0.001212184    1.275    0.216
        39 -13.2194     73.2084    153.2995   9.6878216160e+01   3.4318863759e+01    0.6892417    0.5328373  19.16  0.002163468    1.483    0.326
        40 -11.6012     85.9324    152.8556   9.3097960912e+01   3.2495807362e+01    0.4043887    0.1919144 -47.84  0.001544547    2.084    0.520
        41 -11.5253    103.2312    150.3756   8.7647001639e+01   3.0219145484e+01    0.3419448    0.2467653 -24.18  0.001502783    1.738    0.425
        42 -11.6895     12.6059    148.9958   1.1384117514e+02   4.2104537944e+01    0.3775327    0.1163734 -76.60  0.001354044    3.069    0.674
        43 -12.2939      7.4010    146.2886   1.1501228440e+02   4.3163883352e+01    0.6253791    0.2914755 -62.48  0.003039047    1.736    0.424
        44 -12.3004    244.8227    148.0177   5.5956054840e+01   4.1357150426e+00    0.3410278    0.1673218 -39.34  0.001634694    1.687    0.407
        45 -12.2683     59.4969    148.6020   1.0009739375e+02   3.7422010295e+01    0.2827614    0.2115501 -64.24  0.001263148    1.234    0.190
        46 -10.4689     62.9762    138.9430   9.7300108050e+01   3.9464450291e+01    0.1833894    0.1603708 -60.68 0.0005854506    1.057    0.054
        47 -12.4097     45.4115    134.8356   1.0204193723e+02   4.2695482975e+01    0.4561317    0.3574861 -50.70  0.002468594    1.185    0.156
        48 -11.5952    134.8224    132.5624   7.4914553470e+01   2.8465205974e+01    0.3841413    0.1423797  49.92  0.001150114    3.302    0.697
        49 -12.3980    246.4409    135.3298   5.3127955242e+01   6.0613961692e+00    0.2803094    0.1898787 -76.64  0.001349908    2.599    0.615
        50 -11.9925    121.0029    112.3610   7.3499940675e+01   3.5952450862e+01    0.4660754    0.3224404  46.34  0.001358878    1.490    0.329
        51 -13.5077     85.6683    114.0359   8.4578594000e+01   4.2285519079e+01     1.268364    0.9693204  21.88  0.004277636    1.432    0.302
        52 -14.5407    106.3947    106.3521   7.6099755709e+01   4.0270258292e+01     1.440138     1.188235 -38.30  0.005503081    1.189    0.159
        53 -13.3106     95.7465    111.0697   8.0622905418e+01   4.1209566198e+01      1.18054    0.6608638 -63.15  0.004465433    2.331    0.571
        54 -10.4374     58.8049    125.4015   9.5953603772e+01   4.3495953714e+01    0.1809564    0.1430357   6.61  0.000410459    1.472    0.321
        55 -12.9153     28.7502    122.4228   1.0530124097e+02   4.7553912895e+01    0.4294548    0.3111029 -58.03  0.002360965    1.179    0.152
        56 -12.0046      4.2255    119.8449   1.1290214086e+02   4.9991821548e+01    0.5019084    0.2138892   9.97  0.002179385    3.057    0.673
        57 -12.9766     49.5641     96.4972   9.2619772580e+01   5.1795341184e+01    0.8376856     0.609198 -48.71  0.003602187    1.228    0.186
        58 -12.1909     42.4764     90.8708   9.3874020941e+01   5.3943739603e+01    0.3289509    0.2412065 -59.42 0.0004981673    1.334    0.250
        59 -11.5960     34.4911     86.8467   9.5963317430e+01   5.5718898455e+01    0.2756694    0.2097812 -11.03  0.001414981    1.377    0.274
        60 -14.8598     26.3447     92.8962   1.0052860499e+02   5.5049538104e+01     1.666624     1.128437   4.47  0.009028958    1.689    0.408
        61 -14.3337     18.1830    111.0032   1.0696024977e+02   5.1281361601e+01    0.8816823    0.6576209 -43.55  0.003588438    1.236    0.191
        62 -13.6812      2.2812     97.1607   1.1032801964e+02   5.5643005124e+01    0.8931988    0.3109412 -73.51  0.003586826    2.734    0.634
        63 -14.1411     11.3810    103.4973   1.0809198016e+02   5.3594302433e+01    0.7021956    0.6649333 -15.57  0.004297141    1.209    0.173
        64 -11.3843    176.9153    110.2049   5.9482655882e+01   2.4222464429e+01    0.2917788    0.2206344  27.66  0.001384206    1.616    0.381
        65 -12.2367    136.0936    103.2894   6.7003588080e+01   3.4699162147e+01    0.6397648    0.3052839  47.51  0.001928846    2.134    0.531
        66 -13.2448    120.3952    102.3035   7.0927840474e+01   3.8302965619e+01    0.6824942    0.3299941  40.35   0.00256119    2.135    0.532
        67 -11.9494    163.6902     98.5045   5.9243098058e+01   2.9468278940e+01    0.2817029    0.2589889 -63.08 0.0002255052    1.088    0.081
        68 -12.0462     61.3362     97.9824   8.8711570326e+01   4.9903536214e+01    0.3610865    0.3037781  85.76 0.0009220958    1.544    0.352
        69 -12.4914    136.1576     95.1962   6.4742731745e+01   3.6355265013e+01    0.4116181    0.3076152  49.50  0.001243134    1.351    0.260
        70 -11.6395    128.8651     96.3008   6.6937916769e+01   3.7746123479e+01    0.2511275    0.1998137  67.18  0.001188175    1.465    0.318
        71 -14.0392    108.0612    122.0000   7.9710475084e+01   3.6302022191e+01     1.486827     1.156753  24.97  0.007013175    1.402    0.287
        72 -10.8401    125.6569     92.3135   6.6652359638e+01   3.9266583700e+01    0.1569025    0.1239418 -88.30 0.0005858171    1.707    0.414
        73 -11.3899     90.3815     87.7054   7.5767477487e+01   4.7447856147e+01    0.4510014    0.1958187  46.92  0.001636298    2.587    0.613
        74 -12.5904    188.1411     84.3915   5.0908488299e+01   2.6529267628e+01    0.6293958    0.2557102  46.37   0.00232959    2.834    0.647
        75 -12.5334    237.6430     80.6875   4.2905735156e+01   1.6773534820e+01    0.3493637    0.2120027 -85.05  0.001713155    2.282    0.562
        76 -12.3712    159.3112     66.3573   5.1411220476e+01   3.6236129025e+01    0.7428899    0.2594975 -47.53  0.002476172    3.261    0.693
        77 -13.9928    164.2968     72.1376   5.2042049788e+01   3.4110984831e+01     1.563862    0.5952175  51.80   0.00575278    2.564    0.610
        78 -13.4205    161.4748     80.3914   5.4850665415e+01   3.3348933567e+01    0.8743797    0.5256308  28.36  0.003281818    2.624    0.619
        79 -14.2561    169.4112     77.2369   5.2441020264e+01   3.2051280768e+01     1.270349    0.4749088  52.66   0.00379978    2.635    0.620
        80 -13.5325     66.0869     49.2293   7.1415562408e+01   5.9084778254e+01     1.174406    0.6298139 -31.60  0.005541949    1.901    0.474
        81 -12.8945     52.6466     69.8871   8.3905511990e+01   5.7303610858e+01    0.7310898    0.5524709 -88.32  0.003550826    2.382    0.580
        82 -13.4392     56.9977     66.7146   8.1146358240e+01   5.7330315098e+01    0.9326608    0.5341804 -28.05  0.004301257    1.890    0.471
        83 -13.3824     87.1926     65.3704   6.9689137282e+01   5.2459915713e+01    0.7638812    0.5091773  -1.14  0.003201984    2.078    0.519
        84 -13.5217     91.7589     57.9762   6.5668231164e+01   5.2853074198e+01    0.5386211    0.4989095 -10.73  0.002275049    1.076    0.071
        85 -13.1907     54.3332     81.8065   8.6863779236e+01   5.4544245802e+01    0.5880306    0.3962975 -44.00  0.002669517    1.349    0.259
        86 -14.0076     61.0814     75.8181   8.2479225865e+01   5.4876977097e+01    0.7622641    0.4879478 -31.05  0.001479661    1.563    0.360
        87 -12.9432     70.8083     75.3858   7.8715609911e+01   5.3449523582e+01    0.6022741    0.4332645  -2.50  0.002330358    1.628    0.386
        88 -12.7240     77.8258     72.2805   7.5197468976e+01   5.2879054194e+01    0.6605517    0.3894443 -19.67   0.00176994    2.322    0.569
        89 -12.1152     47.0804     81.8695   8.9698965319e+01   5.5458632571e+01    0.3902259    0.3131497 -36.26  0.001784016    1.102    0.092
        90 -11.9291     42.1765     77.2258   9.0338308592e+01   5.7063233356e+01    0.5299671    0.2242542 -55.54  0.002192511    2.288    0.563
        91 -13.0994    213.0124     78.5133   4.5631973083e+01   2.2091806705e+01    0.7969914    0.4497321  88.22  0.003312529    2.823    0.646
        92 -11.8290    114.1896     80.2375   6.6217100758e+01   4.4152218249e+01    0.3881436    0.3252812 -61.24  0.001298796    1.371    0.271
        93 -14.8973      6.4974     71.7984   1.0387944108e+02   6.1299220489e+01     1.117187    0.6556796 -51.26  0.004505407    1.330    0.248
        94 -14.0236      4.7229     63.5438   1.0273506012e+02   6.3201514358e+01    0.6296955    0.5122697  -4.94  0.004031092    1.298    0.230
        95 -11.4909     27.2012     75.5457   9.6035068217e+01   5.8964985344e+01    0.5098748    0.2540526 -74.26  0.001959914    3.444    0.710
        96 -12.7867    135.3764     79.8939   6.0537330206e+01   3.9493734955e+01    0.6951788     0.400299  52.70  0.002313314    1.738    0.425
        97 -13.8008    199.4168     69.9563   4.5572315243e+01   2.6409553962e+01    0.7131233    0.4779415  52.65  0.002662497    1.613    0.380
        98 -13.1898    133.4833     66.5941   5.7017522751e+01   4.2271033365e+01    0.8813164    0.6670441  14.21  0.003232952    1.710    0.415
        99 -12.4103     40.1858     68.2912   8.8516392796e+01   5.9200294216e+01    0.7098792    0.2259041  29.65  0.002698396    3.214    0.689
       100 -11.4774     99.7556     65.2894   6.5672590920e+01   4.9963239783e+01    0.3058685    0.2337166 -70.11  0.001471046    1.890    0.471
       101 -11.7445     31.8078     65.0148   9.1098481394e+01   6.0788901775e+01    0.3314553    0.2360954 -34.00  0.001909745    1.204    0.169
       102 -11.8481     30.7632     60.9955   9.0320656732e+01   6.1720467905e+01    0.3318633    0.2004401 -41.51  0.001560769    1.416    0.294
       103 -13.6544    177.7684     57.2083   4.5693022194e+01   3.3309498611e+01    0.9326295    0.5612786 -50.55  0.003329533    1.667    0.400
       104 -13.1790     28.3332    246.0134   1.1820578721e+02   1.7986539172e+01    0.4418909    0.3042201  64.47  0.002926069    1.177    0.150
       105 -13.3844    157.7740     44.2863   4.5500252338e+01   3.9872278713e+01     1.106525    0.4779675  46.79  0.004437573    2.512    0.602
       106 -13.5943    171.3216    242.8068   8.7763608655e+01  -1.1391463251e+00     0.691197    0.4889721  12.90  0.003999001    1.351    0.260
       107 -12.9566     14.1998    221.9888   1.1950886732e+02   2.4501116040e+01    0.5948762    0.4735291 -57.15  0.003439682    1.531    0.347
       108 -14.1091     26.1620    226.7061   1.1735535782e+02   2.2258379646e+01     1.201351    0.4547186 -73.35  0.005649886    2.454    0.592
       109 -13.2180     20.6985    224.7591   1.1835181792e+02   2.3249626099e+01    0.7184539    0.3524151 -52.78  0.003626358    2.565    0.610
       110 -14.6023     65.6222    223.3250   1.0850617551e+02   1.8303165529e+01     1.175461    0.6938725  50.53  0.006147874    1.543    0.352
       111 -14.0716     64.1294    214.6048   1.0791842107e+02   2.0452413172e+01     0.677338    0.4225959  55.94  0.003525016    1.539    0.350
       112 -13.0060     82.3436     54.4144   6.7495190058e+01   5.5292156460e+01    0.6414598    0.4444369 -15.12  0.002751192    1.627    0.385
       113 -12.9042     79.1236     61.1958   7.1000752738e+01   5.4725631713e+01    0.6206626    0.2952609  41.26  0.002636955    2.066    0.516
       114 -12.0934     77.2770     56.8116   7.0102868963e+01   5.5832476366e+01    0.3827637    0.2752724 -45.71  0.001171506    1.549    0.355
       115 -10.8703     38.8269     60.2942   8.6556861932e+01   6.0983568500e+01    0.2370099    0.1837187 -74.14  0.001289479    1.966    0.491
       116 -12.2632     24.7359     59.5185   9.2564830188e+01   6.2600260513e+01    0.4562006    0.2444566 -44.84   0.00167248    1.559    0.359
       117 -11.4396     17.7903     55.4558   9.4523443866e+01   6.4017945781e+01    0.3392354    0.1605196 -57.75  0.001644217    2.083    0.520
       118 -11.8138    247.0999     53.3294   3.6273766840e+01   1.9027531194e+01    0.4010745    0.1192602 -49.27  0.001649888    2.852    0.649
       119 -14.3380    100.8406     49.6088   5.9995600456e+01   5.2297491852e+01    0.9347401    0.8609611  -9.40  0.004740102    1.108    0.098
       120 -10.5441     41.5246     53.5077   8.3066181777e+01   6.1964967973e+01    0.1331389    0.1112248 -14.85 0.0008101242    1.004    0.004
       121 -11.7016     37.8596     52.3603   8.4280801494e+01   6.2626668046e+01    0.4632922     0.235539 -12.01   0.00183958    3.180    0.686
       122 -12.4568    135.6571     50.2651   5.1521725512e+01   4.4303895262e+01     0.519114    0.2846287  37.45  0.001884604    2.169    0.539
       123 -12.7751     17.5681     40.5495   8.9695282416e+01   6.6903373621e+01    0.2305945    0.1803592 -16.97 0.0002683018    1.046    0.044
       124 -13.0113      3.8034     43.4871   9.7681758150e+01   6.7360075335e+01    0.6898853    0.5184433 -63.93   0.00449995    1.564    0.361
       125 -12.5417     11.7357     43.6878   9.3724377983e+01   6.6790897105e+01    0.5082626    0.2535886 -26.92  0.002356015    1.890    0.471
       126 -10.6813     23.5795     50.2174   9.0119320702e+01   6.4549812650e+01    0.1762186   0.09544276 -38.63    0.0004195    1.559    0.358
       127 -14.3251    212.2908     41.4135   3.7286890223e+01   2.7731741119e+01     1.887517    0.6268005  74.74  0.006730217    3.978    0.749
       128 -13.0293     59.4844    212.9709   1.0881957108e+02   2.1429615512e+01    0.4237804    0.2417069 -56.72  0.001260323    1.838    0.456
       129 -12.9182     94.1733    218.5460   1.0138885731e+02   1.5342348496e+01    0.3338041    0.2396527  43.41  0.001465761    1.270    0.213
       130 -11.9580    104.3035     36.6824   5.4477656322e+01   5.3347482183e+01    0.2814794    0.1843125 -34.16 0.0009580585    1.655    0.396
       131 -12.6667     75.6890     37.3602   6.3366668702e+01   5.9166895056e+01    0.4061217     0.251065  41.98 0.0009256198    1.493    0.330
       132 -11.7500     70.4797     36.4907   6.4851025312e+01   6.0260853363e+01    0.2736814    0.2347124   0.46 0.0008548907    1.081    0.075
       133 -12.6936    241.9155     36.1412   3.3328141212e+01   2.2327230608e+01    0.5273696    0.2506422  75.74  0.002178227    2.187    0.543
       134 -12.0544    147.4079    239.2147   9.2284935596e+01   3.0510605731e+00    0.1656322    0.1300764 -65.39 0.0007950396    1.670    0.401
       135 -11.1523    156.6709    214.6855   8.6373699189e+01   6.2171764058e+00    0.1445378    0.1036092  -4.34 0.0005179527    1.675    0.403
       136 -10.9266    136.4482    211.2427   9.0407841585e+01   1.0234273470e+01    0.1846725    0.1404856 -67.16 0.0008471494    1.602    0.376
       137 -11.9206     72.6500    207.3530   1.0507096521e+02   2.0971790333e+01    0.3667269    0.3087261  83.00   0.00214372    1.150    0.130
       138 -13.0319     44.5935     32.6802   7.3628480808e+01   6.5072119616e+01    0.6041363     0.487957  16.99  0.003896642    1.138    0.122
       139 -12.1906    223.1108     20.7712   3.1803731996e+01   2.7998369530e+01    0.3304085    0.2423522  69.84  0.001755473    1.402    0.287
       140 -13.3882    216.1177     28.4091   3.4039636536e+01   2.8561596777e+01    0.4295894    0.2477235 -58.40  0.002147608    1.571    0.364
       141 -12.4923     41.2401    206.8789   1.1243279459e+02   2.5060985118e+01    0.3062935    0.1878661  87.03  0.001409905    1.627    0.385
       142 -12.5225     57.4845    203.1579   1.0822133074e+02   2.3971264400e+01    0.5483597    0.2734612 -81.63  0.002370053    2.311    0.567
       143 -13.3087     55.4086     27.2450   6.6733398594e+01   6.4159824666e+01    0.6051748    0.3556113  40.83  0.002422014    1.626    0.385
       144 -12.3469     63.6491     25.1421   6.2656876705e+01   6.3003471745e+01    0.4544509    0.2491603  23.28  0.001533908    2.035    0.509
       145 -10.9355     98.1496     27.1328   5.2638137780e+01   5.5855634474e+01    0.2503578    0.1699495  58.32  0.001349875    1.424    0.298
       146 -11.4281     88.5261     26.3705   5.5008920483e+01   5.7998441713e+01    0.2557774    0.1285162 -27.23  0.001211463    2.172    0.540
       147 -11.3953     30.6436     25.7745   7.7161623677e+01   6.7976935457e+01    0.2785626    0.1525647  18.82  0.001511182    1.798    0.444
       148 -11.5088     36.1823     23.8420   7.3622248126e+01   6.7536373970e+01    0.2872468    0.1596133 -31.74  0.001600966    1.715    0.417
       149 -13.8400     15.2860    197.4163   1.1757459934e+02   2.9974103139e+01    0.8190438    0.4005153 -68.05  0.004213403    1.812    0.448
       150 -12.3874     46.5129     20.7594   6.7553244335e+01   6.6437273965e+01    0.3323049     0.222946  22.78  0.001410034    1.309    0.236
       151 -13.1441     40.3909    195.3996   1.1150909153e+02   2.7881251116e+01    0.4547441    0.2420015  85.05  0.002071119    2.124    0.529
       152 -12.5017     36.8297    195.3776   1.1236390376e+02   2.8283005844e+01    0.3429062    0.1836027 -82.10  0.001653937    1.823    0.451
       153 -14.2526     29.9702    169.5042   1.1138007207e+02   3.5394711448e+01     1.644402     1.330572 -33.09  0.003297006    1.511    0.338
       154 -14.0620     22.2953    181.2227   1.1454494067e+02   3.3215033390e+01      1.07002    0.4678375 -53.02  0.004795055    2.366    0.577
       155 -15.2180      8.2378    183.6429   1.1815094386e+02   3.3869260332e+01     1.287602     1.016178 -85.04  0.008323405    1.063    0.060
       156 -15.2643     15.9605    175.6538   1.1560516617e+02   3.5159913868e+01     2.248438     1.033684  63.22  0.009957652    2.456    0.593
       157 -12.3420    164.1673    195.4504   8.1244629512e+01   8.8162394533e+00    0.3907017     0.244317 -70.11  0.001539679    2.924    0.658
       158 -11.8720    248.4309    195.2150   6.4593435805e+01  -4.2655656591e+00    0.3147275    0.1037079 -40.93  0.001308719    2.678    0.627
       159 -11.9717    200.9278    191.8929   7.2700170398e+01   3.3224376480e+00    0.3053112    0.2145291 -28.73  0.001505818    1.330    0.248
       160 -12.0054     49.0566    181.9999   1.0785044894e+02   3.0166009726e+01    0.4017805     0.254896 -56.63  0.002031237    1.545    0.353
       161 -12.2708    198.6041    181.7670   7.1163525272e+01   5.6114576878e+00    0.2640302    0.2421907  44.88  0.001542233    1.308    0.236
       162 -12.6767    124.2575    166.8740   8.5341047424e+01   2.2378189802e+01    0.6604263    0.4377662 -67.62  0.002822511    1.842    0.457
       163 -12.3112     23.5093    160.3004   1.1208097128e+02   3.8335824280e+01    0.3385173    0.1579894 -48.94  0.001173625    2.219    0.549
       164 -10.8347     50.6765     44.0056   7.5585449505e+01   6.2395392986e+01    0.1770295     0.144371 -18.38 0.0003111048    1.111    0.100
