#   1 NUMBER                 Running object number                                     
#   2 MAG_AUTO               Kron-like elliptical aperture magnitude                    [mag]
#   3 X_IMAGE                Object position along x                                    [pixel]
#   4 Y_IMAGE                Object position along y                                    [pixel]
#   5 X_WORLD                Barycenter position along world x axis                     [deg]
#   6 Y_WORLD                Barycenter position along world y axis                     [deg]
#   7 A_WORLD                Profile RMS along major axis (world units)                 [deg]
#   8 B_WORLD                Profile RMS along minor axis (world units)                 [deg]
#   9 THETA_WORLD            Position angle (CCW/world-x)                               [deg]
#  10 FWHM_WORLD             FWHM assuming a gaussian core                              [deg]
#  11 ELONGATION             A_IMAGE/B_IMAGE                                           
#  12 ELLIPTICITY            1 - B_IMAGE/A_IMAGE                                       
         1 -14.8902    220.8963     24.9170   1.5810101333e+01   2.8291193263e+01    0.8688375    0.7638126 -37.16  0.004044577    1.277    0.217
         2 -13.6883     33.6582     15.2235   5.0811192341e+01   7.2467274726e+01    0.5219958     0.258279  33.52  0.002378457    2.035    0.509
         3 -11.2786    250.0239     10.9847   1.1299384353e+01   2.4359836894e+01    0.1381568   0.09528624 -49.04 0.0004570441    1.069    0.065
         4 -12.3296     71.1268      7.2022   3.0199246185e+01   6.5540238884e+01     0.307232    0.1699399  70.81  0.001155396    1.869    0.465
         5 -12.0499    221.4947      5.5207   1.1472553828e+01   3.0214299881e+01    0.2319428   0.09638155 -30.76  0.001058183    2.157    0.536
         6 -13.4851     42.7164      2.3489   3.7574827653e+01   7.2315732384e+01    0.8589679    0.1969573  58.87  0.002560384    5.205    0.808
         7 -10.6460    191.0537    218.5151   6.0515651883e+01   3.8355172117e+00    0.2594336    0.1411744 -40.30  0.001225801    1.883    0.469
         8  99.0000    121.2970    236.1956   7.7152452493e+01   9.8857904614e+00     6.635299     5.068951  82.14   0.03986356    2.028    0.507
         9  -9.9065    197.4454    210.2414   5.8027143524e+01   4.2652921561e+00    0.1514784    0.1079803 -42.61 0.0009411484    1.626    0.385
        10 -17.3412     71.0791    143.0052   7.6756388883e+01   3.7467078655e+01     5.375857     3.814388  50.39   0.02557462    1.437    0.304
        11 -18.8346     10.7952    100.6169   9.2199316492e+01   5.5597434935e+01     16.30898     2.513315 -76.18   0.03551129    7.629    0.869
        12 -10.6525    210.9103    198.6365   5.3719492748e+01   4.2905183525e+00    0.1911674    0.1356118 -17.61 0.0004566577    1.194    0.162
        13 -11.0570    193.9714    196.4506   5.6357170222e+01   6.8235272223e+00    0.4053501    0.2065247 -58.05  0.001444977    5.295    0.811
        14 -13.8028     82.6349    195.3578   8.1268507717e+01   2.3088272027e+01     0.373954    0.3537157  87.07  0.001246927    1.124    0.111
        15 -10.7258     50.4534    195.8497   8.9754400434e+01   2.7034088478e+01    0.3472314    0.1909088  71.62  0.001585881    2.147    0.534
        16 -10.6937     54.8778    190.7823   8.8078720156e+01   2.7698809039e+01    0.1821587     0.174931 -12.73 0.0004029285    1.210    0.174
        17  -9.6772    206.6942    190.2971   5.3006213090e+01   6.0823176376e+00    0.1030926   0.09849072 -58.61 0.0002824836    1.587    0.370
        18 -10.7933    175.1833    221.6031   6.4000759117e+01   5.3554023699e+00    0.2202118    0.1525187 -28.44  0.000700987    1.407    0.289
        19 -12.7219     55.6153    181.5905   8.6892343811e+01   2.9805943291e+01    0.4424073    0.3044999 -29.43   0.00122706    1.954    0.488
        20 -12.2861    173.6572    177.6695   5.6917787504e+01   1.2905729632e+01    0.5995659     0.335933 -46.22  0.002943056    1.844    0.458
        21 -12.2117     98.6811    181.0906   7.5081150110e+01   2.4001883137e+01    0.3540132    0.3106927  18.34   0.00151502    1.143    0.125
        22 -12.0782     97.1071    176.3433   7.4757991659e+01   2.5323313963e+01    0.3240353    0.2574354 -77.93 0.0007958075    1.445    0.308
        23 -10.5425     63.5460    181.2648   8.4645340762e+01   2.8892441718e+01    0.1788491     0.135981 -70.94 0.0003656853    1.364    0.267
        24 -12.2611    145.8626    178.5796   6.3046055534e+01   1.7113366610e+01    0.2536776    0.2003028 -52.45  0.000700872    1.401    0.286
        25 -14.2204    112.4792    169.5516   6.9556673532e+01   2.4447144514e+01     1.194402    0.7028679  65.63  0.004531125    2.947    0.661
        26 -12.5337    117.4866    168.1025   6.8002112427e+01   2.3950447944e+01    0.4801702    0.3086449 -77.07 0.0009140915    2.402    0.584
        27 -12.2787    179.5930    169.1156   5.4115186002e+01   1.3507446300e+01     0.616364    0.4050899 -49.35  0.002629801    1.679    0.404
        28  99.0000     45.0826    214.2288   9.2675608747e+01   2.3515786428e+01     2.986893     1.333331  19.25   0.01303318    2.558    0.609
        29 -11.0865    230.3248    166.3171   4.4805167226e+01   6.5507783173e+00    0.1236052   0.07980902  -8.30 0.0004205371    1.671    0.402
        30 -12.0187    236.2945    163.0276   4.3309689638e+01   6.2429686419e+00     0.174742    0.1279816 -27.11 0.0005147411    1.086    0.079
        31  -9.9260    162.3905    161.1355   5.6065770037e+01   1.7800799070e+01    0.1852877    0.1285011 -52.84 0.0004067782    1.606    0.377
        32 -11.2852     99.8796    160.6318   7.1353235216e+01   2.8561586024e+01    0.2538789    0.2145335 -75.62 0.0003817247    1.300    0.231
        33 -10.7837    167.2063    156.3260   5.4076367586e+01   1.7902780665e+01    0.2352795    0.1738352 -29.61  0.000567683    1.310    0.237
        34 -10.8546     47.2317    229.0469   9.3247214983e+01   2.0179659522e+01    0.1794737    0.1249199  57.64  0.001089663    1.302    0.232
        35 -11.0983    115.8153    148.2083   6.4596724236e+01   2.8750817506e+01    0.2247593    0.1997591  76.09  0.000601212    1.275    0.216
        36 -12.7248    109.1798    145.3130   6.5809915495e+01   3.0607079792e+01    0.4677039    0.3403193  31.93   0.00138096    1.394    0.283
        37 -13.1621    134.0901    145.1193   5.9232265183e+01   2.6118572036e+01    0.9591816    0.3840172 -50.99  0.003113998    2.598    0.615
        38 -13.0224     98.9720    147.8201   6.9200689994e+01   3.1784114029e+01    0.6396297    0.3838155 -72.02  0.002197138    2.191    0.544
        39 -13.5643     93.1353    145.8978   7.0523648760e+01   3.3238310321e+01    0.9596394    0.5486223 -34.31  0.001774035    2.311    0.567
        40 -11.3254    147.9034    144.3965   5.5781028546e+01   2.3717443187e+01    0.2726491    0.2028366 -61.72 0.0007456786    1.590    0.371
        41 -12.2751     88.5329    150.0645   7.2676879148e+01   3.2965964848e+01      0.34963    0.2975536  83.89 0.0004085335    1.293    0.226
        42 -13.3877    106.0721    132.3764   6.3900098044e+01   3.4241005552e+01    0.7339935     0.462372 -56.27  0.003194594    1.630    0.387
        43 -12.6263     94.6420    131.7858   6.7151984590e+01   3.6457095621e+01    0.3581192    0.2727588 -59.99    0.0012623    1.335    0.251
        44 -12.9082    135.3108    130.0750   5.5546510917e+01   2.9154856025e+01     0.619809    0.2808716 -48.41  0.002345296    2.191    0.543
        45 -10.6628     43.1472    224.4711   9.3881596417e+01   2.1555533473e+01    0.1739611    0.1106121  24.92 0.0006139557    1.506    0.336
        46 -11.7788    114.3083    125.7866   6.0039693917e+01   3.4229011230e+01    0.2944905    0.2497576  13.89 0.0007388922    1.338    0.253
        47 -11.5127    101.5420    120.9683   6.2573086965e+01   3.7820066188e+01    0.3002748    0.2636346 -11.48  0.000663317    1.300    0.231
        48 -10.9427    155.9690    111.3733   4.6230415868e+01   2.8826835323e+01    0.2762641    0.1943351 -58.10 0.0008541974    1.566    0.362
        49 -11.1787    162.3044    119.6609   4.6942472028e+01   2.5919748367e+01    0.2863871    0.2343199 -62.27  0.001032561    1.350    0.259
        50 -10.9039    159.5359    116.0384   4.6637692577e+01   2.7182396819e+01    0.2981908    0.2056073 -61.61 0.0009860236    1.739    0.425
        51 -10.5806    106.0521    124.8464   6.2167890302e+01   3.6037258463e+01    0.2391912     0.206007  77.48  0.000505807    1.317    0.241
        52 -10.7399    109.5125    115.9850   5.8993135093e+01   3.7444795552e+01    0.2264525    0.2055684  42.45 2.891461e-05    1.115    0.103
        53 -10.5761     92.1673    111.4517   6.3117892538e+01   4.1891465763e+01    0.2359349    0.2065362  87.04 0.0003756499    1.268    0.211
        54 -12.6494    115.5900    108.6779   5.5373331039e+01   3.7875748399e+01    0.5012498    0.2820541  59.69  0.001717984    2.356    0.576
        55 -11.5204     89.4764    221.4143   8.2641895187e+01   1.6698890778e+01    0.2857855    0.2019693  31.95 0.0006375947    1.213    0.176
        56 -11.6010    134.1843    105.0784   4.9553899269e+01   3.4715411596e+01    0.3628012    0.1991898 -51.17    0.0014663    1.882    0.469
        57 -11.5115     73.8177     99.7623   6.6326903365e+01   4.8104349853e+01    0.2845227    0.2482672  50.92 0.0006629858    1.181    0.153
        58 -10.3324     71.5316    223.1308   8.7060063608e+01   1.8593277506e+01    0.1464692     0.116211 -42.78 0.0004495581    1.524    0.344
        59 -11.0764    127.2008     89.1940   4.6841627028e+01   3.9504372189e+01    0.2742623    0.2283418 -79.82 0.0004753328    1.367    0.269
        60 -12.2347     57.5159     89.4850   6.9820102299e+01   5.3357375343e+01    0.3244122     0.268037  -7.92  0.001183151    1.399    0.285
        61 -10.4428    102.3122     88.2838   5.3446022572e+01   4.5189158067e+01    0.1519286    0.1238346   2.58 0.0002413026    1.574    0.365
        62 -10.3489     98.3471     88.6410   5.4778820345e+01   4.5953248565e+01    0.1645927    0.1231492  89.27 0.0007031012    1.844    0.458
        63 -12.0316     89.8238    249.5813   8.5381803548e+01   1.1439821540e+01    0.1720205    0.1663912 -43.34    0.0005143    1.274    0.215
        64 -11.8729    120.2125     82.9875   4.6773098139e+01   4.2326130649e+01    0.5226067    0.3366402 -86.83  0.001640236    2.799    0.643
        65 -10.6848    108.2005     72.0702   4.6557172694e+01   4.7215362384e+01    0.2607614    0.1937664  69.87 0.0005254952    1.541    0.351
        66 -10.1611     77.8452     71.7803   5.6295292168e+01   5.3848078745e+01    0.2054234    0.1776065  78.16 0.0004479231    1.349    0.259
        67 -12.3817    168.8982     69.0862   3.2592364954e+01   3.3556516804e+01     0.349299    0.2178069  66.97   0.00167856    1.730    0.422
        68 -13.4592    177.2542     64.8425   3.0167073618e+01   3.2336071019e+01     0.450524    0.3860755 -45.30 0.0007724758    1.087    0.080
        69 -10.6046     58.6624    233.4901   9.0944899065e+01   1.8030240284e+01    0.1349055    0.1070557  22.48 0.0002343513    1.255    0.203
        70  -9.7835     96.6849     63.3620   4.6945032421e+01   5.1505162107e+01    0.1570775    0.1181689 -78.88 0.0007041712    1.760    0.432
        71 -14.5582    193.8392     52.1226   2.4717554648e+01   3.0526578213e+01     1.054045    0.8666261  40.56  0.003846355    1.564    0.360
        72 -13.1317    199.4781     46.6449   2.2737934207e+01   3.0053368827e+01    0.4141796    0.3867832  24.46  0.001422067    1.403    0.287
        73 -11.3469     66.9658     60.4851   5.6428644509e+01   5.8355777878e+01    0.2257161    0.1427247  41.68 0.0005317961    1.571    0.364
        74 -11.4749     75.9528     53.0144   5.0009556040e+01   5.7997236949e+01    0.2509176    0.2059209  46.12 0.0003540775    1.193    0.162
        75 -12.6360     72.5399     50.2013   5.0149214323e+01   5.9233133356e+01     0.493181    0.3566142  11.44  0.002216257    1.843    0.457
        76 -10.3192     84.1867     51.3563   4.6438032208e+01   5.6508086347e+01    0.2088864     0.135095  60.42 0.0007060771    1.694    0.410
        77 -10.1962     59.5220     46.4958   5.3907795715e+01   6.2530808512e+01    0.1411201    0.1344065  10.78 0.0001136609    1.008    0.008
        78 -10.8945     69.8393     44.8593   4.8936628960e+01   6.0753979647e+01    0.1902372    0.1713915  87.45 0.0004249015    1.314    0.239
        79 -10.8877     53.2394    230.9581   9.1997809753e+01   1.9137643425e+01    0.3022756    0.1474037 -64.63  0.001562546    2.291    0.564
        80 -10.7620     79.7363     43.3336   4.4660387202e+01   5.8869377363e+01    0.2348962    0.2109084  80.19 0.0006077664    1.238    0.192
        81 -11.0750     72.4687     40.5089   4.6034550732e+01   6.0931721459e+01    0.2443613     0.227853  49.17 0.0005817421    1.067    0.063
        82 -10.1015    113.4544     39.5000   3.3679090489e+01   5.1425745809e+01    0.1435107    0.1336736 -89.81 4.208003e-05    1.042    0.040
        83 -10.9419    164.3005    248.9624   6.9951131398e+01   2.6312769182e+00    0.1874859    0.1352151  14.80  0.000645715    1.099    0.090
        84 -11.5380    249.9697     22.3098   1.3549050851e+01   2.3177151530e+01    0.1567453     0.119007 -58.18  0.001165661    1.076    0.071
        85 -11.7130     60.7332     21.2686   4.1220881936e+01   6.6320468200e+01     0.224561    0.2065336  76.45 0.0007446027    1.250    0.200
        86 -11.5127     54.3708    240.7672   9.2449089166e+01   1.7099790178e+01    0.1826806    0.1519179 -19.36  0.001210601    1.588    0.370
        87 -12.7603    249.0564    238.1732   5.3880233203e+01  -4.9073962088e+00    0.2665558    0.1288487 -33.00  0.001170308    1.837    0.456
        88 -13.0905    249.0893    232.1859   5.2986783430e+01  -4.2313408365e+00     0.401216    0.1228135 -33.77  0.001917574    2.751    0.636
        89 -10.1693    191.3389    237.0645   6.3247415300e+01   1.1703967817e+00    0.2677055   0.09913533 -42.18  0.001318036    2.874    0.652
