#   1 NUMBER                 Running object number                                     
#   2 MAG_AUTO               Kron-like elliptical aperture magnitude                    [mag]
#   3 X_IMAGE                Object position along x                                    [pixel]
#   4 Y_IMAGE                Object position along y                                    [pixel]
#   5 X_WORLD                Barycenter position along world x axis                     [deg]
#   6 Y_WORLD                Barycenter position along world y axis                     [deg]
#   7 A_WORLD                Profile RMS along major axis (world units)                 [deg]
#   8 B_WORLD                Profile RMS along minor axis (world units)                 [deg]
#   9 THETA_WORLD            Position angle (CCW/world-x)                               [deg]
#  10 FWHM_WORLD             FWHM assuming a gaussian core                              [deg]
#  11 ELONGATION             A_IMAGE/B_IMAGE                                           
#  12 ELLIPTICITY            1 - B_IMAGE/A_IMAGE                                       
         1 -14.5031    148.2082     59.6589   9.0019032794e+01   4.0802492276e+01      1.35492     1.067309 -13.39  0.001071114    1.448    0.310
         2 -14.7755    159.0594     44.3703   8.2665882870e+01   4.0426593622e+01     1.397277     1.056797 -27.44  0.003832173    1.384    0.278
         3 -14.7839    171.5255     12.2220   7.0010205644e+01   4.1101631458e+01     1.456612     1.226851  70.21  0.005395363    1.088    0.081
         4 -13.2143    189.4756     14.0205   6.8181980967e+01   3.6161278470e+01    0.5683445    0.3994112 -41.47  0.002166898    1.440    0.306
         5 -10.3385    146.1343    245.5831   1.2938219004e+02   6.4735140465e+00    0.1507472    0.1237491 -50.14 0.0006387584    1.606    0.377
         6 -20.2891     81.1013    180.5862   1.3428564633e+02   2.8353931764e+01      15.4248     6.272794 -66.87   0.06901773    2.502    0.600
         7 -11.0525    135.4214    196.1810   1.2500082535e+02   1.6317775985e+01     0.255004    0.2200644  76.60  0.001346775    1.163    0.140
         8 -11.7214    167.9566    240.0483   1.2486139622e+02   3.6958212617e+00    0.1816046    0.1413726  42.40 0.0003348407    1.007    0.007
         9 -10.4046     29.9936    199.9908   1.4635171090e+02   3.0852021646e+01    0.1794627    0.1297933 -49.48   0.00107503    2.137    0.532
        10 -13.4463    145.9955    189.6512   1.2183273111e+02   1.5592793857e+01    0.6557096    0.5366527  58.67  0.003044413    1.127    0.113
        11 -14.8454    204.8788    174.5466   1.0734252831e+02   6.7906806882e+00     1.432703     1.016546 -62.05  0.007122965    2.112    0.527
        12 -12.0561    201.1888    163.7028   1.0586724557e+02   9.2954319627e+00    0.5448663    0.4393405 -29.80  0.003011996    1.301    0.232
        13 -11.8293    199.3322    179.0459   1.0927370190e+02   7.1558448517e+00    0.3098954    0.2485056 -77.54  0.001066638    1.872    0.466
        14 -13.4524    195.6755    169.6174   1.0813866674e+02   9.4224997978e+00    0.4577293    0.4432929  10.03  0.001402846    1.090    0.082
        15 -12.6243    193.6132    164.7944   1.0757153892e+02   1.0656823803e+01    0.3421972    0.3148478 -10.77  0.001100103    1.126    0.112
        16 -11.3971    161.2472    239.4036   1.2597018296e+02   4.8889971379e+00    0.2970772    0.1709591  38.22   0.00146945    1.444    0.307
        17 -11.1323     28.4188    238.6527   1.4885754717e+02   2.3961889443e+01    0.1407827    0.0782139  89.38 0.0009947966    1.538    0.350
        18 -12.1283     21.7037    236.9582   1.4984023545e+02   2.4973001175e+01    0.1853933    0.1159072  87.12  0.001082423    1.319    0.242
        19 -12.3419    188.0040    174.7391   1.1065288021e+02   1.0095980405e+01    0.4016477    0.2523184 -70.68  0.001600524    3.245    0.692
        20 -12.1885    165.5291    172.1456   1.1473046450e+02   1.5049209638e+01    0.2832005    0.2185971  70.16  0.001474406    1.516    0.340
        21 -12.4097    230.3567    167.3962   1.0123478545e+02   2.9652062922e+00     0.406716    0.2116029 -48.60  0.001753712    2.658    0.624
        22 -13.0076    196.5542    225.0621   1.1765891771e+02   9.2190511823e-01      0.27714    0.2118421  -6.34   0.00177275    1.557    0.358
        23 -12.4222    153.7644    152.5438   1.1341836666e+02   2.1220070665e+01    0.3925118    0.2773916  83.12  0.001756568    2.020    0.505
        24 -13.9967    163.8138    157.1638   1.1216458644e+02   1.8223703375e+01    0.5861303    0.5004507 -60.27  0.002213429    1.285    0.222
        25 -13.6156    159.6328    151.1085   1.1182442011e+02   2.0280259602e+01    0.5296708    0.3738333 -28.31  0.002495731    1.759    0.432
        26 -14.3873    134.1897    146.8406   1.1672170328e+02   2.6385654969e+01     1.695897    0.5335839 -57.66  0.004636786    4.959    0.798
        27 -15.4924    143.5428    144.2911   1.1401835755e+02   2.5024215734e+01     1.165109     1.029592 -89.85   0.00513747    1.194    0.162
        28 -11.4405     29.1409    156.7767   1.4311225753e+02   3.9898992002e+01    0.2697344    0.1872809 -86.15 0.0005657093    1.155    0.134
        29  -9.7907      4.0575    157.8912   1.4863943301e+02   4.1860710882e+01    0.1577651    0.1071321 -58.70 0.0007988288    1.665    0.399
        30 -12.7495    134.5652    109.1317   1.0797950106e+02   3.4399692774e+01     1.260718    0.1604208 -45.81  0.002481928    7.883    0.873
        31 -10.4296     22.1910    221.4983   1.4899698278e+02   2.7637530775e+01   0.09362305    0.0620159 -67.16 0.0003301683    1.795    0.443
        32 -11.5424     17.6463    153.6320   1.4538917398e+02   4.1649917112e+01    0.3539745    0.2209048 -42.83  0.001925529    2.345    0.574
        33 -11.2357     18.4681    148.5056   1.4476387142e+02   4.2693548243e+01    0.2480131    0.2171124  52.21  0.001234334    1.349    0.259
        34 -11.2099    192.4925    153.0564   1.0533692920e+02   1.2933769878e+01      0.21433     0.143419 -39.81 0.0006503863    1.568    0.362
        35 -13.3955    173.9511    149.2863   1.0834437980e+02   1.7588078621e+01    0.5432605    0.4093697 -56.28   0.00254179    1.502    0.334
        36 -11.2844     18.3128    220.9433   1.4961585655e+02   2.8138309104e+01    0.1398232   0.08988807  86.55 0.0004968265    1.240    0.194
        37 -10.4903     25.8237    139.3268   1.4215359245e+02   4.4070219763e+01    0.2002404    0.1324619 -87.02 0.0005749352    1.246    0.198
        38 -12.6193    174.1063    140.5696   1.0638865712e+02   1.9220780864e+01     0.331255    0.2591242 -62.62  0.001083517    1.494    0.331
        39 -10.5185    218.4296    219.9832   1.1299617070e+02  -2.1011113017e+00    0.1610222    0.1164553 -30.38 0.0005767812    1.592    0.372
        40 -12.2995     27.4149    145.6247   1.4242383476e+02   4.2519956878e+01    0.3273358    0.2915486 -86.31  0.000883448    1.202    0.168
        41 -12.1249     23.7712    217.3555   1.4850839061e+02   2.8225875078e+01    0.1722163    0.1293734  86.07 0.0007404084    1.207    0.172
        42 -14.6509    135.5024    129.1695   1.1260995924e+02   2.9899901806e+01     1.953987    0.4357246 -50.03  0.005056129    4.895    0.796
        43 -13.8678    160.1841    128.5607   1.0667230517e+02   2.4683271144e+01    0.6022105    0.5077713 -12.47  0.003011983    1.423    0.297
        44 -12.9459     38.9507    123.6929   1.3690808914e+02   4.6359906105e+01    0.3622376    0.2385917 -44.13  0.001311649    1.776    0.437
        45 -11.9741     12.7817    242.0086   1.5144401803e+02   2.5042411315e+01    0.1511792    0.1092169  77.95  0.001283824    1.189    0.159
        46 -13.0614     11.7744    205.9608   1.4997101044e+02   3.1550813989e+01    0.4302846    0.2352912  32.76  0.002819071    2.252    0.556
        47 -11.0600    150.8803    240.1359   1.2790548400e+02   6.4845641671e+00    0.1770915    0.1549846  65.27 0.0006992762    1.216    0.178
        48 -10.8314    205.3621    110.2487   9.2758693435e+01   1.7664960039e+01    0.3150282    0.2073747  46.47 0.0008809185    1.531    0.347
        49 -11.3414    169.1653    202.4817   1.1924981263e+02   9.0906534590e+00    0.2343764    0.1644756  81.91  0.001171512    2.272    0.560
        50 -12.0328     25.5024    106.5264   1.3818770120e+02   5.1526105383e+01    0.3420895    0.2283282   3.45  0.002004812    2.246    0.555
        51 -12.2100     40.9966     93.7111   1.3135931775e+02   5.3040561475e+01    0.5598939    0.3702464 -24.56  0.003032894    2.073    0.517
        52 -12.1547     48.5189     92.4441   1.2873284098e+02   5.2539161111e+01    0.3260328    0.2650322  -6.37  0.001544284    1.583    0.368
        53 -11.1043    140.4024    193.7233   1.2361617875e+02   1.5872486296e+01     0.282692    0.1243419 -46.54  0.001220516    2.698    0.629
        54 -11.6220      6.4696     88.9480   1.4136217185e+02   5.6807205318e+01     0.491139    0.2197809 -13.46  0.002143689    4.622    0.784
        55 -12.7687    139.3679    200.5786   1.2484767958e+02   1.4819820762e+01    0.5615346    0.2961055  47.95 0.0008441566    1.625    0.385
        56 -11.0384    142.8866     80.6955   9.7913889112e+01   3.8305598268e+01    0.2620284    0.2150478 -25.31 0.0005909246    1.306    0.235
        57 -10.7888    163.4846    248.5409   1.2670294305e+02   3.2825672921e+00    0.1809286    0.1180312 -48.51 0.0007035037    2.029    0.507
        58 -10.2497    159.7776    248.1744   1.2730256940e+02   3.9265968806e+00    0.1559994     0.111822  32.36 0.0003539631    1.326    0.246
        59 -13.0914    162.8248     35.8703   7.9139637263e+01   4.0625819440e+01    0.4626356    0.4078814  38.56 0.0008753996    1.160    0.138
        60 -10.7872     13.3689     59.8743   1.3391397536e+02   6.2724849866e+01    0.1626269    0.1527925  89.89 0.0004302598    1.267    0.211
        61 -11.8238    150.1129     36.1538   8.1691870309e+01   4.3891787627e+01     0.540135    0.3051336  80.10  0.002072249    2.499    0.600
        62 -10.5551     15.5716    246.7723   1.5121457509e+02   2.3969200919e+01    0.1552752   0.06823454  84.10   0.00101923    1.921    0.479
