#   1 NUMBER                 Running object number                                     
#   2 MAG_AUTO               Kron-like elliptical aperture magnitude                    [mag]
#   3 X_IMAGE                Object position along x                                    [pixel]
#   4 Y_IMAGE                Object position along y                                    [pixel]
#   5 X_WORLD                Barycenter position along world x axis                     [deg]
#   6 Y_WORLD                Barycenter position along world y axis                     [deg]
#   7 A_WORLD                Profile RMS along major axis (world units)                 [deg]
#   8 B_WORLD                Profile RMS along minor axis (world units)                 [deg]
#   9 THETA_WORLD            Position angle (CCW/world-x)                               [deg]
#  10 FWHM_WORLD             FWHM assuming a gaussian core                              [deg]
#  11 ELONGATION             A_IMAGE/B_IMAGE                                           
#  12 ELLIPTICITY            1 - B_IMAGE/A_IMAGE                                       
         1 -18.7128    238.3558    133.5438   2.8983022436e+02   4.8654881450e+00     0.295451    0.1578301 -62.42   0.02837653    1.886    0.470
         2 -16.9260    189.3388    123.7610   2.9033761174e+02   5.2407040487e+00    0.1223894   0.08167227  60.51   0.01156535    1.908    0.476
         3 -15.0713    169.5002     35.1084   2.9004849012e+02   6.3450310264e+00    0.0797883   0.03848622 -42.80  0.007144623    2.179    0.541
         4 -18.5509    183.0070      9.1203   2.8974060053e+02   6.5639116595e+00    0.3608003   0.06107776  26.36   0.02049567    5.336    0.813
         5 -10.5375    134.8550     30.1623   2.9041944669e+02   6.5879178167e+00  0.009949706  0.008460058  49.34 0.0007153861    1.262    0.208
         6 -14.8677    236.0587    232.4384   2.9043317456e+02   3.7652991048e+00   0.05510409    0.0400556  15.37  0.003791498    1.415    0.293
         7 -14.8441    243.6253    239.6940   2.9038840889e+02   3.6428071665e+00   0.04812338   0.04072075 -79.18  0.002723207    1.300    0.231
         8 -14.0274    248.1509    236.0085   2.9031492892e+02   3.6598285786e+00   0.03209424   0.01921173 -60.61  0.002383003    1.658    0.397
         9 -17.0731    205.3088    241.4340   2.9083918200e+02   3.8300459879e+00    0.0837118   0.07215447 -27.39  0.006320636    1.167    0.143
        10 -18.5250    162.1027    236.8981   2.9131003830e+02   4.1140881484e+00    0.3084275    0.1810893  64.80   0.02748494    2.585    0.613
        11 -19.1141     68.6891    240.7270   2.9240811506e+02   4.5735285988e+00    0.3004133    0.2699091  48.29   0.03426728    1.181    0.153
        12 -13.2337    193.0938    193.2235   2.9069923311e+02   4.4386307758e+00   0.04421432   0.02759985 -87.08  0.003723314    2.237    0.553
        13 -11.6638    137.1988    197.8233   2.9136977678e+02   4.6883132151e+00   0.02452805    0.0121255  51.90  0.002054868    2.713    0.631
        14 -12.2151    112.1582    196.3517   2.9164978577e+02   4.8397430600e+00   0.02979008   0.01708687 -13.34  0.002625838    2.510    0.602
        15 -11.6553    176.8487    196.0336   2.9090264262e+02   4.4946748899e+00   0.01177489  0.009437366  27.11  0.001161276    1.238    0.192
        16 -12.0868    169.9782    195.5717   2.9097907703e+02   4.5369425215e+00   0.01234175  0.009173607 -85.93 0.0007777059    1.624    0.384
        17 -12.5190    157.8810    193.1095   2.9110409030e+02   4.6299135611e+00   0.01530477   0.01154081  82.93 0.0004894124    1.662    0.398
        18 -11.8773    104.4968    194.0991   2.9172500775e+02   4.9063510202e+00     0.021812   0.01273152   5.79  0.002049555    2.110    0.526
        19 -12.2021    108.7804    190.2115   2.9165304627e+02   4.9270894594e+00   0.02003882   0.01060927 -26.27  0.001693358    2.644    0.622
        20 -11.2954    179.8579    192.7932   2.9084912978e+02   4.5149179818e+00   0.01902961   0.01175143  71.16  0.001736291    2.468    0.595
        21 -10.7493     18.1815    231.4628   2.9293651270e+02   4.9488343600e+00  0.008156608  0.006312684  11.10 0.0003434168    1.334    0.250
        22 -15.9914    194.7760    142.1470   2.9038222292e+02   5.0044211270e+00   0.08271076   0.05391996  80.34  0.006676855    2.228    0.551
        23 -11.5580      4.0803    224.9563   2.9306142055e+02   5.0976780378e+00   0.01199699  0.007309581 -38.49  0.001195919    1.736    0.424
        24 -19.2087     55.0098    100.3512   2.9175095149e+02   6.2283757379e+00    0.8178526   0.05591355 -62.90   0.02718658   15.717    0.936
        25 -11.3606      6.3402    250.7527   2.9318444145e+02   4.7948661053e+00   0.01017302  0.005535136  21.48  0.000961636    1.880    0.468
        26 -10.6238     27.5936    179.8796   2.9252932650e+02   5.4796815404e+00   0.01823958  0.008953054   8.89  0.001496003    2.752    0.637
        27 -10.5888     17.5117    180.6156   2.9264989941e+02   5.5254303057e+00  0.006574575  0.005912475 -17.92 0.0002572968    1.111    0.100
        28 -11.9029    197.9264    175.9027   2.9054270949e+02   4.6074964925e+00   0.01670349   0.01374562 -84.77   0.00110572    1.384    0.277
        29 -11.5905    138.0700    171.2934   2.9120543912e+02   4.9823882886e+00   0.01969896   0.01312418  68.93  0.001954116    2.057    0.514
        30 -16.7037    142.2152    245.5798   2.9158941003e+02   4.1234604097e+00   0.08112381   0.03918342  44.07  0.005270383    2.289    0.563
        31 -11.9724     14.4408    248.9811   2.9308087968e+02   4.7714543717e+00   0.02206909    0.0143022  32.25    0.0023419    1.521    0.342
        32 -11.4287    145.8343    168.8329   2.9110163205e+02   4.9682346473e+00   0.01026921  0.008656962 -29.71  0.000760491    1.197    0.165
        33 -10.4820     25.2822    165.4671   2.9247243030e+02   5.6544735281e+00   0.01184233  0.006482475  16.95  0.001108723    1.976    0.494
        34  -9.7312    130.2440    161.5853   2.9123916040e+02   5.1338950238e+00  0.006628786  0.004907107  73.20 0.0003797379    1.716    0.417
        35 -11.8325    103.7693    160.7297   2.9153945653e+02   5.2861376565e+00   0.01173724   0.01062094 -32.60 0.0003287737    1.085    0.078
        36 -12.5963     25.2057    156.7845   2.9242295034e+02   5.7527127979e+00   0.03048317   0.01431279  35.08  0.002752331    2.070    0.517
        37 -11.2042    164.9635    158.0115   2.9081817187e+02   4.9868738233e+00   0.01060507  0.007297535 -27.39 0.0005117783    1.621    0.383
        38 -12.0445    153.8871    156.2269   2.9093542680e+02   5.0667362196e+00   0.02301225   0.01340476   6.00  0.001889497    2.115    0.527
        39 -12.8905    157.1021    152.0583   2.9087409125e+02   5.0963196516e+00   0.03183438   0.01444339  22.94  0.002791199    2.252    0.556
        40 -12.1556    133.7176    144.9123   2.9110205215e+02   5.3029131210e+00   0.04405086   0.01337049 -69.42  0.002621136    5.152    0.806
        41 -11.9385    144.5058    145.9866   2.9098392385e+02   5.2326365865e+00   0.01638136   0.01021693  58.52  0.001582473    2.088    0.521
        42 -12.3509     33.3723    141.5506   2.9224027447e+02   5.8805382231e+00   0.02538009   0.01205427  14.27  0.002143978    2.539    0.606
        43 -11.6726    174.4394    148.6753   2.9065458172e+02   5.0408137359e+00   0.01531122   0.01267909  76.07  0.001599718    1.422    0.297
        44  -9.8376     27.4268    209.4494   2.9270255855e+02   5.1473611868e+00  0.006736278  0.005812203 -27.13 0.0007989181    1.166    0.142
        45 -11.5806    115.3319    138.7080   2.9127796546e+02   5.4718692403e+00   0.01953112  0.009354727 -49.78  0.001784807    2.004    0.501
        46 -12.5402    104.9527    139.2281   2.9140072073e+02   5.5219206158e+00   0.01335837   0.01147796  18.67 0.0005199525    1.157    0.136
        47 -11.8216    106.0286    130.7716   2.9133908557e+02   5.6113517827e+00   0.01698791   0.01465258 -66.60  0.001200617    1.201    0.167
        48 -11.5054    108.5139    125.7613   2.9128123911e+02   5.6543809874e+00   0.01340993   0.01042356 -28.60 0.0005886317    1.344    0.256
        49 -11.1621     32.7365    206.6634   2.9262520468e+02   5.1502894165e+00   0.01774683  0.008422783  12.56  0.001466429    2.657    0.624
        50 -11.5800    160.9367    128.1392   2.9069049428e+02   5.3448743727e+00     0.015421   0.01164319 -76.46  0.001723455    1.485    0.326
        51 -12.8237    135.6130    123.5881   2.9095597167e+02   5.5327675569e+00    0.0385524   0.01254998 -67.19  0.002653174    3.776    0.735
        52 -11.1768    113.7685    118.9704   2.9118106068e+02   5.7025265866e+00   0.01087964  0.009197157  18.16 0.0004038437    1.178    0.151
        53 -11.6438     25.3536    119.1348   2.9220266693e+02   6.1760527581e+00   0.01099079  0.008817412   4.38 0.0005568679    1.299    0.230
        54 -12.2293    125.8217    127.2706   2.9109036252e+02   5.5441121642e+00   0.02776574   0.01337503  57.01  0.002104409    3.448    0.710
        55 -11.6870      8.2250    111.5509   2.9235644868e+02   6.3532927677e+00   0.01496006  0.008984622  11.53  0.001276835    1.872    0.466
        56 -11.9262     95.3178    110.3472   2.9134375651e+02   5.8990027879e+00   0.01438976  0.009811459 -25.07 0.0009194156    1.669    0.401
        57 -11.5225    119.6073    130.0237   2.9117808146e+02   5.5466130389e+00   0.01375273   0.01166895 -53.29 0.0007719843    1.162    0.140
        58 -11.2680     96.1996     80.0764   2.9115718529e+02   6.2349956306e+00   0.01927925  0.008048249  33.42  0.001661303    2.276    0.561
        59 -11.1750     14.1545     59.0700   2.9198278985e+02   6.9123878064e+00   0.01515726   0.01096829 -26.83  0.001656229    1.503    0.335
        60 -13.9599    158.4131     51.2247   2.9027063113e+02   6.2238159988e+00   0.03579799   0.02578351  49.75  0.001655469    1.540    0.351
        61 -10.0677     12.6980    224.1805   2.9295760072e+02   5.0602753742e+00  0.007736294  0.005723337 -56.35 0.0005112152    1.327    0.247
        62 -10.7507     24.5115    206.2847   2.9271784796e+02   5.1986519707e+00  0.008372781  0.005821792 -46.07 0.0003397611    1.413    0.292
