#   1 NUMBER                 Running object number                                     
#   2 MAG_AUTO               Kron-like elliptical aperture magnitude                    [mag]
#   3 X_IMAGE                Object position along x                                    [pixel]
#   4 Y_IMAGE                Object position along y                                    [pixel]
#   5 X_WORLD                Barycenter position along world x axis                     [deg]
#   6 Y_WORLD                Barycenter position along world y axis                     [deg]
#   7 A_WORLD                Profile RMS along major axis (world units)                 [deg]
#   8 B_WORLD                Profile RMS along minor axis (world units)                 [deg]
#   9 THETA_WORLD            Position angle (CCW/world-x)                               [deg]
#  10 FWHM_WORLD             FWHM assuming a gaussian core                              [deg]
#  11 ELONGATION             A_IMAGE/B_IMAGE                                           
#  12 ELLIPTICITY            1 - B_IMAGE/A_IMAGE                                       
         1 -13.2028    200.6849     32.2212   6.0372935594e+01   3.0697967684e+01     1.114479    0.7800723  55.58   0.00555955    1.417    0.294
         2 -12.6086      2.4005     23.8870   1.1631120818e+02   6.9813603830e+01     2.160462          nan -55.38  0.005086141    9.931    0.899
         3 -11.8090      2.1168      5.0833   1.0935426321e+02   7.3216572696e+01    0.4813929       0.2252 -46.36  0.002939171    1.580    0.367
         4 -13.5742    217.7882     13.3110   5.3067039281e+01   2.8524042248e+01     1.023602    0.8663877  36.14  0.004210452    1.364    0.267
         5 -10.3658    178.9825      2.0000   5.4065035096e+01   3.9561857938e+01    0.2357654   0.07381782  70.56 0.0008053727    2.963    0.662
         6 -11.4600     62.1225    245.4326   1.3118921499e+02   1.8895251614e+01    0.2120863    0.1577441  52.48 0.0008312867    1.225    0.184
         7 -13.3746    140.0783    249.5233   1.1863782264e+02   7.4886973704e+00     1.184124    0.2533078  40.13  0.004413818    4.030    0.752
         8 -12.2103    125.1178    232.0508   1.1933266050e+02   1.2270872043e+01    0.4645236    0.1270072  44.65  0.001974921    2.826    0.646
         9 -12.8701     94.5332    227.7859   1.2431381394e+02   1.7465054693e+01     1.113029    0.1054328  46.93  0.003189427    6.750    0.852
        10 -11.2602     70.8009    219.2467   1.2776362041e+02   2.2147882640e+01     0.520498   0.09382522  51.52  0.001705974    5.517    0.819
        11 -12.8974     95.7207    248.8999   1.2598190552e+02   1.3988455441e+01    0.6148934    0.2761908  37.94  0.003495394    2.106    0.525
        12 -12.6525     27.1475    227.7764   1.3576602263e+02   2.5785685433e+01    0.2432673    0.2044854  77.16 0.0007597372    1.317    0.241
        13  -8.7269    152.7345    212.9762   1.1192781125e+02   1.0776297005e+01    0.1271275    0.1097372 -49.71 0.0002821156    1.395    0.283
        14 -15.5567      7.9712    140.0364   1.3363748514e+02   4.4648021076e+01     9.251014     2.795156 -88.90   0.03414439    4.355    0.770
        15 -10.0717     52.3502    201.4511   1.2964288203e+02   2.7694534386e+01    0.2157786    0.1258495 -81.58    0.0013584    1.599    0.375
        16 -11.4695     55.9016    195.2193   1.2844060249e+02   2.8453964543e+01    0.2440728    0.2042025 -74.65 0.0005090555    1.325    0.245
        17  -9.4164    192.5010    193.9971   1.0150463178e+02   6.7040102780e+00    0.1677331    0.1142598 -66.71 0.0008106222    2.659    0.624
        18 -11.6714     62.5915    187.1745   1.2637450997e+02   2.9193676702e+01    0.2283494    0.2041889  82.27 0.0004408401    1.194    0.163
        19 -10.6003     73.6350    174.8306   1.2275091872e+02   3.0232697845e+01    0.2104524    0.1812103  71.47 0.0003928189    1.065    0.061
        20 -13.0207     59.9448    172.5842   1.2539874770e+02   3.2484830438e+01    0.4478057    0.2525522 -49.95   0.00165779    2.220    0.550
        21 -11.5313     81.5088    166.2887   1.1996268557e+02   3.0905102120e+01    0.4808565    0.4414443 -41.74  0.003169794    1.403    0.287
        22 -14.0222     32.7739    220.9368   1.3446105816e+02   2.6369593654e+01     0.697472    0.4942956  62.48  0.002516478    1.103    0.093
        23 -13.1480      9.8553    207.1327   1.3756037280e+02   3.1125480819e+01    0.7041216    0.4483864  40.77   0.00287164    1.670    0.401
        24  -9.8560     95.3040    150.8220   1.1450818766e+02   3.2116767570e+01    0.2397957    0.2156003  58.50 0.0007364668    1.106    0.096
        25 -11.8083     83.5946    149.5925   1.1706939997e+02   3.4176904230e+01    0.2758926    0.2190644 -57.29 0.0005603524    1.290    0.225
        26 -11.9808     67.4882    143.5230   1.2000053675e+02   3.7767704348e+01    0.6415775    0.3646004  62.07  0.003150125    1.976    0.494
        27  -9.4219    107.8833    136.3694   1.0888932129e+02   3.3159361741e+01    0.3192078     0.202876 -22.59  0.001281206    2.984    0.665
        28 -10.3256     94.8738    133.3424   1.1152840427e+02   3.6012055702e+01    0.2317538    0.1970007 -48.69 0.0003646669    1.239    0.193
        29  -9.9415     50.1920    129.9386   1.2230723978e+02   4.2937692849e+01     0.201849     0.172441  61.47  0.000652962    1.208    0.172
        30  -9.1132    105.7854    123.1806   1.0671467293e+02   3.6415528483e+01    0.1742564    0.1625849 -15.10 0.0002975376    1.247    0.198
        31  -9.5654    167.4631    112.3363   8.9323766099e+01   2.6005632950e+01    0.2558626    0.2115733 -66.45 0.0004881115    1.419    0.295
        32 -14.7417     12.4894    241.0882   1.3865874563e+02   2.5061205063e+01     2.443462     1.145623  52.95   0.01791595    1.524    0.344
        33 -12.2481    241.3362    248.7422   1.0184153979e+02  -7.6213413202e+00     0.669609    0.1602514  39.96  0.002955714    3.193    0.687
        34 -11.0369     55.2703    240.3603   1.3196125669e+02   2.0534430688e+01    0.2004497    0.1259702  63.60  0.000617607    1.186    0.157
        35 -12.3310     47.2253    235.4639   1.3295591038e+02   2.2281610849e+01    0.4888656    0.1804547  63.61  0.002422337    2.627    0.619
        36 -11.2954    248.2494    236.1464   9.8862162298e+01  -7.4066533109e+00    0.2978015    0.1388905  19.04  0.001547282    2.455    0.593
        37 -11.8741     82.4940    248.3766   1.2810619576e+02   1.5845984057e+01    0.3527969    0.2161206  25.97  0.002094807    2.706    0.630
        38 -10.4212     14.7994     12.6008   1.0588960337e+02   7.1021800040e+01    0.1342726    0.1019788  27.71 0.0007077111    1.660    0.398
