#   1 NUMBER                 Running object number                                     
#   2 MAG_AUTO               Kron-like elliptical aperture magnitude                    [mag]
#   3 X_IMAGE                Object position along x                                    [pixel]
#   4 Y_IMAGE                Object position along y                                    [pixel]
#   5 X_WORLD                Barycenter position along world x axis                     [deg]
#   6 Y_WORLD                Barycenter position along world y axis                     [deg]
#   7 A_WORLD                Profile RMS along major axis (world units)                 [deg]
#   8 B_WORLD                Profile RMS along minor axis (world units)                 [deg]
#   9 THETA_WORLD            Position angle (CCW/world-x)                               [deg]
#  10 FWHM_WORLD             FWHM assuming a gaussian core                              [deg]
#  11 ELONGATION             A_IMAGE/B_IMAGE                                           
#  12 ELLIPTICITY            1 - B_IMAGE/A_IMAGE                                       
         1 -13.3387    242.4134    111.5118   8.0500746142e+01   9.0285662749e+00     2.850678     1.508076 -36.58   0.01259119    1.797    0.443
         2 -11.0403    231.5455     16.4896   6.0611403622e+01   2.6131012153e+01    0.5500127     0.397379 -32.17  0.003285738    1.645    0.392
         3 -12.4867    243.2357      5.2602   5.7288261988e+01   2.4816973912e+01     1.431154    0.7664441  69.23  0.008024238    1.718    0.418
         4  -7.9026    190.9971     12.0434   6.3880645954e+01   3.6234706098e+01    0.2001673    0.1421069  42.30   0.00056542    1.689    0.408
         5  -9.2711     55.4959    233.3606   1.4140346059e+02   1.9647785920e+01       0.3095    0.2123172 -58.34  0.001276461    1.807    0.447
         6 -10.5245    247.2095    248.7075   1.0720429316e+02  -1.3953046998e+01    0.7088734     0.485774  14.56  0.004634471    1.271    0.213
         7 -12.5778    226.9955    246.7545   1.1047859274e+02  -1.0709014556e+01     2.633613    0.6932855  39.26   0.01024303    3.305    0.697
         8 -10.5217     33.1275    248.7340   1.4644033210e+02   1.9504301136e+01    0.2859888    0.2614095 -44.11  0.002183437    1.979    0.495
         9  -9.9428     35.4605    214.8257   1.4351767244e+02   2.5996836085e+01    0.3227987    0.2211643 -89.98  0.001675501    1.168    0.144
        10  -9.6834     30.8888    208.7676   1.4387198129e+02   2.7811401642e+01    0.5193088     0.238811  85.90  0.002577113    2.213    0.548
        11  -9.8141     26.2236    207.6789   1.4466272110e+02   2.8564571593e+01    0.4668784    0.2735998  80.75  0.002361243    1.439    0.305
        12  -9.1729    169.0186    207.8015   1.1512897841e+02   5.6913395025e+00    0.2192675    0.2020051 -40.60 0.0003279894    1.190    0.160
        13  -9.2663     10.7553    207.2485   1.4748455393e+02   3.0264448005e+01    0.3689575    0.1731563  27.27  0.001946025    3.221    0.690
        14  -9.7272    123.9849    205.9977   1.2440086171e+02   1.4525977736e+01    0.1984711     0.174607  67.63  0.001151227    1.012    0.012
        15 -12.0813      8.6973    247.6558   1.5027495149e+02   2.2468896554e+01     1.139038    0.6403042  37.54  0.007604927    2.157    0.536
        16 -10.2993    249.6024    174.4148   9.2915783897e+01  -3.4550771363e+00    0.3798796    0.2875244  -7.90  0.002119338    1.403    0.287
        17 -10.6958    249.5025    166.3879   9.1275984866e+01  -2.0838082566e+00    0.5986761    0.2846795 -26.45   0.00241513    2.554    0.608
        18 -11.7272    248.2739    146.9746   8.7374581014e+01   1.5137564391e+00     1.162577    0.5864801 -37.81  0.005199979    1.801    0.445
        19  -8.2942    116.0584    152.1133   1.1665656588e+02   2.8230818592e+01    0.2134175     0.204129 -12.04  0.001157906    1.231    0.188
        20  -9.0901    227.6117    138.5634   8.9075003479e+01   7.1659075171e+00    0.2510862    0.2330338 -64.30 0.0005064064    1.124    0.110
        21  -7.3109    113.7573    136.6930   1.1394358741e+02   3.2317063473e+01    0.1445964    0.1174629 -26.63 -0.0001541599    1.497    0.332
        22 -13.1246    239.5454    231.5496   1.0562741030e+02  -1.0581470578e+01     2.663226     1.762275 -11.89   0.01559066    1.594    0.373
        23  -9.7085    110.1320    109.7091   1.0842981719e+02   3.9231598425e+01    0.2445064    0.1927006  65.30  0.001089509    1.468    0.319
        24  -9.0955    134.4556    105.7946   1.0092220050e+02   3.5051497933e+01    0.3776633    0.1510078 -42.27  0.001283832    2.524    0.604
        25  -9.5806     62.1820    107.2220   1.2175490351e+02   4.7575286695e+01    0.2352977    0.1314704 -25.83 0.0009546402    2.839    0.648
        26 -10.9902    118.0714     99.5493   1.0354441028e+02   3.9863406185e+01    0.4518466    0.2957365 -21.59  0.001870565    2.139    0.532
        27  -9.8574     90.4799     97.8496   1.1093661304e+02   4.5417938985e+01    0.2392685    0.1774161  30.69  0.001215469    1.473    0.321
        28 -10.3139     64.8106    100.8292   1.1946805063e+02   4.8666094584e+01    0.3027251    0.1506257  44.84  0.001338026    2.381    0.580
        29 -10.6338    101.2399     98.4152   1.0794564216e+02   4.3386411046e+01    0.4124676     0.243294  61.24   0.00165328    2.483    0.597
        30  -8.8651    110.3053     96.3497   1.0480472812e+02   4.2098990005e+01    0.1532917    0.1170458  -9.32  0.000422738    1.703    0.413
        31 -10.1238     73.7122     94.4443   1.1512217346e+02   4.8817341881e+01    0.3903344   0.09608755 -47.03   0.00122524    3.599    0.722
        32  -8.8463    128.1638     91.1558   9.8501618850e+01   3.9467668504e+01    0.2060039    0.1797701 -85.97            0    1.322    0.243
        33 -10.6244    112.1222     88.8961   1.0219008732e+02   4.3280628542e+01     0.470951    0.2267898  30.25  0.001639006    3.039    0.671
        34  -8.7223     65.6681    129.6774   1.2544210844e+02   4.1882598143e+01     0.140908    0.1006228 -32.77 0.0007049996    1.701    0.412
        35 -10.5119     80.3549     83.0234   1.0992380445e+02   5.0199762478e+01    0.3088683    0.2038957 -13.53  0.001423809    2.098    0.523
        36 -10.6901     86.6426     81.0907   1.0740676013e+02   4.9560666002e+01    0.3771966    0.1669842 -47.86  0.001536002    2.191    0.543
        37  -9.5768    146.9217     76.1287   8.9507430578e+01   3.8064480889e+01    0.5643287    0.3449549 -72.37  0.002053324    2.933    0.659
        38  -8.3610    184.5138     75.8748   8.1587044864e+01   2.8931417172e+01     0.227738     0.148616 -37.55  0.001025479    1.575    0.365
        39 -10.1305     99.9724     79.0396   1.0277461557e+02   4.7592772779e+01    0.2284407    0.2133783 -11.73  0.001315888    1.035    0.033
        40  -9.9047    168.3001     73.8865   8.4205756981e+01   3.3286657740e+01    0.4411044    0.3100513 -67.51  0.001991489    1.723    0.420
        41 -10.1891     83.1221     74.4266   1.0651456127e+02   5.1453728105e+01    0.2803805    0.1829181 -59.50  0.001339147    1.935    0.483
        42 -11.5887    246.4669     70.9398   7.0856455137e+01   1.5073034462e+01    0.7319745    0.4232363  71.62  0.003553485    1.875    0.467
        43 -11.5552    241.2759     63.6126   6.9879372578e+01   1.7382131478e+01     1.049428    0.4657447  66.12  0.003942773    2.359    0.576
        44 -10.6684     99.7594     72.2819   1.0077146466e+02   4.8914398830e+01    0.3081602    0.2353608  64.26  0.001567093    1.689    0.408
        45 -10.4210    111.5296     68.8162   9.6310936179e+01   4.7227472950e+01    0.2873357    0.2024394  20.26  0.001367552    1.722    0.419
        46 -10.7854     86.9963     70.0423   1.0394699214e+02   5.1630817064e+01    0.3495688    0.2408849 -45.95  0.001816515    1.455    0.313
        47 -11.0329    162.0774     62.2444   8.2177188841e+01   3.6767616805e+01    0.8362731    0.5009915 -69.13  0.003262857    2.579    0.612
        48 -10.6133    103.4916     60.4996   9.5924584150e+01   5.0277342440e+01    0.3130152    0.2331579  38.96  0.001667186    1.316    0.240
        49  -9.5586    185.2431     60.2147   7.7270050165e+01   3.1340954467e+01    0.4313524    0.2878489 -62.24  0.002004845    1.674    0.403
        50 -10.4911    181.2010     56.4031   7.6945155610e+01   3.2939628875e+01    0.5542599    0.3675829 -74.39  0.002506339    1.872    0.466
        51  -9.5091    126.0282     61.0499   9.0007721593e+01   4.5457348070e+01     0.221874     0.176927 -75.30 0.0004384417    1.647    0.393
        52  -8.4191    164.0247     48.9537   7.7975857422e+01   3.8315983331e+01    0.1713744    0.1623202  78.99 0.0003418235    1.030    0.029
        53  -7.7785      9.6207     48.7043   1.2517217496e+02   6.4593703557e+01    0.1207763   0.06291261 -29.75 0.0007022123    1.754    0.430
        54  -8.8983    186.9286     42.6477   7.2316785355e+01   3.3514362416e+01    0.2890385     0.244517  81.82   0.00163256    1.081    0.075
        55  -8.5182    176.3856     33.2087   7.1426327578e+01   3.7378894651e+01    0.2918983    0.2126003 -70.49  0.001529974    1.493    0.330
        56  -9.3522    181.1131     37.6882   7.1899384086e+01   3.5628517366e+01    0.4760606    0.2785076 -69.56  0.001620627    2.223    0.550
        57  -9.0422    177.6932     29.0830   7.0104691467e+01   3.7565843363e+01    0.3056542    0.2447875 -83.32  0.001215251    1.238    0.192
        58  -9.8063    188.4722     38.0402   7.0870756608e+01   3.3755461974e+01    0.4517541    0.3088519 -87.57   0.00139664    1.563    0.360
        59  -9.5020    182.5537     33.0578   7.0439433430e+01   3.5869649866e+01    0.4273799    0.2902629 -76.86  0.001302698    1.643    0.391
        60  -8.6199    195.1930     31.4000   6.8207112625e+01   3.2958203214e+01    0.3056516    0.2026388 -74.71  0.001270008    1.614    0.380
        61  -9.5518    206.6433     40.5716   6.8950991017e+01   2.8940375520e+01    0.4635336      0.26667 -84.55  0.001303191    2.110    0.526
        62  -9.2651    200.4446     35.3582   6.8492590116e+01   3.1157337820e+01    0.4616334    0.2569724 -79.63  0.001518888    2.300    0.565
        63  -9.8257    137.0007     38.2855   8.0204942434e+01   4.6295666849e+01    0.2800063    0.2418837  42.65 0.0003895778    1.090    0.083
        64  -9.6754    215.3804     32.5198   6.5917917118e+01   2.7910486925e+01    0.5002319    0.2807247 -74.99  0.001503794    2.047    0.512
        65  -9.3245    208.4342     27.1205   6.5468637396e+01   3.0269318918e+01    0.4170728     0.212382  88.79   0.00179744    2.303    0.566
        66 -10.3826    141.6346    242.8875   1.2609186741e+02   4.2540635450e+00     0.383277    0.1260545  39.07  0.001465493    2.856    0.650
        67 -10.4085      3.4334    241.4698   1.5077149851e+02   2.4174425340e+01    0.3421685    0.1714453  69.78  0.002254348    1.505    0.336
        68  -8.3662    202.0507     21.8965   6.4976554282e+01   3.2448021455e+01     0.213873    0.1581061 -79.33 0.0008207507    1.267    0.211
        69  -9.0126    185.0325     21.4240   6.7025733194e+01   3.6659167708e+01    0.2179194    0.1999458 -43.02 0.0005407659    1.240    0.194
