#   1 NUMBER                 Running object number                                     
#   2 MAG_AUTO               Kron-like elliptical aperture magnitude                    [mag]
#   3 X_IMAGE                Object position along x                                    [pixel]
#   4 Y_IMAGE                Object position along y                                    [pixel]
#   5 X_WORLD                Barycenter position along world x axis                     [deg]
#   6 Y_WORLD                Barycenter position along world y axis                     [deg]
#   7 A_WORLD                Profile RMS along major axis (world units)                 [deg]
#   8 B_WORLD                Profile RMS along minor axis (world units)                 [deg]
#   9 THETA_WORLD            Position angle (CCW/world-x)                               [deg]
#  10 FWHM_WORLD             FWHM assuming a gaussian core                              [deg]
#  11 ELONGATION             A_IMAGE/B_IMAGE                                           
#  12 ELLIPTICITY            1 - B_IMAGE/A_IMAGE                                       
         1 -13.8679     61.1828     75.4014   6.0933991403e+01   5.4871278403e+01    0.7547285    0.4493946 -41.48  0.001540334    1.643    0.391
         2 -15.1900      6.3880     68.4651   8.2482973552e+01   6.1820374112e+01     1.425078    0.7375734 -71.63  0.005549982    1.642    0.391
         3 -13.4460      9.0252      3.0516   6.0117455711e+01   7.5705295487e+01    0.7068931    0.4432297  38.56  0.004167172    2.169    0.539
         4 -16.0102     11.7564     22.9190   6.7698705058e+01   7.1739003884e+01      1.94752    0.9588088 -35.79  0.009282389    1.785    0.440
         5 -14.6203     27.0771     11.5925   5.2480025636e+01   7.2355187245e+01    0.9707881    0.5677553 -21.70  0.005196356    1.731    0.422
         6 -13.8862    122.3347     36.7396   2.6735308629e+01   4.9665958045e+01     1.092426    0.5628667  33.31  0.004106495    2.517    0.603
         7 -14.1010    166.4428     29.1069   1.5586298757e+01   3.9280306848e+01    0.9272578    0.7010142  62.74  0.003724065    1.265    0.210
         8 -12.8433    140.8033     21.8203   1.7329499805e+01   4.6809583103e+01     1.185571    0.5707347  77.67  0.003680294    2.553    0.608
         9 -14.0689    148.1542     29.8545   1.8830236045e+01   4.3943725560e+01    0.9816962    0.5702651  63.38  0.003531256    1.631    0.387
        10 -13.0476    119.5925     26.6968   2.3509302193e+01   5.1695555432e+01    0.8008128    0.4887246  26.92  0.003464907    2.024    0.506
        11 -13.4533    189.9635     26.5947   1.1695725016e+01   3.3602013083e+01     1.105792    0.2794964 -44.21  0.003494598    3.858    0.741
        12 -15.2503     98.6958     11.3405   2.2162743581e+01   5.8640424111e+01     1.516246    0.9519369  53.29  0.004180777    1.426    0.299
        13 -12.3285     60.2162     15.2638   3.7142914038e+01   6.6576273386e+01    0.4732288    0.2890525  21.57  0.002318459    1.817    0.450
        14 -12.2627    187.7082      9.5032   7.0777732563e+00   3.5975197563e+01    0.3657276       0.2912 -86.12  0.001937387    1.177    0.150
        15 -12.0283     46.6377     12.6961   4.2077403159e+01   6.9350672455e+01    0.2742822     0.241153  33.49  0.001742436    1.289    0.224
        16 -12.7676    214.6860     10.0167   4.8334180510e+00   2.9436757596e+01    0.3352545    0.3013958  89.38  0.001560192    1.118    0.105
        17 -11.3818    123.3296     10.9848   1.6497193662e+01   5.2492734919e+01    0.2300005    0.1883371  83.48  0.000525242    1.274    0.215
        18 -11.9351     75.1131      9.8682   2.8524700820e+01   6.4228961384e+01    0.2896939    0.1925482 -12.95  0.001133542    1.576    0.366
        19 -11.6236    153.5248      8.4317   1.0688709184e+01   4.4849045001e+01    0.3428664    0.1746948  81.27  0.001453231    2.070    0.517
        20 -12.5131     85.5429     13.8163   2.7068655044e+01   6.1459571291e+01    0.4240792    0.3471396 -27.27  0.001491949    1.299    0.230
        21 -13.9998     41.8396      4.3776   3.9680775000e+01   7.1306682037e+01    0.7054397    0.5206291   5.05  0.003282494    1.248    0.199
        22 -12.1335    118.1866      2.2340   1.3947490218e+01   5.4608785397e+01    0.4846212    0.2497586  88.51  0.001925683    2.656    0.623
        23 -11.4279     67.6019      2.8324   2.7416009890e+01   6.6601175057e+01    0.2768207    0.1747588  29.54  0.001445889    1.512    0.338
        24 -11.7461     80.3208      1.4925   2.2504181227e+01   6.3934251752e+01    0.6173822          nan  54.75    0.0014488    6.871    0.854
        25 -11.3677     61.2202      1.4505   2.9041378446e+01   6.8067248060e+01    0.3503714    0.1178182  53.12  0.001375775    2.805    0.644
        26 -11.4154     48.7196    181.8631   8.2730410208e+01   3.1045056423e+01    0.1940864    0.1507928 -57.94  0.001202685    1.461    0.315
        27 -12.4408      3.0535    249.5635   9.5695305814e+01   2.2692295417e+01    0.3621764    0.1817922  49.74  0.002001385    1.359    0.264
        28 -14.0200      9.6920    245.6914   9.4431922351e+01   2.2738612277e+01    0.7903504    0.2859635  49.93   0.00394684    1.841    0.457
        29 -11.0406    218.5030    175.4634   4.3558181413e+01   5.3159734656e+00    0.1295658    0.1072487   3.44 0.0002943864    1.018    0.018
        30 -12.5136    124.3569    166.9645   6.1951382610e+01   2.3229176202e+01    0.5077069    0.3469515 -68.95  0.002455144    1.901    0.474
        31 -12.5755    206.5878    162.1177   4.3104685675e+01   9.2893243653e+00    0.3948239    0.1236087 -38.39   0.00145428    3.173    0.685
        32 -11.1113    192.9828    164.6971   4.6241796877e+01   1.1271257810e+01    0.1980402    0.1667545  19.56  0.001106587    1.075    0.069
        33 -12.0660    110.8764    155.0210   6.3219334781e+01   2.8097868546e+01    0.5040789     0.328654 -88.48  0.002120808    2.492    0.599
        34 -12.1259     76.7070    156.7687   7.2603505821e+01   3.3107567062e+01    0.3596134    0.2620218  27.24  0.001234561    1.459    0.314
        35 -13.1868     73.4680    153.3516   7.2984063365e+01   3.4357525652e+01    0.6248041    0.4284412  29.93  0.002467353    1.508    0.337
        36 -12.3427    189.0228    155.7532   4.5202050372e+01   1.3470357431e+01    0.2041458    0.1768849  17.30  0.001179594    1.055    0.052
        37 -12.6714    247.0366    150.2243   3.3794207735e+01   4.2939877649e+00    0.4185793    0.3779385 -40.18  0.002824095    1.455    0.313
        38 -11.3686    103.5186    149.7971   6.4212555879e+01   3.0512624688e+01    0.2820066     0.196736 -32.47  0.001174724    1.781    0.438
        39 -14.6734     14.7895    174.6890   9.0304224236e+01   3.5994264442e+01     1.225308    0.4208656  55.72  0.005533795    2.669    0.625
        40 -11.8900     60.5280    147.3717   7.5734020684e+01   3.7499837572e+01    0.3739023     0.243384   2.34  0.001720098    2.399    0.583
        41 -11.4804    148.4887    140.5107   5.0824948467e+01   2.4132762326e+01    0.1484376    0.1407024  22.15  0.000810431    1.017    0.017
        42 -12.2646    248.5227    137.6431   3.0979444102e+01   5.7728638965e+00    0.2282271    0.1622987  44.09  0.001362589    1.629    0.386
        43 -11.2143    230.3253    138.3299   3.3951072858e+01   8.7425134012e+00    0.1388556   0.09295579   3.71 0.0007050467    1.703    0.413
        44 -12.2196     44.0056    132.5111   7.8527824821e+01   4.3047809373e+01    0.1961034    0.1321302  28.29 0.0009191599    1.595    0.373
        45 -14.0073    104.4235    121.9853   5.8293381669e+01   3.6709960850e+01      1.22171    0.9637541  48.89  0.006119318    1.281    0.219
        46 -13.5514    111.5752    116.1915   5.4869188368e+01   3.6681341163e+01    0.5833315    0.4043383  48.67  0.002677436    1.478    0.324
        47 -14.8282    106.2177    104.7320   5.3563770877e+01   4.0315457747e+01     1.293454     1.233553 -79.72  0.006444827    1.111    0.100
        48 -12.3449      4.6972    119.4521   8.9136775323e+01   4.9528235238e+01    0.4283224    0.2622945   7.86  0.002287177    2.097    0.523
        49 -12.1522     36.8623     92.9763   7.4580145582e+01   5.3583896278e+01    0.4320247      0.26104   9.78  0.001561073    2.095    0.523
        50 -13.6736      2.2598     96.9354   8.7848671053e+01   5.5123560179e+01     1.085696    0.3816522 -86.39  0.004343111    2.914    0.657
        51 -14.7806     24.5241     93.7818   7.9344476953e+01   5.4481866073e+01     1.626005     1.005226  -0.91  0.008270104    2.119    0.528
        52 -14.1135     11.7178    103.4772   8.5275674914e+01   5.2994833872e+01    0.7257147    0.5784093 -58.89  0.004102238    1.171    0.146
        53 -12.4736     17.4064    103.9698   8.3370738201e+01   5.2494104196e+01    0.4051133    0.2465883  39.38 0.0009146637    1.762    0.432
        54 -13.8138    247.1967    113.3549   2.5964222900e+01   9.3704797480e+00    0.5145186    0.3572079  66.87  0.002832029    2.099    0.524
        55 -12.8320     82.0005    114.9988   6.3534570011e+01   4.2239456154e+01    0.3981098     0.316753  56.00  0.002038894    1.337    0.252
        56 -11.4730     62.7561    110.8694   6.8929633465e+01   4.6108818194e+01    0.2882812    0.1683274  56.30  0.001246374    2.098    0.523
        57 -11.0756    121.8261    112.1892   5.0985510755e+01   3.5525413739e+01    0.2110188    0.1828152   0.82 0.0005998203    1.296    0.228
        58 -12.8273     79.0624    110.3670   6.3449138274e+01   4.3825086591e+01    0.4617553    0.3714952 -85.30  0.002327753    1.417    0.294
        59 -12.9271     21.1449     86.0077   7.9348655487e+01   5.6657085717e+01    0.6507159    0.3739426  -2.54  0.002325635    2.314    0.568
        60 -12.1393    136.6753    103.0690   4.4605779985e+01   3.4299050821e+01     0.439796    0.2293633  49.90  0.001610895    1.978    0.495
        61 -10.8523     64.5182    101.5206   6.6345479340e+01   4.8157976287e+01    0.1427956    0.1356297 -60.32 -2.575686e-05    1.000    0.000
        62 -12.0281     61.5135     97.5515   6.6504709344e+01   4.9544589422e+01    0.4385332    0.3014365  74.70  0.001974224    1.989    0.497
        63 -12.5077     42.6110     90.5969   7.1931399211e+01   5.3575616163e+01    0.4227856    0.2716723 -85.38  0.002015524    1.875    0.467
        64 -12.1956     49.1384     93.2750   7.0052385892e+01   5.2176937478e+01    0.3819536    0.2996016  84.14  0.002044684    1.466    0.318
        65 -12.0789     47.0587     99.3843   7.2079300543e+01   5.0912737641e+01    0.4680242    0.3388259  69.27  0.002407885    1.637    0.389
        66 -12.0547     52.7227     97.4430   6.9635290170e+01   5.0718601309e+01    0.3842594    0.2471619 -15.49  0.001719063    2.249    0.555
        67 -11.0909    163.7614     97.9967   3.6757540167e+01   2.9162202858e+01    0.2114504     0.195699 -29.90  0.000387043    1.068    0.064
        68 -11.8590     86.5310    114.9406   6.2096835869e+01   4.1509926078e+01    0.3416416     0.263294   2.81  0.001242681    1.673    0.402
        69 -13.1963     29.0208    121.8021   8.1774673503e+01   4.7161771470e+01     0.396659    0.3035141 -69.99  0.002344441    1.170    0.146
        70 -12.7154    136.5746     94.6061   4.2281126903e+01   3.6043622834e+01    0.4467342    0.2961098  49.27  0.001208486    1.518    0.341
        71 -14.4102     18.3121    111.6881   8.4011680004e+01   5.0524747709e+01    0.9509194    0.6135021   3.18  0.005155457    2.015    0.504
        72 -12.0789    188.2761     84.1054   2.8103045354e+01   2.5904026688e+01    0.3452853    0.1947641  39.61  0.001382199    2.011    0.503
        73 -13.1676    163.8736     71.7510   2.9248837029e+01   3.3778322976e+01    0.5318001    0.4705876  -3.57  0.002776805    1.223    0.182
        74 -12.9716    161.9524     79.5706   3.1952498512e+01   3.2909745298e+01    0.7765467    0.4093313  32.67  0.002602633    2.650    0.623
        75 -13.9898    169.3631     76.9848   2.9681121316e+01   3.1564630153e+01     1.096049    0.6281999  44.37  0.003679556    1.812    0.448
        76 -13.3643     66.0512     49.0251   5.0069034430e+01   5.9798078705e+01    0.9215364    0.6066241 -37.94  0.004561286    1.455    0.313
        77 -13.5340     91.6312     57.6543   4.3690203004e+01   5.3275292653e+01    0.5475186    0.5103076 -36.31  0.002264186    1.102    0.093
        78 -13.9629     54.1769     67.1841   6.1334006689e+01   5.7743408891e+01     1.297601    0.8912858 -18.38  0.006329609    1.758    0.431
        79 -12.8325     54.8167     80.4108   6.4811400044e+01   5.4579269490e+01    0.7469171    0.4218756 -49.97    0.0033826    1.615    0.381
        80 -12.0819     51.0813    248.3890   8.7038283156e+01   1.8082434335e+01    0.2251857    0.1495328 -64.86  0.001602809    1.883    0.469
        81 -12.4355    135.5716     79.4987   3.8068902425e+01   3.9236743328e+01    0.6948394    0.3208268  50.82  0.002553429    2.170    0.539
        82 -11.8135     42.6063     79.2220   6.9377355904e+01   5.6345528276e+01    0.3131505    0.1708971 -53.70  0.001101571    1.610    0.379
        83 -13.8438     74.0601     73.8271   5.5525677985e+01   5.3206154713e+01     1.410174    0.7386336  14.38  0.004550693    3.933    0.746
        84 -12.8762     28.5816    245.0714   9.1024629956e+01   2.1027598968e+01    0.3567737    0.1547352  44.06  0.002225965    1.622    0.383
        85 -11.6657     27.1553     75.2490   7.4859595231e+01   5.8808856724e+01    0.3860039    0.2296581  87.10  0.001782214    2.280    0.561
        86 -12.4893    134.0946     66.5425   3.4331474334e+01   4.1974980898e+01      0.61584    0.3865766  47.87  0.002632286    1.559    0.359
        87 -10.9959    117.7941     71.4175   4.0295025253e+01   4.4912511764e+01    0.2152648    0.1430051  37.05 0.0006264945    1.566    0.361
        88 -12.5660    199.5887     69.3233   2.2240809657e+01   2.5585445399e+01    0.4273176     0.246805  57.56  0.001761068    1.800    0.444
        89 -12.3735     39.3394     67.9968   6.7894062104e+01   5.9370924082e+01    0.4840202    0.2183068  28.54  0.002112833    2.365    0.577
        90 -11.4438    158.4505     83.4948   3.3849475053e+01   3.3055106772e+01     0.283481    0.2222425  15.49 0.0006228031    1.526    0.345
        91 -11.1176     99.8727     65.1268   4.3612409593e+01   5.0094949354e+01    0.2302695    0.2137663 -84.35 0.0008849151    1.259    0.206
        92 -13.0914     78.7241     60.0571   4.9183633081e+01   5.5328673378e+01    0.5954416    0.4448655 -45.82  0.002928952    1.339    0.253
        93 -11.9083     34.4457     60.5513   6.8025845571e+01   6.1612849687e+01    0.3825785    0.1391324 -48.22   0.00154207    2.331    0.571
        94 -11.9981     38.7218     59.7612   6.5840431611e+01   6.1341561419e+01    0.2625679    0.1671019 -83.96  0.001174142    2.458    0.593
        95 -11.6434     24.8843     59.3539   7.2144207206e+01   6.2771055770e+01    0.3997416     0.198348 -53.14   0.00194181    1.663    0.399
        96 -11.6173    111.1032     58.6852   3.7881567967e+01   4.8826627089e+01    0.2557909    0.2139693 -27.14 0.0004257941    1.216    0.178
        97 -14.4656    119.9662     54.8200   3.4003731786e+01   4.7425095480e+01     1.004915    0.6631638  46.19  0.004095145    1.471    0.320
        98 -11.6665     17.5504     55.5554   7.4688483040e+01   6.4212600991e+01    0.3244887    0.1842441 -60.42  0.001696288    1.488    0.328
        99 -13.6637    103.2986     50.3610   3.7174138114e+01   5.2080663102e+01     1.049486    0.6225107 -54.62  0.001362448    2.253    0.556
       100 -13.3355     97.9700     49.9932   3.8711563333e+01   5.3333958944e+01    0.6521105    0.4275351 -42.62  0.002556622    1.586    0.369
       101 -13.1183     87.4299     65.3079   4.7868402516e+01   5.2598526171e+01    0.5404682    0.4560349  -1.32  0.001018513    1.282    0.220
       102 -12.0960    114.1384     79.9719   4.4096702553e+01   4.4029825343e+01    0.4643664    0.3439176 -48.80  0.001831337    1.404    0.288
       103 -13.3472    177.6736     57.3906   2.2424372543e+01   3.2627998394e+01    0.8198937    0.4996922 -45.89  0.003096894    1.665    0.399
       104 -11.9636    135.9205     49.9374   2.8295318491e+01   4.4292949684e+01    0.4001215    0.2756154  26.86  0.001272701    1.756    0.430
       105 -10.4451     23.6457     49.7520   7.0103857884e+01   6.5071077286e+01    0.1329108    0.0846549 -27.72 0.0003320733    1.594    0.373
       106 -11.6605    152.6987     46.3413   2.3521908515e+01   4.0561687294e+01    0.5003569    0.1743372  47.81  0.001536673    2.914    0.657
       107 -12.0041    158.7882     42.8529   2.1245464151e+01   3.9489429136e+01    0.4221809    0.2712494  62.71  0.001683774    1.521    0.343
       108 -11.3185     38.6297     46.1722   6.1449444857e+01   6.4350010325e+01    0.1950619    0.1064454 -43.05 0.0006934999    1.631    0.387
       109 -12.7752    204.9897     39.9888   1.3608760652e+01   2.8343602999e+01    0.5930936     0.291175 -86.29  0.002176501    3.354    0.702
       110 -12.3544    212.0751     43.0939   1.3597190391e+01   2.6295819344e+01    0.5430048      0.23454  60.81  0.002330484    2.328    0.570
       111 -12.9771    219.6679     41.5089   1.2341324412e+01   2.4762192019e+01    0.5970406    0.3684258 -86.10  0.002857338    1.967    0.492
       112 -13.3907      6.2561     42.9652   7.7326177841e+01   6.7767306652e+01    0.8562663    0.3982133  13.70  0.004333701    2.437    0.590
       113 -11.6173    246.7026    235.0121   4.9000544525e+01  -5.8343197312e+00    0.1575813    0.1109672   1.82  0.001175289    1.080    0.074
       114 -13.2919     91.4375    231.6017   7.7877194826e+01   1.5970013940e+01    0.3511475    0.1948426  73.90  0.001795428    2.673    0.626
       115 -12.7301     23.5768    216.4908   9.0655177348e+01   2.6641317457e+01    0.6591378    0.2456882  45.49  0.003588521    1.969    0.492
       116 -12.0932    109.8661     41.9637   3.2011979153e+01   5.1938223846e+01    0.3904971    0.2085028  55.50 0.0008195501    1.873    0.466
       117 -11.7468    134.8053     39.4396   2.4850767514e+01   4.6130840263e+01    0.4559813    0.2683011  68.14  0.001573872    1.855    0.461
       118 -13.0333    113.8956     37.8505   2.9307991582e+01   5.1590560497e+01    0.4267674    0.3701068  -9.05  0.001302348    1.205    0.170
       119 -13.6740     26.3356    226.2675   9.0586000214e+01   2.4550676753e+01    0.5844893    0.3452337 -58.64  0.003762549    2.177    0.541
       120 -12.8265    131.4244     33.3612   2.3383271829e+01   4.7825996141e+01    0.4961952    0.4323561   5.56  0.001529083    1.245    0.197
       121 -12.2450     40.4769     40.3454   5.8352308547e+01   6.5340105570e+01    0.4881375     0.268465  29.82  0.002399632    1.912    0.477
       122 -12.7871     32.8238     40.1174   6.2179967342e+01   6.6284714244e+01    0.3480704    0.2616057  -9.42 0.0007023081    1.359    0.264
       123 -12.5010     75.9676     37.0037   4.1145473550e+01   6.0181042277e+01    0.4134735    0.2765819  28.92  0.001344284    1.551    0.355
       124 -11.6259     70.8445     36.1138   4.2767200887e+01   6.1322962854e+01    0.3205319    0.2353709  53.04 0.0009981344    1.596    0.373
       125 -12.2841    242.3609     36.2201   8.8626006696e+00   2.0495220833e+01    0.4042037    0.2144716  75.47  0.002075331    2.127    0.530
       126 -11.9807    104.8055     35.5603   3.0909979075e+01   5.4110870613e+01    0.4619728    0.2008963 -21.70  0.001592651    3.095    0.677
       127 -13.1151     44.3796     33.3068   5.3476000061e+01   6.6208132346e+01     0.894304    0.4616441  31.81  0.004258438    2.005    0.501
       128 -14.1628     20.7956    223.9983   9.1558716810e+01   2.5507990806e+01    0.5715311    0.4520735  49.05  0.003559035    1.166    0.142
       129 -13.5931     65.4722    223.3241   8.2509193472e+01   2.0750294518e+01    0.7057675    0.5500361  58.34  0.004936032    1.084    0.078
       130 -14.0571     64.1519    214.1456   8.2041142414e+01   2.2622315483e+01    0.4912044     0.279386  53.06  0.002842557    1.510    0.338
       131 -13.0348    142.7579     29.8754   1.9830315481e+01   4.5345867370e+01    0.6041512    0.4255066  84.08  0.002383264    1.612    0.380
       132 -11.6792    222.3470    224.6882   5.1455651840e+01  -1.6417111001e+00    0.1004416   0.08725029  38.80 0.0007046039    1.712    0.416
       133 -11.2443      5.6040    219.2070   9.4303788643e+01   2.7781783938e+01    0.1366293     0.085894 -76.88  0.000741721    1.653    0.395
       134 -11.4634    216.4911     28.5015   9.3619474983e+00   2.7036649276e+01    0.1309635    0.1182398 -58.74 1.570614e-05    1.018    0.017
       135 -13.5294     57.7311     26.6922   4.4028142373e+01   6.5288645413e+01     1.041863    0.3618449  38.55  0.003491049    2.919    0.657
       136 -12.3976     30.5430     25.4869   5.7394748166e+01   6.9459812407e+01    0.3314887    0.2089866   7.74  0.001773545    1.759    0.432
       137 -12.4472     35.3609     23.4100   5.3703554438e+01   6.9254027660e+01    0.3013355    0.2274241   0.71 0.0009010538    1.290    0.225
       138 -12.2662     40.2472     24.5644   5.1600455226e+01   6.8391598030e+01    0.2384663    0.1511792 -49.13   0.00124753    1.731    0.422
       139 -12.4020    249.0134    216.0127   4.5602561061e+01  -4.1105868030e+00    0.2391051    0.1853735  31.44  0.001731067    1.592    0.372
       140 -11.2182     51.2322     20.4097   4.3941349710e+01   6.7410130253e+01    0.3089264     0.122074  45.44  0.001243743    2.809    0.644
       141 -11.6452     46.1664     20.1661   4.6322747639e+01   6.8267871943e+01    0.3788786    0.2069503  20.08  0.001737179    2.233    0.552
       142 -11.6477     71.0207     16.5337   3.3427875975e+01   6.4272776038e+01    0.2569398    0.1990652 -22.66 0.0006478953    1.292    0.226
       143 -12.8350    237.9881    215.4896   4.7316554614e+01  -2.6433347114e+00     0.214555    0.1914669  21.13  0.001608393    1.570    0.363
       144 -12.7786     72.2552    206.9490   7.9633416803e+01   2.2988166332e+01    0.3678561    0.2543595 -82.80  0.001969303    1.593    0.372
       145 -10.6754    198.6586    204.3222   5.2426654476e+01   4.3364954772e+00     0.112662   0.09806465  55.97 0.0007050527    1.724    0.420
       146 -11.8544    185.5597    202.7420   5.4682813614e+01   6.5859496347e+00    0.2257337     0.117957 -32.96  0.001139856    2.103    0.525
       147 -13.1542     16.5016    196.7776   9.1135450177e+01   3.1183379869e+01    0.5578591    0.1842597 -60.63  0.002570258    3.345    0.701
       148 -13.5164     29.8621    169.2712   8.6272780912e+01   3.5825096551e+01    0.8202648    0.7253767  12.77  0.005556517    1.424    0.298
       149 -13.4269     22.1926    180.9196   8.8953345245e+01   3.3986664196e+01    0.5341618     0.306253 -72.72  0.002968647    1.672    0.402
       150 -15.6140      7.1763    181.7413   9.2437316788e+01   3.5106539242e+01     1.800139     1.027696 -86.88   0.01104397    1.546    0.353
       151 -12.8418    248.5077    197.0088   4.2442511913e+01  -1.8823165882e+00    0.4472772    0.2518843 -37.52  0.002610895    2.071    0.517
       152 -12.9832     40.1846    195.1721   8.5814611697e+01   2.9170954612e+01    0.3378472    0.2315093  77.08  0.002121711    1.346    0.257
       153 -11.3691    206.3141    190.9239   4.8660762971e+01   5.0425487925e+00    0.1820009    0.1465547  -2.95 0.0006554947    1.100    0.091
       154 -13.1214    249.3053    182.9136   3.9774095625e+01  -2.8718537671e-01    0.3601199     0.137521 -34.65  0.001729696    2.481    0.597
