#   1 NUMBER                 Running object number                                     
#   2 MAG_AUTO               Kron-like elliptical aperture magnitude                    [mag]
#   3 X_IMAGE                Object position along x                                    [pixel]
#   4 Y_IMAGE                Object position along y                                    [pixel]
#   5 X_WORLD                Barycenter position along world x axis                     [deg]
#   6 Y_WORLD                Barycenter position along world y axis                     [deg]
#   7 A_WORLD                Profile RMS along major axis (world units)                 [deg]
#   8 B_WORLD                Profile RMS along minor axis (world units)                 [deg]
#   9 THETA_WORLD            Position angle (CCW/world-x)                               [deg]
#  10 FWHM_WORLD             FWHM assuming a gaussian core                              [deg]
#  11 ELONGATION             A_IMAGE/B_IMAGE                                           
#  12 ELLIPTICITY            1 - B_IMAGE/A_IMAGE                                       
         1 -13.4124    242.9595     44.8819   1.2607544290e+01   1.8723457637e+01    0.9550656    0.8641849  36.27  0.006127673    1.331    0.249
         2  -9.9171      2.1746      3.8352   6.6799570890e+01   7.6895502350e+01    0.1784434    0.1076334 -31.12  0.001089832    1.352    0.260
         3  -8.7312     70.2224    248.5986   8.5641436179e+01   1.6038456794e+01    0.1427193   0.08715198  31.71 0.0003030931    1.582    0.368
         4  -9.6198     52.1826    248.3615   8.8911079598e+01   1.8208834891e+01    0.3963383    0.1474411  76.42  0.001710831    4.492    0.777
         5  -9.7714     24.0344    250.5208   9.3970907481e+01   2.0885131572e+01    0.1486255   0.07508444  40.40 0.0004675417    1.523    0.344
         6 -15.5736      9.7542    176.9487   9.3537076865e+01   3.6161911786e+01     5.125299     1.780735 -85.43   0.01972758    2.616    0.618
         7 -14.8592      8.2601    226.3489   9.5893532972e+01   2.6537684115e+01     4.354269     1.996222  20.98   0.02335516    3.297    0.697
         8 -10.3778     80.8425    245.1364   8.3421965229e+01   1.5265042264e+01     0.212701     0.138471  80.63  0.001143184    1.768    0.435
         9 -13.1308      9.9623    206.7010   9.4847100809e+01   3.0049804947e+01    0.7627916    0.4981859  25.82  0.003153242    1.832    0.454
        10 -10.3460     53.9144    229.8216   8.7464434855e+01   2.1140644670e+01    0.2331583    0.1484236 -88.43 0.0008101977    1.641    0.391
        11 -10.6456     76.3515    200.5307   8.0414915318e+01   2.3792989157e+01    0.3203528    0.2056657  89.63  0.001084199    1.758    0.431
        12 -10.9428     42.1039    193.8802   8.7395774520e+01   2.9388187477e+01    0.4670253    0.1353425  58.52  0.001648045    4.270    0.766
        13  -9.3270    192.3489    194.0164   5.4817245492e+01   6.5081419876e+00    0.1870027    0.1058336 -58.90 0.0007048344    4.502    0.778
        14 -11.7547     34.7486    168.6927   8.7109840541e+01   3.5633313782e+01    0.3026727      0.27846 -35.36 0.0005786338    1.460    0.315
        15 -10.5218    230.6811    168.2220   4.2973943615e+01   3.8653252858e+00    0.4112517    0.1826196 -37.56  0.001909507    2.303    0.566
        16  -8.8519    110.5113    167.1192   6.8010370974e+01   2.5501641349e+01    0.1906891    0.1391447 -59.16 0.0004604924    1.476    0.322
        17 -11.7954     43.2526    163.2543   8.4495275130e+01   3.5953176273e+01    0.2778491    0.2688307  40.01 0.0006239413    1.271    0.213
        18 -11.5104    245.6872    161.9101   3.9252507564e+01   2.3129363749e+00    0.3171243    0.1984968 -16.97  0.001806177    1.413    0.292
        19 -12.4979    236.0421    155.6936   3.9522793041e+01   4.7013436454e+00     0.586732    0.3521907 -18.08  0.003114758    1.569    0.363
        20 -10.7569     57.4871    154.7981   7.9847471846e+01   3.6230232466e+01    0.2519493    0.2213308 -84.91 0.0003777042    1.086    0.079
        21 -13.1408     41.6697    150.4735   8.3583428904e+01   3.9120039054e+01    0.5156882    0.3672379 -14.17   0.00136339    2.241    0.554
        22 -12.0002     72.0773    135.5040   7.2946699079e+01   3.8888628406e+01    0.4918149    0.4278572  82.92 0.0005271641    1.105    0.095
        23 -12.7511     68.1588    143.7867   7.5401825432e+01   3.7439823111e+01     0.962595    0.5167798  56.72  0.002974231    2.064    0.516
        24  -9.0409    134.0000    145.5170   5.8144077955e+01   2.5817040092e+01    0.3127358   0.08517928 -48.05 0.0009219063    3.832    0.739
        25 -10.5654     85.4185    138.5393   6.9660599347e+01   3.6123630472e+01    0.3140399    0.2972875  43.84  0.000851756    1.106    0.096
        26  -9.3400     89.4998    135.8938   6.8014122674e+01   3.6092654592e+01    0.2529272    0.2082973  13.70 0.0004882959    1.480    0.324
        27 -11.9737     15.0305    247.2911   9.5398344593e+01   2.2300232125e+01    0.6417965    0.2679912  76.49  0.003978962    2.205    0.546
        28  -9.9305    105.8662    130.8162   6.2381765288e+01   3.4434536139e+01    0.4173145    0.3203918 -69.63  0.001236864    1.424    0.298
        29  -9.7918    101.9213    128.5952   6.3009930306e+01   3.5671989756e+01    0.4538739    0.2591352  22.79  0.001504737    2.497    0.599
        30 -12.3860     67.2416    150.1519   7.6595540723e+01   3.6045750557e+01    0.7117721    0.4138863  54.42  0.001923761    1.740    0.425
        31 -10.4470     87.4578    123.9924   6.6229290100e+01   3.9289708389e+01    0.2642496    0.2548434 -73.00 0.0004205352    1.036    0.035
        32  -9.4438    110.9166    123.6921   5.9381654373e+01   3.5133094540e+01    0.2529063    0.1274379  20.72 0.0005825402    4.535    0.779
        33 -11.1901     51.5917    110.6905   7.4915755400e+01   4.7808765490e+01    0.6111199    0.1480079 -67.85  0.001635134    4.974    0.799
        34  -9.4670    101.1221    117.3911   6.0712099444e+01   3.8456369400e+01    0.2348798    0.2010852 -40.65 0.0003924045    1.207    0.172
        35  -9.2790    204.8049    110.7552   3.4548803483e+01   1.7473898443e+01    0.3495562    0.1750457  36.30  0.001387836    2.362    0.577
        36 -10.6741    245.1687    107.8190   2.7525385436e+01   9.8229804165e+00     0.191222    0.1462224  -0.79  0.001087831    1.347    0.258
        37 -11.6197    243.3871     94.9894   2.4748347292e+01   1.1965660951e+01     0.469933    0.2452692 -56.57  0.001899888    3.047    0.672
        38  -8.7665     33.2269     96.1720   7.8675517550e+01   5.3469027586e+01    0.1790559    0.1449424  77.17  0.000432812    1.284    0.221
        39 -12.5790      1.7404     83.4439   8.8539052264e+01   5.8867106212e+01     1.270917    0.3164053 -81.12  0.004175259    4.098    0.756
        40 -10.3718     25.6880     87.3643   7.9920107647e+01   5.6354391438e+01      0.46206     0.236778  70.00  0.001898038    2.895    0.655
        41  -9.9553    168.8033     88.8349   3.5522328086e+01   2.9516819336e+01     0.217971     0.187297 -65.98 0.0005344238    1.322    0.244
        42 -10.3952     52.9872     90.9807   7.0333248899e+01   5.2586852624e+01    0.3613169    0.1784946 -52.67  0.001186843    1.798    0.444
        43  -9.8092    184.5055     77.0610   2.9064044499e+01   2.7716345469e+01    0.2345323    0.1459224 -31.41 0.0005540775    1.547    0.354
        44 -10.9315    247.9351    248.6452   5.3969503672e+01  -7.5965063105e+00    0.2880172    0.1506566  21.77  0.001955983    1.432    0.302
        45 -13.3210    221.5559     57.6237   1.8137004368e+01   2.1796499343e+01     1.262798     0.904335 -31.21  0.006037884    1.263    0.208
        46  -8.8298     89.0805     64.8308   4.9186042494e+01   5.2761981597e+01    0.2274517    0.2031267 -81.14 0.0006981248    1.346    0.257
        47  -8.7063     25.2930     65.6542   7.5540819217e+01   6.1752237635e+01    0.1311748    0.0971526  77.23 0.0007029562    1.665    0.399
        48  -9.2527     21.9414     63.4676   7.6529092770e+01   6.2550251912e+01    0.2694656    0.1359555  49.46  0.001200179    2.699    0.630
        49 -10.5814     13.3735     60.3076   7.9763350159e+01   6.3909838404e+01    0.2383929    0.2019005  89.90 0.0005469733    1.268    0.212
        50  -8.8724     33.3899     51.2112   6.7607197243e+01   6.4396194333e+01    0.1859402    0.1195806 -67.25 0.0004098818    1.677    0.404
