#   1 NUMBER                 Running object number                                     
#   2 MAG_AUTO               Kron-like elliptical aperture magnitude                    [mag]
#   3 X_IMAGE                Object position along x                                    [pixel]
#   4 Y_IMAGE                Object position along y                                    [pixel]
#   5 X_WORLD                Barycenter position along world x axis                     [deg]
#   6 Y_WORLD                Barycenter position along world y axis                     [deg]
#   7 A_WORLD                Profile RMS along major axis (world units)                 [deg]
#   8 B_WORLD                Profile RMS along minor axis (world units)                 [deg]
#   9 THETA_WORLD            Position angle (CCW/world-x)                               [deg]
#  10 FWHM_WORLD             FWHM assuming a gaussian core                              [deg]
#  11 ELONGATION             A_IMAGE/B_IMAGE                                           
#  12 ELLIPTICITY            1 - B_IMAGE/A_IMAGE                                       
         1 -14.0734    165.4131     42.7902   7.6047847017e+01   3.8503185895e+01     1.317136      1.04914 -12.11  0.004085974    1.426    0.299
         2 -14.0514    180.6655     10.2340   6.3949714151e+01   3.8452778182e+01     1.202331     1.048359  84.13  0.004610738    1.045    0.043
         3  -9.6377    133.8152    245.8982   1.2760012991e+02   7.1365977908e+00    0.1102691   0.09167098 -55.02 0.0002291586    1.493    0.330
         4 -14.7814    100.4519    244.5363   1.3351995845e+02   1.2370262819e+01    0.7205768    0.6016772 -63.96  0.004289899    1.465    0.317
         5 -19.8483     63.6440    169.6395   1.3268209756e+02   3.2420749892e+01      18.4884     5.116961 -65.98   0.06633878    3.474    0.712
         6  -9.3080    104.0319    201.4563   1.2793626422e+02   1.9691103384e+01     0.190066    0.1126774  45.58 0.0009910528    1.503    0.335
         7  -9.0043    138.7720    200.0212   1.2046501803e+02   1.4154278731e+01    0.2085372     0.146542  88.63  0.001042509    2.031    0.508
         8  -9.5057    121.6909    198.7111   1.2384438152e+02   1.7342111853e+01    0.1554592    0.1194553 -69.36 0.0004541932    1.423    0.297
         9  -9.7886    111.9444    196.8972   1.2564614162e+02   1.9323470727e+01    0.3694773    0.2170907  18.85  0.001512804    3.218    0.689
        10 -13.1715    179.3145    193.9237   1.1114834649e+02   7.9500820760e+00     1.543563    0.4195506  44.28  0.005187493    3.427    0.708
        11 -12.5242    165.5956    187.5238   1.1278247654e+02   1.1611109770e+01    0.6593051    0.3857231  53.51  0.003064435    1.861    0.463
        12 -12.1342    170.2270    182.8453   1.1096507221e+02   1.1594868214e+01    0.5105172    0.3053888  41.64  0.001803023    1.554    0.357
        13 -11.7941    172.8142    188.8318   1.1153787549e+02   1.0032824343e+01    0.3927352    0.3315756  58.86  0.001464687    1.303    0.232
        14 -12.1409    175.9062    186.3195   1.1044734152e+02   9.9018322899e+00    0.4059299    0.3368549 -64.09  0.001191161    1.498    0.333
        15 -10.3325    153.4494    193.8220   1.1640478006e+02   1.2690509962e+01    0.2616619    0.2388657  65.52 0.0007650869    1.148    0.129
        16  -9.7492     12.3107    243.5232   1.4851393483e+02   2.3457593381e+01   0.09565897   0.07121344  81.57 0.0001711187    1.190    0.160
        17  -9.9564    153.3312    186.0498   1.1508648268e+02   1.4166403985e+01      0.18687    0.1786924 -54.99 0.0004426878    1.135    0.119
        18 -10.1355    108.8977    240.6399   1.3158655430e+02   1.1775396415e+01    0.1576382    0.1191206  -1.24 0.0009035125    2.472    0.595
        19 -11.4444    125.0369    244.1472   1.2900508576e+02   8.7610725182e+00    0.1667038    0.1512566 -81.92 0.0004186162    1.291    0.225
        20  -9.5391     23.6135    182.7508   1.4280876532e+02   3.4124215302e+01     0.101352   0.08550477 -45.33 0.0006950357    1.664    0.399
        21 -10.3258      3.6549    179.7967   1.4663925945e+02   3.6564984203e+01    0.2154436    0.1516016  72.27  0.001175164    1.147    0.128
        22 -12.1912    204.6492    176.5821   1.0288097397e+02   6.1785611071e+00    0.5802779    0.3822647 -52.16  0.002560706    1.933    0.483
        23 -10.8207    201.4303    169.2072   1.0200178461e+02   8.0327661049e+00    0.3730825    0.2803692 -63.99  0.001447302    1.907    0.476
        24 -11.4545    204.5187    166.3655   1.0081683866e+02   7.9238072594e+00    0.5329553    0.3688992 -51.44  0.002139112    1.741    0.426
        25 -12.4051    194.1461    167.6022   1.0309732769e+02   9.7243337486e+00    0.6859983     0.427415 -52.72  0.001900825    1.984    0.496
        26 -12.3970    136.0612    170.0688   1.1597177755e+02   2.0571293055e+01    0.6208797      0.42961  44.40  0.002144346    1.375    0.273
        27 -11.2783    126.4189    172.6568   1.1862133707e+02   2.1808471150e+01    0.4661848    0.3109832  63.46  0.002234634    1.719    0.418
        28  -9.8939     11.0418    174.3784   1.4476754182e+02   3.7088416012e+01    0.1446825    0.1161275  80.57 0.0004005719    1.089    0.082
        29 -10.4522     21.7456    239.5036   1.4680055025e+02   2.3192906348e+01   0.09853696   0.07013254  83.15 0.0001987534    1.170    0.145
        30 -11.6941    144.0195    173.0749   1.1475118760e+02   1.8455698152e+01    0.5832322    0.4052863   5.87  0.002527793    2.361    0.576
        31  -9.6727    131.2713    237.1373   1.2703665527e+02   8.9160718925e+00    0.1323495    0.1056291 -72.73 0.0003074663    1.504    0.335
        32  -8.8509      7.6963    237.3814   1.4897317499e+02   2.4992921734e+01    0.1036195   0.06255796  71.09 0.0002292992    1.183    0.155
        33 -10.0943    198.8801    178.1285   1.0430037575e+02   7.0012548899e+00    0.2456541    0.2289891 -78.50 0.0006110146    1.380    0.276
        34 -10.5896    141.9926    165.4432   1.1375761096e+02   2.0403928965e+01    0.2765708    0.2014983 -68.18 0.0007586451    1.630    0.387
        35  -9.6684     24.5317    165.2358   1.4110870520e+02   3.7856582538e+01    0.1703327    0.1451923 -70.83 0.0007734545    1.256    0.204
        36  -9.4743     13.4139    163.0921   1.4338206506e+02   3.9341646761e+01    0.1675631   0.09119938 -76.69 0.0003958473    1.479    0.324
        37  -9.7304    188.0398    158.7110   1.0245001858e+02   1.2539675973e+01    0.2053934    0.1837191  23.96   0.00057283    1.083    0.076
        38  -9.4839     25.7252    229.5479   1.4558835530e+02   2.4570734851e+01    0.1222112   0.07582262  89.47 0.0003641659    1.361    0.265
        39  -9.9358     25.3264    224.8707   1.4538260870e+02   2.5482705919e+01    0.1272921   0.08185004 -75.94 0.0004684505    1.503    0.335
        40  -9.3364    152.9631    151.0124   1.0832462751e+02   2.1218774087e+01    0.1740619    0.1730594  49.74 0.0003183891    1.016    0.015
        41  -9.9713    174.5259    149.0016   1.0314108685e+02   1.7158878952e+01    0.2702663    0.2568221  74.09 0.0008682621    1.152    0.132
        42 -12.1246    144.1121    145.5634   1.0918061336e+02   2.4165004507e+01    0.5305073    0.4043035 -76.45  0.002521884    1.649    0.394
        43 -12.2755    141.8956    139.7886   1.0842335561e+02   2.5851681836e+01    0.4548824    0.3964159  87.38  0.002361428    1.290    0.225
        44  -9.1751    118.7781    220.3295   1.2736896854e+02   1.3767325576e+01    0.1811628    0.1551676  -9.82 0.0008027729    1.667    0.400
        45  -6.8835     22.2550    221.2123   1.4570270088e+02   2.6495311906e+01   0.08367497   0.07477472  84.45 0.0003049182    1.378    0.274
        46 -11.3181      5.2146    137.3960   1.4302105649e+02   4.5738517527e+01    0.3228296    0.2321458 -56.92   0.00125721    1.411    0.292
        47 -11.5391     21.8977    138.2793   1.3896483850e+02   4.4221913060e+01    0.3205433    0.2287444   1.47  0.001603956    2.144    0.534
        48  -9.1806    150.6394    243.5220   1.2423386167e+02   4.8673287131e+00    0.1158484   0.09714171  40.76 0.0001695808    1.045    0.043
        49 -10.7206    160.4267    128.0254   1.0135704627e+02   2.4387791708e+01    0.3634306    0.2698278 -47.39  0.001294936    1.357    0.263
        50 -10.0943    110.5739    211.4666   1.2788592389e+02   1.6709707970e+01    0.1686267    0.1471295  80.83 0.0003417053    1.129    0.114
        51  -9.6118    167.8903    112.7713   9.5849160333e+01   2.5791197379e+01    0.3071531    0.2025225 -66.55  0.001231519    2.155    0.536
        52 -12.2527    113.9078    110.1826   1.0840806644e+02   3.8015508692e+01    0.3634884    0.3027597  62.07  0.001039139    1.314    0.239
        53 -12.7692    117.7931    109.3689   1.0715266977e+02   3.7426963023e+01    0.7456428    0.5001327 -89.47  0.002909794    2.601    0.616
        54 -10.6378      2.8500    112.6585   1.4106400236e+02   5.1520586333e+01     0.245492    0.1209516 -59.99  0.001379548    1.615    0.381
        55 -10.9630      7.5040    111.0670   1.3956571455e+02   5.1590959462e+01    0.2439674    0.1615966 -45.47  0.001467983    1.571    0.363
        56  -9.8423    205.6203    110.1175   8.7630572365e+01   1.7655412601e+01    0.2765058    0.2170776  41.20 0.0006901772    1.341    0.254
        57 -10.8175      7.8472    101.9978   1.3827180208e+02   5.3643412735e+01    0.2604173    0.2316748  66.00   0.00181002    1.292    0.226
        58 -11.8399    106.7551    206.1316   1.2798079163e+02   1.8339920866e+01    0.4149764    0.2736689 -85.73  0.002228875    1.833    0.455
        59 -11.0793    100.9910     98.2737   1.0887755730e+02   4.3113927156e+01    0.3952971    0.2769668  64.42  0.001808107    1.857    0.461
        60 -12.2378     11.6500    205.8943   1.4670156805e+02   3.0519772539e+01    0.3292933    0.2463305  29.30  0.001929013    1.815    0.449
        61  -9.7535     98.6805     80.8317   1.0454687572e+02   4.7271766677e+01    0.2264851    0.1969052  24.52 0.0004201194    1.218    0.179
        62 -13.4345    153.7433     57.5933   8.2964741837e+01   3.9243632169e+01     1.316055     1.081597  41.97 0.0009934246    1.230    0.187
        63  -9.5461    160.3561    246.2740   1.2281180955e+02   2.9360703673e+00    0.1955201    0.1123614 -42.10  0.001131228    2.187    0.543
        64 -12.2875    169.6713     34.8790   7.2873865151e+01   3.8468603042e+01    0.4271669    0.4023712 -11.28 0.0009094558    1.150    0.131
        65 -10.0043     13.5103     59.9542   1.2854976985e+02   6.2606530330e+01     0.177728    0.1628843  56.87 0.0004267838    1.412    0.292
        66  -9.2050    153.5997    201.8616   1.1770215488e+02   1.1203172924e+01    0.1757623    0.1274346 -66.71 0.0009373777    1.760    0.432
        67  -9.8646    138.7134     31.7748   7.7518863922e+01   4.6625209403e+01      0.28082    0.1908602  74.77  0.001146269    1.675    0.403
