#   1 NUMBER                 Running object number                                     
#   2 MAG_AUTO               Kron-like elliptical aperture magnitude                    [mag]
#   3 X_IMAGE                Object position along x                                    [pixel]
#   4 Y_IMAGE                Object position along y                                    [pixel]
#   5 X_WORLD                Barycenter position along world x axis                     [deg]
#   6 Y_WORLD                Barycenter position along world y axis                     [deg]
#   7 A_WORLD                Profile RMS along major axis (world units)                 [deg]
#   8 B_WORLD                Profile RMS along minor axis (world units)                 [deg]
#   9 THETA_WORLD            Position angle (CCW/world-x)                               [deg]
#  10 FWHM_WORLD             FWHM assuming a gaussian core                              [deg]
#  11 ELONGATION             A_IMAGE/B_IMAGE                                           
#  12 ELLIPTICITY            1 - B_IMAGE/A_IMAGE                                       
         1 -14.3959    161.8892     57.9200   7.0466095833e+01   3.7228224191e+01     1.487428     1.317632  20.92  0.001012685    1.195    0.163
         2 -14.7166    175.4946     43.0175   6.3282715142e+01   3.5968277139e+01      1.25013     1.039377  -0.98  0.004205316    1.364    0.267
         3 -15.2176    200.1548     10.3886   5.0350779716e+01   3.3546452888e+01     3.054156      1.16207  64.00   0.01260285    2.345    0.573
         4 -10.2925    162.3158    233.4781   1.0949809591e+02   5.3727998635e+00    0.1766296     0.144673  84.63 0.0007230274    1.724    0.420
         5 -14.5098    247.9024    247.3430   9.6620814252e+01  -9.0299007662e+00     1.803254    0.5408188 -33.24  0.008731535    3.685    0.729
         6 -11.4071    188.0249    173.7249   9.4606605838e+01   1.0404166162e+01    0.3625545    0.2879231 -77.88  0.001563408    1.963    0.491
         7 -10.9283     17.5832    180.6012   1.3254113238e+02   3.5038115371e+01    0.1085844   0.08803888 -89.60 0.0007925142    1.134    0.118
         8 -10.3594     28.0223    179.6449   1.3032860654e+02   3.4247570075e+01    0.1445032    0.1043434  37.42  0.000439767    1.549    0.355
         9 -10.0095    167.7203    176.9278   9.9381043721e+01   1.3675676355e+01    0.2062529    0.1617416 -83.44 0.0007152834    1.873    0.466
        10 -16.0021     99.9923    245.1507   1.2221636324e+02   1.2976104945e+01     1.729144     1.309507  19.31   0.01107646    1.868    0.465
        11 -10.3459    195.0042    172.5319   9.2984857557e+01   9.2870605941e+00    0.2598987    0.1950577 -51.99    0.0013746    1.649    0.393
        12 -10.1819    207.9393    171.8491   9.0349814047e+01   6.9784291654e+00    0.2541127    0.1748023 -58.86   0.00121595    2.268    0.559
        13 -10.4675    240.3242    169.3103   8.4007121250e+01   1.5611643697e+00    0.1370992   0.09029538   6.84 0.0002562363    1.654    0.395
        14 -11.4661    230.2926    167.2670   8.5324645488e+01   3.6132103527e+00    0.2655554    0.1522525 -50.57  0.001184865    2.596    0.615
        15 -10.8446     25.8632    165.3783   1.2959961881e+02   3.7512391280e+01    0.3596856    0.1342514  26.17  0.001638427    3.463    0.711
        16 -11.2733    159.6641    194.9972   1.0424517527e+02   1.1943510611e+01     0.233217    0.1774159  61.31 0.0007043218    1.511    0.338
        17 -13.4517    133.9040    145.5841   1.0071838569e+02   2.6359753588e+01     1.461286    0.3820939 -54.29  0.003699991    5.568    0.820
        18 -11.6545    129.2338    140.1877   1.0070453138e+02   2.8415595710e+01    0.3536291    0.3021516  56.42 0.0008698295    1.190    0.159
        19 -10.2915    191.5318    151.5075   8.9275912442e+01   1.3591571723e+01    0.2682421    0.1382021 -43.55 0.0009359855    2.037    0.509
        20 -19.1336     45.3391     97.8231   1.1523875935e+02   5.1140823443e+01     15.94199    0.8286948 -61.60   0.02504187   16.099    0.938
        21 -11.6289    174.4516    148.8206   9.2228343922e+01   1.7564961497e+01    0.3557026     0.285212 -54.50  0.001218561    1.414    0.293
        22 -12.8052    143.7718    145.3311   9.8332046314e+01   2.4481332132e+01    0.6011372    0.3325329 -64.02  0.002274106    2.708    0.631
        23 -10.8591     31.8724    206.8793   1.3156927157e+02   2.8344428991e+01     0.135677    0.1215092 -26.92  0.001012283    1.822    0.451
        24 -10.8729    164.8182    187.1539   1.0184488010e+02   1.2389351652e+01    0.1984999    0.1769688  62.19 0.0006763171    1.248    0.199
        25 -13.2717    135.5988    126.4193   9.6032807862e+01   3.0121768161e+01     1.469571    0.2877248 -49.76  0.003324855    6.261    0.840
        26 -10.8743    187.1273    154.4140   9.0801325377e+01   1.3960344476e+01    0.4674264    0.2302853  37.09  0.001916724    2.080    0.519
        27 -12.1892    160.2371    127.3855   9.0415268617e+01   2.4743971346e+01    0.4636174    0.3416712 -64.44  0.001398747    1.704    0.413
        28 -11.6223    106.7109    123.5445   1.0281087170e+02   3.6305262589e+01    0.2805645    0.2561849  -9.20 0.0005649165    1.249    0.200
        29 -10.8653    127.0029    123.3298   9.7456167944e+01   3.2516871543e+01    0.2079988    0.1898281  44.84 0.0003815075    1.108    0.097
        30 -12.0293    122.3966    121.9974   9.8322080408e+01   3.3714694049e+01    0.4284908    0.2896899 -18.36   0.00169994    2.227    0.551
        31 -11.0484    113.1767    117.8013   9.9748431236e+01   3.6411083726e+01    0.2677126    0.2380642  72.34 0.0006393808    1.219    0.180
        32 -10.4720    140.2684    116.3317   9.2406422843e+01   3.1294579856e+01    0.1523269    0.1204668  -7.80 0.0004089933    1.584    0.369
        33 -10.8314    231.2757    113.7373   7.3181762654e+01   1.1775999445e+01    0.2536413    0.2267485   1.90 0.0007551342    1.107    0.097
        34 -11.5533    167.8490    112.8953   8.5068009739e+01   2.5929992874e+01    0.4293813    0.3242207 -88.90   0.00131608    1.946    0.486
        35 -17.9079     66.1642    230.2612   1.2699490668e+02   2.0003398369e+01     8.797006      6.18102 -83.91   0.06196353    1.415    0.293
        36 -11.8214    134.8003    106.4025   9.1195129672e+01   3.4543392366e+01     0.669364    0.1757557 -43.11  0.001885961    3.765    0.734
        37 -12.2409    117.2929    109.0027   9.6463829448e+01   3.7569146157e+01    0.3358092    0.2725909  60.06  0.001686607    1.363    0.266
        38 -10.9248    205.4347    110.2708   7.6796513523e+01   1.7916739580e+01    0.3121233    0.2567373  36.86 0.0009468906    1.254    0.202
        39 -11.2403    223.0633    198.1203   9.2613422139e+01   4.3343998279e-01    0.1923568    0.1617695   8.87 0.0005520267    1.037    0.036
        40 -10.2448    149.3514     81.9650   8.0656228290e+01   3.6142225442e+01    0.2190263    0.1954526 -30.49 0.0004365497    1.108    0.097
        41 -11.0519     86.0642     77.5236   9.6874481475e+01   5.0131311255e+01    0.2541733    0.1924038 -58.42 0.0005214218    1.418    0.295
        42 -10.7743    102.1328     72.3077   9.0247271418e+01   4.8276615414e+01    0.3726625    0.2553274  64.94  0.001661348    2.076    0.518
        43 -11.0349    186.8463    166.1085   9.3315045629e+01   1.1944022774e+01    0.4889404    0.2359657 -40.16  0.002085514    2.156    0.536
        44 -10.2337    166.4908    235.2091   1.0896246032e+02   4.4650869983e+00    0.1424268    0.1205946 -42.02 0.0007444648    1.462    0.316
        45 -13.1062    179.9474     36.2438   6.0485606951e+01   3.5725777118e+01    0.4705438    0.3833355  40.60 0.0009216879    1.290    0.225
        46 -10.7449     13.5676     59.7250   1.1822906900e+02   6.2401761929e+01    0.2057141    0.1699264 -61.42 0.0003997061    1.120    0.107
        47 -12.1257    187.6889     31.1107   5.7798136340e+01   3.4393461250e+01    0.2869236    0.2027388  58.16 0.0008085222    1.373    0.272
        48 -11.9397    189.4470    178.5247   9.5259596273e+01   9.3281716726e+00     0.400357    0.3170838  49.40  0.001140618    1.345    0.257
