#   1 NUMBER                 Running object number                                     
#   2 MAG_AUTO               Kron-like elliptical aperture magnitude                    [mag]
#   3 X_IMAGE                Object position along x                                    [pixel]
#   4 Y_IMAGE                Object position along y                                    [pixel]
#   5 X_WORLD                Barycenter position along world x axis                     [deg]
#   6 Y_WORLD                Barycenter position along world y axis                     [deg]
#   7 A_WORLD                Profile RMS along major axis (world units)                 [deg]
#   8 B_WORLD                Profile RMS along minor axis (world units)                 [deg]
#   9 THETA_WORLD            Position angle (CCW/world-x)                               [deg]
#  10 FWHM_WORLD             FWHM assuming a gaussian core                              [deg]
#  11 ELONGATION             A_IMAGE/B_IMAGE                                           
#  12 ELLIPTICITY            1 - B_IMAGE/A_IMAGE                                       
         1 -15.0486      8.6783    145.6401   1.4296091005e+02   4.3834781508e+01     10.83881     4.816369  76.03   0.04839008    3.103    0.678
         2 -13.3991    197.3266     29.0810   6.7880943136e+01   3.2557140383e+01     1.403547     1.330216  29.71  0.007126143    1.300    0.231
         3 -13.4514    212.9807      9.5683   6.1362766021e+01   3.1041375834e+01     1.027361      0.85643  50.04  0.006512345    1.437    0.304
         4 -12.1579      2.3451     11.3046   1.1648477806e+02   7.0864908893e+01    0.6317233    0.1672592 -46.76  0.003051406    3.169    0.684
         5 -10.6811     46.5757    248.8343   1.4465336358e+02   1.7919713441e+01     0.267803    0.1459149  66.90  0.001097665    1.496    0.332
         6 -12.6746    247.6208    248.4011   1.0777091477e+02  -1.3851032097e+01    0.8652407    0.4839662  40.45  0.005072877    1.747    0.428
         7 -11.3520    138.7385    248.6626   1.2802940751e+02   3.9411410957e+00    0.3366171    0.2571977 -38.57  0.002062013    1.757    0.431
         8 -11.3833    122.7222    250.1292   1.3121962952e+02   6.3778111349e+00    0.4034845    0.1817347  41.03  0.001910488    1.945    0.486
         9 -10.1793    112.1235    250.4720   1.3322562354e+02   8.0520808841e+00    0.2340062    0.1059704  39.87  0.001127267    2.044    0.511
        10 -11.3507     98.4247    248.5524   1.3553479885e+02   1.0575945538e+01    0.3721143    0.2107243  54.01   0.00211029    1.443    0.307
        11 -10.9596    100.8561    245.8525   1.3480114297e+02   1.0685327715e+01    0.2164914    0.1683933 -86.46 0.0005225367    1.298    0.229
        12  -9.3412     66.6377    250.1107   1.4134380520e+02   1.5001592390e+01    0.2014308    0.1210355  57.30 0.0003954469    1.311    0.237
        13 -10.9977     29.0375    248.7251   1.4751602231e+02   2.0086482203e+01    0.4957363    0.2061314 -62.13  0.002765741    2.692    0.628
        14 -11.6847     35.2816    245.1580   1.4626664686e+02   2.0010410362e+01     0.584465     0.324733 -73.01  0.003782009    1.702    0.412
        15 -11.4540     12.3766    249.6458   1.5018309120e+02   2.1786012785e+01    0.5488132    0.1746669  38.88  0.002870942    3.159    0.683
        16 -10.0543      2.4676    249.5123   1.5167609405e+02   2.2845442651e+01    0.2339453    0.1270673  55.78  0.001194194    1.458    0.314
        17 -10.6887      2.5191    246.4722   1.5151927662e+02   2.3394239173e+01    0.2106917    0.1431255  84.93 0.0008975566    1.130    0.115
        18 -10.6940    156.6815    249.6932   1.2476654182e+02   7.0464476028e-01     0.217366    0.1787042  29.75 0.0007682451    1.244    0.196
        19 -11.3499    198.3776    246.7066   1.1644302053e+02  -5.9395919786e+00    0.3517071    0.2303358 -49.38  0.002018251    1.977    0.494
        20 -10.6112     50.2307    244.6444   1.4372125755e+02   1.8235331283e+01    0.1968375     0.143311 -89.86  0.001382585    1.204    0.170
        21 -10.2480     22.7853    245.3736   1.4830897944e+02   2.1429291998e+01    0.1566281    0.1019183  77.37  0.001120956    1.109    0.098
        22 -10.7143     18.7085    242.0806   1.4876212848e+02   2.2501669240e+01    0.2069113    0.1272356  69.65 0.0004136586    1.195    0.163
        23 -11.6601     12.9882    240.2190   1.4956489364e+02   2.3471329562e+01    0.3270705    0.1570458  41.09  0.001842303    2.122    0.529
        24 -11.2420      5.8654    240.9309   1.5072275859e+02   2.4079630065e+01    0.2591203    0.1731001  35.05 0.0007063199    2.063    0.515
        25 -10.5876    183.7902    238.8488   1.1798765228e+02  -2.2690836230e+00    0.2022148    0.1616825  23.39 0.0007721416    1.217    0.179
        26 -11.8751     21.6278    126.3056   1.3735006252e+02   4.7197052604e+01    0.4371096    0.2299972  49.36  0.001081865    2.279    0.561
        27 -10.9426    225.4470    249.2104   1.1185142422e+02  -1.0642741634e+01    0.3220643    0.1311164  28.96  0.001417196    2.635    0.621
        28 -10.8317     12.6721    232.9892   1.4919303306e+02   2.4884053546e+01    0.1595013    0.1421232 -81.08 0.0006768944    1.550    0.355
        29  -9.2349     55.0618    230.0643   1.4166799062e+02   2.0436315920e+01    0.2018403    0.1087979  67.84 0.0007780329    1.686    0.407
        30  -9.4273    150.6533    229.3166   1.2304134728e+02   5.2346326934e+00    0.1384408   0.09555399  68.75 0.0002543967    1.724    0.420
        31 -11.1966      5.4967    226.6471   1.4999078948e+02   2.6845813087e+01    0.2953737    0.1114462 -82.40  0.001611625    2.190    0.543
        32  -9.4097    171.6717    222.6756   1.1778628039e+02   2.5896707132e+00    0.1356991     0.102526   9.72 0.0003755337    1.697    0.411
        33 -12.5401      9.7081    207.1438   1.4804328595e+02   3.0349740721e+01    0.6201231    0.4828947  31.89  0.002933687    1.817    0.450
        34  -8.7519    152.5054    212.9971   1.2012641151e+02   7.9320512902e+00    0.1820134    0.1389248 -54.40 0.0003724339    1.454    0.312
        35 -11.6614     59.3386    198.5948   1.3771977498e+02   2.6485695214e+01    0.2751816    0.2249598 -66.77 0.0005007379    1.313    0.238
        36  -9.9191    192.4596    194.0263   1.0842863492e+02   3.8263576574e+00    0.7010792     0.352007 -65.80  0.001702769    7.954    0.874
        37 -11.9601     12.4735    195.4873   1.4669242065e+02   3.2526497464e+01    0.2595381    0.1749583  71.06 0.0002044583    1.241    0.194
        38 -11.9588     65.8130    190.2544   1.3537585425e+02   2.7461846456e+01    0.2779874     0.227737 -66.13 0.0004426415    1.267    0.211
        39 -13.0934     46.9437    215.0455   1.4182914952e+02   2.4559082543e+01     1.148481    0.9909006  12.59  0.007660103    1.937    0.484
        40 -13.2294     62.8928    175.4414   1.3411225689e+02   3.1251490776e+01     0.522065    0.2791207 -46.27  0.001820234    2.351    0.575
        41 -10.8496     76.3064    177.4013   1.3132575040e+02   2.8898612733e+01    0.2414512    0.2108538 -80.47 0.0003571738    1.080    0.074
        42  -9.9052     96.4890    173.3093   1.2600064682e+02   2.6668329772e+01    0.2563744    0.2270021  89.32 0.0006618331    1.021    0.020
        43 -11.7199     83.7061    168.3666   1.2822228965e+02   2.9888023035e+01    0.6330237     0.494149 -50.78  0.003483164    1.379    0.275
        44 -12.8172     32.2258    232.4110   1.4588763456e+02   2.2825250257e+01    0.2841065    0.2343967 -83.19  0.000765285    1.344    0.256
        45 -13.8594     37.3685    225.6454   1.4448155395e+02   2.3559783749e+01    0.7582934    0.5284443  67.21   0.00238685    1.143    0.125
        46 -10.1063     96.8422    152.4625   1.2221810464e+02   3.1521010127e+01    0.3025354    0.2849213   7.64 0.0009094903    1.294    0.227
        47 -12.0136     85.3319    151.5284   1.2495138817e+02   3.3626411979e+01    0.3102283    0.2501305 -46.81 0.0003376367    1.320    0.242
        48  -9.1089    100.0058    148.1500   1.2058043258e+02   3.2001796089e+01    0.2102219    0.1905989 -35.72  0.000338478    1.254    0.202
        49 -12.2410     67.4848    143.6121   1.2811088166e+02   3.8140827408e+01    0.6760745    0.4460251  69.15  0.002767968    1.819    0.450
        50 -10.7739    233.7823    236.8070   1.0827029766e+02  -1.0294617273e+01    0.2186725    0.1797042  81.65  0.001273379    2.377    0.579
        51 -10.4722     95.9697    134.6716   1.1886709195e+02   3.5891241836e+01    0.2533857    0.2098719 -43.58 0.0004164358    1.241    0.194
        52  -9.7848    109.0233    137.1574   1.1596495534e+02   3.2982530655e+01    0.3978544    0.2719377 -15.67  0.001608815    2.530    0.605
        53 -10.7099     30.1396    130.9645   1.3580047552e+02   4.5386153366e+01    0.2408401    0.1800278  42.21 0.0004850168    1.554    0.357
        54  -9.2308     77.3505    130.1935   1.2295576210e+02   3.9921890534e+01    0.2768912    0.1678769  63.14  0.001214705    2.222    0.550
        55  -9.7007     84.4654    126.6256   1.2026066382e+02   3.9675050569e+01    0.2853893    0.2143421  72.00 0.0008602132    1.609    0.379
        56  -8.7269    106.2837    123.9871   1.1370678340e+02   3.6558938843e+01    0.1937545    0.1760635 -55.80 0.0002882649    1.050    0.048
        57 -10.3254    167.9823    113.0902   9.5532160657e+01   2.5717593502e+01     0.328783    0.2754533 -82.40   0.00061684    1.361    0.265
        58  -8.9139    203.4498    111.4734   8.7793572003e+01   1.7644250932e+01     0.151064    0.1471819 -46.53 0.0002191101    1.049    0.047
        59  -9.2309     41.1616     96.3836   1.2639585626e+02   5.2165387495e+01    0.1979174    0.1544688  42.18  0.000757073    1.534    0.348
        60 -10.8747     50.4010    235.1971   1.4293900199e+02   2.0032367602e+01    0.2859481    0.1976565 -67.72  0.001590215    1.558    0.358
        61  -9.6551    158.2973     76.9592   8.7873268035e+01   3.5055876885e+01    0.2149217    0.1993811 -40.98 0.0004828895    1.107    0.097
        62 -11.3144      4.7160     70.0915   1.3268282725e+02   6.0480610275e+01    0.2197926    0.1487191 -49.03  0.001510337    1.111    0.100
        63  -9.0953     47.3150     69.7657   1.1774910356e+02   5.7062795323e+01    0.2512823    0.1376305  57.86 0.0009621231    4.531    0.779
        64  -8.8159     32.1157     62.3641   1.2106036946e+02   6.0028994773e+01    0.1518967    0.1057199  36.01 0.0009372563    1.784    0.439
        65 -11.7497      8.2756     52.5783   1.2728694389e+02   6.3665098746e+01    0.4046198    0.2094771  33.03  0.001753748    2.505    0.601
        66 -12.2995      3.4411     47.8061   1.2789755784e+02   6.4820718521e+01    0.4675026    0.2708516 -45.10  0.003127398    1.262    0.207
        67 -10.2516    171.7800    249.4055   1.2186544596e+02  -1.8378642605e+00    0.1921017    0.1023419  34.63  0.000964641    1.732    0.423
        68 -10.2754     81.8191    249.1274   1.3858998242e+02   1.2999933883e+01    0.1947616    0.1307073  68.19 0.0007938791    1.242    0.195
        69 -11.4171      3.1297     38.1846   1.2534187114e+02   6.6550369471e+01    0.2579086    0.1742554 -52.57  0.001563168    1.346    0.257
