#   1 NUMBER                 Running object number                                     
#   2 MAG_AUTO               Kron-like elliptical aperture magnitude                    [mag]
#   3 X_IMAGE                Object position along x                                    [pixel]
#   4 Y_IMAGE                Object position along y                                    [pixel]
#   5 X_WORLD                Barycenter position along world x axis                     [deg]
#   6 Y_WORLD                Barycenter position along world y axis                     [deg]
#   7 A_WORLD                Profile RMS along major axis (world units)                 [deg]
#   8 B_WORLD                Profile RMS along minor axis (world units)                 [deg]
#   9 THETA_WORLD            Position angle (CCW/world-x)                               [deg]
#  10 FWHM_WORLD             FWHM assuming a gaussian core                              [deg]
#  11 ELONGATION             A_IMAGE/B_IMAGE                                           
#  12 ELLIPTICITY            1 - B_IMAGE/A_IMAGE                                       
         1 -13.0869    197.4583     30.0855   6.4543273044e+01   3.2552811701e+01    0.8788844    0.7475564 -82.79   0.00548461    1.044    0.042
         2 -13.9691    208.7706     16.2446   6.0066916277e+01   3.1548498360e+01     2.087811     1.335657  32.71   0.01050027    2.709    0.631
         3 -11.4281      2.5584     15.4609   1.1358731126e+02   7.0554759162e+01    0.3944347    0.1922548 -50.09  0.002367637    2.346    0.574
         4 -10.7265      1.9996      4.9180   1.0948202492e+02   7.2015219238e+01    0.5191017     0.143399 -37.27  0.002645946    2.884    0.653
         5 -10.6232    189.6459     15.5586   6.2039310285e+01   3.6083858327e+01    0.2277483    0.1543996 -42.19 0.0008261818    1.570    0.363
         6 -10.6659    163.0896    249.5744   1.1944448235e+02  -1.2268228421e+00    0.3286458    0.1905544  58.20  0.001583701    2.157    0.536
         7 -11.6356    139.5305    248.7899   1.2402281253e+02   2.8915401638e+00    0.3571065    0.2723061 -86.91  0.002082889    1.645    0.392
         8 -13.9330     93.4519    246.9763   1.3289910506e+02   1.0762164002e+01     4.761352     3.006938  16.69   0.01430386    3.351    0.702
         9 -12.7755     35.8806    226.0847   1.4195435717e+02   2.3069778531e+01    0.3568541    0.3253477  87.49 0.0008004165    1.338    0.252
        10 -11.4503    152.0893    228.9426   1.1856601858e+02   4.3613354882e+00    0.5410323    0.1862072  37.95  0.001983778    2.771    0.639
        11 -13.9323     42.9264    217.2527   1.3981807936e+02   2.4108816483e+01     1.041582    0.6688308  64.01  0.004473143    1.360    0.265
        12 -12.0090     24.8493    224.1561   1.4386447240e+02   2.4757226974e+01    0.4045333    0.2828863  83.14  0.002707256    1.106    0.096
        13 -15.5110     51.2378    207.9927   1.3721149268e+02   2.5108370696e+01     12.70256     5.056494  77.29   0.03457852    6.847    0.854
        14 -10.9963     23.3218    213.4156   1.4331499613e+02   2.7226177871e+01    0.2605438    0.2305975  21.47  0.001179221    1.701    0.412
        15 -12.0578     53.8675    238.2990   1.3961252849e+02   1.8241714827e+01    0.7189352    0.1908302  49.50  0.002807373    3.138    0.681
        16 -10.6021    228.1985    204.8229   9.8879413404e+01  -4.7487948638e+00    0.3061084    0.2229655 -52.58 0.0005992834    1.709    0.415
        17 -10.4372    197.8356    247.1675   1.1224751040e+02  -6.5944358823e+00    0.1811063     0.136608  10.99   0.00108288    1.338    0.253
        18  -9.8409    192.9798    194.8564   1.0390389663e+02   3.3510335297e+00    0.6868024    0.3338613 -65.20   0.00145256   10.027    0.900
        19 -10.6506     53.0854    228.4361   1.3886612200e+02   2.0398039913e+01    0.2815842     0.173303  86.90 8.830605e-05    1.509    0.337
        20 -11.5830     62.3470    193.3916   1.3312022485e+02   2.6980642204e+01    0.3831947    0.2578596 -46.61   0.00129257    1.830    0.454
        21 -12.5601      3.4501    246.1140   1.4897523324e+02   2.2602148767e+01     1.980628    0.4475043 -77.79  0.008393464    3.854    0.741
        22 -11.7064     68.0626    186.1408   1.3085950345e+02   2.7892828960e+01      0.30559    0.2414503 -51.56 0.0005097256    1.416    0.294
        23  -8.3230    181.4732    192.4529   1.0585351436e+02   6.0344424517e+00    0.1449464    0.1376073  16.57 0.0001009289    1.026    0.026
        24 -11.0103     77.8523    174.2879   1.2677342374e+02   2.9305353075e+01    0.2583627    0.2264348 -64.40 0.0003390975    1.141    0.124
        25 -13.2236     64.9382    171.6867   1.2954247163e+02   3.1809334670e+01    0.5382565    0.2824459 -45.79  0.001484714    2.246    0.555
        26 -12.0247     85.3608    165.6226   1.2346623221e+02   3.0249756696e+01     1.000733    0.6064823  60.32   0.00447111    1.902    0.474
        27 -12.7901     67.3087    144.0193   1.2435364270e+02   3.8246988486e+01     1.012293    0.6482788  85.44  0.002624912    2.088    0.521
        28 -11.9468     57.6388    131.6691   1.2473868363e+02   4.2529051057e+01     1.945494    0.6622382 -71.78  0.004276189    8.312    0.880
        29  -9.8425     98.3265    149.7552   1.1711354467e+02   3.1967526184e+01    0.2735414    0.2585246 -43.81 0.0007386109    1.132    0.117
        30  -9.1717    101.2017    145.8273   1.1553821028e+02   3.2415913771e+01    0.2327577    0.1820323 -22.31 0.0004571124    1.659    0.397
        31 -12.0786     86.7905    148.9398   1.2002219971e+02   3.4107286562e+01    0.3039549    0.2489491 -44.98 0.0004994264    1.266    0.210
        32 -13.9130     28.1384    244.6552   1.4475373777e+02   2.0182097434e+01     2.663146    0.9018264  51.95   0.01331075    2.377    0.579
        33 -10.4942     97.0652    132.6457   1.1380013899e+02   3.6326439745e+01    0.2825485    0.2307493 -28.01 0.0004206415    1.404    0.288
        34  -9.4769    109.7362    135.6035   1.1100656957e+02   3.3309096472e+01    0.3344242    0.2463005 -16.96  0.001360082    1.926    0.481
        35  -8.5507    115.6766    128.6662   1.0778247086e+02   3.3799781257e+01    0.1579807    0.1232819 -12.75 0.0007050644    1.708    0.415
        36  -9.0259    106.8328    122.9025   1.0880635517e+02   3.6846240026e+01     0.211599    0.1933115 -29.77 0.0002907938    1.145    0.126
        37 -10.6470    167.9879    112.9687   9.0885956714e+01   2.5841006223e+01    0.3724214    0.2873291 -80.52 0.0007568921    1.588    0.370
        38  -9.4198    204.4491    110.9945   8.3050703003e+01   1.7788522705e+01    0.3336775    0.1793225  37.80  0.001279903    2.492    0.599
        39 -15.0532      9.5551    206.8499   1.4544278452e+02   3.0065558672e+01     9.590143    0.9641989 -73.41   0.01352033    7.463    0.866
        40  -9.7496     33.3275    109.1429   1.2760234830e+02   5.0493742410e+01    0.2754788   0.08094155 -54.73  0.001084625    2.540    0.606
        41 -10.6249     51.8426    233.4912   1.3956731193e+02   1.9501759666e+01    0.2904212     0.200856 -56.02  0.001173281    1.792    0.442
        42 -10.7225      1.7039     89.3386   1.3391995703e+02   5.7172850246e+01    0.4063238   0.06546991 -63.18  0.001440394    3.904    0.744
        43 -11.2232      2.5772     78.5597   1.3159099506e+02   5.9383246736e+01     0.583348   0.05056358 -56.60  0.002096443    3.871    0.742
        44  -9.1125    158.2990     77.6591   8.3605456468e+01   3.4952589643e+01    0.1549221    0.1150553 -75.46 0.0007035183    1.667    0.400
        45 -10.1361    249.1513    249.1619   1.0304943585e+02  -1.4493449429e+01    0.1913162    0.1351286   2.44  0.001251936    1.242    0.195
        46 -11.6159    124.3366    249.6149   1.2714856245e+02   5.2863197561e+00    0.4763664    0.1534748  39.74  0.001863708    2.729    0.634
        47 -11.4001    125.8857    244.9169   1.2623791428e+02   5.8956640300e+00    0.3374088    0.1941486 -47.06  0.001718814    2.129    0.530
        48  -9.5161    249.3328    231.3308   9.9919930736e+01  -1.2099860024e+01    0.1291353   0.08137347  -0.11   0.00070521    1.724    0.420
