#   1 NUMBER                 Running object number                                     
#   2 MAG_AUTO               Kron-like elliptical aperture magnitude                    [mag]
#   3 X_IMAGE                Object position along x                                    [pixel]
#   4 Y_IMAGE                Object position along y                                    [pixel]
#   5 X_WORLD                Barycenter position along world x axis                     [deg]
#   6 Y_WORLD                Barycenter position along world y axis                     [deg]
#   7 A_WORLD                Profile RMS along major axis (world units)                 [deg]
#   8 B_WORLD                Profile RMS along minor axis (world units)                 [deg]
#   9 THETA_WORLD            Position angle (CCW/world-x)                               [deg]
#  10 FWHM_WORLD             FWHM assuming a gaussian core                              [deg]
#  11 ELONGATION             A_IMAGE/B_IMAGE                                           
#  12 ELLIPTICITY            1 - B_IMAGE/A_IMAGE                                       
         1 -14.9133      6.2811     70.9594   8.5334842693e+01   6.0292180190e+01    0.9984521     0.577671 -51.06  0.005698406    1.330    0.248
         2 -15.4240    218.2482     16.4191   1.2552741784e+01   2.8149047924e+01     2.101666     1.393868 -23.86   0.01123411    1.778    0.438
         3 -13.5012    187.7431     11.2392   1.4591187116e+01   3.6279798627e+01    0.7132337    0.5863808 -33.98    0.0036623    1.338    0.253
         4 -14.2416    122.2527     36.1311   3.4194286608e+01   4.9790807464e+01     1.065485     0.589054  29.79  0.004437213    2.232    0.552
         5 -14.5316    188.9427     22.8938   1.7635307517e+01   3.4694975597e+01     1.472639     1.054168 -58.61  0.007758583    1.439    0.305
         6 -12.7141      7.7664      2.5995   6.3236021437e+01   7.2893257710e+01    0.4338181     0.272627  27.46  0.003012164    1.888    0.470
         7 -15.8231     11.0007     24.2916   7.0715709875e+01   6.9198200809e+01      1.59656    0.8350601 -30.42  0.006637809    1.605    0.377
         8 -14.6098     27.0944     11.6212   5.7509969700e+01   6.9793220040e+01    0.8445668    0.5021678  -4.64  0.005076376    1.717    0.418
         9 -13.0809     17.2084     10.9648   6.2130420992e+01   7.0863092976e+01    0.4105152    0.2603089 -51.99  0.001503962    2.099    0.524
        10 -14.5334    166.7598     28.4801   2.2556067765e+01   3.9721040454e+01      1.10319    0.8717847  55.08   0.00421001    1.184    0.156
        11 -14.5639    147.5151     29.5563   2.6357840652e+01   4.4489951520e+01     1.404863    0.6875333  61.36  0.004772514    1.895    0.472
        12 -12.3461    245.6073     29.9098   1.3018804381e+01   2.0138902386e+01    0.3667827    0.2280753 -43.07  0.002002971    1.441    0.306
        13 -13.2419    120.3586     25.9905   3.0985061510e+01   5.1525807411e+01    0.7875169    0.5137815  27.60  0.003856456    1.667    0.400
        14 -13.6326     87.4605     15.0830   3.5506231836e+01   5.9932904372e+01    0.8463565    0.5810135 -57.39   0.00426847    2.438    0.590
        15 -11.7662     71.0025     16.3460   4.1399543645e+01   6.2893997701e+01    0.2610389    0.1729835 -23.03 0.0007356609    1.461    0.315
        16 -12.4561     60.2805     15.0758   4.4745721415e+01   6.4862333935e+01    0.4915061    0.2766584  22.14  0.002286997    1.862    0.463
        17 -11.9044     46.8591     12.7800   4.9077150281e+01   6.7181800586e+01     0.261495    0.1939835  22.14   0.00153377    1.253    0.202
        18 -13.8796     42.0501      3.9505   4.6850668391e+01   6.8947645169e+01    0.6000859    0.4220408  12.02  0.003155135    1.209    0.173
        19 -11.9192     75.2956      8.9923   3.6660950219e+01   6.2943502664e+01    0.3064836    0.2067912 -20.87  0.001798398    1.478    0.323
        20 -11.9026    152.6520      8.6749   1.8684683431e+01   4.5444615218e+01    0.3124636    0.1905498  39.90  0.001535605    1.715    0.417
        21 -15.3725     98.8576     11.3264   3.0726262690e+01   5.7959732014e+01     1.450536    0.8389171  51.39  0.005341652    1.545    0.353
        22 -11.9576    118.9771      2.4310   2.2564503632e+01   5.4228496105e+01    0.3601689     0.234727 -89.95  0.001778082    2.108    0.526
        23 -12.1541     76.8468      2.3918   3.3177850356e+01   6.3300261520e+01    0.7627167     0.122398  46.50  0.002524565    4.236    0.764
        24 -11.6304     61.3154      1.4477   3.7932665036e+01   6.6215466975e+01    0.3057532     0.105414  47.94  0.001231155    2.721    0.633
        25 -11.3387    123.3946     10.5497   2.4647152230e+01   5.2464937407e+01    0.3478746    0.2062067 -78.60  0.001413616    3.113    0.679
        26 -12.0341     22.2995    165.9763   9.3443886646e+01   3.7583184972e+01    0.1753598    0.1290256 -83.93 0.0008073304    1.094    0.086
        27 -12.8363    109.2650    249.1180   8.4102077578e+01   9.3507188829e+00    0.4120896    0.2464108  58.75  0.002452383    1.494    0.331
        28 -12.7500     51.0775    248.5130   9.4359075295e+01   1.7611291276e+01    0.3436655    0.3038598  68.80  0.002757143    1.358    0.263
        29 -12.2910      2.8033    249.4955   1.0216388639e+02   2.2833100951e+01    0.3193458    0.1879933  63.96  0.001706971    1.171    0.146
        30 -13.8655      9.9071    246.1237   1.0092948811e+02   2.2707900211e+01    0.7668844    0.2935245  56.92  0.003939688    1.891    0.471
        31 -12.2524    164.0915    194.7544   6.5565934031e+01   9.5465364640e+00    0.3388372    0.1921479 -65.60  0.001353898    2.999    0.667
        32 -11.9913    198.8914    181.3485   5.5811154935e+01   5.2616822957e+00    0.2350138    0.2021582 -46.89  0.001222546    1.334    0.250
        33 -12.0095    111.1767    155.5419   7.0528505734e+01   2.7819347602e+01    0.5693433    0.3200746 -86.79  0.001859714    3.836    0.739
        34 -12.0375     76.8812    156.8221   7.9338816772e+01   3.3170810555e+01    0.3828993    0.2833891  34.20   0.00131826    1.505    0.335
        35 -13.3793     73.4982    153.0227   7.9589659687e+01   3.4556408901e+01     0.647575    0.4469382  29.84  0.002590677    1.701    0.412
        36 -11.6440     86.2648    152.2342   7.6214139565e+01   3.2820696221e+01     0.419589    0.2157596 -40.88  0.001680647    2.607    0.616
        37 -11.6032     61.2221    151.8731   8.2518438150e+01   3.6507914795e+01    0.2232744    0.1701839 -72.02 0.0004168052    1.174    0.148
        38 -12.8537     60.7311    147.3190   8.1962964305e+01   3.7648736456e+01    0.3275394    0.2842872 -25.32  0.001956429    1.496    0.331
        39 -11.7437    103.3946    149.8960   7.1417347007e+01   3.0514901952e+01    0.3640283    0.2441152 -36.87  0.001501207    1.846    0.458
        40 -12.3359      7.7134    149.7541   9.5276876370e+01   4.2469512508e+01    0.2959217    0.2415952  79.09  0.002137087    1.135    0.119
        41 -12.3444    244.5819    147.2041   4.0050323067e+01   2.2501920817e+00    0.3333022    0.1610337 -36.77  0.001474097    1.902    0.474
        42 -12.2898     41.8594    138.1055   8.5517044531e+01   4.2062195953e+01    0.4148949    0.2215394  61.49  0.001966576    2.263    0.558
        43 -12.6461    246.4604    134.9822   3.7044477541e+01   3.8818776952e+00    0.3833586    0.2500018 -64.65  0.001694357    2.548    0.608
        44 -14.2712    233.8648    127.9765   3.7552656506e+01   7.5513761846e+00     1.044322    0.5197607 -35.07  0.004463498    1.876    0.467
        45 -12.2077    136.0021    131.9568   5.9247978936e+01   2.8312685699e+01    0.5795977    0.2868064  40.49  0.002202451    2.068    0.517
        46 -12.2229    133.9020    126.4659   5.8470657456e+01   2.9981573025e+01    0.5245876    0.3421975 -30.96  0.002199638    1.861    0.463
        47 -10.6504     63.3003    138.6382   7.9908649417e+01   3.9379395777e+01    0.1439408   0.09716035  78.39  0.000703558    1.720    0.419
        48 -14.5498    105.3684    120.7429   6.4705272803e+01   3.6975435011e+01      1.52852     1.224768  34.38  0.007743344    1.332    0.249
        49 -14.9313    106.3478    105.5916   6.0672950297e+01   4.0259238758e+01     1.403481     1.203032  67.43  0.006260588    1.312    0.238
        50 -11.8872     87.7486    108.6984   6.6883081272e+01   4.2869076532e+01    0.4609221    0.2645751 -63.36  0.001962137    1.943    0.485
        51 -12.6461     78.5281    109.7942   6.9889054174e+01   4.4082407258e+01    0.5579903    0.3676236 -81.43  0.002491652    2.087    0.521
        52 -11.9341     86.5448    114.9402   6.8705770830e+01   4.1611786559e+01    0.3198492    0.2794125 -16.77  0.001060713    1.323    0.244
        53 -12.8276     82.2229    115.4018   7.0070809069e+01   4.2194498218e+01    0.3396891    0.2809189  49.23   0.00159212    1.291    0.226
        54 -12.7574     42.3279     90.4764   7.6940541416e+01   5.3176307129e+01    0.3041447    0.2285137 -58.49 0.0001666914    1.149    0.129
        55 -14.4715     24.7653     92.7144   8.3165325913e+01   5.4258231267e+01     1.148741    0.9293206 -36.39  0.006461888    1.268    0.211
        56 -12.2550     18.9553     86.2736   8.3873114555e+01   5.6145405836e+01    0.2437851    0.1940601 -49.11 0.0004825628    1.109    0.098
        57 -13.4485      2.2494     96.9401   9.0904847198e+01   5.4785569959e+01    0.7675716    0.2418827 -73.95  0.003289269    2.740    0.635
        58 -14.1364     18.4331    110.5456   8.8036270204e+01   5.0651370072e+01    0.8194329     0.565648 -58.81  0.003881244    1.211    0.174
        59 -12.1888    121.9826    112.0264   5.7994502040e+01   3.5704501785e+01    0.2451583    0.1934374  -4.24 0.0006912492    1.669    0.401
        60 -11.9162     63.2146    110.9186   7.4742424664e+01   4.5994247672e+01    0.3493469    0.2364567  58.32   0.00175583    1.798    0.444
        61 -12.0542    177.7531    110.0799   4.3895902117e+01   2.3463677537e+01    0.3894563     0.347793  28.52  0.001968576    1.177    0.151
        62 -14.2854     11.3493    102.3607   8.8936206167e+01   5.3022130216e+01    0.7912679    0.5775002 -65.65  0.004417426    1.074    0.069
        63 -11.1197     46.1991    109.9882   7.9697024105e+01   4.8253031950e+01    0.2290589    0.1214891 -42.97  0.001077996    1.954    0.488
        64 -11.1047     42.7182    106.5807   8.0111736086e+01   4.9421272104e+01    0.2147228    0.1336047  17.77  0.001113591    2.062    0.515
        65 -12.3800    136.1873    102.7927   5.1769157135e+01   3.4657851187e+01    0.5797749    0.2717557  50.19  0.002082321    2.217    0.549
        66 -11.7348      5.4741    119.5169   9.2803786899e+01   4.9486566812e+01    0.2964479    0.2095025 -16.35  0.001678339    1.992    0.498
        67 -13.6833    248.9117     95.6767   2.7724927084e+01   9.8006633580e+00    0.8905242    0.2458981 -38.83  0.003035492    3.053    0.672
        68 -12.2518     61.3444     97.8244   7.2420234819e+01   4.9288938955e+01    0.4495562    0.3185843  79.22  0.002220009    2.013    0.503
        69 -12.4827     49.1389     93.3596   7.5339069583e+01   5.1788465468e+01    0.3760642    0.2878114  82.37  0.002093826    1.664    0.399
        70 -12.4234     51.7882     98.3120   7.5582786152e+01   5.0349761408e+01    0.6216466    0.3437577 -17.49  0.002450047    3.438    0.709
        71 -11.7018     46.4945     98.5076   7.7316228888e+01   5.0898254767e+01    0.2241368     0.198528 -36.17   0.00132155    1.156    0.135
        72 -11.4377    163.4685     97.0394   4.3547307606e+01   2.9458858740e+01    0.2988517    0.2298567  72.56 0.0009717183    1.529    0.346
        73 -13.5616    137.0175     94.7978   4.9318880239e+01   3.6140947616e+01    0.5622773     0.458213  70.82  0.002416997    1.423    0.297
        74 -10.9888      1.7042    119.6387   9.3820142824e+01   4.9692949775e+01    0.1452949     0.113025 -33.19 0.0009984716    1.591    0.372
        75 -11.3633     35.2005     86.3294   7.8420066413e+01   5.4807959840e+01    0.2275649    0.1434363 -50.23 0.0006857237    1.320    0.242
        76 -12.9771    188.6195     83.8080   3.4640278332e+01   2.5745196161e+01     0.670374    0.3913504  39.93   0.00244926    1.970    0.492
        77 -13.9360    163.8573     71.4648   3.6121633087e+01   3.4110163821e+01      1.48956    0.9782242  53.98  0.006641052    1.486    0.327
        78 -13.3995    161.6266     79.6507   3.9013409137e+01   3.3209453697e+01    0.8621554    0.5593278  19.27  0.003317484    2.411    0.585
        79 -14.4706    169.2930     77.0249   3.6599840761e+01   3.1772549869e+01     1.232626    0.6427023  45.48   0.00388831    1.967    0.492
        80 -12.7911     28.4190    121.9043   8.6839472282e+01   4.7193621806e+01    0.3122297    0.2309024 -63.31  0.001938582    1.142    0.125
        81 -14.0446     56.5024     65.1057   6.5309237220e+01   5.7040258469e+01     1.451474    0.8490945 -19.69  0.006695926    2.269    0.559
        82 -13.4301     66.1077     49.1532   5.6447257495e+01   5.8750402345e+01    0.8337727    0.5751991 -38.93  0.004613616    1.353    0.261
        83 -13.9413     91.9402     57.9100   5.0671698871e+01   5.2792793245e+01    0.5468633    0.5082292  18.70  0.002812743    1.083    0.077
        84 -13.7460     87.4252     65.2310   5.4612190145e+01   5.2258481027e+01    0.9042124     0.587732   0.12  0.003010263    2.293    0.564
        85 -12.7394     54.9889     81.3287   7.0446888682e+01   5.3798022792e+01    0.6330512    0.4358928 -52.84  0.003466079    1.291    0.225
        86 -14.0147     61.1894     75.4232   6.6685912628e+01   5.4280903740e+01    0.8142601    0.5058939 -33.97  0.002927106    1.610    0.379
        87 -13.3444     71.1114     75.0985   6.3174971076e+01   5.2947204387e+01    0.5625743    0.4059933  -8.95  0.001097942    1.691    0.409
        88 -12.3977     77.2771     73.2857   6.0545017926e+01   5.2371276542e+01    0.6961762    0.3262944 -33.32  0.002683924    2.527    0.604
        89 -13.3571    239.1827     81.2930   2.5718876696e+01   1.4186162352e+01     0.716213    0.4174544 -84.40  0.002815601    2.990    0.665
        90 -11.2823    126.9070     83.0277   4.8530331400e+01   4.0799596509e+01    0.2822729    0.1588057  27.73 0.0006907309    2.540    0.606
        91 -12.1413    114.1017     80.0533   5.1179329351e+01   4.4162412582e+01    0.4562491    0.3433376 -47.86  0.001513641    1.359    0.264
        92 -13.8047    199.5273     69.5064   2.8802908769e+01   2.5458220267e+01    0.8964648    0.5319766  46.00  0.003283402    1.816    0.449
        93 -12.2677    199.7819     61.4122   2.6580452489e+01   2.6680455754e+01    0.4217433    0.3580749 -37.08  0.001559939    1.193    0.162
        94 -12.8627    212.3572     77.6783   2.8843481002e+01   2.0977112921e+01     1.053582    0.6220566  87.69   0.00402234    2.727    0.633
        95 -12.8537    216.3528     72.6242   2.6919213320e+01   2.0839820867e+01    0.6516451    0.4298989 -74.12  0.002901139    1.956    0.489
        96 -12.6570    135.3573     79.2228   4.5154399820e+01   3.9618765849e+01    0.7371032    0.3654768  52.40  0.002815162    2.072    0.517
        97 -11.1561     41.6327     76.1551   7.3788897219e+01   5.6430039530e+01    0.1930396    0.1728495 -62.84 0.0006892259    1.174    0.148
        98 -13.5116     28.7247    245.9942   9.7921076664e+01   2.0713888808e+01    0.4275103    0.2348198  72.73  0.002882503    1.445    0.308
        99 -14.2088      3.9958     63.1526   8.4610576343e+01   6.2069867742e+01    0.6480095    0.5045349 -30.01  0.001446968    1.283    0.221
       100 -11.2660     97.4869     78.5283   5.5650031729e+01   4.7778588477e+01    0.1459952    0.1385965 -21.48 2.202522e-05    1.013    0.013
       101 -12.6372     36.7590     92.9026   7.9294682641e+01   5.3174151177e+01    0.3948591    0.2543498  13.65  0.001494365    1.967    0.492
       102 -10.4223     98.2887     75.3112   5.4406844236e+01   4.8277859231e+01    0.1475473    0.1121793  -6.55  0.000156268    1.581    0.368
       103 -12.4246    241.6827     70.7419   2.2881909399e+01   1.5277842498e+01     0.433227    0.2762112 -77.85  0.002017905    2.048    0.512
       104 -13.1994    133.6392     65.8662   4.1416711975e+01   4.2473736840e+01     0.924498    0.6995171   7.59  0.003705238    1.661    0.398
       105 -11.1065    118.0958     72.1400   4.7572206792e+01   4.4850457098e+01    0.2322937    0.2019131   5.09  0.000578913    1.225    0.184
       106 -12.1501     38.9977     68.0905   7.2634403301e+01   5.8422579979e+01    0.4510752    0.1802178  35.15  0.002026875    2.859    0.650
       107 -11.9018     99.8330     64.9488   5.0585007008e+01   4.9985389436e+01     0.274143    0.2445238 -76.85  0.001489279    1.419    0.295
       108 -13.2618     79.0905     60.3728   5.5769006374e+01   5.4622906918e+01    0.6324376    0.4446147 -32.94  0.003286602    1.341    0.254
       109 -13.8006    177.8015     56.3597   2.8926323289e+01   3.3040052616e+01     1.049068    0.5994191 -45.81  0.003996792    1.818    0.450
       110 -12.3082     34.8697     59.8811   7.1913188011e+01   6.0527631708e+01    0.4994386    0.1158304 -45.98  0.001813969    3.321    0.699
       111 -11.7809     24.9037     59.1842   7.5609803167e+01   6.1543880521e+01    0.3798719    0.1708472 -50.99  0.001948096    1.725    0.420
       112 -14.6271    119.8525     54.0956   4.1116176250e+01   4.7651370270e+01      1.00229    0.6686893  36.32   0.00472068    1.523    0.343
       113 -13.1380    248.3377     51.8545   1.7698024491e+01   1.6585634127e+01    0.7490476    0.3943911 -32.78  0.003566504    1.845    0.458
       114 -11.3960     17.7064     55.4715   7.7474928457e+01   6.2842256114e+01    0.3075174    0.1387379 -61.64  0.001546659    2.029    0.507
       115 -11.6781    230.6342     54.9408   2.0513934388e+01   2.0160085441e+01     0.409817    0.2076113  74.27  0.001739481    2.290    0.563
       116 -13.7207    103.2436     50.5390   4.4574753029e+01   5.1828362116e+01    0.9000864    0.4108086 -41.16  0.002464505    2.265    0.559
       117 -13.7135     98.1103     49.8887   4.5894706378e+01   5.2979846700e+01    0.9040464    0.4029176 -38.99  0.003314773    2.242    0.554
       118 -12.0384    135.8158     49.7397   3.5600611294e+01   4.4607814323e+01    0.4335155    0.2689693  35.23  0.001732093    1.764    0.433
       119 -10.4663     23.6743     49.7273   7.3435228092e+01   6.3544313625e+01    0.1236489   0.07399724 -28.67 0.0003141325    1.580    0.367
       120 -13.1893    157.4054     43.5961   2.8929212717e+01   4.0139496218e+01     0.882343    0.5483878  32.53  0.003822246    1.968    0.492
       121 -11.5419     38.9651     45.9953   6.5923574918e+01   6.2831687411e+01    0.1910787    0.1574366 -30.03 0.0005153463    1.039    0.037
       122 -13.5396    171.1761    243.1253   7.1769149933e+01   2.9426977754e-01    0.6029916    0.3615019  28.50  0.003343901    1.620    0.383
       123 -14.5403    212.7462     40.8851   1.9293123912e+01   2.6439096550e+01     2.425053     0.751834  71.15  0.007478618    4.059    0.754
       124 -14.2748     97.4561    239.3723   8.5297689642e+01   1.2811772623e+01    0.7069647    0.5356203  65.76  0.004727613    1.134    0.118
       125 -12.0826     11.7149     43.4743   7.6657435481e+01   6.5624888505e+01    0.3664787    0.1911227 -10.78  0.002009761    2.332    0.571
       126 -12.7717      3.6127     42.8167   7.9972339613e+01   6.6218230077e+01    0.4430647    0.3014369  -6.38  0.003046395    1.605    0.377
       127 -11.8426    135.4002     39.3759   3.2203797618e+01   4.6215495475e+01    0.5656539     0.252952  62.84  0.001936636    2.463    0.594
       128 -12.6835    109.9767     41.9024   3.9512911064e+01   5.1745749784e+01    0.4809158    0.2013336  47.70  0.000739211    2.240    0.554
       129 -13.2400    113.6264     37.7520   3.7001637429e+01   5.1537614368e+01    0.3925312    0.3343207  39.39  0.001296312    1.096    0.088
       130 -12.5941     24.4345    216.8565   9.6919808840e+01   2.6627885625e+01    0.6302711    0.2590854  58.78  0.003448225    2.060    0.515
       131 -13.1871    131.6468     33.2524   3.0949173241e+01   4.7942336463e+01    0.6001944    0.4473749   1.84  0.001988201    1.573    0.364
       132 -11.5039     35.3013     34.7923   6.3458440251e+01   6.5241299095e+01    0.5379471    0.2350172  13.11  0.002232286    3.634    0.725
       133 -12.7509     33.0180     40.3312   6.6455168142e+01   6.4489886480e+01    0.3324668    0.2335401   1.44 0.0006576078    1.479    0.324
       134 -12.3632     41.5783     39.8244   6.2659940856e+01   6.3666796195e+01    0.4761871    0.3057108  -7.86   0.00221453    1.725    0.420
       135 -13.0140     45.9193     33.4984   5.8439217454e+01   6.4232664301e+01     0.611446    0.5328942 -47.63    0.0040706    1.461    0.316
       136 -13.9705     26.2285    226.5270   9.7208271276e+01   2.4565446756e+01    0.6473976    0.3559761 -58.06  0.003971707    2.334    0.571
       137 -12.6269     75.8270     36.9736   4.8338307371e+01   5.9205574707e+01    0.4329466    0.2805955  30.25  0.001290488    1.524    0.344
       138 -11.8122     70.7610     35.9981   4.9755443182e+01   6.0214286727e+01    0.2803487    0.2563865 -72.28 0.0008756891    1.614    0.380
       139 -13.6812    241.7251     35.1268   1.4578269802e+01   2.0340584018e+01    0.9125975     0.542272 -84.75  0.003636453    1.866    0.464
       140 -12.5268     27.3058     32.4341   6.6105913957e+01   6.6450227173e+01    0.4221414    0.2585962  24.53  0.001840638    1.786    0.440
       141 -13.9749     20.6928    224.0798   9.8023521353e+01   2.5626599928e+01    0.6143736    0.4143343  53.73  0.004465469    1.296    0.228
       142 -14.6682     66.2248    223.0538   8.9638037871e+01   2.0338277027e+01     1.037902    0.6736924  55.46  0.006512328    1.261    0.207
       143 -14.1285     64.5510    214.2930   8.9151471375e+01   2.2292857948e+01    0.5568555    0.3526794  56.33  0.003368584    1.326    0.246
       144 -13.0549     59.3974    212.7787   9.0021996580e+01   2.3283457276e+01     0.387472    0.2288817 -53.72  0.001456314    2.126    0.530
       145 -12.9811     94.2260    218.2976   8.3664035023e+01   1.7205115140e+01    0.2841416    0.1904845  55.66  0.001363979    1.268    0.211
       146 -11.0471    136.6077    210.8294   7.3975277887e+01   1.1596172427e+01    0.1759322    0.1272431 -72.83 0.0009454903    1.708    0.415
       147 -12.8888     72.1808    206.7611   8.6867492153e+01   2.2771990380e+01    0.3144035    0.2322935  68.55  0.001956474    1.158    0.137
       148 -12.6866     41.5113    206.1541   9.2941809460e+01   2.6862436302e+01    0.2496926    0.1445935  66.97  0.001477274    1.510    0.338
       149 -13.4387     56.0565     26.9183   5.1607178400e+01   6.3889832168e+01    0.7198789    0.3414764  35.75  0.003104582    2.123    0.529
       150 -12.1832     64.4685     24.5089   4.7332214201e+01   6.2938857335e+01    0.3097098    0.2463408 -24.36  0.001240704    1.224    0.183
       151 -13.3962    141.3429     21.5891   2.4907334902e+01   4.6961684747e+01     1.198967    0.3624925  64.12  0.003430208    3.307    0.698
       152 -12.3373     30.7654     25.3102   6.1759926047e+01   6.7311140814e+01    0.3364324     0.165071  14.53  0.001698929    2.468    0.595
       153 -12.1052     36.2684     23.5669   5.8546027609e+01   6.6987817836e+01    0.3175043    0.1511547 -37.31  0.001686859    1.814    0.449
       154 -11.8406    104.2459     36.1907   3.9011798235e+01   5.3807604872e+01     0.241553    0.1696842 -23.71 0.0006483932    1.456    0.313
       155 -12.6217     57.5571    202.0935   8.9379285990e+01   2.5720638459e+01    0.7051311    0.2548045 -75.52  0.002948026    3.072    0.675
       156 -12.3356     49.1891     20.1230   5.1454890199e+01   6.5858093669e+01    0.5721345    0.1501406  40.34  0.002163252    4.027    0.752
       157 -12.8417     17.0849    195.3785   9.6860506538e+01   3.1726010471e+01     0.486343    0.1723938 -65.80   0.00245392    2.494    0.599
       158 -12.7585     40.2587    194.6402   9.2210840547e+01   2.9416882969e+01    0.4472213    0.2569973  86.91  0.002212785    1.607    0.378
       159 -12.2902     36.5179    194.4940   9.2956738849e+01   2.9873891817e+01    0.2583689    0.1724667 -88.51  0.001537524    1.263    0.208
       160 -11.0129     40.5369     12.5547   5.1709699840e+01   6.8067995521e+01    0.1494881    0.1353733 -22.61 1.337045e-05    1.439    0.305
       161 -13.5095     30.0705    169.3200   9.2035285348e+01   3.6071988637e+01    0.8107221    0.4769798 -42.03  0.004276023    2.501    0.600
       162 -10.1315     55.3474     11.2861   4.4904473225e+01   6.6110422885e+01     0.128329   0.07952082  11.18 0.0007020873    1.653    0.395
       163 -13.6891     22.1387    180.8045   9.4759147466e+01   3.4329178052e+01    0.7981355    0.3192979 -60.05  0.003998683    2.412    0.585
       164 -15.2009      8.6490    183.1772   9.7672592471e+01   3.5073648639e+01     1.127493    0.8777342  80.87  0.008355778    1.068    0.063
       165 -14.9280     15.7096    174.5540   9.5597298367e+01   3.6297226385e+01     1.686184    0.5694146  52.03  0.007903724    2.827    0.646
       166 -11.8660     49.1061    181.0656   8.9028491636e+01   3.1322854351e+01    0.2930906    0.1840076 -64.38  0.001679239    1.524    0.344
       167 -12.3560     84.4162    178.7031   8.0780207638e+01   2.7014702967e+01    0.2628242    0.1270464 -68.51  0.001148527    2.174    0.540
       168 -13.0858    124.2621    166.1240   6.9323955463e+01   2.3012116476e+01    0.6158882    0.3854293 -65.20  0.002773416    1.828    0.453
