#   1 NUMBER                 Running object number                                     
#   2 MAG_AUTO               Kron-like elliptical aperture magnitude                    [mag]
#   3 X_IMAGE                Object position along x                                    [pixel]
#   4 Y_IMAGE                Object position along y                                    [pixel]
#   5 X_WORLD                Barycenter position along world x axis                     [deg]
#   6 Y_WORLD                Barycenter position along world y axis                     [deg]
#   7 A_WORLD                Profile RMS along major axis (world units)                 [deg]
#   8 B_WORLD                Profile RMS along minor axis (world units)                 [deg]
#   9 THETA_WORLD            Position angle (CCW/world-x)                               [deg]
#  10 FWHM_WORLD             FWHM assuming a gaussian core                              [deg]
#  11 ELONGATION             A_IMAGE/B_IMAGE                                           
#  12 ELLIPTICITY            1 - B_IMAGE/A_IMAGE                                       
         1 -13.2410     47.1166     27.0779   5.0380122714e+01   6.8236344059e+01     0.348299    0.3239185  89.15  0.001143973    1.385    0.278
         2 -12.6094     22.1520     31.2307   6.7163386884e+01   7.1436948870e+01    0.3376959    0.2355914 -33.03 0.0005471233    1.357    0.263
         3 -13.2163     31.8710     32.2697   6.1484735132e+01   6.9914411402e+01    0.4515498    0.3459791 -28.04   0.00247385    1.265    0.209
         4 -13.0782     84.3280     23.9802   3.4648160410e+01   6.0592716534e+01    0.5404311    0.3442075 -62.35   0.00167596    2.142    0.533
         5 -10.9677    114.2250      7.0054   2.1132368351e+01   5.4921557545e+01     0.199615     0.173906  87.02            0    1.039    0.038
         6 -12.5330    120.9893     13.1546   2.2432417154e+01   5.2650124455e+01    0.2609029    0.2485005  75.82 0.0005142583    1.095    0.087
         7 -12.1913    117.1327     10.8320   2.2153087544e+01   5.3844109018e+01    0.2629975    0.2265714 -67.36 0.0003470053    1.149    0.130
         8 -11.9032     90.5055     11.5197   2.7393994166e+01   6.0453465410e+01    0.2207874    0.1761193 -21.13 0.0007153066    1.397    0.284
         9 -11.6686     92.3188      8.3162   2.5557039896e+01   6.0302132382e+01    0.2885702    0.1848284  32.26 0.0006302306    1.794    0.443
        10 -12.6562     88.4294      4.4003   2.4579740671e+01   6.1601089724e+01    0.3616086    0.2634602 -83.44 0.0004865759    1.496    0.332
        11 -11.2950     45.4663     12.0327   4.2541229808e+01   7.0675039359e+01    0.1887656    0.1257156 -25.86  0.001026125    1.582    0.368
        12 -11.2375     54.9219     10.7824   3.7683031974e+01   6.8848132263e+01    0.2523372     0.204129  21.47  0.001083371    1.223    0.182
        13 -12.2417     82.3339      9.4992   2.8374296873e+01   6.2645006134e+01    0.2761312     0.208418  33.81  0.001551884    1.377    0.274
        14 -10.2993     40.3451      9.6959   4.3587159096e+01   7.1973426440e+01     0.120104    0.1032056 -84.63 0.0007040811    1.688    0.408
        15 -10.6371    103.6262      7.8076   2.3173870263e+01   5.7522449223e+01    0.1820897    0.1166876 -38.22 0.0009436272    1.650    0.394
        16 -10.9043    106.7761      4.8766   2.1443646469e+01   5.6979706473e+01    0.2274548     0.128498 -53.30  0.001092378    1.952    0.488
        17 -10.9786      5.0194      3.4561   6.4329552130e+01   7.8432026223e+01    0.2239399       0.1394 -26.74  0.000491098    1.524    0.344
        18 -10.5994    133.7604      3.3545   1.7296204027e+01   5.0320720559e+01    0.1897092     0.103162  66.39 0.0009407364    1.645    0.392
        19 -11.1563    101.1896      2.0278   2.1170547695e+01   5.8611931417e+01     0.246511    0.1720932  72.99 0.0008780522    1.265    0.210
        20 -11.0224     59.9816    235.2224   9.0778220367e+01   1.7543093369e+01    0.1798267    0.1326819  44.34 0.0002353725    1.119    0.107
        21 -13.1427    246.9804    249.1492   5.5775562308e+01  -5.9295203732e+00    0.3366883    0.1879254  13.83 0.0009335896    1.500    0.334
        22 -11.3520     94.4494    249.9568   8.4421866989e+01   1.0828598304e+01     0.272843    0.1509254  51.76 0.0008000648    1.961    0.490
        23 -11.1081     85.4580    250.5418   8.6408030850e+01   1.1785436626e+01    0.2273365    0.1300742  37.32 2.413243e-06    1.384    0.277
        24 -12.0020     85.4638    246.7406   8.6069098766e+01   1.2450095842e+01    0.3684705    0.1852644  40.29  0.000866578    1.624    0.384
        25 -11.4431     70.4809    248.3453   8.9467436930e+01   1.3898040541e+01    0.2932076    0.2405196  -6.79  0.001282349    1.510    0.338
        26 -12.8407     67.8827    244.7148   8.9751045336e+01   1.4852976847e+01    0.4775372    0.2963215 -37.94  0.002613744    2.272    0.560
        27 -12.4730     51.6424    250.1513   9.3673348377e+01   1.5644487613e+01    0.2540509     0.179508  46.68  0.001522023    1.145    0.126
        28 -12.0684     42.7068    249.9809   9.5579704336e+01   1.6612354617e+01    0.2482672    0.1807356  18.53   0.00163456    1.449    0.310
        29 -14.3978     38.3486    225.5922   9.5078856237e+01   2.1828341860e+01     1.666118     1.394936 -43.83   0.01102253    1.530    0.346
        30 -14.6655     27.6986    246.7644   9.8618473207e+01   1.8712510392e+01     1.568841    0.6439703  12.44  0.006188454    4.305    0.768
        31 -14.8092     18.1661    207.8965   9.8863129842e+01   2.7611146866e+01     1.954205    0.7214592  81.62  0.007900962    3.213    0.689
        32 -14.2967     26.6082    233.7727   9.8225457263e+01   2.1341524827e+01    0.6280081    0.3507046 -83.58  0.003637014    1.921    0.479
        33 -17.2138      9.7768    238.1675   1.0209875219e+02   2.2023970112e+01     2.517074     1.587078  83.56   0.01631014    1.556    0.357
        34 -15.3477     16.7561    227.7053   1.0015009611e+02   2.3499322197e+01     1.071824    0.4004527  45.97  0.005323025    2.006    0.502
        35 -12.8846     63.5952    232.9027   8.9768806256e+01   1.7583721389e+01    0.5170804    0.2469894  47.85  0.002215723    1.865    0.464
        36 -10.5671    239.9587    239.5018   5.5451245069e+01  -4.2123696583e+00    0.1402873   0.08364336  19.46 0.0003787617    1.502    0.334
        37 -10.5647    147.8266    239.1604   7.1944838412e+01   6.0652696123e+00    0.1640103    0.1184219   6.61 0.0004382523    1.280    0.218
        38 -12.0481     97.4976    234.8727   8.2248695977e+01   1.3123539111e+01    0.2542517    0.2352571 -38.83 0.0006754671    1.271    0.213
        39 -12.1175    103.4699    232.7972   8.0685733104e+01   1.2750663567e+01    0.3780285    0.2415324 -22.07  0.001992134    2.180    0.541
        40 -11.4467    100.6497    227.2357   8.0699554960e+01   1.4139725291e+01      0.23391    0.1712408  62.76  0.000606818    1.642    0.391
        41 -13.8428    114.0545    227.5764   7.7707114318e+01   1.2338281499e+01    0.5590779    0.3744098 -33.20  0.003170782    1.770    0.435
        42 -12.4532    106.1373    227.2426   7.9451320278e+01   1.3429691255e+01     0.311869    0.2187587  31.70 0.0002782647    1.205    0.170
        43 -10.2806     84.7638    237.6683   8.5385419536e+01   1.4174209631e+01    0.1112507    0.0895572 -18.07 0.0002726593    1.533    0.348
        44 -13.4065    219.6245    230.4583   5.7351994476e+01  -1.0781690567e+00    0.3568941    0.2238975 -12.27  0.001658138    1.354    0.261
        45 -11.4861    214.0632    233.3595   5.8717953751e+01  -8.5485235632e-01    0.2106585    0.1668042   6.82 0.0004346897    1.190    0.160
        46 -11.0815    182.0810    231.1357   6.4099147952e+01   3.0841410619e+00    0.3017229    0.1395033 -28.87  0.001497642    2.365    0.577
        47 -12.3765    126.1217    231.7075   7.5558335301e+01   1.0039254910e+01    0.3590541    0.2240877 -13.37  0.001306386    2.172    0.540
        48 -11.8709    130.3209    232.3177   7.4729106767e+01   9.3934021544e+00    0.2501098    0.1317873  35.56  0.001317365    1.640    0.390
        49 -11.7235    133.4551    230.4981   7.3822865879e+01   9.2976064196e+00    0.2442727    0.1489092 -33.91 0.0009105133    1.872    0.466
        50 -10.8841    193.5910    230.8816   6.1934390153e+01   1.7627277932e+00    0.2532727    0.1654028  13.04  0.001637584    1.316    0.240
        51 -11.1000    178.0698    228.4119   6.4460504130e+01   3.9680334494e+00    0.1823409    0.1372441 -11.42 0.0003432468    1.194    0.162
        52 -11.5709    149.5871    229.2691   7.0258394913e+01   7.4179247080e+00    0.1638672    0.1068279 -30.68 0.0009507995    1.642    0.391
        53 -10.6473     84.5981    229.4291   8.4619178253e+01   1.5749228741e+01    0.2427408   0.09733518  34.23   0.00110387    1.991    0.498
        54 -11.5873    232.3900    227.9337   5.4901836561e+01  -2.0928441682e+00    0.2114439    0.1603926  23.17 0.0009709423    1.502    0.334
        55 -10.7986    162.6422    246.8706   7.0000323821e+01   3.1229515563e+00    0.2019088    0.1314461  10.78  0.001273833    1.359    0.264
        56 -11.5049    248.6368    225.8893   5.2101053434e+01  -3.4573259608e+00    0.1426013   0.08096822 -36.94 0.0009510646    1.829    0.453
        57 -11.1874     91.4952    225.3776   8.2601725949e+01   1.5665844073e+01    0.2515511    0.1518171  63.95  0.001251724    2.208    0.547
        58 -11.0210     83.1798    224.3835   8.4436877037e+01   1.6909236916e+01    0.2927487    0.2092828 -55.95  0.001354341    1.610    0.379
        59 -11.6214     71.5066    233.5753   8.8014469424e+01   1.6531698211e+01    0.2235658    0.1632774  37.47 0.0005295271    1.125    0.111
        60 -10.8731    212.5409    223.5861   5.7491611167e+01   5.9300969399e-01    0.2385265    0.1304407 -18.34  0.001397327    1.774    0.436
        61 -12.1761    159.5532    222.0282   6.7178322721e+01   7.3011701893e+00    0.3695262    0.1909591  28.71 0.0009042362    1.715    0.417
        62 -12.2291    173.8609    220.0055   6.4016167193e+01   5.7710076833e+00    0.3534093    0.2630114 -64.11  0.002049526    2.307    0.567
        63 -13.3916    125.6222    221.0516   7.4290657583e+01   1.1988977964e+01    0.4874094    0.3161949   6.89 0.0008581302    1.771    0.435
        64 -10.9121    237.4939    221.4792   5.3108482507e+01  -1.8183248725e+00    0.1103968   0.07917184  -8.40  0.000810257    1.014    0.013
        65 -11.7355    223.3181    220.3269   5.5183916965e+01  -1.6999238510e-01    0.1898569    0.1504093  -7.56 0.0003043483    1.131    0.116
        66 -11.7704    189.6940    220.2311   6.1034253997e+01   3.7502450371e+00    0.2444627    0.1557955   2.03 0.0007998326    1.553    0.356
        67 -12.2406     48.9048    203.1667   9.0817966468e+01   2.5536787701e+01    0.3327846    0.2802025  -9.74  0.001314159    1.490    0.329
        68 -13.2036     87.8815    214.6805   8.2270133755e+01   1.8258933658e+01    0.6027792    0.5745462  89.19  0.003979038    1.175    0.149
        69 -12.8273     77.4295    218.9478   8.5243781207e+01   1.8719803687e+01    0.2870794    0.2489006  61.13  0.000531541    1.164    0.141
        70 -15.8653     68.9991    184.2395   8.3505697548e+01   2.7473327640e+01     2.102999     1.877081 -16.53   0.01221408    1.308    0.235
        71 -14.2638     79.1933    211.7442   8.4056586140e+01   1.9990442819e+01     1.402092    0.6272331  18.18  0.005528613    2.892    0.654
        72 -14.1307     52.6687    188.9012   8.8482638006e+01   2.8405572371e+01     1.148698    0.5050707 -47.44  0.004637048    2.831    0.647
        73 -13.2767     50.0068    182.7885   8.8583997568e+01   3.0185004340e+01    0.6492261    0.4719958  -8.04  0.003310867    1.859    0.462
        74 -15.1912     91.6819    184.0872   7.7374663497e+01   2.4357603882e+01     1.655102    0.8176858  29.48  0.007070185    1.949    0.487
        75 -13.8844     61.0761    204.6232   8.7847085520e+01   2.3788165813e+01    0.9896205    0.6266227  32.78  0.004707197    1.403    0.287
        76 -14.9214     95.6024    195.1565   7.7919403292e+01   2.1330127642e+01     1.282661    0.7315797  40.89  0.004616523    1.609    0.378
        77 -14.2586     76.7760    202.9165   8.3675838294e+01   2.2196355445e+01     0.743156    0.5247386   6.81  0.002333609    1.723    0.420
        78 -10.8668    194.4547    219.9610   6.0117069179e+01   3.2090643234e+00    0.1967986    0.1429874  27.61 0.0006692515    1.377    0.274
        79 -11.2826    231.1313    218.5019   5.3638545642e+01  -7.7775592730e-01    0.1639395    0.1361506 -18.95  0.000819893    1.352    0.260
        80 -10.3866     83.4050    219.4128   8.3863887955e+01   1.7873382864e+01    0.1279832    0.1104705  37.09 7.927111e-05    1.003    0.003
        81 -12.3386    145.8836    216.5195   6.9226233154e+01   1.0048163299e+01    0.3725502    0.3093246  36.18   0.00236889    1.257    0.204
        82 -13.1587    141.5986    211.1274   6.9356503132e+01   1.1590843017e+01     0.550924     0.360676 -64.70 0.0007374014    2.242    0.554
        83 -14.0222    110.4629    214.7883   7.6922117863e+01   1.5219211647e+01    0.6125284    0.4608016  42.83  0.003585064    1.272    0.214
        84 -13.5544    118.3638    211.2145   7.4607547692e+01   1.4821937606e+01    0.5636111    0.3396175   3.62   0.00211848    2.341    0.573
        85 -10.9832     59.0597    214.6992   8.9291831133e+01   2.1833646414e+01    0.2295618    0.1935265 -26.27  0.001048036    1.490    0.329
        86 -12.1281     54.5828    213.6949   9.0302553922e+01   2.2567922282e+01    0.2735594    0.2309767  58.90 0.0009662082    1.089    0.082
        87 -13.2965     48.5342    213.0927   9.1740101250e+01   2.3381716778e+01    0.8325742    0.3180902 -64.95  0.003403326    2.712    0.631
        88 -12.2437    155.1614    211.7114   6.6537317785e+01   9.6095739609e+00    0.4298662    0.3418142 -34.14  0.002691719    1.307    0.235
        89 -12.4061    124.9835    213.0881   7.3347880299e+01   1.3545131575e+01    0.2785198    0.1806259 -40.95 0.0008340427    1.688    0.408
        90 -11.8132    248.4163    212.3395   5.0018848255e+01  -1.8045738105e+00    0.2857146    0.1480374  -0.46  0.001643849    2.254    0.556
        91 -11.2799    162.0649    212.9865   6.5301509871e+01   8.4536602028e+00    0.1914809    0.1570071   2.95 0.0003508879    1.062    0.058
        92 -13.8863     99.3440    208.5902   7.8766504462e+01   1.7973812604e+01    0.9289669    0.5294664  16.20  0.004313204    2.047    0.512
        93 -11.1949    209.8502    211.6272   5.6059160263e+01   2.5492263042e+00    0.1509949   0.09908015  35.30 0.0005441541    1.728    0.421
        94 -10.4831    188.2841    211.6813   5.9948079546e+01   5.2074142945e+00    0.1015041   0.09851953  55.23 0.0002232789    1.588    0.370
        95 -12.2836    229.2580    208.8313   5.2386175692e+01   6.8877453191e-01    0.3656107    0.2052497 -21.86  0.002258103    1.542    0.352
        96 -11.4992     26.0659    208.5967   9.6962739602e+01   2.6712891682e+01    0.2435243    0.1573818 -86.95 0.0008104249    1.558    0.358
        97 -11.3780    181.7871    207.9292   6.0575468558e+01   6.6354492102e+00    0.3149949    0.1673862 -20.02  0.001519577    2.303    0.566
        98 -14.0488     68.7596    207.7388   8.6220254662e+01   2.2163174959e+01    0.6179381    0.4481565 -22.09  0.002361186    1.870    0.465
        99 -12.8158     27.0172    224.1920   9.7630397508e+01   2.3259227579e+01    0.4759366    0.3026898  56.40  0.002270445    1.338    0.253
       100 -11.3037    160.4218    206.2943   6.4589388736e+01   9.8118295945e+00    0.2099481    0.1612946 -50.08  0.001249314    1.556    0.357
       101 -10.9711    205.0334    206.0714   5.5988410515e+01   3.9341485201e+00    0.1751164    0.1382366  -5.66            0    1.010    0.010
       102 -11.8364    123.8788    205.4336   7.2509714817e+01   1.5162672728e+01    0.2252352     0.184264 -34.18 0.0003320785    1.306    0.234
       103 -10.9891     36.3290    191.6726   9.3136232557e+01   2.9568312187e+01     0.365629    0.2402779  27.69  0.001962844    1.479    0.324
       104 -12.3374     31.4355    203.4070   9.5286632947e+01   2.7349219488e+01    0.7376392    0.2796179  86.54  0.002793266    3.514    0.715
       105 -13.4366     26.4997    193.1512   9.5853598841e+01   3.0208679958e+01    0.8492867    0.2702904 -81.03  0.003153306    3.415    0.707
       106 -11.1821     36.9463    184.7412   9.2386035375e+01   3.1163898830e+01     1.032241    0.3703396  85.60  0.003092561    5.002    0.800
       107 -12.0875     31.6014    187.1369   9.4045468174e+01   3.1136782352e+01     0.567102    0.2570792 -82.27  0.001262668    2.312    0.568
       108 -12.4736     29.2121    181.7906   9.4277408625e+01   3.2672094819e+01    0.4912632    0.3186265   8.33  0.001482259    1.923    0.480
       109 -10.5752    247.3011    205.3001   4.9049158514e+01  -8.1100828787e-01    0.1113921   0.06541031  -8.63 0.0007000417    1.583    0.368
       110 -11.4916    145.5266    204.9589   6.7556056159e+01   1.2151680531e+01     0.299315    0.1639704 -28.57  0.001391077    2.243    0.554
       111 -12.3058    145.2372    201.2373   6.7033096929e+01   1.2874780766e+01    0.2652521    0.1806877  41.76  0.001177114    1.523    0.343
       112 -11.0743    195.5638    203.0111   5.7177431440e+01   5.5950198874e+00    0.2463364    0.1245247  15.27  0.001160799    2.477    0.596
       113 -11.6499    212.1437    199.8999   5.3722941507e+01   3.9518517500e+00    0.2564802     0.150162 -43.74  0.001041569    1.898    0.473
       114 -11.2570    180.8288    200.9832   5.9613767220e+01   7.8793407871e+00    0.1996373    0.1465464 -10.52 0.0007206285    1.288    0.224
       115 -10.9584    130.3091    200.3174   7.0255432418e+01   1.5226458305e+01    0.1368513   0.09857462  -8.85   0.00021451    1.636    0.389
       116 -12.8911    112.3359    197.0529   7.4027266607e+01   1.8514038398e+01    0.5766619    0.2988186  52.07  0.001934618    2.437    0.590
       117 -12.1618    121.4925    200.0109   7.2268274549e+01   1.6575263559e+01    0.2497723    0.2328679  -7.02  0.001447556    1.090    0.083
       118 -13.3537    123.1788    195.9425   7.1250889343e+01   1.7143463068e+01    0.4745418     0.294141  40.31  0.001913956    1.541    0.351
       119 -11.6767    225.0527    198.5210   5.1348282808e+01   2.5786230994e+00    0.2107901    0.1460677 -40.29  0.001308043    1.598    0.374
       120 -12.6884    141.2564    197.9888   6.7398222236e+01   1.4063817166e+01    0.3455606    0.2022865 -45.25  0.001148933    1.788    0.441
       121 -13.3514    138.2994    197.1773   6.7934709341e+01   1.4655352309e+01    0.4809572    0.2805133  15.45  0.002170949    2.030    0.507
       122 -10.2143     41.0094    198.0354   9.2422178699e+01   2.7581832519e+01    0.1539311     0.125061  41.46 0.0009151304    1.111    0.100
       123 -10.9995    246.0000    195.9809   4.7701267595e+01   5.2552416013e-01    0.1793838   0.05068294 -36.56  0.000799572    2.923    0.658
       124 -11.8155    193.6940    193.6325   5.5921134923e+01   7.3064075362e+00      0.37297    0.1866118 -20.79  0.001685838    2.553    0.608
       125 -12.9368    189.0855    193.5708   5.6769100368e+01   7.9476495310e+00    0.4382624    0.2702528  23.16  0.002443733    1.604    0.376
       126 -12.3912    168.0257    195.5697   6.1250669035e+01   1.0587251748e+01     0.235767    0.1997983   9.60 0.0003149975    1.057    0.054
       127 -11.9682    162.9200    192.9980   6.1867945103e+01   1.1783110405e+01    0.3651872    0.1523682  36.65  0.001584639    2.309    0.567
       128 -12.1555    152.3224    195.6937   6.4581536621e+01   1.2857799767e+01    0.2483255    0.2131031 -17.48   0.00134838    1.122    0.109
       129 -11.0772    217.7709    193.9598   5.1760446042e+01   4.1144071849e+00    0.1681229    0.1458026 -27.94  0.001191133    1.336    0.252
       130 -11.3543    212.7019    193.3176   5.2500362690e+01   4.8480522897e+00    0.2087682    0.1309047 -42.18 0.0008562504    1.689    0.408
       131 -13.5920     89.5681    202.7655   8.0435468195e+01   2.0526890559e+01    0.6083471    0.4862161 -43.80  0.003512264    1.406    0.289
       132 -10.2621      4.2175    194.3769   1.0168498363e+02   3.1876297270e+01    0.1177487   0.08446367 -59.67 0.0003441267    1.594    0.373
       133 -12.6761    127.9840    187.2922   6.8724533456e+01   1.8173318986e+01    0.3645889    0.2312232 -57.63 0.0007570123    1.814    0.449
       134 -13.3506    121.2617    187.1587   7.0323347763e+01   1.9235896934e+01    0.4902772    0.3675079  11.36  0.002491285    1.437    0.304
       135 -13.6306    118.5593    179.3193   6.9693100748e+01   2.1320456202e+01     0.473193    0.4053097 -74.68  0.002628599    1.379    0.275
       136 -12.8232    131.8655    184.4063   6.7317954831e+01   1.8159521756e+01    0.3452734    0.2879328  16.99  0.001271449    1.152    0.132
       137 -12.1342    149.0004    190.9803   6.4516127995e+01   1.4230833646e+01    0.2049839    0.1844622   8.04 0.0004556138    1.020    0.019
       138 -11.2222      2.6678    190.8768   1.0192919620e+02   3.2812712115e+01    0.1953997    0.1695552 -10.81 0.0004464882    1.496    0.332
       139 -10.9382    234.4697    190.4971   4.8497353347e+01   2.5749496123e+00    0.1167288   0.08827238 -14.60 0.0008098835    1.010    0.010
       140 -12.4684    196.4274    188.3271   5.4487374748e+01   7.7765997653e+00    0.2659585    0.2447333 -64.80  0.001758825    1.626    0.385
       141 -12.6618    111.1658    188.2283   7.2984585541e+01   2.0546954425e+01    0.3533504    0.2670979 -19.96   0.00143609    1.572    0.364
       142 -10.9445     18.8130    187.6094   9.7525340712e+01   3.2242452137e+01    0.3276072    0.2088728  29.95  0.001520213    1.502    0.334
       143 -12.6667     12.2667    184.6329   9.9099791968e+01   3.3525575140e+01    0.5943919    0.3377692  73.44  0.003071074    1.653    0.395
       144 -11.4366     11.4356    188.7854   9.9550486287e+01   3.2602144950e+01    0.2404822    0.2145661  73.53   0.00101911    1.088    0.081
       145 -12.1718      8.3864    187.2178   1.0027097462e+02   3.3225963211e+01    0.4854523    0.1920307 -79.18  0.002158612    2.387    0.581
       146 -13.0279      5.0385    182.2169   1.0091019115e+02   3.4688802828e+01    0.5493639    0.3966177 -82.41    0.0023243    1.316    0.240
       147 -11.3899    186.1799    187.1851   5.6194503872e+01   9.4031424772e+00    0.1948244    0.1516654  -9.75  0.000459128    1.174    0.148
       148 -11.5638    248.5691    185.7643   4.5597626149e+01   1.5836816033e+00    0.2020972    0.1559037 -12.10 0.0004684056    1.071    0.067
       149 -12.1709    166.6598    181.9842   5.9144077807e+01   1.3203931109e+01    0.3244945    0.2299762   0.39 0.0002975711    1.576    0.365
       150 -11.6954    166.8383    178.1712   5.8408248892e+01   1.3871796546e+01    0.1872344    0.1459505  -4.53 0.0003368722    1.302    0.232
       151 -13.6340    153.0165    179.8629   6.1678664472e+01   1.5725925425e+01    0.7902471     0.257039 -36.82  0.002223333    4.060    0.754
       152 -13.9185    152.6024    167.3265   5.9421839036e+01   1.8237674662e+01    0.6740922    0.3165399 -49.41  0.002596862    2.233    0.552
       153 -10.9706    220.9892    180.5078   4.8861844121e+01   5.6793491689e+00    0.1608779    0.1117415  28.13 0.0004462433    1.528    0.346
       154 -11.1408    198.9152    179.9694   5.2528728341e+01   8.7706380374e+00    0.1862638    0.1581268 -13.49 0.0003320647    1.039    0.037
       155 -11.2391    177.5053    179.5336   5.6492962093e+01   1.1987917562e+01    0.2187982    0.1744443 -41.41   0.00129432    1.310    0.237
       156 -12.2023    192.2282    178.2667   5.3435139044e+01   1.0012837554e+01    0.2400785    0.2081932 -56.14  0.001077573    1.541    0.351
       157 -13.0222    137.1038    176.6993   6.4731592657e+01   1.8900474325e+01    0.3948607    0.2973778 -45.36  0.002107758    1.363    0.266
       158 -10.3151     17.5065    179.4967   9.7355615169e+01   3.4325165120e+01     0.131401    0.1158981  68.93 0.0002621794    1.033    0.032
       159 -11.6595    250.6285    176.2950   4.3664682520e+01   2.6130131187e+00    0.1948617   0.08471091 -34.24 0.0002382635    1.816    0.449
       160 -10.4342    207.6259    177.2872   5.0504306150e+01   7.9733054967e+00     0.109249    0.1009962 -84.30 0.0007018936    1.719    0.418
       161 -11.6809    162.4483    177.1803   5.9147028338e+01   1.4743702313e+01    0.2284048    0.1801191  26.03 0.0004065342    1.232    0.188
       162 -12.2514     56.4749    176.0998   8.6019602486e+01   3.1042376367e+01    0.4305798    0.2496151  63.16  0.001577074    1.948    0.487
       163 -12.6421    106.7182    175.3991   7.2062733680e+01   2.4051498342e+01    0.3166664    0.2596136 -68.64   0.00118919    1.361    0.265
       164 -10.9146      3.2510    175.4223   1.0105964618e+02   3.6476626997e+01     0.421008    0.1635025  28.91  0.001891797    2.318    0.569
       165 -10.3457      2.6777    171.7094   1.0103203011e+02   3.7433926313e+01    0.1856745    0.1063487  81.48 0.0004967836    1.591    0.371
       166 -12.5663    126.8325    174.2263   6.6757475941e+01   2.1084285956e+01    0.3945934    0.2169322 -55.72   0.00173358    2.013    0.503
       167 -13.8032    131.2988    169.2807   6.4763502154e+01   2.1400154855e+01     0.564077    0.3860205  32.48  0.002799156    1.423    0.297
       168 -13.3404    125.1199    167.4786   6.5952964549e+01   2.2818991323e+01     0.533394    0.3339527  26.61  0.002457482    1.671    0.402
       169 -13.5956    135.3473    186.6473   6.6879828675e+01   1.7164860129e+01    0.6790367    0.2868792 -37.67  0.002607864    2.862    0.651
       170 -10.2935     19.0169    175.7835   9.6679563446e+01   3.5108435503e+01     0.166033     0.102614  26.87 0.0004469999    1.614    0.380
       171 -12.0579    143.6937    172.6980   6.2462974135e+01   1.8639723199e+01     0.279668    0.1596618  53.75  0.001073791    2.413    0.586
       172 -12.0119     32.3502    172.3730   9.2585463939e+01   3.4695182627e+01    0.3384566    0.1861129  46.61  0.001611533    1.668    0.400
       173 -10.8993    244.0147    172.0260   4.3838006429e+01   3.9863352118e+00     0.172555    0.1321887 -19.30            0    1.013    0.013
       174 -12.6339    192.6220    171.2094   5.2038107694e+01   1.1136840105e+01     0.306017    0.1912227  17.09  0.001579375    1.866    0.464
       175 -11.7672     14.6864    171.4884   9.7614602622e+01   3.6552941148e+01    0.2142748     0.193208 -89.15 0.0002177912    1.109    0.099
       176 -10.8441    236.5092    171.2395   4.4784444645e+01   5.0321454379e+00    0.2328685    0.1544764  20.66  0.001153696    1.650    0.394
       177 -13.1850     64.5405    164.0223   8.2108434490e+01   3.3014598639e+01    0.7044357    0.2455021 -52.24  0.002479086    2.924    0.658
       178 -12.0018     56.4896    163.1575   8.4399752933e+01   3.4284742836e+01    0.3526237    0.2661589 -38.00 0.0008498759    1.552    0.356
       179 -13.0097     59.3318    158.3291   8.2876112845e+01   3.5153369474e+01    0.5795452    0.3849381  50.34            0    1.491    0.329
       180 -12.9422     66.0378    153.9691   8.0165202820e+01   3.5367477963e+01    0.5146852     0.340744  29.66  0.000523723    1.515    0.340
       181 -12.2490     61.1683    168.8069   8.3754527013e+01   3.2258384000e+01    0.6112958    0.4162645  80.01  0.002529216    1.675    0.403
       182 -12.3559    105.3522    169.1201   7.1359839191e+01   2.5696262117e+01    0.2489438    0.1996686  20.11  0.000625528    1.288    0.224
       183 -12.7092     46.9907    163.8871   8.7357307319e+01   3.5255496763e+01    0.5161965    0.3838056 -65.89  0.002327859    1.340    0.254
       184 -11.3787     40.4972    167.0719   8.9665168426e+01   3.5177687806e+01      0.38388    0.2098987  89.63 0.0006445844    2.042    0.510
       185 -11.3425     24.1880    169.0302   9.4676837056e+01   3.6332989225e+01    0.2421279    0.1914791  25.39   0.00137836    1.333    0.250
       186 -11.7676    172.4066    167.1656   5.5172108333e+01   1.5007686968e+01    0.3023778    0.1233614 -51.03  0.001134025    3.019    0.669
       187 -11.7224     10.4360    166.8286   9.8534978410e+01   3.8070608338e+01     0.301531     0.225026  -1.89 0.0004806198    1.698    0.411
       188 -12.0293    199.7003    165.0369   4.9574663136e+01   1.1103114148e+01    0.2147859    0.1951169  82.99  0.001351034    1.651    0.394
       189 -11.1856    205.9839    164.3393   4.8346647390e+01   1.0278451494e+01    0.1758411    0.1509308   2.47 0.0006452959    1.129    0.114
       190 -11.3353     88.0345    164.4979   7.5344113296e+01   2.9507932396e+01    0.2300774    0.1396741  33.48 0.0008421701    1.582    0.368
       191 -11.1697     63.0335    156.9921   8.1548243037e+01   3.5004132203e+01     0.226414    0.1912189  66.59 0.0004767471    1.180    0.153
       192 -15.0651     24.1854    132.3319   9.1040664627e+01   4.5982423733e+01     1.699913     0.718152  49.93  0.006593884    2.533    0.605
       193 -13.2642     21.7223    115.9397   8.9852972261e+01   5.0634900162e+01    0.6891084    0.4910892  47.81  0.002699369    1.451    0.311
       194 -14.2385      3.7581    119.7944   9.7154713872e+01   5.0880308768e+01     1.523077    0.4888683 -74.11  0.005351779    2.614    0.617
       195 -13.5536      9.3473    116.6041   9.4722072082e+01   5.1390761164e+01    0.5460299    0.3697391  73.83  0.002802041    1.487    0.328
       196 -13.3861     21.0305    159.9339   9.4861064443e+01   3.8948908746e+01     1.018566    0.3594313  34.44  0.004099994    2.459    0.593
       197 -14.1717     33.9968    145.8241   8.9301831542e+01   4.1414748998e+01     1.081912    0.6439325 -25.47   0.00285874    2.426    0.588
       198 -14.1786     33.9568    138.0519   8.8345604880e+01   4.3496678678e+01     1.313094     0.657289 -18.63  0.004400647    3.947    0.747
       199 -13.9302     34.7166    130.2228   8.7014505229e+01   4.5526362584e+01     0.758688    0.5112679  46.41  0.001613659    1.495    0.331
       200 -13.2121     19.8657    122.8785   9.1464772614e+01   4.8911441716e+01    0.5453501    0.3598153 -17.12  0.002012549    1.933    0.483
       201 -14.2974     12.8446    133.8128   9.5182938270e+01   4.6514473731e+01      1.00549    0.5553995  80.92  0.004036513    1.850    0.460
       202 -14.4183      7.6253    129.0210   9.6576249326e+01   4.8165511155e+01     1.652496    0.5111456 -87.30  0.005347798    3.633    0.725
       203 -12.5425     27.9022    150.8154   9.1846704846e+01   4.0698574528e+01    0.4450179    0.3321488 -23.94  0.001666329    1.690    0.408
       204 -12.2097     14.2705    156.5630   9.6662482530e+01   4.0394270082e+01    0.2981921    0.2185103 -71.49  0.000657019    1.302    0.232
       205 -13.5707     19.8390    153.9588   9.4713455665e+01   4.0607385871e+01    0.8345461    0.4301352 -60.64  0.003842921    1.872    0.466
       206 -12.6652     92.6934    162.0298   7.3610009912e+01   2.9379162298e+01    0.4033926    0.3016433  69.78  0.001421095    1.600    0.375
       207 -11.4825      3.4574    162.2217   1.0029827317e+02   3.9757156106e+01    0.4370427    0.1814868  58.92  0.001870359    2.307    0.566
       208 -13.2195    169.9465    160.1233   5.4280499117e+01   1.6720458612e+01    0.4454018    0.2619167 -32.62  0.002122436    1.705    0.413
       209 -11.4592    143.2312    181.1756   6.4110456738e+01   1.7018748831e+01     0.312092     0.102464  30.07  0.001012706    3.586    0.721
       210 -12.8625    158.4789    160.0015   5.6680579274e+01   1.8686933584e+01     0.345984    0.2383573  50.14  0.000603359    1.696    0.410
       211 -11.2285    120.6395    160.3022   6.5734368105e+01   2.5159849602e+01    0.1512277     0.114116  67.78 0.0007037324    1.722    0.419
       212 -12.4378     42.3155    159.6371   8.8283607302e+01   3.6886334599e+01     0.749334    0.2794524  20.72  0.002647835    3.123    0.680
       213 -12.3207    111.0581    164.4935   6.9022695679e+01   2.5826519432e+01    0.2849589    0.2461208 -68.72 0.0004750509    1.269    0.212
       214 -12.6533     75.7836    156.5199   7.7606517474e+01   3.3322164213e+01    0.4142641    0.2663786 -84.61  0.001351734    1.941    0.485
       215 -12.4677     34.6736    154.7314   9.0110217098e+01   3.8991974829e+01    0.5440489    0.2288257  27.97  0.001546174    2.294    0.564
       216 -12.7969     39.7255    152.4229   8.8237837294e+01   3.9057679801e+01    0.4305569    0.3527694  72.18  0.001035671    1.177    0.150
       217 -12.4423     44.7128    152.2821   8.6628728774e+01   3.8531292680e+01    0.4904524     0.264194 -28.06  0.001833958    3.059    0.673
       218 -11.3134    105.0296    158.0413   6.9458086638e+01   2.8323756070e+01    0.2274732    0.2161408  50.61 0.0004471577    1.054    0.051
       219 -10.8929     96.3508    157.2697   7.1734819808e+01   2.9938892421e+01    0.1495425    0.1160656  -9.73 0.0003061061    1.626    0.385
       220 -12.1185    121.6674    155.8194   6.4593670768e+01   2.5986071527e+01    0.2427655    0.1901557 -61.86 0.0007114508    1.402    0.287
       221 -12.1390    112.5180    156.1798   6.7073030984e+01   2.7488954373e+01    0.2446236     0.202532  57.82 0.0007868202    1.317    0.240
       222 -12.1996     81.6735    155.9966   7.5763488385e+01   3.2569206732e+01    0.3937632    0.2088784  33.11  0.001634881    1.831    0.454
       223 -12.0070    141.2688    154.6529   5.9500368817e+01   2.2778403940e+01    0.2684068    0.1772367 -57.49 0.0009767473    1.730    0.422
       224 -12.2099     88.8651    152.9787   7.3112806333e+01   3.2192578226e+01     0.301541    0.2639342 -85.69   0.00090268    1.219    0.180
       225 -11.8891     34.9456    158.6643   9.0453656142e+01   3.7936979540e+01    0.2375774    0.2242408  82.82  0.001031043    1.059    0.055
       226 -12.0269     50.8375    152.8409   8.4756728552e+01   3.7653455687e+01    0.3297879    0.2271376  83.33  0.000783277    1.586    0.370
       227 -11.0553    212.2966    153.6702   4.5208844889e+01   1.1058013853e+01    0.1190733    0.0958703 -58.33 0.0004714236    1.636    0.389
       228 -10.3049    232.3862    151.7666   4.1752332251e+01   8.4313377138e+00    0.1624219   0.09461769 -28.35 0.0002702292    1.461    0.316
       229 -11.7735    126.0423    151.7165   6.2642202803e+01   2.6129594945e+01    0.2067552      0.19073  30.51 0.0003629327    1.073    0.068
       230 -12.6766    130.1080    150.8243   6.1430044269e+01   2.5597744451e+01    0.3287092    0.2711076  57.32  0.001276188    1.364    0.267
       231 -12.2035    133.0000    148.9899   6.0326150472e+01   2.5475931622e+01    0.2755828    0.2032957 -52.63 0.0008498059    1.398    0.285
       232 -12.9658    170.0019    150.0862   5.2204771246e+01   1.8605807347e+01    0.3512342    0.2602774  53.51  0.001694988    1.634    0.388
       233 -12.4604    147.6427    149.8764   5.7015896295e+01   2.2631941151e+01    0.3178204    0.2653077 -60.02 0.0004326827    1.345    0.257
       234 -11.9939     58.3917    150.8783   8.2082610972e+01   3.7202850726e+01    0.3170123    0.2112236 -26.38 0.0009397296    2.046    0.511
       235 -12.6960     98.0102    149.4505   6.9795356598e+01   3.1552255899e+01      0.42962    0.2861798  52.87  0.001931817    1.641    0.391
       236 -13.0445     84.7394    147.8748   7.3405179416e+01   3.4119816341e+01    0.5489799    0.3007894 -58.41  0.001614007    1.833    0.455
       237 -11.1113    224.1035    148.1881   4.2279348661e+01   1.0162403808e+01    0.2274711     0.142387 -53.15 0.0008720664    2.032    0.508
       238 -11.9181    180.0653    148.7006   4.9913256139e+01   1.7119742323e+01    0.1952755    0.1777949   2.11   0.00117607    1.087    0.080
       239 -11.4106    206.4789    146.7632   4.4778010196e+01   1.3084773273e+01     0.204891    0.1754523  23.03 0.0006205035    1.267    0.211
       240 -11.5003     79.9579    147.4827   7.4786595516e+01   3.4971395886e+01    0.2300371    0.1464992  32.51 0.0006457532    1.562    0.360
       241 -12.1429     43.9279    146.6700   8.6142491104e+01   4.0102277056e+01    0.2067089    0.1843184  49.10 0.0009401503    1.101    0.091
       242 -12.6515    101.4561    142.1902   6.7349165561e+01   3.2715959405e+01    0.5464802    0.3576618  65.43  0.001555344    2.091    0.522
       243 -13.0448    108.8425    148.7754   6.6610107528e+01   2.9851219638e+01    0.4061059    0.3591671 -47.15 0.0008918912    1.142    0.124
       244 -10.3029     50.3163    143.3214   8.3563389310e+01   4.0223340080e+01    0.1513261    0.1090493 -33.81 0.0006796448    1.661    0.398
       245 -11.8476     69.7625    141.7136   7.6947384136e+01   3.7996311749e+01    0.2894484    0.2518782 -89.71 0.0008135716    1.178    0.151
       246 -13.3449    230.0290    139.2991   3.9655482275e+01   1.0650561170e+01    0.2790926    0.2431813 -10.54 0.0007462157    1.145    0.126
       247 -11.5717    139.9730    141.0036   5.6900437184e+01   2.5909080751e+01    0.2254098     0.213972 -32.12 0.0004745749    1.028    0.027
       248 -12.0287     94.7346    140.1359   6.8895455730e+01   3.4384816391e+01    0.3399235    0.2202965 -41.52  0.001217838    1.664    0.399
       249 -10.6723    189.9823    140.4948   4.6323473987e+01   1.6887890455e+01    0.1649631     0.122223  78.01 0.0005554224    2.282    0.562
       250 -10.7711     53.2854    140.6419   8.2165969517e+01   4.0558030643e+01     0.157838    0.1066202  68.10 0.0007021297    1.676    0.403
       251 -10.3138    223.2856    139.6886   4.0709953302e+01   1.1603965927e+01    0.1181755   0.08998556 -54.91 0.0002208213    1.576    0.365
       252 -12.8481    118.8714    135.1436   6.0958225100e+01   3.1197056495e+01    0.5008514    0.3420354 -69.00  0.001753568    1.855    0.461
       253 -12.2648    170.6774    135.6211   4.8933919515e+01   2.1235940601e+01     0.302048    0.2395581 -12.11 0.0008916735    1.392    0.281
       254 -12.3434    103.0183    134.6831   6.5296522956e+01   3.4247751223e+01    0.4584085    0.2449518 -43.37  0.001282071    1.974    0.493
       255 -11.5860     54.2946    135.8518   8.1048982652e+01   4.1698071100e+01    0.2454785    0.1942716  48.16 0.0004005113    1.259    0.206
       256 -11.3876    179.9255    135.0078   4.6992555291e+01   1.9655340678e+01    0.2055254    0.1864875 -27.52 0.0002860543    1.007    0.007
       257 -11.1184    140.0645    134.7593   5.5474330871e+01   2.7223793075e+01    0.3038824    0.1946301 -73.55  0.001171062    2.673    0.626
       258 -12.1186     46.4470    135.0321   8.3607325155e+01   4.2906129258e+01    0.3569224    0.1987039  27.29  0.001281266    1.849    0.459
       259 -11.3729     76.4616    134.2387   7.3377816646e+01   3.8900163092e+01    0.2149414    0.1477947 -76.94 0.0009449547    1.667    0.400
       260 -11.1555    211.7984    133.3761   4.1155845176e+01   1.4424512795e+01    0.2285976    0.1629091  38.65 0.0007569516    1.614    0.380
       261 -11.8979    206.9507    129.2330   4.1040109062e+01   1.5911944286e+01    0.3108644     0.237348 -67.11  0.001199215    1.767    0.434
       262 -12.5671    126.6585    131.8917   5.8157846803e+01   3.0442806761e+01    0.3328951    0.2808983  82.85 0.0006337717    1.444    0.307
       263 -11.9631    201.6530    130.9154   4.2256135217e+01   1.6534168852e+01    0.2499991    0.1873735  41.79 0.0009313864    1.513    0.339
       264 -13.5207     83.0649    128.9871   7.0162950032e+01   3.9160386498e+01    0.4725133    0.4482019   5.96  0.002531452    1.128    0.114
       265 -12.0887     49.5408    129.9765   8.1707193628e+01   4.3877335412e+01    0.2970159    0.1932848  46.26  0.001367198    1.560    0.359
       266 -11.6962    192.6455    128.1287   4.3166673546e+01   1.8593073714e+01    0.3624051    0.1486336 -32.93  0.001107073    2.521    0.603
       267 -10.5276    130.4907    128.5089   5.6383533759e+01   3.0444052739e+01    0.1496516    0.1469769 -51.24 0.0002305329    1.028    0.027
       268 -13.6078     63.2106    133.9340   7.7695765020e+01   4.0981596796e+01    0.6379074    0.3817969  28.65   0.00278019    1.731    0.422
       269 -12.8618     60.2247    125.9751   7.7225646822e+01   4.3506615530e+01    0.4641073    0.2502689 -59.16  0.001321453    1.769    0.435
       270 -11.7017    162.5607    127.2751   4.8692053881e+01   2.4386110278e+01    0.2123794    0.1319728 -32.24 0.0008113249    1.661    0.398
       271 -10.8759    155.1646    130.1765   5.0948997290e+01   2.5247737213e+01     0.196169    0.1763391 -80.77 0.0005662889    1.303    0.233
       272 -12.9154     51.0044    123.2831   8.0004117921e+01   4.5480166750e+01    0.7118928    0.1913405  27.12  0.002006519    3.915    0.745
       273 -11.9359     58.6427    117.5299   7.6101249288e+01   4.5962678397e+01    0.3654234    0.1431449  32.60  0.001294632    2.521    0.603
       274 -11.9196     50.9448    116.3535   7.8706627059e+01   4.7336982962e+01    0.9853968    0.4373298  53.55  0.003335659    3.079    0.675
       275 -13.4440     44.0463    120.6000   8.2075630933e+01   4.7072196771e+01    0.5586268    0.4144805 -16.95  0.002063769    1.683    0.406
       276 -12.5041     36.2114    119.8545   8.4886002892e+01   4.8169880353e+01    0.4412646    0.3095526  59.43  0.001101445    1.533    0.348
       277 -11.2503    189.0304    121.4916   4.2306397985e+01   2.0416235882e+01    0.2471441    0.1756098 -25.80  0.000362776    1.421    0.296
       278 -10.8089    165.4613    121.9719   4.6848231658e+01   2.4846821107e+01    0.2038379    0.1190728 -61.30  0.000807912    2.434    0.589
       279 -12.6074    104.4845    121.2693   6.1770266901e+01   3.7186353275e+01     0.450404     0.351305  48.43  0.001449749    1.310    0.237
       280 -11.8764     99.1081    118.3566   6.2673666699e+01   3.8909390028e+01    0.3082122    0.2606757  77.31 0.0003587754    1.353    0.261
       281 -12.6154     67.9924    121.8383   7.3675991999e+01   4.3438283734e+01    0.2830249    0.2229432 -58.60  0.001253296    1.238    0.192
       282 -11.4478    231.0129    119.4785   3.5507267353e+01   1.3509585475e+01     0.299596    0.2419443 -10.32   0.00194936    1.328    0.247
       283 -11.3433    200.0014    120.7766   4.0308743075e+01   1.8538177870e+01    0.2605734    0.1617385 -26.07   0.00129734    1.667    0.400
       284 -14.1435      9.0443    147.9550   9.7648431931e+01   4.3040967657e+01     1.271775    0.8919821  28.27  0.006969786    1.482    0.325
       285 -11.4707     93.9307    116.9989   6.3944522003e+01   4.0213093416e+01    0.3460269    0.2141632 -48.16 0.0008456613    1.602    0.376
       286  -9.9584    124.4639    114.4754   5.4485424872e+01   3.4751688580e+01    0.1521257    0.1486736 -57.34 0.0008090364    1.012    0.012
       287 -11.8686    107.6573    112.8998   5.8743932228e+01   3.8530379307e+01    0.4387799    0.3429172  -2.37  0.001145776    1.710    0.415
       288 -12.3983     61.5108    110.4953   7.3518575920e+01   4.7383340467e+01    0.3579817    0.2687708 -49.64  0.001051264    1.309    0.236
       289 -12.5886     54.3261    111.2126   7.6374564827e+01   4.8239628612e+01    0.6809909    0.3372652  51.93  0.002534755    2.489    0.598
       290 -11.9253    219.2200    111.4513   3.5399175143e+01   1.6684938552e+01    0.3292543    0.1999739 -22.67  0.001698405    1.805    0.446
       291 -11.0122     82.2306    112.2699   6.6591907005e+01   4.3512715729e+01    0.2484798     0.129337 -65.97 0.0006964299    2.394    0.582
       292 -12.8831     14.7877    107.9732   9.1528537209e+01   5.3340506141e+01    0.4835643     0.239938 -77.63  0.001420789    1.896    0.472
       293 -12.6634      9.4999     99.2683   9.2571798045e+01   5.6042582621e+01    0.4682818    0.2085427  58.82  0.001795794    2.872    0.652
       294 -10.4131    195.3322    110.2917   3.8688337001e+01   2.1172731107e+01    0.1325612    0.1034986   1.42 0.0003229239    1.631    0.387
       295 -11.2139    140.2664    107.4610   4.8728291969e+01   3.2921193750e+01    0.2091912    0.1462343  62.07 0.0009432191    1.665    0.399
       296 -10.5028    153.6465    106.3507   4.5446820880e+01   3.0295242458e+01     0.225107    0.1722911 -77.63 0.0005773905    1.676    0.403
       297 -12.2602      2.3332    106.5240   9.6428429556e+01   5.4516854957e+01    0.2891701    0.2340453 -82.42 0.0008010562    1.101    0.092
       298 -12.3086     63.7802    113.6017   7.3383758343e+01   4.6230428186e+01    0.3343445    0.2612658  41.61 0.0007971035    1.298    0.230
       299 -11.9977     79.0427    101.3025   6.4870677074e+01   4.6795643472e+01    0.3830576    0.2890722  71.08 0.0008522794    1.654    0.395
       300 -12.2847     75.0625     97.6289   6.5297482919e+01   4.8409158493e+01    0.2943487    0.2590382 -59.82 0.0004175517    1.130    0.115
       301 -11.0021     55.6367    100.7023   7.3473928108e+01   5.0795781124e+01    0.3061899    0.2025433  -8.26  0.001013972    2.231    0.552
       302 -12.0530     59.5559     96.0791   7.0764910807e+01   5.1385799682e+01    0.3447621    0.2688952  -6.50  0.001131782    1.581    0.368
       303 -11.8838    105.5293     99.4832   5.5754184203e+01   4.2033441348e+01    0.2632479    0.2430953 -49.42 7.593844e-05    1.071    0.066
       304 -11.2308     31.8259     98.6469   8.2845320629e+01   5.4333966962e+01    0.4152351    0.1884547 -44.61   0.00161708    2.287    0.563
       305 -11.9693     23.4571     97.3019   8.6206102242e+01   5.5503315694e+01    0.5964105    0.1930849  38.09  0.002054587    3.105    0.678
       306 -10.4063    208.1960     99.6212   3.4308592794e+01   2.0516422052e+01    0.1606452     0.123394  40.87 0.0002406509    1.563    0.360
       307 -11.2387     94.0243     99.3113   5.9271541290e+01   4.4419489877e+01    0.2187433    0.2048825  55.37 0.0006618929    1.082    0.076
       308 -11.7405    166.9896     97.9686   4.0613680818e+01   2.9037095177e+01    0.2246845    0.1779655   6.90 0.0005730759    1.686    0.407
       309 -11.6431     89.7540     97.9268   6.0277470901e+01   4.5586416687e+01    0.3281862    0.2324291  83.76   0.00125802    2.107    0.525
       310 -10.7970     90.3130     94.3236   5.9060874499e+01   4.6316205136e+01    0.1576459    0.1237955 -10.28  0.000704046    1.659    0.397
       311 -10.2707    188.6870     97.7104   3.6782618070e+01   2.4595316509e+01    0.1317065    0.1067061   3.50 0.0003581285    1.587    0.370
       312 -10.2165     45.5351     97.5577   7.6822421304e+01   5.3010375041e+01    0.1469035     0.140468 -57.16 0.0002197605    1.007    0.007
       313 -10.6202    243.9300     93.0266   2.8515447093e+01   1.5305655362e+01    0.1753573    0.1319883 -10.31 0.0005390883    1.639    0.390
       314 -11.3747     70.0440    101.9519   6.8283816611e+01   4.8206719867e+01    0.2263696    0.2220883 -51.56  0.001227588    1.015    0.015
       315 -11.4304     61.7618     92.1151   6.8832999873e+01   5.2030342825e+01     0.273392    0.2005934  44.11 0.0008118065    1.412    0.292
       316  -9.8923     54.6400     92.2769   7.1750575146e+01   5.3095585565e+01    0.1547486    0.1134029  63.83 0.0004099365    1.662    0.398
       317 -11.9242    171.0156     89.9963   3.7819352164e+01   2.9594500174e+01    0.4251093    0.1765717 -28.33  0.001417421    3.352    0.702
       318 -12.0170     24.1038     89.7527   8.4489606558e+01   5.7444486221e+01    0.4649404    0.3179033 -65.85  0.002010957    1.345    0.257
       319 -11.1301    103.2486     90.1440   5.3723426015e+01   4.4584401773e+01    0.3454777    0.1768332  63.78  0.001089854    3.401    0.706
       320 -11.6374      4.2094     88.2710   9.3427693489e+01   5.9272808381e+01    0.3627895    0.1921906 -51.93  0.001719859    1.685    0.407
       321 -11.7957    231.8586     89.1139   2.9009756415e+01   1.7872005497e+01    0.2322323    0.1806141  63.82 0.0008712306    1.578    0.366
       322 -10.9199    219.9235     89.3146   3.0450601144e+01   1.9952207768e+01    0.1662101    0.1514403 -52.39 0.0005651084    1.114    0.102
       323 -11.3685    138.4998     88.2853   4.3882707952e+01   3.7129912365e+01    0.2459666    0.2346399 -58.45 0.0001829171    1.008    0.008
       324 -12.3782     55.1525     85.7858   6.9765784690e+01   5.4639489888e+01    0.7815828     0.453116  31.68  0.003393718    1.782    0.439
       325 -11.5241     11.1527     86.9227   8.9981046812e+01   5.9213362328e+01    0.3283857     0.238863  64.95  0.001141569    1.537    0.349
       326 -11.2235    178.5364     86.9434   3.5751307500e+01   2.8507873191e+01    0.1975031    0.1867407 -86.22 0.0003215216    1.109    0.098
       327 -11.1938    148.9861     87.7491   4.1445657770e+01   3.4861688961e+01    0.1894223    0.1273786  54.07 0.0005553578    1.547    0.353
       328 -11.4982     65.9922     86.0244   6.5422001993e+01   5.2813464323e+01    0.1822722    0.1766262 -46.13 0.0003496651    1.011    0.011
       329  -9.9342     35.3228     86.2791   7.8597504437e+01   5.7188721624e+01     0.149048    0.1044604 -29.26 0.0004390294    1.586    0.370
       330  -9.8350    238.6912     85.2819   2.7456747845e+01   1.7254133985e+01    0.1205114   0.07775043 -57.27 0.0002355251    1.564    0.360
       331 -12.0181    171.0238     84.1510   3.6288774478e+01   3.0599923306e+01    0.2510383    0.1915148 -40.78 0.0006036212    1.213    0.175
       332 -10.1427    126.3137     85.3056   4.5916077397e+01   4.0478797452e+01    0.1509626    0.1223852   8.26 0.0007024475    1.621    0.383
       333 -11.5373     51.0914     79.0239   6.9544617262e+01   5.6911031186e+01    0.3341668    0.2425365  65.63  0.001097972    1.795    0.443
       334 -11.1369     77.3583     81.3376   5.9641126084e+01   5.1834376176e+01    0.3379025    0.2240687  56.83  0.001024857    1.767    0.434
       335 -11.8686     63.5634     82.0717   6.5201705372e+01   5.4173774329e+01    0.2839554    0.2236134  22.71 0.0006984387    1.370    0.270
       336 -11.4760    182.1456     81.1115   3.3685119087e+01   2.8703931636e+01    0.2004221    0.1851037 -23.49   0.00046364    1.179    0.152
       337 -11.9413     23.2230     79.3873   8.2695507368e+01   6.0219038445e+01    0.3941149    0.2460283 -58.91  0.001062281    1.439    0.305
       338 -10.6968    192.2528     79.9845   3.1903558572e+01   2.6760616457e+01    0.1781692    0.1044883 -38.09 0.0004084035    1.509    0.337
       339 -11.6956    153.3981     79.9301   3.8362182211e+01   3.5274298729e+01    0.2511961    0.2122374  49.89 0.0003806159    1.261    0.207
       340 -12.2603     29.2519     79.5936   7.9813852669e+01   5.9569655708e+01    0.4030262    0.2409669  32.72  0.001403243    1.739    0.425
       341 -11.4569     88.2539     79.0228   5.5043345232e+01   5.0165529227e+01    0.2918763    0.2254314  55.27 0.0007816182    1.362    0.266
       342 -13.4307    215.1667     75.6271   2.7923419697e+01   2.2857601829e+01    0.3593968    0.2606885 -44.11 0.0008289548    1.142    0.124
       343 -10.6715      8.4870     78.5055   8.9828628557e+01   6.1580830514e+01    0.1373588    0.1217119 -57.97 0.0002098572    1.008    0.008
       344 -11.2269    182.8673     77.1098   3.2550075070e+01   2.9193925830e+01    0.2234815    0.1766563 -60.86  0.001031671    1.232    0.188
       345 -11.4616    161.6937     76.2550   3.5788540638e+01   3.4017608075e+01    0.2907045    0.2031416 -60.78   0.00127394    1.523    0.343
       346 -11.4204    112.0242     76.0598   4.6795521459e+01   4.5563056555e+01    0.3190236    0.2467498 -41.75  0.001554181    1.296    0.228
       347 -11.0627    116.5618     74.6363   4.5116794533e+01   4.4795097171e+01    0.3442548    0.2870273  63.70  0.001748087    1.227    0.185
       348 -11.9450     75.1416     75.2481   5.8481365068e+01   5.3626115320e+01    0.4089571     0.234411 -40.21  0.001014686    1.822    0.451
       349 -10.9659     78.5048     71.5509   5.5973357066e+01   5.3764791854e+01    0.2461108    0.2042356 -31.81 7.007932e-05    1.261    0.207
       350 -11.8153     31.5233     74.5427   7.7403531033e+01   6.0594080684e+01    0.2408481    0.2105126  -8.14 0.0005781521    1.191    0.161
       351 -10.9129    168.6227     74.1593   3.4021333525e+01   3.2800579194e+01    0.1981256    0.1311641 -25.86 0.0007665249    1.701    0.412
       352 -10.8449     66.0366     73.7317   6.1531061077e+01   5.5671276964e+01    0.2028654    0.1933019  13.33 0.0003046754    1.059    0.055
       353 -11.9183     52.1532     72.9905   6.7202596004e+01   5.8187719025e+01    0.3714337    0.2213539  16.47  0.001540572    2.188    0.543
       354 -11.1924     86.3030     71.9606   5.3345946211e+01   5.2072588907e+01    0.2065572    0.1917036 -43.70 0.0003021727    1.082    0.076
       355 -11.6740    187.3739     69.9605   3.0069075388e+01   2.9341447649e+01    0.2314965    0.1962527  72.25 0.0001699866    1.267    0.211
       356 -10.7054    180.3008     70.5480   3.1230498263e+01   3.0784502212e+01    0.1875499    0.1281155  50.17 0.0006272101    1.654    0.395
       357 -10.9539    114.0486     70.0697   4.4295591193e+01   4.6243762440e+01    0.2193236    0.2178451 -79.37 0.0004409351    1.038    0.037
       358 -10.4578    236.2959     69.2765   2.4301466031e+01   1.9869289038e+01    0.1528744    0.1361172 -35.91 0.0004741504    1.194    0.162
       359 -11.5381    234.9840     65.7415   2.3666886984e+01   2.0575978022e+01    0.3124545    0.1252806 -44.18  0.001300291    1.940    0.485
       360 -11.1832      1.9128     68.3661   9.1439646472e+01   6.4537882493e+01    0.2546924    0.1686747 -61.89 0.0005699674    1.298    0.230
       361 -10.4562    132.8158     67.1553   3.8814341618e+01   4.2327999143e+01    0.1843741    0.1711882  25.31 -0.0006383859    1.223    0.182
       362 -11.4631     47.4526     67.0345   6.7396876529e+01   6.0296123426e+01    0.2760368    0.2017969  49.36  0.001163445    1.543    0.352
       363 -10.3711    203.2056     66.3767   2.7149207677e+01   2.6559309895e+01    0.1603552    0.1195307  88.70 0.0002440859    1.494    0.330
       364 -11.1109    199.2785     65.3434   2.7369234895e+01   2.7515817601e+01    0.1233004     0.102333   1.92  0.000328976    1.628    0.386
       365 -11.7992    178.5338     64.1510   2.9798388074e+01   3.2155549151e+01    0.2362965    0.2168028 -69.30 0.0002698778    1.051    0.048
       366 -10.9797    110.2816     63.7257   4.3165172713e+01   4.8292875292e+01    0.2256844    0.2068623 -80.15  0.001210162    1.126    0.112
       367 -13.2772    107.7193     59.6070   4.2421560348e+01   4.9630953024e+01    0.3784659    0.3416359  77.93 0.0005796418    1.129    0.114
       368 -10.8958    226.0691     61.5352   2.3587971926e+01   2.2765513550e+01    0.1813398    0.1365724 -43.49 0.0003014917    1.084    0.078
       369 -11.9876     44.7887     61.7960   6.6862948067e+01   6.1890190940e+01    0.3405232    0.2935095  24.28  0.001892001    1.173    0.148
       370 -11.5868     14.3150     60.8756   8.2867878232e+01   6.5618211375e+01    0.2610975    0.2131621  -2.33 0.0004718795    1.275    0.216
       371 -11.1011    208.4578     59.4711   2.4900906336e+01   2.6467943076e+01    0.1303008    0.1069656 -52.85 1.283006e-05    1.019    0.018
       372 -11.4707    193.1794     57.1906   2.6075095407e+01   2.9966309077e+01    0.1926973    0.1380933 -61.35 0.0009122752    1.318    0.241
       373 -11.0325    160.1654     57.3847   3.0698292931e+01   3.7389015017e+01    0.1932422     0.130442  81.20 0.0005893331    1.638    0.389
       374 -11.2287     52.6576     56.5990   6.1171200024e+01   6.1764162498e+01    0.4554268    0.1937709  48.80  0.001632306    2.957    0.662
       375 -11.1187     50.7486     52.3409   6.0383626561e+01   6.2974139917e+01    0.3085085    0.2105434  48.76 0.0005478897    1.626    0.385
       376 -12.1893     28.2636     55.4582   7.3293792727e+01   6.5537856043e+01    0.3979505    0.2718531  56.86    0.0016728    1.980    0.495
       377 -10.9639    100.4139     56.2911   4.3268394256e+01   5.1930105407e+01    0.2035327    0.1385811 -48.58 0.0008689035    1.539    0.350
       378 -11.2336    126.9146     54.2540   3.5912793155e+01   4.5896348155e+01    0.3093334    0.2247416 -60.16  0.001302814    1.479    0.324
       379 -12.7554     37.3011     52.0830   6.7096653179e+01   6.5125140954e+01    0.3582346    0.2360601 -48.69  0.000291079    1.465    0.317
       380 -11.0218    115.5961     53.7524   3.8333674472e+01   4.8734430845e+01    0.2043962    0.1335187 -47.61 0.0004914971    1.573    0.364
       381 -12.2570    233.4906     52.8120   2.1010417979e+01   2.2534777544e+01    0.2038138    0.1679064 -56.98 0.0002785134    1.080    0.074
       382 -10.6606     55.5339     63.9708   6.2613247454e+01   5.9688272721e+01    0.2266512    0.1414038 -50.79  0.001032062    1.601    0.375
       383 -11.4501     43.5305     52.0083   6.3810962058e+01   6.4217901238e+01    0.2041994    0.1820397  19.93 0.0003039021    1.110    0.099
       384 -10.3025    193.2953     63.6866   2.7697800705e+01   2.9011846321e+01    0.1396411   0.08916844 -61.08 0.0001669742    1.599    0.374
       385 -13.0099     30.4844     49.5104   6.9873855382e+01   6.6599215685e+01     0.426647    0.3286214  89.09  0.001919625    1.887    0.470
       386 -10.7786    203.9652     48.4815   2.2730486464e+01   2.8869933084e+01    0.2816959    0.1027052 -56.85  0.001034769    3.399    0.706
       387 -11.4485     18.5780     48.7959   7.6682424956e+01   6.8094844444e+01    0.2711907    0.2145761 -22.46 0.0006989746    1.218    0.179
       388 -11.6358    176.7987     46.9937   2.5409226181e+01   3.5008695809e+01    0.2519604    0.1571083 -50.65 0.0007333315    1.462    0.316
       389 -11.3390    155.7126     47.1130   2.8373377424e+01   3.9943896441e+01    0.2486895    0.1903698  63.29 0.0007828557    1.317    0.241
       390 -11.0065    190.0949     43.3108   2.2884838131e+01   3.2514475627e+01    0.1825052    0.1537508 -75.93 0.0007930656    1.106    0.096
       391 -11.5691      1.9639     42.4907   8.5505328488e+01   7.0817624244e+01    0.2301988    0.1715781 -59.75 0.0003963762    1.230    0.187
       392 -10.7428    118.3141     41.3473   3.3284439422e+01   4.9959613528e+01    0.1477889    0.1095103  27.06 0.0007047116    1.719    0.418
       393 -12.0052     35.6149     39.9324   6.2936864898e+01   6.7887587368e+01    0.3800068    0.2534963  15.05  0.001361125    1.673    0.402
       394 -11.0314    102.8644     39.7928   3.6329184633e+01   5.3987603657e+01    0.2225692    0.1881943  39.16 0.0008924443    1.232    0.189
       395 -11.5983    135.5753     38.9829   2.9104635236e+01   4.5992125115e+01    0.2620581    0.1966463  66.46 0.0003241047    1.278    0.218
       396 -12.4097    230.4795     34.7022   1.7313334091e+01   2.5316152403e+01    0.2309969    0.1733574 -46.99 0.0003786604    1.078    0.073
       397 -11.7979     44.0911     33.1549   5.5064652878e+01   6.7774698111e+01    0.3247468    0.2265532 -12.31  0.001117993    1.721    0.419
       398 -11.8127    137.9831    246.9505   7.4931979918e+01   6.0598366467e+00    0.4341217    0.2147294  41.65  0.002291703    2.046    0.511
       399 -12.3082    115.1874    246.1354   7.9598280387e+01   8.9720099426e+00    0.5350353    0.1901177 -50.75  0.002475878    3.214    0.689
       400 -12.7478     78.3485     30.7062   3.9554972503e+01   6.1110153317e+01    0.3724805    0.2959795  58.27 0.0009666393    1.217    0.179
       401 -10.1198     65.6868     32.3385   4.4855667100e+01   6.3683946893e+01    0.1375663    0.1108658 -77.91 0.0007046555    1.694    0.410
       402 -12.7326    112.0445    234.4667   7.8969671155e+01   1.1362233311e+01    0.3722937    0.2277032  11.07  0.001395517    1.844    0.458
       403 -10.6168      8.6860     31.9459   7.7022913384e+01   7.2692184326e+01    0.1740928    0.1495106 -36.62 0.0004197868    1.065    0.061
       404 -10.3740    159.4848     30.9697   2.3025724579e+01   4.1140099213e+01    0.1963149     0.086699 -52.34 0.0004762233    2.303    0.566
       405 -10.8315    208.5195     29.4468   1.7751709060e+01   3.0278232036e+01    0.1235333    0.1010347 -58.75 3.898974e-05    1.021    0.021
       406 -10.4982    146.9790     29.4976   2.4228950038e+01   4.4367453162e+01    0.1937548    0.1273142  74.59 0.0009849712    1.455    0.313
       407 -11.8517    116.7764    240.5698   7.8638062382e+01   9.7091671368e+00    0.3275414    0.1294735  37.18  0.001541579    2.097    0.523
       408 -12.5162     68.2345     25.3758   4.0491759965e+01   6.4130887443e+01    0.2928629    0.2146628  87.55  0.001451413    1.944    0.486
       409 -11.4480     63.2249     24.8154   4.2090316435e+01   6.5305045768e+01    0.1882079    0.1495129  23.30 0.0004459173    1.300    0.231
       410 -11.4329    237.8879     22.7884   1.4301501177e+01   2.5288101292e+01    0.1570574    0.1338844 -53.52 0.0003626721    1.172    0.146
       411 -11.6445    250.2359     21.8145   1.3436551147e+01   2.3184365708e+01    0.1863776    0.1239475 -41.21 0.0005264512    1.203    0.168
       412 -10.8902    134.7306     21.9886   2.3515660547e+01   4.8277172316e+01     0.186241    0.1676937 -60.08 0.0003966108    1.097    0.088
       413 -11.3564    100.8374     21.4688   2.9409332701e+01   5.6853799879e+01    0.2274143    0.1919519 -29.03  9.82597e-05    1.287    0.223
       414 -10.6401    172.7954     20.8071   1.8636441180e+01   3.9144660039e+01    0.1835664     0.170027  77.49 0.0007563233    1.201    0.167
       415 -11.9599    189.6239     20.0190   1.6938490230e+01   3.5397141370e+01     0.212027    0.1648047 -88.95 0.0003187548    1.210    0.174
       416 -12.5257    105.9848     31.3669   3.2261050892e+01   5.4376602232e+01    0.3634434    0.3033606 -86.36  0.001283866    1.255    0.203
       417 -11.5850    224.2137     15.0553   1.3419057384e+01   2.8710473663e+01    0.2199171    0.1423174 -82.10 0.0006679159    1.464    0.317
       418 -13.3316    117.3195    236.1482   7.8009836585e+01   1.0398397224e+01    0.4330577    0.2879448  23.97  0.002572902    1.290    0.225
       419 -10.1044    205.5229    244.5079   6.1798555446e+01  -1.3626006210e+00    0.1112634   0.08207355   1.04 3.012858e-05    1.004    0.004
       420 -10.8345    180.6330    244.1127   6.6208830881e+01   1.4266462763e+00    0.1939292    0.1285516  28.14 0.0008906755    1.378    0.274
       421 -10.4126    110.3859     13.5042   2.4294182892e+01   5.5293362678e+01     0.132383    0.1221244  78.33 -0.0001500994    1.029    0.028
       422 -11.0190    134.2070    241.5974   7.5062883074e+01   7.3681307488e+00    0.1826299    0.1324821  19.97  0.001052375    1.148    0.129
       423 -12.1137     58.9207    242.7610   9.1581748126e+01   1.6221738147e+01    0.2463594    0.1839248  15.81  0.001013029    1.426    0.299
       424 -10.7253    197.4207    241.8464   6.2839291069e+01  -1.4842980652e-01    0.1629478    0.1170434  11.55 0.0007817778    1.116    0.104
       425 -11.5783    237.3679    248.9751   5.7217117797e+01  -5.0425652424e+00    0.2728659    0.1792632 -19.82  0.002114443    1.267    0.211
       426 -12.4744     90.1852    238.4347   8.4246889897e+01   1.3375441741e+01    0.4074369    0.2616133 -45.48  0.001562736    1.887    0.470
       427 -12.2733     56.0995    249.9959   9.2703415789e+01   1.5194130155e+01    0.2758022    0.2163313 -68.57  0.001235105    1.542    0.351
       428 -11.7710     50.3351    238.4615   9.3190719207e+01   1.7981152423e+01    0.4439484     0.324105  -9.01  0.002398252    1.930    0.482
       429 -11.1474     64.7831    224.8153   8.8808932061e+01   1.9056624932e+01    0.2862128    0.1599547  16.90 0.0008771789    2.018    0.504
       430 -11.4847     72.4593    230.0490   8.7481605446e+01   1.7104152249e+01    0.6422011    0.3174813  47.89  0.003221426    1.867    0.464
       431 -10.7107     56.8026    233.3751   9.1361319031e+01   1.8261748584e+01     0.342518    0.1818947 -63.89  0.001595639    2.140    0.533
       432 -10.7301     65.7019    228.7031   8.8930618300e+01   1.8168026585e+01     0.217705    0.1742927  -5.46 0.0002296651    1.560    0.359
