#   1 NUMBER                 Running object number                                     
#   2 MAG_AUTO               Kron-like elliptical aperture magnitude                    [mag]
#   3 X_IMAGE                Object position along x                                    [pixel]
#   4 Y_IMAGE                Object position along y                                    [pixel]
#   5 X_WORLD                Barycenter position along world x axis                     [deg]
#   6 Y_WORLD                Barycenter position along world y axis                     [deg]
#   7 A_WORLD                Profile RMS along major axis (world units)                 [deg]
#   8 B_WORLD                Profile RMS along minor axis (world units)                 [deg]
#   9 THETA_WORLD            Position angle (CCW/world-x)                               [deg]
#  10 FWHM_WORLD             FWHM assuming a gaussian core                              [deg]
#  11 ELONGATION             A_IMAGE/B_IMAGE                                           
#  12 ELLIPTICITY            1 - B_IMAGE/A_IMAGE                                       
         1 -13.7509    235.7556     26.9822   2.0426362884e+01   2.2185918993e+01     1.224369    0.9177274  46.42  0.002639405    1.503    0.335
         2 -13.8892    208.6935     47.7794   2.9549809003e+01   2.6398343707e+01     1.936269     1.258265  35.88  0.004961818    1.846    0.458
         3 -13.7352    216.8182     42.9488   2.7018412429e+01   2.4948918777e+01     1.884433     1.313703 -20.39  0.006123367    1.599    0.374
         4 -12.3666      4.4546     24.0979   8.1460393291e+01   6.8921368186e+01    0.4473988    0.3192717 -59.91  0.003271664    1.348    0.258
         5 -12.5112      2.2703      4.1189   7.5372156271e+01   7.2491795029e+01    0.5818598    0.4523135 -58.95  0.004479954    1.622    0.384
         6 -12.4524      6.2298     12.3717   7.6633139760e+01   7.0887273742e+01    0.4005493    0.2580398 -12.98  0.002191113    1.541    0.351
         7 -10.9688      2.1842     10.3890   7.7867434487e+01   7.1456396571e+01     0.243303    0.1694468 -35.59  0.001245989    1.041    0.039
         8  -9.2661     57.9889      2.4817   4.8887055336e+01   6.6830107009e+01       0.1384    0.1109654  71.23 0.0008086913    2.421    0.587
         9  -9.7863     31.9984    222.4869   1.0076769526e+02   2.6344536922e+01    0.2689483    0.1471044 -69.37  0.001857528    1.886    0.470
        10 -12.2848     82.3494    138.1091   8.1840842032e+01   3.6970247991e+01    0.3121196    0.2403894 -65.57 0.0004722568    1.206    0.171
        11 -13.2614     57.4560    169.8345   9.1818641013e+01   3.3478559217e+01     1.174317    0.7758848 -21.37  0.004116275    4.282    0.766
        12 -15.4188     70.4284    147.3231   8.6121249184e+01   3.6623494188e+01     13.64312     6.122848  88.51   0.03877933    6.448    0.845
        13  -9.3570     86.9045    204.8335   8.9761192445e+01   2.2512012543e+01    0.2273133    0.1296584 -83.30   0.00126196    1.922    0.480
        14  -9.8587     72.7358    204.2714   9.2342950620e+01   2.4631713937e+01     0.221812    0.1601492  87.33  0.001062728    1.223    0.182
        15 -10.7895    192.2913    193.6754   6.7749368516e+01   5.8518528899e+00    0.6115211    0.3157949 -62.44  0.002039146    5.341    0.813
        16 -10.0986    124.0483    202.6272   8.2396588342e+01   1.6991060242e+01     0.201511    0.1580591 -87.55 0.0005109628    1.361    0.265
        17 -15.7834      9.3030    243.5833   1.0522087946e+02   2.5186119303e+01     2.610175     1.008727  34.29   0.01489401    3.709    0.730
        18  -9.0594    157.8277    192.8379   7.4315823547e+01   1.2604917387e+01    0.1751729    0.1459666  77.83 0.0004679123    1.338    0.253
        19  -9.4328     99.2265    181.0573   8.4497621613e+01   2.5212923179e+01    0.1768886    0.1654951  81.50 0.0005036315    1.198    0.165
        20 -10.9797    225.7305    177.4507   5.8456808326e+01   1.7823704911e+00    0.4243456    0.2257269 -46.22  0.001775727    2.469    0.595
        21 -13.0203    240.8630    170.3526   5.4328873843e+01  -1.1121279816e-01     1.131984    0.7975706  26.42  0.005033267    1.317    0.241
        22 -10.4643    110.7398    167.7271   8.0110710303e+01   2.6010512997e+01    0.2519848    0.2004174 -87.07 0.0005777573    1.259    0.206
        23  -9.0640    191.9955    167.6749   6.2924653636e+01   1.0094492877e+01    0.2041811    0.1725345  38.61 0.0009270318    1.065    0.061
        24 -12.2007     35.7710    159.9226   9.5318101398e+01   3.8031939013e+01    0.8182253    0.3396788  78.47  0.003440958    3.437    0.709
        25 -11.1595     28.6202    218.5081   1.0107749842e+02   2.7411726346e+01    0.3418404     0.163443  55.50  0.002267707    1.607    0.378
        26  -9.1620    174.9456    149.0370   6.2558864109e+01   1.7042043777e+01     0.230801    0.1812568  86.25 0.0006731757    1.689    0.408
        27  -9.5570    134.0000    147.9922   7.1398708344e+01   2.5812921417e+01    0.3638522     0.161836 -57.74  0.001363974    2.670    0.625
        28 -10.7440     43.6731    140.6231   9.1451720606e+01   4.1344016471e+01    0.3526742    0.1883458  60.39  0.001881349    2.009    0.502
        29 -10.3280     94.7452    139.9787   7.9154443730e+01   3.4631621780e+01    0.3241804    0.2540083 -59.72  0.001025148    1.244    0.196
        30  -9.8107     98.0614    136.9386   7.7796963021e+01   3.4759648042e+01    0.3591393    0.2614397 -21.86  0.001730506    2.217    0.549
        31 -11.0685    106.4735    130.2811   7.4432750018e+01   3.4790684286e+01    0.3743567     0.339306  -8.13  0.001293641    1.399    0.285
        32 -10.5409    241.7782    131.5877   4.5728213361e+01   5.3902161252e+00    0.1935595    0.1378493  60.70 0.0009538514    1.696    0.411
        33 -13.3924     23.8123    197.1954   1.0057249681e+02   3.1812608616e+01    0.4094522    0.3586516  82.05  0.001253786    1.370    0.270
        34 -13.7273     57.5358    154.2997   8.9993003064e+01   3.6768245249e+01    0.5904738    0.3404749 -52.98  0.001897257    1.893    0.472
        35  -8.8411    114.3499    124.2950   7.1205361827e+01   3.4677545118e+01    0.1420054    0.1169624  -4.89  0.000427497    1.679    0.404
        36  -9.8021    104.9671    118.4981   7.2334753495e+01   3.7664251352e+01    0.2002362    0.1809722 -63.86 0.0003101501    1.058    0.055
        37  -8.7895    100.3566    116.2637   7.3047908252e+01   3.8966364017e+01    0.1360129     0.112906  -7.40 0.0006983209    1.627    0.385
        38 -10.4525    231.2170    114.0843   4.3385707864e+01   1.0446909933e+01    0.3040341    0.2772672  -0.92 0.0008032193    1.069    0.065
        39 -11.0363    244.8395    107.8156   3.9604506401e+01   8.3916939748e+00     0.203077    0.1729886 -59.33   0.00109489    1.360    0.265
        40  -8.4832    168.3360    113.6501   5.5701195784e+01   2.5360761370e+01    0.1630808    0.1242644 -82.83 0.0007046656    1.784    0.440
        41 -10.2677    205.1084    110.5013   4.7248362234e+01   1.7147333749e+01    0.3812768    0.2723475  39.04   0.00122155    1.425    0.298
        42 -10.2861     94.1624    109.3620   7.3166007027e+01   4.1549175915e+01    0.3999546    0.2818208  70.08  0.001959881    1.778    0.438
        43  -9.5483     66.8229    103.8081   7.9537556561e+01   4.6845030308e+01    0.1955276    0.1664423 -46.99 0.0007556383    1.177    0.150
        44 -10.8337     53.1356     90.9290   8.0829379935e+01   5.1374442871e+01    0.3326803     0.237354 -44.44 0.0009287216    1.340    0.254
        45 -10.1237     41.2767     88.2080   8.3843366752e+01   5.3214808680e+01    0.2039226    0.1865646 -81.69 0.0003977324    1.148    0.129
        46 -10.0465    163.0230     84.9860   4.9099844231e+01   3.2143764556e+01    0.2515518    0.1923247  15.61 0.0005347057    1.642    0.391
        47  -9.2619    184.2812     77.5396   4.2416496692e+01   2.8114246121e+01     0.223658    0.1429257  44.03 0.0009394179    1.591    0.372
        48 -14.9142      8.9053    207.5881   1.0366314138e+02   3.1350861071e+01     1.862804    0.7937611 -78.69   0.01178761    1.934    0.483
        49 -16.3083     31.1773    183.8054   9.8299517242e+01   3.3638570159e+01     9.072571     3.232008  74.19   0.03573905    4.293    0.767
        50 -11.5151    116.0981    248.1752   8.8950564078e+01   1.0850407549e+01    0.2780058    0.1809159 -78.55  0.001865841    1.866    0.464
        51 -12.6335    224.8529     35.8846   2.4034920837e+01   2.3817089058e+01    0.6566954    0.4435808  47.51   0.00123869    1.597    0.374
        52 -11.6012     13.1072     59.9846   8.7201852035e+01   6.1439015327e+01    0.2951808    0.2298108 -89.41 0.0006026494    1.483    0.326
        53 -11.3377      2.2501     49.9729   8.8973763323e+01   6.4056978165e+01    0.3854375   0.07426644 -61.90  0.001610379    3.148    0.682
        54  -9.0401     25.5304     51.0458   8.0606384569e+01   6.2407274280e+01    0.1685858   0.09413713 -56.42 1.642408e-05    1.443    0.307
        55 -12.1870     96.1579    242.7617   9.1761706393e+01   1.4659157090e+01    0.5373524    0.2533552  69.57  0.002597003    2.537    0.606
        56 -10.2135    198.1334     23.9177   2.4237721195e+01   3.2305396315e+01    0.3047151     0.244305  -5.88 0.0009542416    1.474    0.322
        57  -9.3635    189.4923     15.1219   2.2834144720e+01   3.5609502873e+01    0.2049931    0.1447441 -25.01 0.0006215665    1.538    0.350
        58  -8.8750    224.1816    206.8533   6.4202741632e+01  -1.9122228367e+00    0.1682902    0.1230161  18.11            0    1.282    0.220
        59  -8.5581    169.2555    236.6765   7.8542221524e+01   3.8214828176e+00    0.1106234   0.08238637  67.05 0.0002870419    1.546    0.353
        60 -12.8774     15.8910    248.9435   1.0451055125e+02   2.3668905978e+01    0.2571588    0.1429084  76.63  0.001107546    1.284    0.221
