#   1 NUMBER                 Running object number                                     
#   2 MAG_AUTO               Kron-like elliptical aperture magnitude                    [mag]
#   3 X_IMAGE                Object position along x                                    [pixel]
#   4 Y_IMAGE                Object position along y                                    [pixel]
#   5 X_WORLD                Barycenter position along world x axis                     [deg]
#   6 Y_WORLD                Barycenter position along world y axis                     [deg]
#   7 A_WORLD                Profile RMS along major axis (world units)                 [deg]
#   8 B_WORLD                Profile RMS along minor axis (world units)                 [deg]
#   9 THETA_WORLD            Position angle (CCW/world-x)                               [deg]
#  10 FWHM_WORLD             FWHM assuming a gaussian core                              [deg]
#  11 ELONGATION             A_IMAGE/B_IMAGE                                           
#  12 ELLIPTICITY            1 - B_IMAGE/A_IMAGE                                       
         1 -14.0255    210.9871      9.9230   4.0700814959e+01   3.0790285067e+01      2.67823     1.444487  39.55   0.01183604    2.643    0.622
         2 -13.3144    173.5405     54.1833   5.8450166356e+01   3.4707291881e+01     2.075614     1.285173  30.59  0.006115605    2.171    0.539
         3 -10.9286     60.5242      2.9434   6.7705061970e+01   6.6923824817e+01    0.3660031    0.1865055  14.43  0.001698422    2.492    0.599
         4 -13.3279    188.3918     40.2214   5.1793443344e+01   3.2879042218e+01    0.9819574    0.8796724  71.87  0.003243272    1.076    0.071
         5 -10.2163    245.7615      1.5606   3.5873405466e+01   2.3502964954e+01    0.3003691    0.1121776  79.65  0.001310436    2.659    0.624
         6  99.0000     63.4207    221.8314   1.1951855519e+02   2.1034093481e+01    0.4445724    0.1877861  71.35  0.001894326    3.248    0.692
         7 -12.4222    245.7210    245.9190   8.8532933793e+01  -1.0889581129e+01    0.8311139    0.5626565  20.15   0.00578586    1.121    0.108
         8 -12.5280    248.5064    232.8048   8.5923937118e+01  -9.8406514242e+00    0.6976328    0.3293065 -33.62  0.003882049    2.291    0.563
         9 -10.9184    193.3847    195.5925   8.9472309066e+01   4.2442947517e+00    0.8922285    0.4857328 -62.27   0.00312648    4.557    0.781
        10  -9.8578    160.8119    205.4053   9.7781769123e+01   8.5235911241e+00    0.1992454    0.1153061  32.06 0.0006601884    1.729    0.422
        11 -11.1244     58.9515    202.8398   1.1868777694e+02   2.5416903476e+01     0.289862    0.2186204 -42.83  0.001763863    1.980    0.495
        12  -8.7356     87.9818    202.4946   1.1265511140e+02   2.1420532178e+01    0.1861419    0.1164978  39.83 0.0007298809    1.547    0.354
        13 -11.7126    150.0808    188.5640   9.7210714756e+01   1.3609866436e+01    0.4965042     0.318262 -57.59  0.002253715    1.819    0.450
        14 -11.2160    150.8629    180.0851   9.5526741217e+01   1.5125952066e+01    0.4767133     0.324194 -62.60  0.002298937    1.781    0.439
        15 -11.4560     61.8003    195.5854   1.1738970342e+02   2.6567751043e+01    0.3497823    0.2321881 -45.89  0.001522163    2.117    0.528
        16  -9.2510     82.2652    195.0396   1.1298409864e+02   2.3826530304e+01    0.2171491    0.1705226  54.31  0.001076714    1.150    0.131
        17 -19.4975     26.3136    147.2267   1.2035047199e+02   4.1491670204e+01     19.19395     4.934985 -74.79   0.06782545    3.701    0.730
        18 -11.0802     99.3133    180.9530   1.0732756145e+02   2.4213871696e+01    0.3445939    0.2935225 -29.77 0.0006163495    1.575    0.365
        19 -10.8114     96.1247    189.9201   1.0931061530e+02   2.2791263857e+01    0.6134992    0.3822975  23.04  0.001260884    2.358    0.576
        20 -10.3473     99.2899    186.6555   1.0815520892e+02   2.2982063246e+01    0.2452755    0.1811541  79.92 0.0006561009    1.408    0.290
        21  -9.4975    156.6553    189.8999   9.6028721917e+01   1.2118774814e+01      0.18459    0.1770606 -55.08 0.0004976063    1.154    0.133
        22 -10.8499    140.8933    188.3512   9.9175088149e+01   1.5362728548e+01    0.2732435     0.212052 -42.67  0.001478002    1.453    0.312
        23 -10.5869    237.9792    184.9665   7.9014866696e+01  -2.0282263053e+00    0.1850527    0.1689109 -70.63  0.001134669    1.702    0.413
        24 -11.3951    145.0984    180.8266   9.6937771916e+01   1.6079120819e+01    0.3977549    0.3395798   9.48  0.001255527    1.389    0.280
        25 -11.9076    141.6184    175.2159   9.6700526451e+01   1.7888169250e+01    0.7857338    0.5002202  77.55  0.002595014    2.655    0.623
        26 -10.5676    189.3344    177.6307   8.6841446484e+01   8.0870441194e+00    0.5061201    0.3861875 -59.41  0.002599724    1.699    0.411
        27  -9.2706     75.4042    248.4563   1.1952726084e+02   1.4594547106e+01    0.3056181   0.07671066 -58.94   0.00129951    4.496    0.778
        28  -9.1533     98.9256    214.3165   1.1178421400e+02   1.7390807419e+01    0.1791967    0.1430005  52.59 0.0003915936    1.094    0.086
        29 -10.9307      7.3870    214.9261   1.2926151491e+02   2.8723369470e+01    0.1263145   0.05377927  31.13 0.0005251509    2.861    0.651
        30  -9.7462    184.4897    212.5164   9.4202002099e+01   3.1138337172e+00    0.2293777    0.1957362 -47.86  0.001420315    1.429    0.300
        31 -10.0550     43.9937    211.7998   1.2239438062e+02   2.5445345778e+01    0.2580658    0.1443423 -80.88  0.001328482    1.635    0.388
        32 -10.0066    240.4696    169.4602   7.5424148121e+01  -1.4769946569e-01    0.1353257    0.1157973  -2.49 4.247539e-05    1.002    0.002
        33 -11.6353    132.2014    178.7743   9.9470398789e+01   1.8923974701e+01    0.6737164    0.3640441 -30.22  0.002446188    3.470    0.712
        34 -10.0428    230.4876    166.9699   7.6675207325e+01   2.0359437731e+00     0.188537    0.1140723 -54.58 0.0008102596    2.587    0.613
        35 -11.4964     39.3709    212.8376   1.2334737900e+02   2.5779794496e+01    0.1767926    0.1381258  58.57 0.0002948744    1.192    0.161
        36 -11.1308    133.9312    145.9120   9.2688528538e+01   2.5729796067e+01     1.340557    0.3480047 -55.21  0.003131553    6.007    0.834
        37 -11.8155     97.4673    151.2505   1.0291768501e+02   3.1275215856e+01    0.5875591    0.5026802 -23.00   0.00316965    1.504    0.335
        38  -9.7341    113.4662    151.4731   9.8918512421e+01   2.8409896893e+01    0.3344455    0.2355829 -86.49   0.00152891    1.799    0.444
        39  -9.5664    174.8763    149.1405   8.3863764343e+01   1.6447472445e+01    0.2334512    0.2095593  83.26 0.0005989553    1.309    0.236
        40  -9.8368    143.5263    145.5676   9.0279070920e+01   2.3843238971e+01    0.2853951    0.1456258 -58.89   0.00103753    2.467    0.595
        41 -10.9083    105.9227    130.9199   9.6642298455e+01   3.4591685075e+01    0.4225468    0.3311038 -62.91  0.001848242    1.259    0.205
        42 -10.3253    107.4669    145.7735   9.9323609809e+01   3.0820164903e+01    0.3077847    0.2250396  83.79 0.0004382137    1.668    0.400
        43 -11.3805    108.5338    137.7896   9.7419786497e+01   3.2497485937e+01    0.6365258    0.3791577 -39.48  0.002703219    1.957    0.489
        44  -8.9402    113.2784    142.6529   9.7199034180e+01   3.0485494886e+01    0.1531891    0.1146251  85.90 0.0005311582    1.636    0.389
        45 -11.8333     96.9145    137.1987   1.0037861437e+02   3.4692854729e+01    0.3159187    0.2832288  87.63 0.0003351409    1.096    0.087
        46  -9.8725    135.9910    129.2760   8.8395652410e+01   2.9032878194e+01    0.4188467    0.1778055 -50.54  0.001348636    2.432    0.589
        47 -10.3668    115.3852    128.8837   9.3651868017e+01   3.3292900416e+01    0.3246068    0.2719465 -31.47 0.0005012015    1.333    0.250
        48 -11.3123     67.4489    206.3975   1.1731099554e+02   2.3558778945e+01    0.2115985    0.1784478  71.24 0.0003094224    1.082    0.076
        49  -9.7347    160.8726    127.6250   8.1947515437e+01   2.3953628578e+01     0.319082     0.234662 -50.43  0.001249613    1.404    0.288
        50 -10.6063    103.1787    124.5587   9.5973711986e+01   3.6592586622e+01    0.3004628    0.2535733  -7.48 0.0006425841    1.504    0.335
        51 -10.4989    135.1488    121.5869   8.6728979496e+01   3.0931333265e+01    0.6949762    0.1583697 -48.82  0.001726178    4.685    0.787
        52 -10.5395    120.5809    122.7158   9.0815871471e+01   3.3697616264e+01    0.4730399    0.2854932 -24.26  0.001721937    2.739    0.635
        53  -9.5122    110.5409    118.1832   9.2442012286e+01   3.6715910090e+01    0.2489107    0.2106421  44.11 0.0002843331    1.220    0.181
        54  -9.9238    231.1441    113.6608   6.4453245374e+01   1.0786422507e+01      0.26998    0.2538609  10.71 0.0007428309    1.107    0.096
        55  -9.7724    167.5717    112.3897   7.6502562239e+01   2.5574730237e+01    0.3640673    0.2792806  89.32  0.001206819    1.776    0.437
        56 -10.3046    134.6804    106.4726   8.2904539061e+01   3.4370500925e+01    0.6059222    0.1467741 -42.17  0.001560853    4.244    0.764
        57 -11.4521    118.8758    110.3864   8.8179424341e+01   3.6859064975e+01    0.6218084    0.4451782  65.05  0.002701511    1.718    0.418
        58  -9.6793    205.4464    110.2973   6.8139332559e+01   1.7092457887e+01    0.3169659    0.2394024  42.76 0.0009206706    1.384    0.277
        59  -5.0039     72.6240    203.2913   1.1593850444e+02   2.3484947143e+01    0.3407556    0.1890641  58.26  0.001818646    1.644    0.392
        60  -8.9705    182.9938     83.0197   6.5124559449e+01   2.7473686075e+01    0.2527426    0.1942369  15.01  0.001135211    1.679    0.404
        61  -8.6546    153.6305     82.1776   7.1183886363e+01   3.4925341296e+01    0.2183266    0.1500895 -26.18 0.0005110401    1.610    0.379
        62 -10.7050     71.9279    245.1086   1.1987380464e+02   1.5638989273e+01    0.1917889    0.1463884 -69.97  0.001084877    1.541    0.351
        63 -12.6792    193.1915     34.0151   4.9312024457e+01   3.2463207771e+01    0.6133087    0.4895093  47.21  0.001386409    1.341    0.254
        64  -7.9849     56.4694    224.3902   1.2103292043e+02   2.1444484675e+01    0.1227051   0.08261479  65.64 0.0002019285    1.180    0.152
        65 -11.3487    207.9909     31.0436   4.6561755665e+01   2.9083413182e+01    0.3187934      0.24228  49.87  0.001699795    1.437    0.304
        66  -9.5549    150.6551    238.6895   1.0464822991e+02   4.7732485552e+00    0.1215548    0.0886875  16.33 0.0004446582    1.704    0.413
        67 -11.0275     59.1523    230.4501   1.2101562938e+02   1.9958528863e+01    0.1911789     0.137369  79.80 0.0002728979    1.189    0.159
        68 -11.1059    195.9358    204.4437   9.0572208275e+01   2.3625619204e+00    0.5232067    0.1925282  34.08  0.001976927    2.852    0.649
