#   1 NUMBER                 Running object number                                     
#   2 MAG_AUTO               Kron-like elliptical aperture magnitude                    [mag]
#   3 X_IMAGE                Object position along x                                    [pixel]
#   4 Y_IMAGE                Object position along y                                    [pixel]
#   5 X_WORLD                Barycenter position along world x axis                     [deg]
#   6 Y_WORLD                Barycenter position along world y axis                     [deg]
#   7 A_WORLD                Profile RMS along major axis (world units)                 [deg]
#   8 B_WORLD                Profile RMS along minor axis (world units)                 [deg]
#   9 THETA_WORLD            Position angle (CCW/world-x)                               [deg]
#  10 FWHM_WORLD             FWHM assuming a gaussian core                              [deg]
#  11 ELONGATION             A_IMAGE/B_IMAGE                                           
#  12 ELLIPTICITY            1 - B_IMAGE/A_IMAGE                                       
         1 -12.1726    144.6662     31.3081   3.1323459918e+01   4.5796510996e+01    0.4747134     0.300526 -47.38  0.002166118    1.823    0.452
         2 -12.3568    125.8848     10.6806   2.7870075251e+01   5.2780187066e+01    0.3119084    0.3063058   1.97 0.0002580968    1.139    0.122
         3 -11.5306    124.4955     20.9354   3.2086286761e+01   5.2012113672e+01     0.521132    0.3547145 -84.10  0.002155592    2.356    0.576
         4 -12.2903    125.3997     17.0162   3.0388238725e+01   5.2237703275e+01     0.292636    0.2644887  77.10 0.0002471685    1.243    0.196
         5 -12.0968      2.6973     20.6065   7.8579948835e+01   7.0441686112e+01    0.2542244    0.2278455 -74.90  0.001335646    1.546    0.353
         6 -11.1950      5.5893      7.6599   7.2189175359e+01   7.2504977613e+01    0.5769621    0.2944632  37.46  0.003267443    3.107    0.678
         7 -10.8470     14.1253     15.8798   7.1098526275e+01   7.0576523392e+01    0.2028929    0.1529605 -32.60 0.0006930753    1.068    0.064
         8 -10.1031     14.4506     12.5032   6.9542159697e+01   7.1113238719e+01    0.1904181    0.1359729 -35.67 0.0006249899    1.128    0.114
         9 -10.2860     60.9695     16.3003   4.9838766066e+01   6.5231973730e+01    0.3573171    0.2009724 -51.07  0.001625663    3.143    0.682
        10 -11.1069    208.1977     13.4523   1.5838711600e+01   3.1345597660e+01    0.2988307    0.2018521 -39.27 0.0009634503    1.490    0.329
        11 -10.8719    203.6748     12.1079   1.5989497344e+01   3.2653091084e+01    0.2647148    0.2019888 -44.22  0.001090243    1.326    0.246
        12 -11.5542     34.6289     12.3251   5.9439003358e+01   6.9279499865e+01    0.2764314     0.208062  21.71 0.0009255969    1.415    0.293
        13 -11.4773     30.1035      7.5612   5.9359097078e+01   7.0465841191e+01     0.404627    0.2685629  34.31  0.002647182    1.846    0.458
        14 -10.8483    165.8565     11.8412   2.0938559118e+01   4.2556942021e+01    0.2149605    0.1799487  49.66 0.0004734068    1.147    0.128
        15  -9.5603     97.4139     10.7644   3.4989139039e+01   5.9213317608e+01    0.1764786     0.119695  -4.77 0.0005083374    1.533    0.348
        16 -11.5521     43.3967      9.3830   5.3982619898e+01   6.8650770553e+01     0.421699    0.1816189  39.96  0.001136235    2.622    0.619
        17 -11.7907     55.6420      9.5561   4.8802493072e+01   6.6926074352e+01    0.3163584    0.2539915  -3.99 0.0005767291    1.035    0.034
        18 -10.4285     50.5297     10.5217   5.1408119086e+01   6.7540167879e+01    0.2094458    0.1812928   4.33 0.0005712227    1.202    0.168
        19  -9.8391     23.0989      9.7963   6.3918017604e+01   7.0826234492e+01    0.2569662    0.2338578  12.72  0.001820924    1.495    0.331
        20 -12.2110    193.4959      5.1869   1.5256802942e+01   3.5998482685e+01    0.5765705    0.3028541  51.96 0.0005418591    1.882    0.469
        21 -12.8793     20.1622      2.3627   6.1875858006e+01   7.2199263217e+01    0.2694985    0.1763565 -14.26 0.0007415999    1.256    0.204
        22  -9.8247     88.5200      6.8019   3.5847755810e+01   6.1452373127e+01    0.1799595    0.1200522 -16.31 0.0009268709    1.494    0.331
        23 -10.5715    247.1790      5.9708   1.0343482119e+01   2.2641938297e+01    0.2011972    0.1581257 -83.37 0.0003305601    1.115    0.103
        24 -10.1847     16.0354      7.9701   6.6730691272e+01   7.1715210489e+01     0.211113      0.12389 -34.77 0.0004666351    1.304    0.233
        25 -10.9013    151.5578      5.9726   2.1297940185e+01   4.6826400584e+01    0.2406883    0.1784794  63.42 0.0003341573    1.194    0.162
        26 -11.1899    148.4119      2.6229   2.0678972804e+01   4.7928728709e+01    0.2709543    0.2586493  24.41  0.001107436    1.131    0.116
        27 -10.0810    111.3956      5.9294   2.9307234871e+01   5.6627042715e+01     0.206424    0.1762937  58.17 0.0006426103    1.199    0.166
        28 -10.7526    174.3625      4.1262   1.7319450502e+01   4.1083662521e+01    0.2973068    0.1813264 -69.25 0.0006024848    1.946    0.486
        29 -10.1604    228.4037      4.1625   1.1479522248e+01   2.7292429018e+01    0.1789031    0.1060592 -45.99 0.0001105868    1.573    0.364
        30 -10.0842    104.6696      4.2248   3.0258143204e+01   5.8292741043e+01    0.2015909    0.1620269  57.08 0.0003902765    1.260    0.206
        31 -11.1942     46.5999      3.5705   4.9657777837e+01   6.8976148537e+01    0.3948157    0.2190714  25.23  0.001205639    1.751    0.429
        32 -10.2331     13.7506      3.4130   6.5831690678e+01   7.2596106227e+01    0.1861823    0.1366703 -26.62 0.0008386276    1.086    0.079
        33 -10.5679     10.5308      1.4748   6.6674497606e+01   7.3137132521e+01    0.2060099   0.09469078  23.92  0.001024838    2.360    0.576
        34 -10.8214    161.7102      2.4120   1.8548650869e+01   4.4529969907e+01    0.2608695    0.2081985  35.77  0.001465619    1.318    0.241
        35  -9.7227     63.1892      3.0949   4.2651172780e+01   6.6498400095e+01    0.1971645    0.1382082   9.79 0.0005826551    1.271    0.213
        36 -10.0799     37.1096      3.2300   5.3808730596e+01   7.0258825044e+01    0.1835452    0.1541524  31.51 0.0009450733    1.572    0.364
        37  -9.9134    137.9769      2.2791   2.2357005866e+01   5.0587921484e+01    0.1970554    0.1560197  57.35 0.0003302835    1.104    0.094
        38  -9.7120    237.9778      2.0000   1.0167873836e+01   2.5221192299e+01    0.2043315   0.06650577  74.22 0.0003947871    2.859    0.650
        39 -10.6032     29.9029      1.3508   5.6342469470e+01   7.1347754817e+01    0.1721529   0.09650757  30.34 0.0006148617    1.863    0.463
        40 -10.3012     27.8479    128.1160   9.1331531089e+01   4.5873062821e+01    0.1634435    0.1256483 -54.74 0.0003845135    1.329    0.247
        41 -10.3840    110.0310    250.5615   8.7229257968e+01   1.0069442849e+01    0.1743961   0.08899476  44.81 0.0004249189    1.521    0.343
        42 -11.0045     28.9945    250.3339   1.0064748965e+02   2.0839113270e+01    0.2353927    0.1083568  48.04  0.001569666    1.668    0.400
        43 -12.7492     10.3843    244.0394   1.0319806238e+02   2.3868834415e+01    0.7175793    0.1988331 -84.47  0.003637769    3.425    0.708
        44 -10.3104      6.8100    249.6072   1.0394810448e+02   2.3289489911e+01    0.2455453    0.1116549  58.55  0.001746191    1.502    0.334
        45 -11.6708      2.0671    248.3599   1.0459435100e+02   2.3960287483e+01    0.4142337    0.2465945 -80.25  0.003308333    1.612    0.380
        46 -10.6826      5.2269    243.3856   1.0394485182e+02   2.4489829199e+01    0.2525556     0.111954  61.60  0.001341154    1.569    0.363
        47 -12.2108      5.8584    240.3196   1.0373057739e+02   2.4951598901e+01    0.4626794    0.1134124  47.49  0.002594455    2.604    0.616
        48  -9.7213     65.0419    125.2792   8.0946794156e+01   4.2540551343e+01    0.1768624    0.1612888 -88.76 0.0002380038    1.065    0.061
        49  -9.7061     11.2470    128.5786   9.5584254025e+01   4.7074990981e+01    0.1308673    0.1151129 -10.29 0.0009554647    1.603    0.376
        50  -9.7448    208.5122    123.4802   4.5122715540e+01   1.4134750388e+01    0.1505522    0.1465049  -6.89 0.0004268641    1.018    0.017
        51 -11.4338     24.6177    122.5835   9.1486748326e+01   4.7416080941e+01    0.2802145     0.143583  70.35  0.001002191    2.428    0.588
        52 -11.7637     11.0499    120.5532   9.4794219239e+01   4.8894020027e+01    0.3911742    0.2721562 -11.78 0.0008328921    2.180    0.541
        53 -10.7221     69.1252    116.1286   7.8098595623e+01   4.4160771585e+01    0.2909361    0.1999221 -67.04  0.001527155    1.349    0.259
        54 -10.3703     40.0433    113.3950   8.5940948840e+01   4.8163924490e+01    0.2721367    0.1376138 -53.64  0.001372881    1.735    0.424
        55 -11.1644     23.5002    113.3108   9.0579360063e+01   4.9632667141e+01    0.2181813    0.1694348 -62.18 0.0002177884    1.142    0.124
        56 -11.4699      2.8153    111.8499   9.6014250589e+01   5.1360158075e+01    0.2600634    0.1681585  88.43 0.0002901489    1.361    0.265
        57 -11.8224     13.6511    107.6952   9.2579571122e+01   5.1624257373e+01    0.4375868    0.1691349 -42.42  0.001966788    3.152    0.683
        58 -10.2952     56.3947    110.7918   8.0758421268e+01   4.7019614553e+01    0.1900647    0.1058628 -53.97 0.0004221167    1.574    0.365
        59  -9.9605     13.0195    103.9704   9.2274515136e+01   5.2507410668e+01    0.1776035    0.1335256 -88.12 0.0003764989    1.214    0.176
        60  -9.0305     72.7856    108.9825   7.5570075983e+01   4.5336935096e+01    0.1730769    0.1025058 -57.79            0    1.518    0.341
        61 -10.0668     27.1350    107.5301   8.8728864932e+01   5.0670282990e+01    0.2565178     0.140127 -87.43  0.000820803    1.996    0.499
        62 -10.0523     97.0137    106.5703   6.7916678066e+01   4.2101280134e+01    0.2134731     0.182232 -54.11 0.0001394814    1.107    0.097
        63 -10.5808      6.0511    103.9305   9.4238246131e+01   5.2942342042e+01    0.1747314     0.135042 -74.76 0.0003886047    1.019    0.019
        64  -9.1748      1.3916    103.2659   9.5458760441e+01   5.3348189485e+01    0.1144775   0.06752529 -46.58   0.00069809    1.711    0.415
        65 -10.8400    247.4970    101.9239   3.3117519272e+01   9.1235733779e+00    0.2263801    0.1305228 -34.11  0.001032773    1.589    0.371
        66  -9.2537    122.7008    101.6560   5.9392547299e+01   3.8298583820e+01    0.1566858    0.1225733  -8.45 0.0006146068    1.675    0.403
        67  -9.1355     50.6760    101.7203   8.0720195439e+01   4.9784418939e+01    0.1298897   0.09118625 -35.41 0.0003245522    1.590    0.371
        68 -11.8883     17.9490     95.9764   8.9693920692e+01   5.3986471964e+01    0.5419195    0.2750234 -82.96  0.001551754    2.035    0.509
        69 -11.2123     21.0416     92.3211   8.8168107743e+01   5.4597207106e+01    0.2731442      0.15995 -58.89 0.0003341188    1.340    0.253
        70  -9.8954    217.9410     98.6556   3.7140103564e+01   1.6363274901e+01    0.2088375    0.1913112  55.58 0.0004902245    1.131    0.116
        71 -10.1574     56.0977     96.9974   7.8072899491e+01   5.0263145166e+01    0.1978763    0.1695502 -60.51 0.0003187764    1.020    0.019
        72 -10.1324      7.9259     90.5645   9.1938444676e+01   5.5817646463e+01    0.2063892    0.1339626 -69.08  0.001000344    1.176    0.150
        73 -10.1428     11.5500     97.5264   9.1830092135e+01   5.4050726317e+01    0.1812848    0.1106192 -51.31 0.0005508405    1.463    0.317
        74 -10.3125     10.7122     93.9148   9.1572213918e+01   5.4910483747e+01    0.2238063    0.1390215 -66.90 0.0004370806    1.225    0.184
        75 -10.7258     43.7472     93.9363   8.1325190581e+01   5.2302742943e+01    0.3914678    0.1182422 -46.21  0.001435838    3.266    0.694
        76 -10.7496    105.9830     91.7964   6.1428379136e+01   4.3784343645e+01    0.3237133    0.2574354 -83.43 0.0007240596    1.618    0.382
        77  -9.6457    142.3302     91.9675   5.1473921202e+01   3.6032540519e+01    0.2152566    0.1951607 -36.47 0.0003504514    1.108    0.097
        78  -9.8327     91.5513     92.5274   6.5953336043e+01   4.6217078483e+01    0.1443253    0.1348245 -50.06 3.381762e-05    1.018    0.018
        79  -9.7265     66.4920     91.6928   7.3579086816e+01   5.0184056166e+01    0.1812467    0.1162592 -47.14 0.0003472194    1.406    0.289
        80 -11.6884     57.8851     91.5201   7.6292724628e+01   5.1306719520e+01     0.299695    0.2340418 -28.51  0.001725772    1.407    0.289
        81 -11.9455    159.8051     89.1982   4.6395847707e+01   3.2415874171e+01    0.3230495    0.2817692  36.42 0.0002303834    1.172    0.147
        82 -11.7718    125.2928     92.9749   5.6274666821e+01   3.9623652548e+01    0.2591626    0.2375723  41.75   0.00025182    1.106    0.096
        83  -9.8852     29.6501     92.3711   8.5482763623e+01   5.3932785741e+01    0.2164367   0.09601405 -64.32 0.0007035061    1.811    0.448
        84 -13.5155     65.5554     81.7278   7.1377574402e+01   5.2540250081e+01    0.3896999    0.3670592 -77.66 0.0006570437    1.171    0.146
        85 -10.6669     17.4047     84.8003   8.8059194535e+01   5.6529524535e+01    0.2075013    0.1563819 -47.15 0.0002915067    1.229    0.186
        86 -10.5357      7.5737     83.6528   9.1025181397e+01   5.7366244788e+01    0.2438448    0.1687296 -48.59  0.001231284    1.303    0.233
        87 -11.3566     11.8183     77.6456   8.8659074165e+01   5.8451290743e+01    0.3893068    0.1209408 -61.64  0.001107668    2.216    0.549
        88  -9.2389     27.7085     82.2702   8.4211723904e+01   5.6359940232e+01    0.1121792   0.08749594  80.65 0.0001751758    1.511    0.338
        89  -9.7619    124.9630     81.2224   5.2902751664e+01   4.2129238646e+01    0.2080406    0.1963083 -14.94 0.0002689416    1.063    0.059
        90  -9.7685    250.4438     80.5129   2.7564289603e+01   1.1858267271e+01    0.1409234    0.1271928 -43.50 0.0002360468    1.006    0.006
        91 -10.2155     47.9215     78.9031   7.6623602621e+01   5.5262346214e+01     0.228534    0.1588231 -44.34 0.0003839475    1.265    0.210
        92  -9.9838     51.9513     75.4490   7.4368714818e+01   5.5581559313e+01    0.2593398     0.227409 -41.15  0.001061401    1.045    0.043
        93 -10.2534    177.1085     76.8604   3.8981170336e+01   3.0374046953e+01    0.2868614    0.2199724  69.18  0.001237645    1.405    0.288
        94 -10.1817     42.8169     76.8191   7.7880806456e+01   5.6243345307e+01    0.1592366     0.140734 -86.80 0.0002389827    1.297    0.229
        95 -10.0715     23.0163     76.9735   8.4746948755e+01   5.7881789607e+01    0.1813628    0.1338536  77.18 0.0009033029    1.696    0.411
        96 -11.2470      4.5825     74.8906   9.0612088751e+01   5.9434149692e+01    0.2569489    0.1967901 -42.82  0.001473012    1.272    0.214
        97  -9.5397     73.2086     82.8360   6.9146649957e+01   5.1239514705e+01    0.2165823    0.1680719 -34.37 0.0004012901    1.264    0.209
        98  -9.9071     35.0783     73.3443   7.9768220013e+01   5.7724090529e+01    0.2137152     0.193143 -25.39   0.00147178    1.187    0.157
        99 -11.1622    117.9697     71.2637   5.1754790121e+01   4.5609119063e+01    0.3346777    0.2329437  22.64  0.001062911    1.756    0.430
       100  -9.6826    105.7397     71.8079   5.5528361126e+01   4.8012676992e+01     0.187892    0.1701004  79.22 0.0004857982    1.329    0.248
       101 -10.3294     45.8938     70.5402   7.5229979818e+01   5.7299591186e+01    0.4240231     0.171396 -59.19  0.001831541    2.293    0.564
       102 -11.3960      9.9929     70.3924   8.7980027697e+01   6.0129973726e+01    0.2778436    0.1868115 -18.11  0.001193348    1.779    0.438
       103  -9.3911     92.2515     70.6762   5.9373362148e+01   5.0763143337e+01     0.135771    0.1123145 -73.17 0.0006923554    1.540    0.351
       104 -13.4010     81.0213     66.9790   6.1892349215e+01   5.3410228032e+01    0.3791188    0.3047918 -26.55 0.0007151357    1.200    0.167
       105 -11.5855      4.3002     67.2192   8.9396073291e+01   6.1098633841e+01    0.4423662    0.1856062 -74.35  0.001308987    2.223    0.550
       106 -11.6146      7.3347     64.3309   8.7776704158e+01   6.1566594852e+01    0.4461619    0.2482513  88.05  0.002359699    2.499    0.600
       107 -11.9259    211.9696     67.4714   2.9937297017e+01   2.3044559495e+01     0.261092    0.2505516 -57.14 0.0003171401    1.022    0.021
       108 -11.6026     11.9397     59.7432   8.5139554036e+01   6.2292322889e+01    0.2432543    0.2104883  22.11 0.0003840333    1.465    0.317
       109 -11.6280     17.1708     63.1677   8.3935939900e+01   6.1258656281e+01     0.465506    0.3012804 -70.48  0.002872484    1.457    0.314
       110 -13.6884     20.8701     58.2562   8.1403594623e+01   6.2051048068e+01    0.3712403     0.232312 -48.10 0.0008720121    1.246    0.197
       111  -9.8400     68.3998     64.5734   6.5485814128e+01   5.5804963780e+01    0.1810306    0.1579145 -80.78 0.0007665176    1.479    0.324
       112 -10.4074    171.0040     62.9945   3.6109262756e+01   3.4326489912e+01    0.2312839    0.2191772  36.80 0.0003493693    1.072    0.067
       113 -10.0176    128.4513     63.1697   4.6202062853e+01   4.4798321470e+01    0.2187944    0.1481695 -35.04 0.0005012984    1.486    0.327
       114  -9.4694    119.9174     62.4776   4.8316363333e+01   4.6837247369e+01    0.2010711    0.1457318  45.45 6.543865e-05    1.376    0.273
       115  -9.3517    154.4772     61.3620   3.9171677273e+01   3.8824861418e+01    0.1540491    0.1438054  47.90 0.0007934119    1.041    0.039
       116  -9.9362     98.7378     61.0103   5.4137277366e+01   5.1460834097e+01    0.2047886      0.17259 -34.34 0.0004199896    1.139    0.122
       117 -12.6398     57.9740     58.7376   6.7422694989e+01   5.8379431178e+01    0.2729488    0.2389947 -30.44 0.0004312343    1.029    0.028
       118  -9.6079     49.7876     59.9762   7.0851591200e+01   5.9101832963e+01    0.1923291    0.1456269 -83.56  0.001057571    1.951    0.488
       119  -9.6662     38.2407     59.5541   7.5092354521e+01   6.0377273988e+01    0.2105427    0.1177682  30.14  0.001140172    2.073    0.518
       120  -9.6612    131.2533     57.6208   4.3603126002e+01   4.5121875245e+01     0.232311    0.1781636 -76.52   0.00105924    1.830    0.454
       121 -10.2564     72.9457     57.4379   6.1567341652e+01   5.6562169221e+01    0.3245473    0.2000099  57.27 0.0009199656    2.611    0.617
       122  -9.9462    229.1635     56.6693   2.4547221336e+01   2.0433158777e+01     0.192258    0.1829099  76.28 0.0007565882    1.095    0.087
       123  -9.3882    183.6677     57.3194   3.1937934845e+01   3.1944514180e+01    0.1620024    0.1165667 -70.84 0.0002903081    1.694    0.410
       124 -10.4292      3.9243     57.4723   8.7680158125e+01   6.3174164506e+01    0.1386458    0.1096702  -2.86  0.000520914    1.539    0.350
       125  -9.8256    225.1555     55.8259   2.4879233177e+01   2.1540398708e+01    0.2211625    0.1957359  42.25 0.0004944266    1.268    0.211
       126  -9.7837    225.3340     52.7016   2.4044597695e+01   2.1954044683e+01    0.2366725    0.1390971 -37.22 0.0003651479    1.617    0.381
       127 -12.2893     86.2536     53.9463   5.5755680520e+01   5.5054662868e+01    0.3973621    0.2599129  32.83  0.000290204    1.596    0.373
       128 -10.4108     80.8217     51.9207   5.6892259349e+01   5.6352270563e+01    0.3106355    0.2132102  64.28  0.001080393    2.435    0.589
       129 -12.6008    114.9104     53.2820   4.6577630560e+01   4.9549856843e+01    0.3240304    0.2756891  36.83 0.0004025541    1.151    0.131
       130 -10.2670     37.4107     52.6332   7.3415889263e+01   6.1868699142e+01    0.4113569    0.1601791 -32.07  0.001593866    3.460    0.711
       131 -12.1072     66.4377     52.3485   6.2185048752e+01   5.8495412085e+01    0.5419647    0.2710601  40.43  0.002534087    2.252    0.556
       132 -10.2420    148.7316     51.9902   3.7440987014e+01   4.1800321700e+01    0.2750146    0.2141832 -66.59 0.0009843169    1.579    0.367
       133 -12.4419    106.2762     50.3298   4.8062933812e+01   5.1877543115e+01    0.2956323    0.2745904 -23.81 0.0003212303    1.091    0.083
       134 -10.9692    103.8245     44.2634   4.6579854477e+01   5.3386099565e+01    0.4648097    0.4161437  46.36  0.002661236    1.203    0.169
       135 -10.6237     16.1066     49.8075   8.1163258927e+01   6.4101045121e+01    0.3713675    0.2408803  84.14  0.002031121    2.624    0.619
       136 -10.4948    138.1511     50.1528   3.9322964409e+01   4.4705138559e+01     0.321629    0.2088532  27.90 0.0008447701    1.849    0.459
       137  -9.6250     97.8546     50.9030   5.0872715020e+01   5.3463033974e+01    0.1818309    0.1653561 -55.60 0.0004239276    1.302    0.232
       138 -10.4132     54.5281     48.7834   6.5457610802e+01   6.0760169850e+01    0.2520893     0.216866  83.38 0.0005613916    1.776    0.437
       139 -10.0666     74.8792     47.6102   5.7431176354e+01   5.8101104062e+01    0.1821052    0.1586907  23.60 0.0007180568    1.195    0.163
       140 -10.0797    154.9396     47.0079   3.4426088011e+01   4.0993646086e+01    0.2239248    0.2148441  46.04 0.0004208071    1.008    0.008
       141 -10.4032     79.2318     45.5159   5.5112288964e+01   5.7763507544e+01     0.231691    0.1923414 -17.14 0.0002942335    1.096    0.088
       142 -10.9189     26.5115     44.6970   7.5450711982e+01   6.4388566483e+01    0.4425728    0.3023476  23.04  0.002844284    1.715    0.417
       143 -10.5573     67.3369     45.0003   5.9231632744e+01   5.9724355461e+01    0.2225903    0.1760762  12.26 0.0004661001    1.284    0.221
       144 -10.1825     17.3171     44.2900   7.9181197952e+01   6.5130742380e+01    0.2767152    0.2056077  71.03     0.001728    2.174    0.540
       145 -10.0800     35.2219     43.2870   7.1372484573e+01   6.3910153047e+01    0.2078528    0.1555392 -61.85 0.0005997309    1.536    0.349
       146  -9.9008     38.7801     42.0490   6.9478420947e+01   6.3801053042e+01    0.2472423    0.1837923  69.64  0.001359938    2.565    0.610
       147 -10.8523    183.9164     40.4844   2.6875841685e+01   3.4359515952e+01    0.3963959    0.2890264 -81.91  0.001507144    1.586    0.369
       148 -12.8922    141.6669     40.8103   3.5280272430e+01   4.5251890753e+01    0.3114091    0.2772401  44.81 0.0005610986    1.059    0.056
       149 -10.4409    170.6577     40.3388   2.9157226952e+01   3.7872294004e+01    0.2333067    0.2308381  48.92 0.0001166495    1.055    0.052
       150 -10.3023    116.8690     41.0887   4.1624039860e+01   5.1082826155e+01    0.2621518    0.1933801  40.71 0.0002740664    1.295    0.228
       151 -12.5533    121.4209     37.5077   3.9075312614e+01   5.0578842668e+01    0.3655555    0.3125257  -6.69 0.0005158027    1.186    0.157
       152 -10.3290    110.2197     40.8193   4.3398479257e+01   5.2582826795e+01    0.3047593    0.2317768  80.26  0.001312402    1.962    0.490
       153 -10.8845      4.7525     40.2036   8.3404533756e+01   6.6643599047e+01    0.2852099    0.1169835 -66.22  0.001453601    2.282    0.562
       154 -10.9877     81.3136     38.1582   5.1565947021e+01   5.8647303064e+01    0.3740804    0.2105835 -29.16  0.001072849    1.741    0.426
       155  -8.9518     51.9835     39.0000   6.2965971840e+01   6.2882992115e+01    0.1829236   0.07016137  32.61 0.0006399494    2.845    0.649
       156  -9.5736      1.4179     38.4795   8.4395174456e+01   6.7133368044e+01    0.1128402   0.08121378 -49.04  8.97667e-05    1.014    0.013
       157  -9.2272     43.7750     39.6113   6.6551307951e+01   6.3731402569e+01     0.151362    0.1134282  34.66 0.0006154001    1.609    0.378
       158 -11.3136    177.4194     35.8572   2.6569811696e+01   3.6699444340e+01    0.2493141    0.2249503  65.96 0.0003213823    1.042    0.040
       159  -9.5608    132.7467     35.4275   3.5473214549e+01   4.8196366707e+01    0.2391699     0.167773   8.50 0.0007069393    1.754    0.430
       160 -11.7008     18.3327    248.0226   1.0216722539e+02   2.2378930611e+01    0.2924459    0.2131635  26.42  0.002046564    2.382    0.580
       161  -9.8492     49.6888     32.4142   6.1375701681e+01   6.4316911123e+01    0.2642273    0.1375299 -34.95  0.001371679    1.685    0.406
       162 -11.4603     28.2392     33.2367   7.0949080696e+01   6.6420169092e+01    0.2196637    0.1444003 -32.44 0.0004501971    1.242    0.195
       163  -9.8995     24.2535     31.4317   7.2098841296e+01   6.7081761716e+01    0.2210567     0.132331  -3.03  0.001162744    1.910    0.476
       164  -9.3596    127.9809     32.9702   3.5736316624e+01   4.9674892673e+01    0.1739652    0.1579869  36.28 0.0007799247    1.022    0.021
       165  -9.9216     55.8836     32.5922   5.8907715281e+01   6.3487736382e+01    0.1764417    0.1160912  25.65  0.001003251    1.578    0.366
       166 -12.0044     90.8867     26.7536   4.3739068302e+01   5.8591232906e+01    0.3710423    0.2459962 -24.22 0.0003211606    1.478    0.323
       167  -9.6843     71.3806     31.1469   5.2312740333e+01   6.1426982454e+01    0.1815083    0.1671377 -80.14 0.0002689984    1.644    0.392
       168 -10.8001     67.3366     27.2971   5.2221225825e+01   6.2662405676e+01     0.312952    0.2525213   1.18  0.001325976    1.104    0.094
       169 -12.5475     10.7347     29.7984   7.7743602826e+01   6.8323473677e+01    0.2604062    0.2018711  21.99  0.001608887    1.611    0.379
       170 -11.2540    135.6717     29.0649   3.2504806444e+01   4.8323758819e+01    0.2487447    0.2105646  53.39  0.000285268    1.115    0.103
       171  -9.5751    131.9911     26.2433   3.2318974515e+01   4.9576409392e+01    0.2156622     0.173048 -65.42 0.0005232196    1.572    0.364
       172 -11.3623    221.0501     26.3443   1.7757646345e+01   2.6576973959e+01    0.2704787    0.2068743 -48.99 0.0003486239    1.249    0.200
       173 -12.1618     45.2488     32.6773   6.3341920971e+01   6.4803279596e+01    0.2548726    0.1963696 -33.30 0.0003180357    1.126    0.112
       174 -10.1541     50.6260     26.7413   5.8675097891e+01   6.5138851682e+01    0.2693086    0.1713945   4.46  0.000882146    1.768    0.434
       175 -10.0716     50.8566     23.5872   5.7238003342e+01   6.5608314045e+01      0.18495    0.1573638 -33.57 0.0007058234    1.306    0.234
       176 -10.6721    102.6980     22.7569   3.8501015900e+01   5.6710312640e+01    0.3595579    0.2620712   8.10  0.001628875    1.438    0.304
       177  -9.6694     80.8110     26.5937   4.7030400412e+01   6.0497679306e+01    0.1654657    0.1246276  50.32 0.0003630515    1.562    0.360
       178  -9.6158     45.3074     25.9683   6.0617258653e+01   6.5925298433e+01    0.1703484    0.1314774 -26.34  0.000403126    1.089    0.081
       179  -9.6346     18.5922     26.0486   7.2791823948e+01   6.8488845114e+01    0.1706477   0.08979299 -49.20 0.0009322017    1.552    0.356
       180 -10.0398    186.5042     25.1484   2.1909075835e+01   3.5652878189e+01    0.2007189    0.1442556 -29.11  0.000585296    1.496    0.331
       181  -9.6302    119.4973     24.8832   3.4814767225e+01   5.2711923822e+01    0.1885617     0.137607 -21.93 0.0002879049    1.425    0.298
       182  -9.4480    110.1989     25.5901   3.7534541450e+01   5.4727035035e+01    0.2007691    0.1162931  41.56 0.0008720431    1.611    0.379
       183 -10.2929    188.5061    248.4783   7.2929136194e+01  -2.2404103791e+00    0.1213033    0.0926227  36.48 6.209886e-05    1.020    0.019
       184  -9.5071    230.1685    247.2065   6.5402843126e+01  -8.6625100399e+00    0.1460667    0.1163966  35.17 0.0004456164    1.289    0.224
       185  -9.1504    224.3336    247.3047   6.6427123503e+01  -7.7848680100e+00    0.1213299   0.07265676  17.40 0.0005079219    1.663    0.399
       186 -10.4384     34.0671     24.3081   6.4925387050e+01   6.7442153869e+01    0.2557395    0.1363401  34.86   0.00143086    2.240    0.553
       187  -9.5256     31.3023     21.3083   6.4966501470e+01   6.8216651371e+01     0.201683   0.08411264 -38.14 0.0007559021    1.968    0.492
       188  -9.8522     84.8298     22.8560   4.4079002677e+01   6.0276404411e+01    0.1683981    0.1664287 -54.93  0.001085993    1.352    0.260
       189 -10.0104    131.4974    247.0565   8.3050064988e+01   7.2678244972e+00    0.1475261    0.1178157 -66.22 0.0008038868    1.555    0.357
       190  -9.1529      7.5598     20.5280   7.6144389911e+01   7.0194719095e+01    0.1098174   0.08355912 -38.28 1.911736e-05    1.074    0.068
       191 -10.6347     38.2540     19.9851   6.1200278110e+01   6.7702397087e+01     0.346245    0.1520645 -51.50  0.001538658    3.141    0.682
       192 -10.0233    115.9981    246.6789   8.5791977810e+01   9.7690076840e+00    0.1652857    0.1230327  53.18 0.0006435615    1.027    0.027
       193 -12.0940     18.2094     20.5246   7.0904853818e+01   6.9486097340e+01    0.3838025       0.2387  26.08 0.0003985823    1.895    0.472
       194  -9.4560    170.5043    246.5217   7.5914109532e+01   9.7219697110e-01    0.1227793   0.09423897  37.33 0.0008095076    1.062    0.058
       195 -10.3606     52.6631    244.4885   9.6543629362e+01   1.9048544251e+01    0.1792541    0.1355053  77.77 0.0006361759    1.155    0.134
       196  -9.4350    200.6557     21.7108   1.8987003713e+01   3.2353420926e+01    0.1456477    0.1013351  41.32 0.0007024292    1.653    0.395
       197 -10.3416    133.4719     18.6471   2.9205031205e+01   5.0102298129e+01    0.4235503    0.2268571  34.63  0.001817701    2.052    0.513
       198 -10.5768    238.0112     19.5349   1.4287079059e+01   2.3244559500e+01    0.2049827    0.1221094  72.54  0.001035349    1.611    0.379
       199  -9.1715    113.4985     19.5031   3.4246841449e+01   5.4730181426e+01    0.1395507    0.1240518  28.44 -0.000270163    1.003    0.003
       200  -9.9491     70.8466     18.6758   4.7145859807e+01   6.3322739234e+01    0.2215189    0.1532552 -13.54 0.0006953606    1.359    0.264
       201  -9.8649    147.2203    243.9532   7.9836558863e+01   5.1864819766e+00    0.1330875    0.1012648 -57.94  0.000664274    1.676    0.403
       202 -10.1478     43.5809     19.2288   5.8477016130e+01   6.7200372848e+01    0.1690386   0.09457038 -28.54 0.0003328226    1.567    0.362
       203 -10.6737    139.8649     17.9608   2.7619784505e+01   4.8592534505e+01    0.2268143    0.1826839  51.93 0.0002567892    1.118    0.105
       204  -9.4212     49.9778     17.9687   5.5127638025e+01   6.6574196268e+01    0.1468809    0.1126093 -18.40 0.0009482684    1.089    0.081
       205 -10.0045    215.4506     15.9779   1.5702504012e+01   2.9217857136e+01    0.1960723    0.1292123 -35.76 0.0003979224    1.535    0.348
       206 -10.2975    171.0717     16.1691   2.1499906651e+01   4.0738997686e+01    0.2155455    0.1759171  46.27  0.000338308    1.218    0.179
       207 -10.3447    159.9090     15.9629   2.3228509986e+01   4.3680076232e+01    0.2136093    0.1926248  55.04 0.0003799803    1.037    0.036
       208  -9.0511     92.2853     16.6623   3.9037901036e+01   5.9607558292e+01    0.1227895    0.1044821 -56.84 0.0005489412    1.630    0.386
       209 -10.7260    235.4012     14.7933   1.3399380476e+01   2.4426018028e+01    0.1749374    0.1292855 -15.50 0.0006728518    1.716    0.417
       210  -9.5655     39.6129    243.2932   9.8600051407e+01   2.0826643295e+01    0.1182257   0.05272869  63.03 0.0007013463    1.768    0.434
       211  -9.0000    194.4850    242.5570   7.1021389239e+01  -2.4583408416e+00    0.1226577   0.09461012  34.96 0.0008075731    1.027    0.026
       212  -9.4348     59.0402    235.9921   9.4889999066e+01   1.9726138218e+01    0.1337626   0.09718916  68.39 0.0003564946    1.017    0.017
       213  -9.4826    204.4013    235.5021   6.8177549841e+01  -3.1843718647e+00    0.1224997   0.09691983  27.89 -0.0001645993    1.025    0.025
       214  -9.2397    238.7379    234.3335   6.1890194992e+01  -8.5280583290e+00   0.09742411    0.0916735  41.53 0.0004125194    1.577    0.366
       215  -8.9709    109.2862     12.6469   3.2573284507e+01   5.6436968516e+01    0.1295898    0.1045367 -59.16 0.0007022108    1.666    0.400
       216 -11.6734      3.1233    233.1181   1.0386102785e+02   2.6464563853e+01    0.2883465    0.1633888  42.61  0.002138849    1.762    0.432
       217 -10.2129     32.3399    233.1601   9.9207675242e+01   2.3440129097e+01    0.1570352    0.1169241  59.73 0.0004302108    1.216    0.178
       218 -10.1166    246.0684    230.2921   5.9959087006e+01  -9.1843726520e+00    0.2139683    0.1317117  30.75 0.0004997652    1.314    0.239
       219  -9.6598    209.7134    229.6694   6.6301963544e+01  -3.3106939951e+00    0.1244368   0.08313121  13.22 0.0002866737    1.617    0.382
       220  -9.9603     56.6947    228.1518   9.4724556384e+01   2.1439728160e+01    0.2124347   0.08893178 -82.37  0.001080747    2.605    0.616
       221 -10.1363    140.1007    228.0621   7.9196012009e+01   8.8750604901e+00    0.2115113    0.1347918  65.98  0.001146012    1.794    0.443
       222 -11.2968      1.4228    226.5526   1.0386040624e+02   2.7788161062e+01    0.3033156    0.1208672 -80.45 0.0009828471    2.081    0.519
       223 -11.0684      2.6868    220.0516   1.0338683056e+02   2.8848748686e+01    0.2868319    0.1039338  72.70  0.001588136    2.368    0.578
       224 -10.5254      8.0078    221.1238   1.0257353179e+02   2.8152944947e+01    0.2538666    0.0902736  88.16  0.001141483    2.534    0.605
       225  -9.5079    130.9649    221.2369   8.0090243707e+01   1.1580986018e+01     0.180828   0.08995201  44.00 0.0008915387    1.659    0.397
       226 -10.0923     85.9125    215.0309   8.8163302969e+01   1.9899314333e+01    0.1800162    0.1406018  67.94  0.001185166    1.031    0.030
       227  -9.2782    205.5234    211.4280   6.4069821080e+01  -8.1170627680e-02    0.1328215    0.1072767  25.05  8.09702e-05    1.057    0.054
       228 -11.2537      3.5204    209.6860   1.0278241430e+02   3.0702636320e+01    0.3805209    0.1154369  86.01  0.001741851    3.385    0.705
       229  -9.9967     20.1459    209.3162   9.9908537911e+01   2.9182366924e+01    0.1531965     0.101967  67.20  0.000758866    1.136    0.119
       230 -10.1991     39.3330    207.1108   9.6307054046e+01   2.7548641158e+01    0.1701398    0.1366077  62.51 0.0004741896    1.207    0.171
       231  -9.7194    230.0063    209.4990   5.9193040668e+01  -4.0609066074e+00    0.1588487    0.1074173  59.34 0.0008070751    2.338    0.572
       232 -10.0301     18.4908    194.3638   9.9296441525e+01   3.2294992506e+01    0.2196777   0.08743602 -78.03 0.0009150053    2.095    0.523
       233  -9.0986    208.5582    191.5218   5.9902250951e+01   2.3643333149e+00    0.1365762    0.1187598  22.22 0.0001905607    1.006    0.006
       234 -10.4377      4.4585    153.5671   9.9304119108e+01   4.2053525508e+01     0.241186    0.1091773  72.94  0.001261691    2.160    0.537
       235  -9.4503     28.9775    138.9732   9.2329159228e+01   4.3286201438e+01    0.1453086    0.1122932 -81.73 0.0003483541    1.034    0.033
       236  -9.2881    235.6843    138.3350   4.3605460068e+01   5.6501227709e+00    0.1402159    0.1133279 -67.22 0.0007047375    1.692    0.409
       237  -9.8502     44.1711    136.8456   8.8269814608e+01   4.2278736732e+01    0.1806576    0.1419288  89.91  0.000303708    1.123    0.110
       238 -10.0331     96.0239    133.9397   7.4204341006e+01   3.5900642882e+01    0.2202528    0.2015865 -77.44 0.0006255723    1.021    0.021
       239  -9.5419    213.3238    133.7112   4.6652068500e+01   1.1207895987e+01    0.1449095    0.1205323 -80.89 0.0003463996    1.607    0.378
