#   1 NUMBER                 Running object number                                     
#   2 MAG_AUTO               Kron-like elliptical aperture magnitude                    [mag]
#   3 X_IMAGE                Object position along x                                    [pixel]
#   4 Y_IMAGE                Object position along y                                    [pixel]
#   5 X_WORLD                Barycenter position along world x axis                     [deg]
#   6 Y_WORLD                Barycenter position along world y axis                     [deg]
#   7 A_WORLD                Profile RMS along major axis (world units)                 [deg]
#   8 B_WORLD                Profile RMS along minor axis (world units)                 [deg]
#   9 THETA_WORLD            Position angle (CCW/world-x)                               [deg]
#  10 FWHM_WORLD             FWHM assuming a gaussian core                              [deg]
#  11 ELONGATION             A_IMAGE/B_IMAGE                                           
#  12 ELLIPTICITY            1 - B_IMAGE/A_IMAGE                                       
         1 -13.9951    173.3239     42.8225   7.1633744778e+01   3.6576278673e+01    0.9591718    0.8714685 -63.71 0.0008558988    1.131    0.116
         2 -14.0550    184.2440     32.4599   6.7262313098e+01   3.5285367516e+01     1.001882    0.8480924  85.62  0.003186303    1.048    0.046
         3 -15.0548    190.6951     22.9712   6.4045262616e+01   3.4887209335e+01     2.157566     1.513389  18.51  0.001337118    2.372    0.578
         4 -10.3640    216.5033     18.4992   6.0073014386e+01   2.9396017152e+01      0.12816    0.1040168 -84.86 -4.739372e-06    1.001    0.001
         5 -13.9856     62.0323    209.9856   1.3533567012e+02   2.3025351516e+01     1.637205    0.7276173  42.80  0.007724157    2.107    0.525
         6 -16.2153    119.1480    238.9502   1.2706280488e+02   8.0405752004e+00     6.532627     3.114998  41.06   0.03065892    1.856    0.461
         7  -9.7328     41.4117    220.4442   1.4053621161e+02   2.3424873683e+01    0.2543867    0.1537637  54.25  0.001499205    1.464    0.317
         8 -11.3789     66.3194    236.6120   1.3724679311e+02   1.6730027315e+01     0.265423     0.184585 -51.91  0.001563612    1.884    0.469
         9 -12.1764     46.0465    203.9243   1.3802149437e+02   2.6485589624e+01      0.23176    0.1889737  66.28 0.0004764346    1.139    0.122
        10 -15.8523     75.3053    151.6908   1.2387277568e+02   3.4958672148e+01     4.701994     2.575305  84.58   0.01378264    3.524    0.716
        11 -10.2057     92.3310    206.0705   1.2832578749e+02   1.9366226491e+01    0.2483926    0.1989189  85.98 0.0007211639    1.183    0.155
        12 -10.5554     72.6561    202.6717   1.3219699685e+02   2.3165172333e+01    0.2383175    0.2079467 -26.84 0.0007010375    1.656    0.396
        13 -13.4256     72.5501    194.9974   1.3123311191e+02   2.4947197404e+01    0.8329077    0.6817369  47.61  0.004854702    1.266    0.210
        14 -11.9355     64.5973    192.8389   1.3273765580e+02   2.6585173920e+01    0.4249534    0.2869605  49.44  0.002327416    1.440    0.305
        15 -12.7535     47.1409    216.6171   1.3905986683e+02   2.3535501928e+01     0.370241    0.1976478  51.90  0.001020906    1.685    0.407
        16 -13.1063    195.4964    195.1674   1.0378751056e+02   2.6685097199e+00    0.8542958    0.6749166  75.28  0.003685853    1.783    0.439
        17  -9.3751     94.3036    199.6279   1.2697619808e+02   2.0504385933e+01    0.1509658   0.09858995  76.11  0.000703165    1.756    0.430
        18 -11.8011    112.4230    196.5497   1.2238767586e+02   1.8122216323e+01    0.5517022    0.3607793   4.78  0.002057861    3.530    0.717
        19 -11.1864    103.0227    194.8195   1.2426927110e+02   2.0149306266e+01    0.4038545    0.3013068  68.66   0.00135618    1.357    0.263
        20 -10.8465    140.9492    199.5001   1.1641188854e+02   1.2236264176e+01    0.2246916    0.1971818 -60.28 0.0006167586    1.194    0.162
        21 -11.3003     79.5066    185.6290   1.2833596869e+02   2.6107994092e+01    0.3255341    0.2710021 -80.23  0.001014692    1.096    0.087
        22 -11.5260    207.7997    184.4384   9.9147651421e+01   2.3872357147e+00    0.3364572    0.3204409 -42.24  0.001361944    1.127    0.113
        23 -11.6132    211.3365    181.1029   9.7763706931e+01   2.3510042703e+00    0.3531835    0.2861141   1.95  0.001140876    1.359    0.264
        24 -10.3207     90.4695    183.9756   1.2550360386e+02   2.4775009303e+01    0.2741254    0.1764452  60.96  0.001135742    1.637    0.389
        25 -10.7916     99.4008    180.6435   1.2283398428e+02   2.4081053126e+01    0.2523742    0.2430228 -70.92 0.0006094067    1.139    0.122
        26 -11.0313     90.7512    175.9940   1.2415146566e+02   2.6634561131e+01    0.4185788    0.2637545  78.94  0.001150866    2.068    0.517
        27 -12.1389     83.0667    179.4828   1.2656647509e+02   2.7023645143e+01    0.4011751    0.2508891 -48.44  0.001235101    1.745    0.427
        28 -12.3121     86.3022    174.3271   1.2496220314e+02   2.7752924834e+01    0.4094788    0.2716024 -46.61  0.001234674    1.661    0.398
        29  -9.8906     50.3075    213.3155   1.3810186160e+02   2.3852846897e+01    0.2151559    0.1210177  53.15 0.0007434568    1.614    0.380
        30 -11.1032    197.7812    175.5040   9.9337127044e+01   6.0663738960e+00    0.3967995     0.299796 -53.36  0.001118597    1.428    0.300
        31 -10.2716     71.3663    174.1179   1.2856486448e+02   3.0072696565e+01    0.2539611    0.1830594  53.84 0.0006470575    1.390    0.281
        32 -19.3581     21.8718    135.2098   1.3542285653e+02   4.5158624304e+01     19.76443     2.300727 -68.09   0.04310904    9.055    0.890
        33 -11.2719    203.8200    168.0436   9.6529832565e+01   6.3480742164e+00    0.4552519    0.4177698  52.88   0.00224257    1.169    0.145
        34 -11.3279    145.7261    168.3346   1.0938053558e+02   1.8235556921e+01    0.2924261    0.2569635 -46.45 0.0007024836    1.166    0.142
        35 -10.4366      1.7466    161.0211   1.4332787902e+02   4.0767167484e+01     0.170679    0.1265802 -81.50 0.0005415179    1.022    0.022
        36 -12.6928     98.2902    157.0953   1.1888569563e+02   2.9945996541e+01    0.7026148     0.441078 -36.62  0.003029216    2.017    0.504
        37 -11.6257    133.7769    144.6519   1.0717600034e+02   2.6173842289e+01     1.077799    0.2680328 -54.04  0.002533394    5.354    0.813
        38 -11.0868    174.5422    149.1464   9.8551355485e+01   1.6426798147e+01     0.291191    0.2238297  46.73 0.0006753296    1.317    0.241
        39 -11.8879    144.6566    145.2222   1.0461429896e+02   2.3763748508e+01    0.4155964    0.3156752 -73.37  0.001092552    1.555    0.357
        40 -12.2035    108.8139    141.4217   1.1290581604e+02   3.1851117058e+01    0.5857671    0.3571846 -33.83  0.002384063    2.104    0.525
        41 -12.4585     97.4349    141.8817   1.1604584041e+02   3.3787723126e+01    0.2894807    0.2790495  -3.48 0.0004203029    1.169    0.145
        42 -10.0343     82.9463    133.7693   1.1830621230e+02   3.8150744493e+01    0.1964152    0.1840474  67.41 0.0003697744    1.119    0.106
        43 -11.5632    115.6485    131.4066   1.0881363247e+02   3.2926590173e+01    0.3568939    0.2912863  -5.21 0.0008239862    1.592    0.372
        44 -11.6665    119.7453    128.8613   1.0711975155e+02   3.2712702056e+01    0.4308853    0.3225068  82.16  0.001628821    1.769    0.435
        45 -11.9925    104.7041    129.0630   1.1122807353e+02   3.5553394055e+01    0.5874858    0.4052684 -84.68  0.001462518    2.076    0.518
        46 -11.0648    160.2654    127.9216   9.6777071228e+01   2.4229380984e+01    0.4425156    0.2659598 -35.69  0.001785322    1.832    0.454
        47 -11.7278    135.3832    123.6022   1.0176411424e+02   3.0676605825e+01    0.7080406    0.1505054 -48.47  0.001712349    4.883    0.795
        48 -10.7577    125.8084    127.5406   1.0520429266e+02   3.1790153121e+01    0.2863103    0.2015054 -88.04 0.0006926271    2.107    0.525
        49 -10.5143    111.0011    119.9741   1.0731756585e+02   3.6482518895e+01    0.2242676    0.2194792 -54.34 0.0003557829    1.015    0.015
        50 -11.9253    182.1719    233.5067   1.1342545753e+02  -1.8728077024e+00    0.4195683    0.2273792  48.35  0.001997828    1.872    0.466
        51 -10.5536    167.8707    112.8418   9.1279908145e+01   2.5702514124e+01    0.3977673    0.2758639 -69.16  0.001274262    1.834    0.455
        52 -10.4471    205.3747    110.2459   8.3071163557e+01   1.7545680303e+01    0.3283282    0.2359209  37.98 0.0009270065    1.643    0.391
        53 -10.7221    121.0043    111.2462   1.0237523854e+02   3.6453223759e+01    0.2112788     0.131054  43.64 0.0009002064    1.644    0.392
        54 -11.8277     67.1561    104.5941   1.1637434550e+02   4.7315584954e+01     0.316695    0.2624713   6.43  0.001789499    1.373    0.272
        55  -9.9395     64.1239    230.4311   1.3706439919e+02   1.8314687597e+01    0.1710692    0.1047353  49.26 0.0002494199    1.447    0.309
        56  -9.3845    153.9688    103.7756   9.2091937424e+01   3.0796559324e+01    0.1967351    0.1274174  49.17 0.0003373716    1.542    0.352
        57 -10.1295    134.5114    102.9710   9.6631509926e+01   3.5358521673e+01    0.2393889    0.1511445 -44.26 0.0009556241    1.577    0.366
        58 -11.3253    175.5273     74.0068   7.9544047546e+01   3.1262793154e+01    0.3443515    0.2537853 -85.67 0.0006784081    1.612    0.380
        59 -10.5980    169.7599     69.3274   7.9403916487e+01   3.3447021339e+01    0.3531458    0.1956923 -75.68  0.001131087    3.866    0.741
        60 -10.3757     69.7035    227.9321   1.3571132216e+02   1.8047901355e+01    0.1967728    0.1387308  77.38   0.00116157    1.274    0.215
        61  -9.0128     45.3147     59.2711   1.1132916199e+02   5.9320734749e+01    0.1255548   0.08347232 -15.63 0.0002732331    1.556    0.357
        62 -12.1769    115.6117    211.2126   1.2394466343e+02   1.4316137675e+01    0.4349031    0.2691358  77.98 0.0006472979    2.238    0.553
        63 -12.4669    108.4990    209.1683   1.2520446539e+02   1.5989652833e+01    0.5781543    0.3998776  59.47  0.002645066    1.397    0.284
        64 -12.2233    107.2939    203.0492   1.2456190810e+02   1.7551506272e+01    0.4751084    0.3448153  41.04  0.002390767    1.367    0.269
