#   1 NUMBER                 Running object number                                     
#   2 MAG_AUTO               Kron-like elliptical aperture magnitude                    [mag]
#   3 X_IMAGE                Object position along x                                    [pixel]
#   4 Y_IMAGE                Object position along y                                    [pixel]
#   5 X_WORLD                Barycenter position along world x axis                     [deg]
#   6 Y_WORLD                Barycenter position along world y axis                     [deg]
#   7 A_WORLD                Profile RMS along major axis (world units)                 [deg]
#   8 B_WORLD                Profile RMS along minor axis (world units)                 [deg]
#   9 THETA_WORLD            Position angle (CCW/world-x)                               [deg]
#  10 FWHM_WORLD             FWHM assuming a gaussian core                              [deg]
#  11 ELONGATION             A_IMAGE/B_IMAGE                                           
#  12 ELLIPTICITY            1 - B_IMAGE/A_IMAGE                                       
         1 -13.7096    229.0478      4.1136   3.6107567837e+01   2.7596612842e+01     1.698431    0.8233509  57.31  0.004850606    2.223    0.550
         2 -13.9561    185.2369     47.3316   5.2306082361e+01   3.2934658016e+01      1.67034     1.091751  34.85 0.0009791659    1.955    0.489
         3 -14.3788    195.7985     38.8867   4.8368965419e+01   3.1453679149e+01     1.750547     1.427386   7.66  0.003459097    1.614    0.380
         4 -14.6337    204.9787     29.0513   4.4552192864e+01   3.0452266835e+01     1.673031     1.320047  32.11  0.001486902    1.633    0.388
         5 -11.9246     58.8070      3.5568   6.6736798516e+01   6.7076087498e+01    0.3671868     0.178571  34.22  0.001892574    1.891    0.471
         6 -11.9151     47.1796    172.8559   1.1633482313e+02   3.3206388854e+01     0.488266    0.4524709 -19.23   0.00193314    1.501    0.334
         7 -11.6774    139.8910    249.9001   1.0577649786e+02   4.2746636537e+00    0.4263652    0.2658061  38.18  0.002557772    1.312    0.238
         8 -16.8114     71.5093    149.1638   1.0710342970e+02   3.5725833714e+01     21.82545      10.8563  85.30   0.04815994    4.267    0.766
         9 -10.8837     52.6462    165.2260   1.1415404404e+02   3.4337744696e+01    0.4122226    0.1856447 -51.18   0.00181368    2.457    0.593
        10 -10.3580    204.4364    176.0743   8.0872949658e+01   5.5046004684e+00     0.308165     0.265817 -50.79 0.0009433858    1.372    0.271
        11 -10.1018    196.8221    175.9172   8.2365557733e+01   6.9675062682e+00    0.3344887    0.2706427  61.12  0.001777019    1.548    0.354
        12 -10.2418    188.4600    174.8799   8.3871044131e+01   8.7573466816e+00    0.3570054    0.2449052 -54.92  0.001378251    1.792    0.442
        13 -12.2524     72.8223    174.3759   1.1046557795e+02   2.9548821406e+01    0.4175644    0.2752607 -38.83  0.002063561    2.122    0.529
        14 -12.1741     76.9141    169.7295   1.0884034853e+02   3.0045565625e+01    0.3469762    0.2917697 -43.84  0.001001113    1.426    0.299
        15 -11.4065    140.2978    172.8509   9.4112693491e+01   1.8518473931e+01    0.5423115    0.3463157  64.69  0.001821946    2.050    0.512
        16 -10.7432    230.6149    167.2514   7.4095356620e+01   2.1989629424e+00    0.4099971    0.1086221 -43.45  0.001260581    4.293    0.767
        17  -9.6851    186.8930    165.2975   8.2220660175e+01   1.0864428064e+01    0.2515536    0.1944622 -47.45  0.000827036    1.386    0.279
        18 -10.7686    159.0685    162.2141   8.7676014276e+01   1.7081328826e+01    0.3250127    0.2739657 -89.86 0.0006760493    1.464    0.317
        19 -12.2252     91.4428    153.8566   1.0267414636e+02   3.1584085933e+01    0.6644409    0.4754213 -29.54  0.002411085    1.941    0.485
        20 -10.9434    184.0602    205.3387   9.0507821350e+01   4.1730286858e+00    0.2704456    0.2236815   2.52  0.001591607    1.249    0.200
        21  -9.9830    188.4929    152.9913   7.9223258436e+01   1.2908463889e+01    0.2129122    0.1293926 -62.90 0.0008106538    2.616    0.618
        22 -11.4736    133.8933    145.2454   9.0082660068e+01   2.5874762879e+01     1.251879    0.3341641 -55.27  0.002995798    5.586    0.821
        23 -16.5299     50.9286    202.3445   1.1843755523e+02   2.6193491081e+01     5.751562     2.613173  69.88   0.02614393    2.568    0.611
        24 -11.0308    174.4425    148.9411   8.1343777965e+01   1.6647831504e+01    0.3709769    0.2987568 -61.83  0.001210664    1.438    0.305
        25  -9.1791     93.9728    250.0073   1.1438607111e+02   1.1162297605e+01    0.1402226    0.1088631  56.89 0.0003753224    1.011    0.011
        26 -10.6226    143.8841    146.2063   8.7829277875e+01   2.3629774265e+01    0.3863118    0.2043755 -64.71  0.001325053    2.931    0.659
        27 -10.9186     85.4013    144.6269   1.0262218410e+02   3.4766360191e+01    0.3025743    0.2224873  66.05 0.0006962055    1.480    0.324
        28 -11.0101    104.4637    139.2544   9.6447128130e+01   3.2873445568e+01    0.5465516    0.3506309 -27.92  0.002246162    2.315    0.568
        29 -12.2902     91.9623    139.3627   9.9853146323e+01   3.4989512101e+01    0.2729997    0.2529308 -49.89  0.000373359    1.129    0.114
        30  -9.7965    118.3794    134.3550   9.1672963196e+01   3.1449319510e+01    0.3242104    0.1775028  60.32  0.001180341    2.554    0.608
        31 -10.7867    105.9806    130.8357   9.4235961673e+01   3.4610658174e+01    0.3580091    0.3104019 -78.05  0.001073605    1.189    0.159
        32 -11.4475    135.9238    128.3075   8.5689275483e+01   2.9301264923e+01    0.7956133    0.2151081 -49.37  0.002192908    3.845    0.740
        33 -10.8629    113.0958    129.9525   9.2096739140e+01   3.3496647094e+01    0.4604411    0.3437639  17.80   0.00142373    1.727    0.421
        34 -11.6948    119.4663    123.3159   8.8816045891e+01   3.3813740499e+01    0.7205719    0.4486559 -19.97  0.002608138    2.842    0.648
        35 -10.4216    160.7554    128.0343   7.9540929953e+01   2.3981777978e+01    0.3925657    0.2163422 -46.35  0.001560412    1.822    0.451
        36  -9.1930     96.4874    128.4610   9.6353179013e+01   3.6862404400e+01    0.1938866    0.1841334 -87.76 0.0001512961    1.036    0.035
        37 -11.1531    100.3063    125.9788   9.4732546410e+01   3.6791381345e+01    0.3158089    0.2573274 -25.42 0.0007351828    1.457    0.314
        38 -11.3057     24.2659    120.5354   1.1587324326e+02   4.7978680443e+01    0.2899935    0.1866054  53.83  0.001260556    1.739    0.425
        39 -10.1589    108.8929    119.0046   9.0691711064e+01   3.6873187541e+01    0.2195515    0.2136311 -65.60 0.0003964168    1.010    0.010
        40 -12.6275     19.6455    111.2641   1.1593625079e+02   5.0558682869e+01    0.7161894    0.4037553  59.44  0.003652985    2.175    0.540
        41  -9.9781    167.8846    112.7055   7.4011059285e+01   2.5573851294e+01    0.4077912    0.2751606 -75.37  0.001576698    2.351    0.575
        42 -10.5119    134.5458    104.8183   8.0013617671e+01   3.4825671036e+01    0.8279335    0.1544191 -43.83  0.001910842    5.311    0.812
        43 -11.9780    118.2067    109.3956   8.5660119940e+01   3.7268608179e+01    0.6613675    0.5322464  71.48  0.002630831    1.482    0.325
        44 -10.1962    205.5866    110.2238   6.5646744913e+01   1.7377700764e+01    0.3057113    0.2384143  41.60 0.0008585053    1.363    0.267
        45 -15.6270     10.1748    206.8015   1.2679747836e+02   2.9658958833e+01      0.67606    0.5052608 -66.63   0.00294426    1.546    0.353
        46  -9.9034     60.3135     97.2498   1.0031834024e+02   4.9836363669e+01    0.2458763    0.1681339  62.45  0.001061569    1.957    0.489
        47 -10.3031    157.0341     81.0963   6.7689634467e+01   3.4409299522e+01    0.2406616    0.2343799 -62.69 0.0006685868    1.032    0.031
        48  -9.3890    184.5346     76.9872   6.0812556201e+01   2.8381377304e+01    0.2316656    0.1490665 -34.42 0.0005339693    1.558    0.358
        49 -10.0599     61.6255     68.7949   9.2183389772e+01   5.6052933525e+01     0.239742    0.2177268  55.47 0.0006804655    1.358    0.263
        50 -18.1429      6.9970    239.8506   1.2895771335e+02   2.3583535553e+01      5.78749     2.205715 -77.93   0.03411253    2.324    0.570
        51  -8.5466    152.2943    211.2906   9.8034292865e+01   8.7219515077e+00    0.1284627    0.1010178   7.99 0.0002557339    1.552    0.356
        52 -13.0311    196.5686    197.5921   8.6608276112e+01   3.2599825196e+00     1.286912      1.20239 -83.28  0.007915319    1.443    0.307
        53 -11.3610    207.8416    193.8130   8.3686416523e+01   1.8945588342e+00    0.3677538    0.2067677 -42.70  0.001783581    1.940    0.484
        54 -11.2607    150.4834     53.9840   6.0809326484e+01   4.0719841023e+01    0.4293432    0.3058849 -77.95 0.0008416216    1.909    0.476
        55 -11.2485    152.1462     47.6093   5.8417539579e+01   4.1277869088e+01    0.3308074    0.2754503 -85.89 0.0008614121    1.353    0.261
        56  -9.1414     37.2136     38.1307   9.1631719836e+01   6.5083338430e+01    0.1494391    0.1399466 -34.57 0.0004559876    1.299    0.230
        57 -11.2584    145.3035    180.8569   9.4440159664e+01   1.5889991064e+01    0.3772287    0.2812201 -64.20  0.001178465    1.546    0.353
        58 -16.4651     34.9605    250.0195   1.2482249719e+02   1.8789007905e+01     4.025586     1.090108  30.69   0.01228224    8.688    0.885
        59  -9.7861    189.7751     14.9023   4.2590845054e+01   3.5873203444e+01    0.1949875    0.1800196  56.06 0.0005987689    1.187    0.157
