#   1 NUMBER                 Running object number                                     
#   2 MAG_AUTO               Kron-like elliptical aperture magnitude                    [mag]
#   3 X_IMAGE                Object position along x                                    [pixel]
#   4 Y_IMAGE                Object position along y                                    [pixel]
#   5 X_WORLD                Barycenter position along world x axis                     [deg]
#   6 Y_WORLD                Barycenter position along world y axis                     [deg]
#   7 A_WORLD                Profile RMS along major axis (world units)                 [deg]
#   8 B_WORLD                Profile RMS along minor axis (world units)                 [deg]
#   9 THETA_WORLD            Position angle (CCW/world-x)                               [deg]
#  10 FWHM_WORLD             FWHM assuming a gaussian core                              [deg]
#  11 ELONGATION             A_IMAGE/B_IMAGE                                           
#  12 ELLIPTICITY            1 - B_IMAGE/A_IMAGE                                       
         1 -12.6269    247.5853     28.7612   3.4971708577e+02   2.3990467664e+01     0.689719    0.3943491  75.85  0.004614466    2.026    0.506
         2 -12.5011    246.3734     22.3821   3.4852606397e+02   2.4909104913e+01      0.67412    0.3813392  70.51  0.004496471    2.105    0.525
         3 -10.6750      2.3302      2.8097   4.2075359385e+01   7.9179322556e+01    0.2968696    0.1660881 -41.21  0.001667967    1.703    0.413
         4  -9.7739    227.4040      9.5121   3.4684821781e+02   2.9637111806e+01    0.1995372    0.1433211 -55.33 0.0006328219    1.014    0.014
         5 -10.5117     36.0971    243.3868   6.9815384173e+01   1.7453258108e+01    0.2667863    0.2388868 -81.27  0.001206435    1.320    0.243
         6  -9.0764    101.0000    250.0529   5.5825858946e+01   9.3580122095e+00    0.1627417   0.06949042 -60.35  0.000609722    2.893    0.654
         7 -13.3446     54.4508    226.8243   6.4464012820e+01   1.8914915535e+01     2.797272    0.7612879 -72.28   0.01024226    4.347    0.770
         8 -11.2537     43.5059    238.0714   6.7819092901e+01   1.7769355448e+01    0.2182469    0.1920968  62.25   0.00041857    1.152    0.132
         9 -10.5588    102.9207    238.8579   5.4274769690e+01   1.1097275531e+01    0.2265763     0.179272 -54.32 0.0005468716    1.498    0.332
        10 -15.5286     30.0458    177.7835   6.7072901818e+01   3.2809209330e+01     9.100131     2.829691  42.92   0.01729981    2.713    0.631
        11 -13.7725    129.4710    229.7018   4.7364459913e+01   9.5731001298e+00     1.158344    0.4653509  28.68  0.005377376    2.141    0.533
        12 -12.7631    108.4856    228.8958   5.1926070711e+01   1.2254820437e+01    0.6033736    0.2940485  31.40  0.003027695    1.722    0.419
        13  -9.8141     41.6544    230.1496   6.7759107445e+01   1.9557748363e+01    0.3727061    0.2141172  86.41  0.002010774    2.005    0.501
        14  -9.7388     59.1311    231.0229   6.3668140920e+01   1.7552950096e+01    0.1894969    0.1686693  84.79  0.000625975    1.248    0.199
        15 -11.9201     87.3366    222.5951   5.6159038794e+01   1.6025328061e+01    0.6872587    0.3289531  42.50  0.003275674    1.917    0.478
        16 -10.4808     47.0649    229.0146   6.6395097676e+01   1.9239857526e+01    0.2352947    0.1794494  64.26  0.001107044    1.284    0.221
        17  -8.9926    194.6372    226.8213   3.4071882324e+01   2.5295927192e+00     0.140909   0.09853407 -42.39 0.0007629659    1.647    0.393
        18 -12.7842    116.5199    229.3443   5.0169915920e+01   1.1201117021e+01    0.6202392    0.2969545  28.72  0.002878785    1.777    0.437
        19  -9.3577    222.0282    224.3132   2.9085909012e+01   7.5491278504e-02     0.147248    0.1083626  -7.06 0.0003206433    1.038    0.037
        20  -9.6788     72.1039    224.1205   5.9972657094e+01   1.7509085974e+01    0.1797935    0.1589687   4.87 0.0003341503    1.216    0.177
        21 -10.1702    174.9897    223.0352   3.7138188073e+01   5.2711086898e+00    0.1447753     0.117221  -4.48 0.0006110852    1.023    0.022
        22 -10.9874    163.8565    222.8570   3.9281288593e+01   6.5984897611e+00    0.1947047    0.1433471  -5.39  0.001057209    1.246    0.198
        23  -9.7321    165.6082    215.2061   3.7813700699e+01   7.6339293871e+00    0.1700813    0.1013826 -32.31 0.0009488857    1.645    0.392
        24 -13.1554     48.3006    172.4762   6.1163465024e+01   3.2228654887e+01    0.9339498    0.8632224 -35.67   0.00542692    1.227    0.185
        25  -9.5879    210.8457    198.8048   2.6937505132e+01   4.8228236738e+00    0.1736334    0.1268823 -12.21 0.0004316001    1.151    0.131
        26 -11.0801     68.2279    192.7142   5.7752302668e+01   2.4868046209e+01    0.3097586    0.2196584  58.29 0.0004721882    1.449    0.310
        27 -10.3851     66.0105    187.5405   5.7768480870e+01   2.6368181712e+01    0.2825128    0.2008286 -80.51  0.001454502    1.542    0.351
        28  -8.9934    234.4526    190.5666   2.1876243902e+01   3.3810990099e+00    0.1117024   0.08423319 -19.19 9.057827e-05    1.015    0.015
        29 -11.2346    124.4842    190.4799   4.2992493952e+01   1.7702940710e+01    0.2415129    0.1956645  -7.51  0.001359374    1.301    0.231
        30 -16.9242      5.3287    217.0637   7.5832547242e+01   2.5667200130e+01     2.742935     2.001141  55.47   0.01156748    1.116    0.104
        31 -10.5769     45.8027    240.9944   6.7471315084e+01   1.6963236853e+01    0.2076915    0.1610178 -76.94  0.001369555    1.495    0.331
        32 -10.2304     94.7149    183.8082   4.9483140513e+01   2.3416721503e+01    0.3832735    0.2287312  85.35  0.001514922    2.921    0.658
        33  -8.6591     78.2777    184.2967   5.3988108442e+01   2.5560755844e+01    0.1368449    0.1069857 -23.95 0.0002442346    1.533    0.348
        34  -8.8300     81.6063    176.8357   5.2052848645e+01   2.6891447587e+01    0.1875252    0.1371001 -84.84  0.000403995    1.596    0.373
        35 -11.2769     60.5850    174.5770   5.7774132500e+01   3.0223567438e+01    0.2916798    0.2383614  56.62  0.001577256    1.180    0.152
        36 -10.9955    171.8971    174.3389   2.9801199819e+01   1.3921835639e+01    0.3581277    0.3016831   7.75  0.001355973    1.153    0.133
        37 -11.3399    173.2851    170.3232   2.8790148705e+01   1.4451147272e+01    0.4827521    0.2353702  40.46  0.002250677    2.222    0.550
        38  -8.9495     78.8345    171.7614   5.2111828758e+01   2.8510382450e+01    0.1977912     0.158735  60.62 0.0004108101    1.295    0.228
        39 -11.6744     88.2455    169.6200   4.9120787912e+01   2.7689332686e+01    0.5010415    0.2859806  34.86  0.001181531    1.649    0.393
        40 -10.8346    179.2136    165.3147   2.6703420049e+01   1.4479685691e+01     0.449953    0.2968867 -67.47  0.002096705    2.676    0.626
        41 -10.5239    110.4930    166.9850   4.2621283669e+01   2.4930537444e+01    0.2813571    0.2545371 -59.32 0.0004703381    1.155    0.135
        42 -15.6857      5.6380    136.1982   7.1666292800e+01   4.5874683101e+01     11.34689     2.160858 -83.91   0.02779018    6.059    0.835
        43 -11.8786     48.8389    111.3487   5.1918355611e+01   4.8582627885e+01    0.6632499    0.3369889  26.16  0.002638994    2.072    0.517
        44 -13.2745     51.7723    143.4414   5.6362890941e+01   3.9471881356e+01     2.667122    0.8619161  53.08 0.0009736209    5.227    0.809
        45 -13.2359     60.8598    134.5458   5.1834864661e+01   4.0665136900e+01     1.697833    0.9855924  43.91  0.007256467    1.715    0.417
        46 -12.2644     77.3880    150.0510   4.9134874869e+01   3.4186167912e+01     1.258721    0.5419862 -59.01   0.00042024    2.275    0.560
        47 -12.5077     56.5711    124.6490   5.1563616780e+01   4.3930143617e+01     1.142047    0.5566538  64.63  0.002846716    3.522    0.716
        48 -10.6001     65.0139    166.5527   5.5429468633e+01   3.1686535111e+01    0.2637373    0.2169316  88.94 0.0002293577    1.266    0.210
        49 -10.5331     57.8844    119.2172   5.0042522989e+01   4.5211682187e+01    0.2920722    0.2601174  66.83 0.0003229841    1.139    0.122
        50 -11.0748     54.1124    116.3086   5.0873304662e+01   4.6526098485e+01    0.3375294    0.2918873 -79.59 0.0004232458    1.149    0.129
        51 -12.3770     63.2339    160.6926   5.5160430811e+01   3.3425440322e+01    0.6279094    0.5032632  29.91  0.002152504    1.236    0.191
        52 -12.2379     68.0327    156.9478   5.3135281219e+01   3.3748018106e+01    0.7474447    0.6318304  18.62 0.0007661185    1.256    0.204
        53 -10.4162     36.2129    161.2213   6.3677086228e+01   3.6486480919e+01    0.5031772    0.1996308  56.34  0.001759388    2.966    0.663
        54 -11.2681     47.1338    160.1990   6.0114950499e+01   3.5553217419e+01    0.3423086    0.2305803  61.81 0.0007633775    1.530    0.347
        55 -14.8019      5.2995    228.0780   7.6204271135e+01   2.3309591568e+01    0.5471437    0.4529608  54.90  0.001961055    1.062    0.058
        56 -12.9129     69.8166    144.8013   5.0626994918e+01   3.6664345027e+01    0.8086998    0.5557108  75.92  0.003597483    1.778    0.438
        57 -10.0325     30.0798    152.8538   6.4792245821e+01   3.9342310710e+01     0.512853    0.2488823 -31.83    0.0018455    3.254    0.693
        58 -10.9245    133.5108    144.7903   3.2488673039e+01   2.6083334751e+01     1.160879    0.2605995 -54.25  0.002546562    7.184    0.861
        59 -11.6647     84.8761    144.5193   4.5845045972e+01   3.4449434149e+01    0.6237854     0.436207 -13.06  0.002682873    2.047    0.512
        60 -10.2360     36.7129    142.6299   6.1396734075e+01   4.1442453191e+01    0.3146194    0.2208589  84.37 0.0008012953    1.465    0.317
        61  -9.6638     28.1148    143.1172   6.4424668473e+01   4.2177835625e+01    0.3162131    0.1970596 -81.60  0.001036916    1.560    0.359
        62 -10.3873    128.4708    139.5293   3.2623610148e+01   2.8147273381e+01    0.3946656    0.2476161 -68.54  0.001369722    2.182    0.542
        63 -10.1789     36.4564    136.3799   6.0681524162e+01   4.3183957136e+01    0.5961432    0.2120841  53.83  0.001810461    3.755    0.734
        64 -11.9253     65.1854    144.6316   5.2098063667e+01   3.7369352984e+01    0.4014859    0.3673097  -9.99  0.000845803    1.227    0.185
        65 -14.4352     13.3494    250.0088   7.5123940391e+01   1.8252602507e+01     1.570489    0.6525003  25.94  0.006140161    1.992    0.498
        66 -10.8904    105.1992    131.4675   3.7133328982e+01   3.4240651273e+01     0.513309     0.403901 -33.80   0.00249393    1.389    0.280
        67 -11.3374    100.5005    132.9955   3.8831394122e+01   3.4708776128e+01    0.6118702    0.3950262  -9.29  0.002213345    2.817    0.645
        68 -11.3060     42.6842    132.7512   5.7940136338e+01   4.3485902661e+01    0.5569609    0.4200541 -57.57  0.001594016    1.307    0.235
        69 -11.5349     87.0272    131.7778   4.2672227844e+01   3.7341099918e+01    0.2977731    0.2839414 -45.55 0.0003756224    1.074    0.069
        70  -9.6728     36.8976    129.9143   5.9630867462e+01   4.4918836426e+01    0.2149235    0.2041143  79.80 0.0003810201    1.018    0.018
        71 -11.4414     66.6440    127.0626   4.8456127721e+01   4.1827989602e+01    0.5983683    0.3605076  60.93  0.002407367    2.068    0.516
        72  -9.7911    221.4828    127.4492   1.2293784558e+01   1.4536475363e+01    0.3126146    0.1144954 -48.10  0.001294193    2.834    0.647
        73  -9.6840    219.1054    122.1713   1.1564718416e+01   1.5731943019e+01    0.2840216    0.1367237 -48.20   0.00104385    1.967    0.491
        74 -10.0109    110.2134    125.9952   3.4477476355e+01   3.4627609848e+01    0.2708946    0.2160181   3.90 0.0009281928    1.596    0.374
        75 -10.1549    115.6649    121.2006   3.1843532620e+01   3.4715134515e+01    0.2173222    0.2013915  71.74  0.001147865    1.131    0.115
        76 -10.0659     97.0451    120.9996   3.7186124933e+01   3.8274052043e+01    0.3168272    0.2277724  25.23 0.0007656595    1.586    0.370
        77  -9.3375    100.5579    127.6377   3.7641435712e+01   3.6008844006e+01     0.291932    0.2065101  73.52 0.0007813996    1.910    0.476
        78 -10.2908     43.5270    148.6348   5.9846829541e+01   3.9057057535e+01    0.2818105    0.2199462  57.63 0.0002103976    1.254    0.203
        79  -9.3873    106.6785    115.9920   3.3118851771e+01   3.7666228179e+01     0.212816    0.1892426 -55.83 0.0003832338    1.103    0.094
        80 -10.6681     35.5073    111.5097   5.7279049902e+01   5.0155466579e+01    0.2767494    0.2321105  52.50 0.0005674488    1.215    0.177
        81 -10.4787     32.2901    109.6301   5.8275004909e+01   5.1019067989e+01    0.2867994    0.2320804  79.52  0.000525652    1.275    0.215
        82  -9.7828    114.5248    108.4898   2.9011991817e+01   3.7853146149e+01    0.1521334     0.148006 -51.01 0.0001810935    1.036    0.035
        83 -11.0318     40.4536    106.5860   5.4355326550e+01   5.0936006614e+01    0.2911428    0.2445593  55.93 0.0004388672    1.229    0.186
        84 -11.4907     23.6763    104.7271   6.1101366765e+01   5.3211877255e+01    0.4660124    0.2950355  45.50  0.001712557    1.643    0.391
        85 -10.6512    108.8305    145.2433   3.9001132060e+01   3.0296717702e+01    0.2854918      0.28146  59.14 0.0006892747    1.025    0.025
        86  -9.7207     47.5324     92.0269   4.8186573993e+01   5.3915316263e+01    0.2264816    0.2006007  31.94 0.0003473077    1.160    0.138
        87 -10.6679     51.3663     90.5041   4.6162276266e+01   5.3762730971e+01    0.4286267    0.2062417  56.34  0.001428412    3.175    0.685
        88  -9.5389    161.9691     87.9899   1.2805197621e+01   3.2042738062e+01    0.1713282    0.1599626 -67.92 0.0005434455    1.049    0.047
        89 -10.3524     15.2349     83.9425   6.1510171222e+01   5.9570504156e+01    0.2459661    0.2094716  12.48  0.001374628    1.259    0.206
        90  -9.3370    104.3512     79.4210   2.3691557886e+01   4.6370198999e+01    0.2435722    0.1756421 -67.22 0.0003375738    1.610    0.379
        91  -9.4240     44.9060     79.9213   4.6207210331e+01   5.7393079118e+01    0.2402951    0.1726284  64.08 0.0007246209    1.712    0.416
        92 -10.1934     82.3712     71.6972   2.8248628939e+01   5.2704916759e+01    0.3002767    0.2338381  89.16 0.0005431583    1.634    0.388
        93 -11.8529    193.8719     63.2638   1.8091091646e+00   2.9458080783e+01     0.353845    0.3193285 -54.97 0.0007868165    1.110    0.099
        94 -14.1366     19.0175    233.0559   7.3221356907e+01   2.1107110659e+01    0.8575246    0.5014009 -73.43  0.002662949    1.898    0.473
        95 -12.8984    206.8983     54.9881   3.5841783467e+02   2.8059826571e+01    0.8614084    0.6412794 -47.74  0.003375408    1.095    0.087
        96 -13.1480    216.3948     48.0116   3.5594263943e+02   2.7181049479e+01    0.5933748    0.5552592 -41.48  0.001376253    1.291    0.226
        97 -11.0957     13.2474     59.8636   5.7479750739e+01   6.5959278922e+01    0.2301193    0.2102564 -57.46 0.0006186803    1.060    0.057
        98 -10.1527     19.0065     36.4973   4.6085272256e+01   7.0861954069e+01    0.1959116    0.1259269  23.00 0.0004412581    1.544    0.352
        99  -9.4254     45.0000    246.8292   6.8005555523e+01   1.5919745172e+01    0.1592291   0.06768075 -75.25 0.0007791341    2.783    0.641
       100 -11.1541    124.8864    243.8772   5.0046283088e+01   7.7030448750e+00    0.2707089    0.1583003 -47.23  0.001179964    1.934    0.483
       101 -15.0933     10.1165    206.2558   7.4233012353e+01   2.7699847476e+01    0.9043121    0.6292618  10.16  0.002811592    1.658    0.397
       102  -9.6079     60.6232     21.1309   1.5309438712e+01   6.6404193544e+01    0.2320876    0.1756853  62.86 0.0006463563    1.347    0.258
       103 -11.8013    126.3386    237.9302   4.9045437133e+01   8.5306738823e+00    0.4910607    0.2573651  -4.01  0.002116364    3.200    0.688
