#   1 NUMBER                 Running object number                                     
#   2 MAG_AUTO               Kron-like elliptical aperture magnitude                    [mag]
#   3 X_IMAGE                Object position along x                                    [pixel]
#   4 Y_IMAGE                Object position along y                                    [pixel]
#   5 X_WORLD                Barycenter position along world x axis                     [deg]
#   6 Y_WORLD                Barycenter position along world y axis                     [deg]
#   7 A_WORLD                Profile RMS along major axis (world units)                 [deg]
#   8 B_WORLD                Profile RMS along minor axis (world units)                 [deg]
#   9 THETA_WORLD            Position angle (CCW/world-x)                               [deg]
#  10 FWHM_WORLD             FWHM assuming a gaussian core                              [deg]
#  11 ELONGATION             A_IMAGE/B_IMAGE                                           
#  12 ELLIPTICITY            1 - B_IMAGE/A_IMAGE                                       
         1 -14.3915     86.1602     66.7650   9.8551433532e+01   5.1357882237e+01     1.480457    0.8633902 -16.26  0.004520082    2.694    0.629
         2 -15.6028      6.5313     71.8976   1.2470298906e+02   5.8696880402e+01      1.39594    0.6367262 -59.62  0.003851569    1.585    0.369
         3 -15.1120     42.1845      7.2310   9.2212190530e+01   6.6797379758e+01     1.722166    0.9791197 -16.62  0.009743074    1.625    0.385
         4 -13.6151      9.0470      3.1728   1.0443329669e+02   7.0529084161e+01    0.5420985    0.4434307  24.62  0.003653429    1.706    0.414
         5 -15.2659      8.1874     29.3640   1.1403586388e+02   6.6502973493e+01     0.786618    0.7320175   0.45  0.006761074    1.403    0.287
         6 -15.4475     14.5707     19.2886   1.0817872053e+02   6.7726391235e+01      1.09228    0.5267696 -30.22  0.004304016    1.765    0.433
         7 -13.9589     24.4931     14.0948   1.0215347990e+02   6.7710029882e+01    0.4464612    0.3174764  17.99  0.001921101    1.506    0.336
         8 -14.8343    122.2660     37.0151   7.8646936623e+01   4.9410350930e+01     1.307617    0.6419749  47.41  0.002939984    1.905    0.475
         9 -14.3474    166.2877     30.3716   6.6994870649e+01   3.9907295114e+01    0.9651834    0.6454555  71.68  0.003062507    1.566    0.362
        10 -13.5664    188.8148     26.0987   6.1977671043e+01   3.4714810018e+01     1.076539    0.5697923 -63.86  0.003535694    2.802    0.643
        11 -15.6498     99.2391     12.9523   7.5891424178e+01   5.7096351491e+01     1.219145    0.6920794  48.37  0.003110128    1.648    0.393
        12 -12.3690    214.1578      9.9759   5.4324306953e+01   3.0117974702e+01    0.4502635    0.2566171  61.35  0.001646034    1.587    0.370
        13 -12.5852    223.4002      5.8359   5.2305770602e+01   2.8274097918e+01    0.6609977    0.3785984 -48.18  0.003369298    1.735    0.424
        14 -10.9699    153.5414      8.0801   6.2321297808e+01   4.5497244483e+01    0.2088372    0.1614371  57.54 0.0004611816    1.138    0.121
        15 -11.9021    229.2542      4.8454   5.1480451618e+01   2.6953846318e+01    0.2297179    0.1947035 -58.89 0.0005680895    1.152    0.132
        16 -11.1032    232.1366      1.4851   5.0422349457e+01   2.6610591374e+01    0.1973518    0.1133855  73.13  0.000783375    1.552    0.356
        17 -11.2749     67.6501      3.7130   8.1537353705e+01   6.3664342484e+01     0.222483    0.1538369   9.61  0.001416126    1.288    0.224
        18 -11.4791     26.3270      3.9431   9.7217717474e+01   6.8945441489e+01     0.203043    0.1339756   5.68  0.001339761    1.400    0.286
        19 -10.6477    192.7398      3.0411   5.5070202268e+01   3.6193516974e+01    0.1542471    0.1175005 -29.87 0.0003883007    1.471    0.320
        20 -10.7462     62.4724      1.5040   8.2309412106e+01   6.4699991379e+01    0.1741545    0.0922481  31.49 0.0006743493    1.743    0.426
        21 -11.1987     59.4782      1.5002   8.3335024269e+01   6.5149364848e+01    0.2120357    0.1220354  29.76 0.0009918752    1.590    0.371
        22 -11.9777     80.6087      1.7065   7.6638277664e+01   6.1702093139e+01    0.5068622    0.1260169  47.66  0.001986596    3.408    0.707
        23 -10.9610     33.0334      1.3953   9.3308501815e+01   6.8571931994e+01    0.1444808   0.09290931  24.47 0.0003520552    1.546    0.353
        24 -12.9865     16.6411    196.1864   1.3663727170e+02   3.2549125347e+01    0.7800265    0.1885798 -67.23  0.003700687    3.208    0.688
        25 -13.0385     56.3400    246.5093   1.3381513376e+02   1.8992948555e+01    0.6372421    0.2938585  38.17   0.00365288    2.580    0.612
        26 -13.6326     28.4314    246.2887   1.3796328152e+02   2.2346624184e+01    0.4149237    0.2563942  79.73  0.003124333    1.190    0.159
        27 -11.9421      2.7611    249.9766   1.4173135456e+02   2.4417643750e+01    0.2438739    0.1221208  57.10  0.001889777    1.481    0.325
        28 -14.2351      9.0474    245.6337   1.4067523504e+02   2.4502314336e+01    0.6519629    0.3319608  65.30  0.003232343    1.400    0.286
        29 -14.1232     30.2298    168.7027   1.3187203075e+02   3.6675547178e+01    0.6626369    0.5123771 -68.93  0.001756575    1.275    0.216
        30 -13.5583     22.3962    181.2459   1.3448228384e+02   3.4907679224e+01    0.4892971    0.3402065 -79.46  0.002264982    1.180    0.152
        31 -15.0584      8.1028    183.6087   1.3721570769e+02   3.5761663337e+01     1.035306    0.7329234  81.62  0.008048506    1.065    0.061
        32 -15.4361     15.7216    175.5853   1.3524219328e+02   3.6663751610e+01     2.195752    0.9819208  78.77   0.01179832    2.368    0.578
        33 -13.4154    164.8551    196.2781   1.0839424414e+02   1.0345966939e+01    0.5402427    0.3301676  81.73  0.002103241    3.435    0.709
        34 -13.1336     39.4272    195.4585   1.3260701448e+02   3.0312226776e+01     0.401637    0.3000139  74.98   0.00281313    1.076    0.071
        35 -13.0489    201.2481    191.5897   1.0045778366e+02   4.0125029335e+00    0.4102468    0.3088761  25.10  0.001760592    1.345    0.256
        36 -10.4476     81.6672    193.3235   1.2448155452e+02   2.5301596411e+01    0.1321406   0.08000282  73.00 0.0006795843    1.706    0.414
        37 -11.9833     98.9819    187.1837   1.2026064507e+02   2.3898207622e+01    0.1929444    0.1572399   7.60 0.0008894434    2.033    0.508
        38 -12.7420    198.5050    182.5336   9.9270712188e+01   6.0424734374e+00    0.2776195    0.2453771  53.21  0.001615907    1.161    0.139
        39 -11.8302    122.8058    182.1833   1.1462779620e+02   2.0881204912e+01    0.3695105    0.2269298  86.85  0.001643332    2.423    0.587
        40 -11.3197    108.6853    183.6731   1.1778030778e+02   2.3021949410e+01    0.1207471    0.1066707 -13.76 0.0007043676    1.670    0.401
        41 -12.3532     49.0168    181.4363   1.2949221954e+02   3.2011691944e+01     0.360038    0.2231359 -56.92  0.002204349    1.748    0.428
        42 -11.7407     84.3162    178.6665   1.2210231752e+02   2.7897423671e+01    0.1348415   0.08571298  75.92 0.0007047273    1.690    0.408
        43 -10.5945    101.0058    176.0055   1.1824642445e+02   2.5860394346e+01    0.1522803    0.1326855  79.02            0    1.001    0.001
        44 -11.6340    135.3194    172.6670   1.1040032957e+02   2.0493477390e+01    0.1456321    0.1040427  79.34  0.000704886    1.696    0.410
        45 -13.7054    124.0869    166.9442   1.1182156445e+02   2.3755710941e+01    0.6341302    0.4040512 -78.85  0.002926897    2.063    0.515
        46 -11.5241    177.5055    167.4990   1.0052268185e+02   1.3023904792e+01     0.145029    0.1345898  45.29 0.0008106722    1.002    0.002
        47 -12.6885    236.7606    159.8515   8.7422534829e+01   1.9984408018e+00    0.5119025    0.1505015  42.76  0.001714014    3.362    0.703
        48 -12.4900     25.7940    155.4055   1.3142728590e+02   3.9864878567e+01    0.3780777    0.2509153 -32.35  0.002264534    2.544    0.607
        49 -12.6302     77.3979    157.3552   1.2057317714e+02   3.3422820739e+01    0.4081934    0.2847669  41.26  0.001202371    1.545    0.353
        50 -13.2179     74.1153    153.4530   1.2072189688e+02   3.4727866129e+01    0.6464524    0.4373348  35.85  0.003653572    1.704    0.413
        51 -13.1003    111.1079    155.8214   1.1274131516e+02   2.8424684994e+01    0.4727674    0.3022701  80.80  0.002138658    2.166    0.538
        52 -12.5468    205.1706    155.5086   9.2422421427e+01   9.3084869684e+00    0.3557005    0.2493532  71.55  0.001604683    2.015    0.504
        53 -11.9192     85.3710    153.5831   1.1819997257e+02   3.3081267326e+01    0.4367871    0.2213664 -48.21   0.00202397    2.150    0.535
        54 -11.3089     56.0070    156.0021   1.2508995904e+02   3.6516555642e+01    0.1803959    0.1406528 -41.62   0.00112542    1.659    0.397
        55 -12.3128    190.1106    150.7773   9.4413161328e+01   1.3435643089e+01    0.4103099     0.165478  41.98  0.001464508    2.482    0.597
        56 -12.1546    103.5948    149.9074   1.1340033864e+02   3.0987233345e+01    0.3421786    0.2860301 -31.16  0.001923777    1.516    0.340
        57 -12.3005      6.5316    148.1589   1.3465900324e+02   4.2995442908e+01    0.3707628    0.2029677 -84.18  0.002379714    1.466    0.318
        58 -11.2434     38.1792    145.8447   1.2769841972e+02   4.0681718299e+01    0.1557035    0.1235896 -57.23  0.000484024    1.317    0.241
        59 -10.8428     44.5899    145.2694   1.2620020649e+02   4.0133119235e+01    0.1607794    0.0942754 -60.82 0.0003584336    1.485    0.327
        60 -13.1400    149.6543    141.6468   1.0114001393e+02   2.3990802426e+01     0.493342    0.2962289  66.47  0.001974913    2.289    0.563
        61 -11.8573     47.0117    134.9856   1.2422475958e+02   4.2099855212e+01    0.4077388    0.1873914 -46.00  0.001927574    2.527    0.604
        62 -12.7963     42.4653    139.6275   1.2592975536e+02   4.1577268273e+01    0.2727819    0.2014621 -76.37 0.0007799694    1.122    0.109
        63 -11.7835     38.8160    136.2207   1.2630829816e+02   4.2687655296e+01     0.242178    0.1329647  74.52  0.001229171    2.338    0.572
        64 -11.6714    246.6249    135.4000   8.0327205252e+01   3.8853362667e+00    0.2634537    0.1351143  65.25  0.000955559    3.339    0.701
        65 -11.7505     62.0577    134.2355   1.2052718824e+02   4.0516676583e+01    0.3904127     0.193554  48.25  0.001358353    2.207    0.547
        66 -13.0940    133.0341    132.2592   1.0292702313e+02   2.9371227306e+01    0.4309188    0.3168539 -84.78  0.002012374    1.776    0.437
        67 -12.1909    138.0259    132.9554   1.0190463977e+02   2.8214463378e+01     0.288316    0.2021274  17.39  0.001231004    2.125    0.529
        68 -10.6814     11.1646    134.3689   1.3231611378e+02   4.5502116404e+01    0.1322388   0.09124929  54.15 0.0002925294    1.586    0.370
        69 -14.8936    104.4580    123.0067   1.0788193603e+02   3.6715681705e+01     2.205483    0.9478962  39.02  0.008779248    2.511    0.602
        70 -13.0950    109.8619     96.1549   1.0007738426e+02   4.1478270172e+01     0.387769    0.2695111 -67.79 0.0005976326    1.826    0.452
        71 -15.1886    107.5030    106.6792   1.0335300944e+02   3.9701493904e+01      1.29421     1.141607 -22.51  0.006311539    1.242    0.195
        72 -11.7917     60.5879    125.1338   1.1936778538e+02   4.2696846347e+01    0.4074976    0.2724627 -25.39   0.00211219    2.304    0.566
        73 -14.8565     30.0456    119.2340   1.2602248617e+02   4.7174409555e+01     3.283043          nan -57.10  0.009302907    6.330    0.842
        74 -12.8409      3.9247    119.9499   1.3235921864e+02   4.9014346435e+01    0.4508436    0.3642088   9.88  0.003499764    1.772    0.436
        75 -15.3154     18.0107    111.1222   1.2785308096e+02   4.9881620217e+01     1.077227    0.9285475  82.07  0.005876993    1.231    0.188
        76 -14.6598      2.4748     97.0039   1.2985441588e+02   5.3846267569e+01     1.239179    0.5853498 -77.16  0.005404745    1.884    0.469
        77 -15.3488     20.7517     96.6854   1.2494342718e+02   5.2713487182e+01     1.168039    0.7740123 -74.89  0.006511024    1.357    0.263
        78 -14.9181     29.1534     92.5500   1.2190190511e+02   5.2919891182e+01      1.03202     0.663384 -74.82  0.006206753    1.527    0.345
        79 -12.6100    184.8209    124.2029   8.9379475542e+01   1.9657927142e+01    0.4891312    0.2840059  34.30  0.001682471    2.032    0.508
        80 -13.5693    180.8191    121.2816   8.9512297551e+01   2.1147106064e+01    0.5526488    0.4620384 -23.03  0.002761475    1.306    0.235
        81 -12.4563    194.8522    113.8531   8.4765897819e+01   1.9252563537e+01    0.2871592    0.2171296  58.60  0.001358478    1.367    0.268
        82 -12.4991     45.5300    110.1357   1.2061181114e+02   4.7658316026e+01    0.4864287    0.3135788 -46.04  0.002862737    1.499    0.333
        83 -12.2043     61.6837    108.6926   1.1604371667e+02   4.6157802741e+01    0.4728693    0.2374734 -64.63  0.002250419    1.942    0.485
        84 -12.4761    121.0831    111.7383   1.0109004911e+02   3.6093443123e+01    0.3711851    0.2432959  69.87   0.00150412    2.185    0.542
        85 -11.5754    222.2246    109.5911   7.8514538967e+01   1.3561800171e+01    0.2175959    0.1354964  42.33 0.0009549183    1.676    0.403
        86 -13.2702    135.9783    103.5174   9.5294114168e+01   3.4779790144e+01    0.6303743    0.3586091  51.74  0.001692364    1.841    0.457
        87 -13.3470    137.1088     96.5629   9.3173426268e+01   3.5939879789e+01    0.5148671    0.3649547 -39.45  0.002443662    1.414    0.293
        88 -11.7728    167.4487    103.8112   8.7988445715e+01   2.7653337031e+01    0.3253585    0.2220668 -61.11  0.001393994    1.815    0.449
        89 -13.3149     85.1619    115.5157   1.1122489782e+02   4.1474110253e+01    0.9252096     0.573465  23.77  0.004018506    2.200    0.545
        90 -12.6569     62.3618     99.4708   1.1395580136e+02   4.8062630409e+01     0.581929     0.363223  81.95  0.002643043    2.842    0.648
        91 -12.0790     49.5243     95.0181   1.1662579432e+02   5.0478917097e+01    0.3806816    0.2576434 -74.53  0.002184868    1.594    0.373
        92 -12.7920     43.1795     91.4465   1.1769915561e+02   5.1882399257e+01    0.5929652    0.2212208 -64.00  0.002517786    2.683    0.627
        93 -12.5533     47.2860    100.1907   1.1829124520e+02   4.9614111118e+01    0.4555003    0.3191203  71.40  0.002631053    1.882    0.469
        94 -12.6702     52.4393     98.0588   1.1643162338e+02   4.9517395236e+01    0.4245667    0.2642344 -32.82  0.001931348    1.899    0.473
        95 -11.1108    161.6576     96.6899   8.7393281257e+01   3.0380767818e+01    0.1598354     0.121645  14.51 0.0006517652    1.697    0.411
        96 -12.3820     96.7068     92.3954   1.0267201561e+02   4.4574134004e+01    0.3429099    0.2275721 -25.80  0.001083812    1.860    0.462
        97 -14.3483    179.0578     85.8306   8.0657707985e+01   2.8200997797e+01      1.51336    0.6225435 -46.80  0.005143326    2.732    0.634
        98 -14.6017    188.1080     84.4085   7.8438630737e+01   2.6216514198e+01     1.055046    0.7849208  86.20   0.00369558    1.722    0.419
        99 -13.3971    164.0675     71.1551   7.9687251192e+01   3.4436043034e+01    0.5970232    0.3568372  37.43  0.002085206    1.860    0.462
       100 -14.4912    161.0885     80.6073   8.3062812862e+01   3.3502044040e+01     1.253749    0.6796405  29.25  0.001977389    2.829    0.647
       101 -14.6753    170.6516     77.1111   7.9987825996e+01   3.1801689687e+01     1.114415    0.6185632  44.62  0.004567463    1.813    0.448
       102 -11.5522     89.6867     87.6291   1.0339260192e+02   4.6704619706e+01     0.379122    0.2228246  55.06  0.001727678    2.255    0.557
       103 -14.2602     92.7603    109.9924   1.0801660892e+02   4.1494371997e+01     1.130023    0.8687664  36.59  0.006224647    1.421    0.296
       104 -12.0469    241.9831     84.1657   6.9055987750e+01   1.3174150029e+01     0.377784    0.2547556  76.26  0.001779648    1.801    0.445
       105 -12.9536    237.8682     79.9155   6.8642127497e+01   1.4800964131e+01    0.4386083     0.337577  86.08  0.002160825    1.503    0.335
       106 -10.5504     98.6171     84.2711   9.9970073106e+01   4.5901310610e+01    0.1370818    0.1101277  80.83 0.0006994264    1.702    0.412
       107 -14.7338     39.3370     67.8472   1.1353285489e+02   5.7059462865e+01     2.385199    0.5677284  28.31  0.008968225    4.993    0.800
       108 -11.9946    235.0117    249.0035   1.0411522947e+02  -9.6669637872e+00    0.1494341    0.1090426  30.30  0.001022995    1.044    0.042
       109 -13.4789     56.6700     78.6792   1.1081428768e+02   5.3078494042e+01    0.6069462    0.3577288 -36.60  0.002177492    1.672    0.402
       110 -13.8079     60.8295     75.8493   1.0882659769e+02   5.3153679829e+01    0.6563036    0.4100358 -52.57 0.0007627559    1.430    0.301
       111 -14.0204    170.9231    242.5226   1.1423028868e+02   1.9088173528e+00    0.9262518    0.4604416  42.06  0.004951403    1.626    0.385
       112 -14.2596    215.2948     79.2943   7.2095510935e+01   2.0335700296e+01    0.9934462    0.5825252  64.04  0.004257874    1.821    0.451
       113 -13.4026    135.8694     79.9101   8.8819158891e+01   3.9424657726e+01    0.7578875    0.4565057  54.06  0.003164599    1.763    0.433
       114 -13.0431    129.4819     77.5331   8.9736393025e+01   4.1244397344e+01    0.4797274    0.3269502 -62.84   0.00213457    1.978    0.494
       115 -11.7923    113.8334     80.5127   9.4718892955e+01   4.3857540228e+01    0.3384871    0.3127905 -49.15  0.001229257    1.113    0.102
       116 -11.7787     90.3892     80.2321   1.0119484750e+02   4.8082526069e+01    0.4009286    0.2878934  -1.94  0.002012707    1.876    0.467
       117 -12.0372     41.9344     77.2587   1.1497666853e+02   5.4933356196e+01    0.2849526    0.2032062 -46.85 0.0009867343    1.157    0.136
       118 -13.5667     74.8881     74.2756   1.0412108623e+02   5.1613945910e+01    0.9359652    0.6114299  17.89  0.004739137    1.928    0.481
       119 -13.7055    199.4562     70.2974   7.2471696232e+01   2.5744675711e+01    0.8490086    0.4512405  50.01  0.002103518    1.844    0.458
       120 -13.3414    134.6994     66.8232   8.5206874913e+01   4.2036695158e+01    0.6989791    0.4485438  29.34  0.002675945    1.834    0.455
       121 -14.3743      5.5754     63.7431   1.2343318318e+02   6.0351083675e+01    0.5787175    0.4711952 -24.23   0.00372844    1.343    0.255
       122 -11.4719     99.7052     64.7802   9.3962392222e+01   4.9431091083e+01    0.2748493    0.2352154 -78.32  0.001424865    1.575    0.365
       123 -11.9175    158.1140     63.4560   7.8712386711e+01   3.7166524720e+01    0.3215528     0.191497 -51.12  0.001342305    1.989    0.497
       124 -13.4171     79.2812     60.4723   9.8728007318e+01   5.3585263545e+01    0.5966156    0.4335022 -17.81  0.003340936    1.451    0.311
       125 -13.7258    177.8279     58.0404   7.3056179051e+01   3.3145787407e+01    0.7223887    0.6073269  84.88  0.002214414    1.307    0.235
       126 -12.1771     38.9473     60.4970   1.1176941048e+02   5.8519611078e+01    0.2587122    0.2025937  69.96  0.001632181    1.985    0.496
       127 -12.4149     24.5333     60.0001   1.1643091248e+02   5.9842483690e+01    0.2990784    0.1735434 -48.67  0.001090867    1.324    0.244
       128 -15.0228    119.7726     55.0107   8.5303329127e+01   4.7226805135e+01    0.8857902    0.5169588  36.09   0.00195121    1.795    0.443
       129 -12.5154    109.5912     54.1640   8.7776761039e+01   4.9417395415e+01    0.4374913    0.3195598 -31.24  0.001504663    1.335    0.251
       130 -13.8668    103.1768     50.8310   8.8474746185e+01   5.1191539206e+01    0.4109233    0.3494647 -24.39  0.000913836    1.122    0.109
       131 -13.1302     97.7061     50.3353   8.9886400419e+01   5.2280009402e+01    0.7993935    0.3881449 -48.10  0.002634151    2.474    0.596
       132 -11.4469     30.4976     58.4586   1.1405372129e+02   5.9660625860e+01    0.2362783   0.09466027 -54.93 0.0007930619    2.055    0.513
       133 -12.9326     63.4618     57.5709   1.0285664142e+02   5.6332424251e+01    0.3160568    0.2304481 -51.67  0.001881614    1.409    0.290
       134 -13.3646     66.6713     49.6010   9.9299288036e+01   5.7325848105e+01    0.5260097    0.4100584 -26.20  0.002650713    1.119    0.106
       135 -11.2504    136.1610     50.0404   7.9572163258e+01   4.4445352874e+01    0.2305554    0.1862116  19.81  0.001206428    1.303    0.233
       136 -11.0696     86.0273     49.6606   9.3158570898e+01   5.4405930233e+01    0.1803552    0.1626076   7.02 0.0004728636    1.082    0.076
       137 -12.6667    154.1874     46.5656   7.4397064296e+01   4.0724732886e+01    0.5319187    0.2430705  50.05  0.001800063    2.021    0.505
       138 -12.9610    158.6963     43.5616   7.2523207633e+01   4.0052484933e+01    0.6531427     0.270775  57.00  0.002472615    2.270    0.560
       139 -12.7753    198.6965     37.4271   6.3612558542e+01   3.0767794680e+01     0.589981    0.3614104 -80.79  0.002086376    2.236    0.553
       140 -14.0370    217.6289     42.0903   6.2077844327e+01   2.5345358365e+01     1.474534    0.5445281  67.05  0.004140148    2.822    0.646
       141 -12.7915    204.9325     40.2310   6.3427637443e+01   2.8805293462e+01    0.5848224    0.3539653 -83.15  0.002447121    2.260    0.557
       142 -13.6303      8.9643     42.7857   1.1749834102e+02   6.4101996364e+01    0.7198274    0.5173535  41.55  0.005197232    1.998    0.499
       143 -12.8061    147.3434    238.8836   1.1790825903e+02   6.5034674380e+00    0.2790815    0.2145153 -80.58 0.0009159141    1.587    0.370
       144 -14.2867     96.5157    237.9185   1.2660642587e+02   1.4872131327e+01    0.6128794    0.3530935  53.97  0.001221596    1.376    0.273
       145 -13.1984    236.8658    230.0839   1.0077034575e+02  -7.8182729770e+00    0.3867806     0.312887  82.30  0.002309997    2.385    0.581
       146 -12.4546     24.4860    217.0703   1.3677280116e+02   2.7857169381e+01    0.4976664    0.2763071  66.30   0.00346164    1.432    0.302
       147 -13.9510     25.6291    227.6311   1.3727073203e+02   2.5844064012e+01    0.5857096    0.2808636 -64.42  0.003798829    2.201    0.546
       148 -12.9271    131.5505     33.6403   7.5248414034e+01   4.7816179201e+01    0.5227463    0.3372773  15.05  0.002366683    1.965    0.491
       149 -14.2511    112.0821     40.5587   8.2512649980e+01   5.1036364206e+01    0.8791263    0.6255193  30.94  0.002737227    1.388    0.279
       150 -13.7465     20.3801    224.6317   1.3789247719e+02   2.6929613691e+01    0.3640141    0.2995518  85.30  0.001750462    1.333    0.250
       151 -11.2038     25.5010     43.0369   1.1156711749e+02   6.2910744865e+01    0.1726708   0.08926232 -49.11 0.0004977376    1.542    0.352
       152 -12.7275    245.5930     36.7499   5.7226417253e+01   1.9239431669e+01    0.5741467    0.2987225 -76.19  0.001327087    2.768    0.639
       153 -12.3503    241.0125     36.2371   5.7634027735e+01   2.0392951295e+01    0.4740771    0.2159626  70.53  0.002008312    2.249    0.555
       154 -12.2723     70.3806     36.5912   9.3619604180e+01   5.8937965637e+01    0.2720312    0.2131519  -9.13 0.0009447522    1.156    0.135
       155 -12.9644     75.8709     37.4005   9.2113170512e+01   5.7987768337e+01     0.304089    0.2394871  24.77 0.0007968917    1.262    0.207
       156 -11.5495     45.2914     36.3656   1.0225307892e+02   6.2186296203e+01    0.2402001    0.1422634 -15.46 0.0007519251    1.910    0.476
       157 -12.4106     46.7317     32.7050   1.0045832343e+02   6.2619321757e+01    0.4042079    0.2144062  -9.77  0.001902441    2.879    0.653
       158 -13.6662     26.1456     32.0955   1.0794148220e+02   6.4745810450e+01    0.5608261    0.4487591  38.40  0.004034226    1.752    0.429
       159 -13.1957     33.8975     32.7085   1.0520955757e+02   6.3952096634e+01     0.406014    0.2785717  44.10  0.002561715    2.163    0.538
       160 -14.2503     66.9018    222.9879   1.3023253910e+02   2.1704664635e+01    0.7227477    0.4700003  47.69  0.004830191    1.464    0.317
       161 -13.0288    152.1855     31.5810   7.0080810363e+01   4.3236733075e+01    0.3683126    0.3511169 -19.23  0.001219963    1.121    0.108
       162 -14.4228    145.9790     30.7310   7.1084372089e+01   4.4836550578e+01     1.177165    0.5726961  58.26  0.004073911    1.950    0.487
       163 -11.0137    211.2354     33.2794   6.0676374459e+01   2.8117560507e+01    0.1909304    0.1513916 -71.70 0.0003743266    1.298    0.230
       164 -12.8672     94.4928    218.7567   1.2497910181e+02   1.8532107394e+01    0.2720833    0.2043948  53.88   0.00146131    1.193    0.162
       165 -11.0916    194.9862     24.0166   6.0482934061e+01   3.3387036581e+01    0.2800304    0.1800216  46.85  0.001142158    1.578    0.366
       166 -10.8796    216.6615     29.3006   5.8920610917e+01   2.7253797685e+01    0.1480916   0.09892278 -70.15 0.0003624998    1.665    0.399
       167 -13.2246     56.0583     27.5263   9.5207482738e+01   6.2286971161e+01    0.4112242     0.267157  35.38  0.001428512    1.692    0.409
       168 -11.7588    119.6976     27.2807   7.5899272670e+01   5.1239261011e+01    0.4573475    0.1920002  56.87  0.001841289    2.508    0.601
       169 -11.4674     97.3583     26.9542   8.1717276992e+01   5.5788460551e+01    0.2383225    0.2218665  32.65  0.001476822    1.207    0.172
       170 -11.0411    223.0593     21.6829   5.6211562261e+01   2.6585801409e+01    0.1968205    0.1582002  73.94 0.0005193123    1.147    0.128
       171 -12.2386    139.1247     21.5855   6.9501166160e+01   4.7545384394e+01    0.3310039    0.2325286  62.03 0.0006125345    1.411    0.291
       172 -13.4989     98.9880    215.7076   1.2382351549e+02   1.8398423467e+01     0.439414    0.2946937 -62.59  0.002713662    1.616    0.381
       173 -11.8564    186.3135     14.0105   5.8945485583e+01   3.6713510396e+01    0.1849206    0.1801363 -55.85 0.0006318766    1.129    0.114
       174 -11.4256    201.1716    215.6240   1.0471294041e+02   3.5110741388e-01    0.1969047    0.1023059  36.19 0.0009506757    1.752    0.429
       175 -11.7474    157.4286    213.7997   1.1261823987e+02   8.7364353178e+00    0.2034393    0.1566544  -0.00 0.0005610585    2.026    0.506
       176 -10.6639    215.5320     20.5140   5.6822700631e+01   2.8596965549e+01    0.1371776    0.1242344  80.43 8.135513e-05    1.038    0.037
       177 -11.2589     70.9160     16.9584   8.5966353791e+01   6.1616999041e+01    0.1813877    0.1512844   3.23 0.0004470531    1.043    0.041
       178 -14.4518     62.7586    214.8903   1.3021663225e+02   2.3742450489e+01    0.6850278    0.4021776  65.53  0.004303069    1.461    0.315
       179 -11.5583     13.6117    206.2176   1.3781279399e+02   3.0952003142e+01    0.1788107    0.1104688  87.20  0.001155779    1.205    0.170
       180 -13.7098      9.4154    211.0735   1.3878099991e+02   3.0460483594e+01    0.5933051    0.2500576  48.79  0.003568232    2.052    0.513
       181 -11.4752    136.7090    211.0324   1.1615934633e+02   1.2954012733e+01     0.175961    0.1591452  76.46 0.0007691826    1.114    0.103
       182 -11.4903     45.5111    208.5443   1.3265097594e+02   2.7088594197e+01    0.2271514   0.09264255 -72.55  0.001225319    2.218    0.549
       183 -11.5686    249.0044    225.5026   9.7917506687e+01  -9.2689596737e+00     0.190459   0.09975427  39.41  0.001043832    1.622    0.384
       184 -11.5005    218.9433     15.3279   5.5113617112e+01   2.8340649967e+01    0.1999182    0.1593568  76.28 0.0008949438    1.134    0.118
       185 -11.1003    149.6509    206.8847   1.1306640022e+02   1.1347931285e+01    0.2336566    0.1630095  39.85 0.0008888281    1.358    0.264
       186 -10.3146    123.9954    206.0066   1.1790014975e+02   1.6086796926e+01    0.1493317    0.1257198  64.00            0    1.001    0.001
       187 -13.0611     57.3372    203.7752   1.3014585148e+02   2.6551034432e+01    0.4681178    0.2266974 -85.51  0.002475645    2.192    0.544
