#   1 NUMBER                 Running object number                                     
#   2 MAG_AUTO               Kron-like elliptical aperture magnitude                    [mag]
#   3 X_IMAGE                Object position along x                                    [pixel]
#   4 Y_IMAGE                Object position along y                                    [pixel]
#   5 X_WORLD                Barycenter position along world x axis                     [deg]
#   6 Y_WORLD                Barycenter position along world y axis                     [deg]
#   7 A_WORLD                Profile RMS along major axis (world units)                 [deg]
#   8 B_WORLD                Profile RMS along minor axis (world units)                 [deg]
#   9 THETA_WORLD            Position angle (CCW/world-x)                               [deg]
#  10 FWHM_WORLD             FWHM assuming a gaussian core                              [deg]
#  11 ELONGATION             A_IMAGE/B_IMAGE                                           
#  12 ELLIPTICITY            1 - B_IMAGE/A_IMAGE                                       
         1 -12.7645    238.0171     20.7252   2.7199453680e+01   2.3441940516e+01    0.6829825    0.2771627 -40.98  0.003196706    1.991    0.498
         2 -11.4293     29.8400     23.5027   7.4385256456e+01   6.9275493773e+01    0.6206536    0.2025309 -50.94  0.002400385    3.392    0.705
         3 -11.3250     35.2200     19.0896   6.9574281338e+01   6.9329478614e+01    0.4416564    0.2810834 -13.48  0.001503822    1.784    0.439
         4 -11.9912    111.9945     18.8034   4.3194609942e+01   5.4373811785e+01    0.4021541    0.3188139  53.16 0.0009191167    1.200    0.166
         5 -11.1611     57.7614     13.7920   5.6914203470e+01   6.6535335101e+01    0.4501738    0.3193885  -4.51  0.002565465    1.461    0.316
         6 -11.4070    244.8018     17.4617   2.5936112407e+01   2.2346152079e+01    0.3163614    0.1770732 -18.48  0.001624139    2.044    0.511
         7 -11.0587    249.2816     16.9784   2.5516429955e+01   2.1461209878e+01    0.2691333    0.1970304  27.07  0.001576727    2.003    0.501
         8 -11.6740    227.3181     14.6199   2.6540981442e+01   2.6450465760e+01    0.3249701    0.2218667  -5.64  0.001482512    1.927    0.481
         9 -10.9397     10.1454     15.1432   8.1321812676e+01   7.2823617623e+01    0.2652505    0.1722496 -47.51 0.0006816909    1.345    0.257
        10 -10.6288    155.4351     14.5471   3.3956056385e+01   4.3978900085e+01    0.3292362    0.2228228  34.12  0.001630416    1.718    0.418
        11 -11.6085     16.8562     13.8033   7.6712221200e+01   7.2414046886e+01    0.3631968    0.2100914  36.17  0.001442514    2.053    0.513
        12 -12.2979     24.2848     12.0167   7.1591093657e+01   7.1874277724e+01    0.2597158     0.202581 -20.10 0.0003244559    1.075    0.069
        13 -11.0395    186.9031     13.7756   2.9930806903e+01   3.6115730257e+01    0.2518494    0.1998994 -51.21 0.0003438191    1.193    0.162
        14 -11.8441    182.4129     12.8309   3.0128245339e+01   3.7328363718e+01    0.4256299    0.3639614  50.45  0.001409836    1.260    0.206
        15 -11.5681    122.8400     11.0126   3.7881646616e+01   5.2556889637e+01    0.4016975      0.30766  36.84  0.001215532    1.320    0.242
        16  -9.7503    118.1121      9.7303   3.8258398205e+01   5.3845937463e+01    0.3313282    0.1861174 -54.11  0.001465635    2.267    0.559
        17 -10.8373    102.8765      8.6562   4.0951089243e+01   5.7612456861e+01    0.3977864    0.2718734 -66.42  0.001977272    1.988    0.497
        18 -10.7560    216.1868      7.4619   2.5598692559e+01   2.9715797527e+01    0.2319664    0.1630614 -34.48 0.0004922038    1.340    0.254
        19 -11.4956    211.7051      6.1257   2.5599065013e+01   3.0889714156e+01     0.386837    0.2928676  17.69  0.002201118    1.792    0.442
        20 -10.8973    249.0671     10.9129   2.4154518587e+01   2.2140074798e+01    0.2966251    0.2222706 -77.76  0.001705318    1.278    0.217
        21 -10.1722     47.8625      8.0581   5.7868044522e+01   6.9007826690e+01     0.228802    0.1647595  22.46  0.000949591    1.351    0.260
        22 -11.8170     12.9365      5.7631   7.4772541256e+01   7.4150228886e+01    0.3751582    0.3113371 -48.43  0.002659719    1.454    0.312
        23  -9.8958     77.9744      6.9949   4.6561601044e+01   6.3361853248e+01    0.2035524    0.1836012  16.00 0.0009141804    1.018    0.017
        24 -10.2349    238.5077      7.4819   2.4038447171e+01   2.4722451863e+01    0.2489276    0.1091759 -27.86 0.0008818642    2.108    0.526
        25 -11.4015    127.5409      4.4233   3.4514379742e+01   5.1999526723e+01     0.291186    0.2580709 -49.13 0.0005921599    1.200    0.167
        26 -11.5701     90.3348      2.7423   4.1192997928e+01   6.1064456394e+01    0.2978089    0.2693477 -30.40 0.0005256673    1.207    0.171
        27  -9.5501     40.6471      5.2603   5.9478575766e+01   7.0550892649e+01    0.1597957    0.1012975 -19.62 0.0002128484    1.488    0.328
        28 -10.9459      2.3009      2.8788   8.0097296224e+01   7.5615076012e+01    0.2111798    0.1993644 -69.47  0.001241845    1.559    0.358
        29  -9.6402     25.0563      1.7714   6.5270360482e+01   7.3303540324e+01    0.1679836    0.1475392 -30.93 0.0008118397    1.337    0.252
        30  -9.9789     52.5846    111.5251   9.1291575964e+01   4.7455812675e+01    0.1352437    0.1191493 -72.14 5.643715e-05    1.017    0.017
        31  -9.6572    119.8882    107.8849   7.1029317152e+01   3.7056536845e+01    0.1982478    0.1737907  84.18            0    1.262    0.208
        32  -9.8660     17.5148    108.0307   1.0170369484e+02   5.1888394683e+01    0.1872086   0.09049084  81.33 0.0004748787    2.608    0.617
        33  -9.6120     64.0894    105.8819   8.6587856791e+01   4.7259916603e+01    0.1889627     0.154335 -40.08 0.0003869077    1.311    0.237
        34 -10.8817     80.6669    103.1357   8.0868453414e+01   4.5367176103e+01    0.2782575    0.2253499  17.82 0.0004440775    1.504    0.335
        35 -10.7052    249.5463    102.9099   4.5279719842e+01   1.0549493161e+01    0.2444481    0.2198177  13.48  0.001374909    1.200    0.167
        36 -10.0144     72.8659     98.2803   8.2103503558e+01   4.7730898085e+01    0.2355539    0.1464031  77.47 0.0008306823    2.733    0.634
        37  -9.3091    101.6542     97.7703   7.3334388741e+01   4.2839306419e+01    0.1408356    0.1154116   7.46  0.000215329    1.551    0.355
        38 -10.8151     45.0916    101.8820   9.1825979003e+01   5.0656394546e+01    0.3182834    0.1925795  54.22 0.0008577306    1.912    0.477
        39  -9.5372     21.0637    141.9834   1.0458917898e+02   4.3610295759e+01    0.1469081     0.121537  85.00 0.0004946272    1.020    0.020
        40  -9.7148     96.8283     95.5054   7.4116355655e+01   4.4247094115e+01    0.2147557    0.1454369  44.14  0.001012607    1.534    0.348
        41 -10.0899     16.2804     95.2402   1.0027317645e+02   5.5018509009e+01    0.1634689    0.1277583  76.03 0.0004804022    1.311    0.237
        42 -10.6613    116.6149     93.5767   6.8060958054e+01   4.0744912289e+01    0.2583554    0.2367766 -73.23 0.0004619002    1.140    0.123
        43 -10.5501    126.6239     91.6423   6.4913042470e+01   3.9013067384e+01    0.2679578    0.2448418 -72.85 0.0005885688    1.156    0.135
        44 -10.6408     34.6614     89.9264   9.2975942241e+01   5.4630552545e+01    0.2183175    0.1963604  26.95 0.0002951207    1.292    0.226
        45 -10.4449    120.7900     87.5213   6.5227242482e+01   4.1103121760e+01    0.2775214    0.2321258 -60.65 0.0008647466    1.260    0.206
        46  -9.5479    139.1422     86.8871   6.0488700664e+01   3.7163578326e+01    0.1944608     0.175533   2.21  0.001010893    1.232    0.188
        47 -10.1172    131.1362     85.9597   6.2144690011e+01   3.9145358865e+01    0.2218521    0.2133925 -37.43 0.0003131469    1.028    0.027
        48 -10.0332     86.1819     86.2072   7.4755243771e+01   4.8229522728e+01    0.1953418    0.1688606  87.89 0.0003456846    1.325    0.245
        49 -10.1131     71.0704     82.2884   7.8523939076e+01   5.1643009512e+01    0.2307333    0.1805075  50.40 0.0006765877    1.407    0.289
        50 -11.5599     76.0521     83.2278   7.7141991433e+01   5.0626530467e+01    0.3703906    0.2451206 -55.43  0.001204617    1.454    0.312
        51 -10.6233     80.0658     81.0283   7.5207069071e+01   5.0430990516e+01    0.2479723     0.241785  67.12  0.000805455    1.090    0.083
        52 -10.5160     28.3781     85.0599   9.4230925246e+01   5.6391491625e+01    0.2109272    0.1814909  43.38 0.0005378051    1.323    0.244
        53  -9.3766     48.0000     82.0157   8.6458613179e+01   5.4969398822e+01    0.2308232    0.0693747 -58.42 0.0008046366    2.958    0.662
        54 -11.0417    104.4827     79.4492   6.7277717428e+01   4.6159787960e+01    0.3053697    0.2437625 -59.83  0.001544459    1.334    0.251
        55  -9.3272     54.2929     80.3378   8.3782982869e+01   5.4541483737e+01    0.1407993   0.09757178 -31.41 0.0004786933    1.646    0.393
        56 -10.7454     59.1313     77.2261   8.1220436529e+01   5.4573258099e+01    0.2590182    0.2427686  -6.41 0.0009803688    1.161    0.139
        57 -11.8365     75.3168     75.5621   7.5147803767e+01   5.2421973953e+01    0.5706824    0.3543503  22.51   0.00255253    2.166    0.538
        58 -10.1449      4.4713     75.5903   1.0139533038e+02   6.0424623551e+01    0.2313355    0.1337018 -62.68 0.0005619164    1.365    0.267
        59  -9.6197    130.5847     74.7563   5.8895295246e+01   4.1401584194e+01    0.2057034    0.1388047 -48.87 0.0002545782    1.520    0.342
        60 -10.2840     50.7635     76.2498   8.3968018687e+01   5.5933306227e+01    0.2017197     0.117264  15.45 0.0008981061    2.472    0.596
        61  -9.5891    151.6135     72.2354   5.3348820555e+01   3.6914609450e+01    0.2040969    0.1437536 -24.69 0.0004921264    1.548    0.354
        62  -9.9419     17.9626     70.4826   9.5151193257e+01   6.0672904073e+01    0.1925698    0.1396289 -62.66  0.001170748    1.148    0.129
        63 -11.2313    137.0726     69.5377   5.5719534816e+01   4.0840484847e+01    0.2636584    0.2367351 -37.03  0.001399272    1.099    0.090
        64 -11.4644    101.6544     68.6875   6.4676699973e+01   4.8885238675e+01    0.3428356     0.242245 -55.94 0.0002480344    1.553    0.356
        65 -10.5813     97.0286     68.8831   6.6111842133e+01   4.9788569030e+01    0.3024779    0.1930038 -42.88 0.0007237806    1.510    0.338
        66  -9.9238     64.0838     70.4860   7.7486572308e+01   5.5321429039e+01    0.2032811    0.1374622  38.72  0.001032769    1.603    0.376
        67 -10.6997    155.3256     68.5250   5.1455164707e+01   3.6651401309e+01    0.3382642    0.2163646 -56.85  0.001289217    1.836    0.455
        68 -11.0248    110.6818     65.3892   6.1020989319e+01   4.7597480692e+01    0.4102351    0.2629631 -63.12  0.001725661    2.152    0.535
        69 -10.4194     58.3586     66.1970   7.8243739619e+01   5.7100539500e+01     0.245502    0.1908009  41.31  0.001369074    1.421    0.296
        70 -10.3434     48.5017     66.2428   8.1985446558e+01   5.8450741638e+01     0.234856    0.1895405  27.34  0.001373618    1.382    0.276
        71 -10.9635     71.3890     63.6967   7.2727576473e+01   5.5577418583e+01    0.2973991     0.286527  17.94 0.0007359643    1.099    0.090
        72 -10.5272     33.2842     64.6774   8.7559945530e+01   6.0582244939e+01     0.248058    0.1484668 -67.68  0.001264519    1.703    0.413
        73  -9.6476    193.9001     64.0845   4.3390077854e+01   2.8036601020e+01    0.2133819    0.1784543 -58.47  0.001149698    1.201    0.168
        74 -10.1704     43.5840     63.5869   8.3116167897e+01   5.9651277734e+01    0.3160924    0.2025222  84.26  0.001368168    2.950    0.661
        75 -11.9235    150.8557     57.7284   4.8992199031e+01   3.9496861949e+01     0.266293    0.2549744 -20.44 0.0002733041    1.069    0.065
        76  -9.7382     91.4238     62.4817   6.5672192419e+01   5.2152199287e+01    0.1438942    0.1347121 -22.48 0.0001256671    1.041    0.040
        77 -10.8926     60.1233     57.7545   7.4816378053e+01   5.8603684361e+01    0.3395273    0.2764988 -35.21  0.001290998    1.143    0.125
        78 -10.1176      4.0944     59.3535   9.8540682344e+01   6.4148482722e+01    0.1537486     0.140404 -52.99  0.000428607    1.135    0.119
        79 -10.1660    100.9716     58.7156   6.1477244621e+01   5.0909095925e+01    0.1762124    0.1292429  46.27 0.0005369927    1.395    0.283
        80 -11.1247     95.9373     57.6503   6.2593775233e+01   5.2152840886e+01    0.2889598     0.246234 -14.28    0.0015462    1.242    0.195
        81  -9.9244    160.1890     56.7999   4.6900123346e+01   3.7341504759e+01    0.2049474    0.1717081  29.21 0.0004965146    1.340    0.254
        82 -10.1478      7.9567     57.0524   9.6359374660e+01   6.4426070499e+01    0.1817579    0.1462052 -54.76 0.0003318073    1.027    0.026
        83 -10.1398    111.9907     55.8908   5.7399401285e+01   4.9013324665e+01    0.2161489    0.2111278   9.65 0.0003579989    1.020    0.019
        84 -10.8043     83.4618     54.7024   6.5462863041e+01   5.5174448581e+01    0.4511901    0.1279204  45.54  0.001450318    3.684    0.729
        85 -10.5514    147.0411     61.5356   5.0985939869e+01   3.9816718826e+01    0.2693038    0.2124981 -34.30 0.0001548433    1.257    0.204
        86  -9.7732    162.1604     53.0677   4.5379125558e+01   3.7416553526e+01    0.2249697    0.1968348  20.33 0.0005635376    1.290    0.225
        87  -9.7287    212.3161     49.8844   3.7052631540e+01   2.5703447560e+01     0.193855    0.1601381 -33.53 0.0005504713    1.149    0.130
        88 -10.9571    202.8228     49.8372   3.8226197577e+01   2.7930687258e+01     0.209669    0.1905852  28.09   0.00101403    1.261    0.207
        89 -10.8374    126.2945     49.0967   5.1414173725e+01   4.6820962071e+01    0.3657389     0.236158 -51.93  0.001649435    1.748    0.428
        90  -9.5243     73.0771     50.5402   6.7462144159e+01   5.7869468462e+01    0.1998731    0.1363187  43.19  0.001014603    1.555    0.357
        91 -10.0355     55.0614     49.9208   7.3994891295e+01   6.0940781926e+01    0.2021944    0.1758642 -26.11 0.0005842432    1.070    0.066
        92 -10.5065     85.3428     49.0208   6.2728936223e+01   5.5845313040e+01    0.2573661    0.1838286 -47.94 0.0006103425    1.453    0.312
        93 -10.3959     85.9646     45.2636   6.1078476852e+01   5.6377503043e+01    0.2497224    0.1958662 -34.97 0.0007091612    1.230    0.187
        94 -10.1801     25.0997     48.8822   8.6452697165e+01   6.4836479128e+01     0.195553    0.1243926 -31.97 0.0004300158    1.589    0.371
        95  -9.5040      5.5761     49.2364   9.5576419202e+01   6.6298995549e+01    0.1876237   0.08142943 -54.20 0.0009567813    1.744    0.427
        96  -9.6536    233.2358     47.9603   3.4229790767e+01   2.1267326663e+01    0.1730987    0.0987315 -32.62 0.0003324722    1.552    0.355
        97  -9.9569    121.8447     48.1774   5.2145716744e+01   4.8020663304e+01    0.2123981    0.1942898 -70.63 0.0003666491    1.189    0.159
        98 -11.1013     98.2954     47.3643   5.8110911367e+01   5.3467864443e+01    0.3435199    0.2368649  39.04  0.001354582    1.501    0.334
        99 -11.3298    136.8875     46.6645   4.8208541082e+01   4.4630044302e+01    0.2694691    0.2491501 -84.59 0.0003708064    1.138    0.122
       100 -10.2301     61.8832     46.9079   7.0200481870e+01   6.0459196185e+01    0.3154768    0.2126639  72.04  0.001389784    2.842    0.648
       101  -9.9262     45.8844     47.1177   7.6716781101e+01   6.2798642844e+01     0.180279    0.1650155 -53.22 0.0002838268    1.172    0.147
       102 -10.5955     32.8016     44.6801   8.1554106300e+01   6.4906153815e+01    0.3314233    0.1279629 -41.63  0.001405657    2.425    0.588
       103 -10.0196     74.1700     44.8466   6.4879815339e+01   5.8711252526e+01     0.195802    0.1595044  -1.18  0.001078229    1.336    0.251
       104 -10.9103    108.4753     43.1497   5.3677396541e+01   5.1904152223e+01    0.3338526    0.2435046  69.27 0.0007733402    1.615    0.381
       105 -10.6646    240.1019     42.6732   3.2271719678e+01   2.0453238655e+01    0.2380691    0.1522682 -43.85 0.0008279497    1.341    0.255
       106 -10.8078    235.6724     42.9111   3.2751887677e+01   2.1371094768e+01    0.2589826      0.24265 -80.97  0.001223642    1.133    0.117
       107 -10.2593    141.8339     43.4807   4.6100476206e+01   4.3876093672e+01    0.2242751    0.1428358  61.34  0.001024763    1.570    0.363
       108 -11.4713     56.6489     41.8219   7.0251399282e+01   6.2244393874e+01    0.3118529    0.2339506  -0.84 0.0002461769    1.550    0.355
       109  -9.8821     61.5059     41.5364   6.8225975455e+01   6.1513803751e+01    0.2215179    0.1340671  40.04 0.0008765213    1.754    0.430
       110 -11.2877     63.1624     38.0159   6.6138506784e+01   6.1860451999e+01    0.3046159      0.22723  39.47 0.0004011845    1.414    0.293
       111 -10.1954     19.1232     42.8053   8.7301474678e+01   6.6662275541e+01    0.1687596    0.1562876 -56.88 0.0004501697    1.172    0.147
       112 -10.9884    247.8487     41.1204   3.1200444333e+01   1.9021476375e+01    0.3165248    0.2291322  58.48  0.001892651    1.588    0.370
       113 -10.3358     91.0442     40.0662   5.7428779763e+01   5.6199185020e+01    0.2044462    0.1956965 -10.88  0.001211646    1.031    0.030
       114 -11.0803    228.8850     37.6852   3.2124047763e+01   2.3492540261e+01    0.3654348    0.2193055 -65.04   0.00183248    1.815    0.449
       115  -9.9900    148.9457     38.4895   4.3052577221e+01   4.2793584264e+01    0.2243682    0.1878426 -34.31 0.0006579133    1.199    0.166
       116  -9.4167     76.2812     38.3795   6.1523593424e+01   5.9428923445e+01    0.1431484    0.1025933  -1.94  0.000700952    1.717    0.418
       117  -9.5750      6.8978     37.8818   9.1801281574e+01   6.8637680167e+01    0.1503818     0.129213 -74.07 0.0004412144    1.287    0.223
       118 -10.5489    194.7329     36.4427   3.5532789143e+01   3.1611483035e+01    0.3799292    0.2347524 -49.71   0.00126655    1.577    0.366
       119 -10.3823    127.5532     36.8930   4.6751438017e+01   4.8321806138e+01    0.2797155    0.2332891  49.58 0.0007632505    1.176    0.150
       120 -10.4553     47.2797     35.6228   7.1597263027e+01   6.4792346771e+01    0.1880329    0.1590655 -84.06 0.0008799491    1.743    0.426
       121 -10.2883    106.9711     34.8576   5.0864368044e+01   5.3488400820e+01    0.2069375    0.2016656  29.97 0.0004777602    1.033    0.032
       122 -11.2101    239.6112     32.4635   2.9871440507e+01   2.1775741893e+01    0.3756002    0.2456275 -88.63  0.002084944    1.685    0.407
       123 -10.4146    153.9260     29.6484   3.9231152678e+01   4.2670976576e+01     0.245756    0.1974419 -37.72 0.0001796219    1.246    0.197
       124  -9.3925    201.0131     29.2189   3.2784409233e+01   3.0962780891e+01    0.1753784    0.1083325  71.46 0.0003251941    1.638    0.389
       125 -11.6544     47.4676     28.6735   6.8474082143e+01   6.5984695343e+01    0.2584608    0.2209974  27.68 0.0001981613    1.242    0.195
       126 -11.2354    236.5067     27.7315   2.8998425975e+01   2.2988617436e+01    0.3685939    0.1901042  43.98  0.001696907    2.701    0.630
       127 -11.7871     77.3656    219.0342   9.9258667801e+01   2.0904519433e+01    0.6728941    0.3873287  44.02  0.004053788    1.430    0.301
       128 -10.6276     15.1226     28.1577   8.4096163165e+01   6.9959031487e+01    0.2684078    0.1734103  13.90  0.001026895    1.751    0.429
       129 -11.2595     81.0157     26.9620   5.5030504600e+01   6.0257084407e+01    0.4203457    0.2551368  54.30  0.002067118    1.756    0.430
       130 -10.8841    225.9993     24.1578   2.9014574459e+01   2.5712949054e+01    0.3223921    0.1669301 -14.48  0.001428238    2.526    0.604
       131  -9.6825    184.4986     25.5153   3.3633101316e+01   3.5440711248e+01    0.2378799     0.129923  87.05  0.001020407    2.154    0.536
       132  -9.8124      2.6719     26.4933   9.0338590859e+01   7.1237507558e+01     0.221965   0.08838069 -58.47  0.001105228    2.056    0.514
       133  -9.3256     35.2479     25.3829   7.2581404820e+01   6.8266419657e+01     0.130321    0.0828428 -21.71 0.0002917873    1.653    0.395
       134  -9.6551    221.7215     24.5303   2.9485115535e+01   2.6639914657e+01    0.1804555    0.1175912 -84.00 0.0009487302    1.630    0.387
       135 -11.0891     69.5029    219.9911   1.0088657802e+02   2.1754398381e+01    0.3374764    0.1977775  68.75  0.001668303    1.717    0.418
       136 -11.9596     66.9832    217.0103   1.0112441007e+02   2.2618895800e+01    0.5500906    0.4528483   9.09  0.003718481    1.810    0.447
       137  -9.8260    164.1369     22.5023   3.5349860412e+01   4.0912045124e+01    0.2245831    0.1907228  28.33   0.00124532    1.332    0.249
       138 -11.0047    248.3436     22.0842   2.6749621499e+01   2.1104911439e+01    0.1783313    0.1359946 -43.54 0.0004767094    1.105    0.095
       139 -11.8056    150.4168     18.9067   3.6157722588e+01   4.4799598227e+01    0.3153744    0.2709073  79.87 0.0004911031    1.137    0.121
       140  -9.4459    155.0000    214.0012   8.3426530844e+01   1.0300274925e+01    0.1775278   0.07050036 -47.37 -0.0002937762    2.960    0.662
       141 -10.3932     55.0009     19.4932   6.0907993243e+01   6.6225507901e+01    0.2368885    0.1740811 -25.22 0.0005934272    1.262    0.207
       142  -9.2299    249.0103    212.0000   6.6828349738e+01  -3.4254129824e+00     0.169193   0.05467736  39.16 0.0007944765    2.888    0.654
       143 -10.4871     59.0115    208.6615   1.0200140916e+02   2.5183081044e+01    0.2271321    0.1340883  69.93  0.001331783    1.649    0.393
       144 -10.7734    235.5528    208.1448   6.8290863032e+01  -1.1488318274e+00    0.3791547    0.1199361  34.32  0.001668169    3.045    0.672
       145  -9.9593    119.4974     18.9396   4.1646914531e+01   5.2544717039e+01    0.2021681     0.137768 -21.62 0.0005078404    1.535    0.349
       146  -9.3803     44.1695     18.3973   6.5005725970e+01   6.8145206710e+01     0.156769    0.1181078  46.74 0.0005655736    1.598    0.374
       147  -9.7506    142.9677    203.5325   8.4264782774e+01   1.3898108038e+01    0.1806902    0.1025644  20.11 0.0008097666    2.589    0.614
       148 -10.7013    215.8119    187.2261   6.7924885396e+01   4.4663930198e+00    0.1790864     0.140552 -86.40 0.0009468744    2.770    0.639
       149 -11.9008    249.3383    183.1954   6.1771706894e+01  -1.3596436381e-01     0.387901    0.2282538 -30.15  0.002331676    1.590    0.371
       150  -9.3685    107.9672     14.9922   4.2517664901e+01   5.5756394488e+01    0.1581972    0.1498423  27.32            0    1.019    0.019
       151  -9.7849    104.9602    185.7628   8.9678545869e+01   2.3227867038e+01    0.1747065    0.0996912  39.32  0.000632272    1.612    0.380
       152 -12.2967    237.0056    179.7104   6.3048348388e+01   2.1455383453e+00    0.3871142    0.2409557  44.26  0.002256798    1.772    0.436
       153 -12.8600    216.6236    156.7951   6.1947518040e+01   8.6985598015e+00     0.596279    0.3558778 -45.79  0.003011865    1.938    0.484
       154 -11.5918    224.3089    155.3776   6.0371567970e+01   7.5637686394e+00    0.3033004     0.197284 -17.56  0.001633733    1.564    0.361
       155 -11.0778    245.9403    152.0185   5.6291066183e+01   4.3961542777e+00    0.2531402    0.1816986  -2.02  0.001516091    1.377    0.274
       156 -11.0160     11.9068    145.1221   1.0723849998e+02   4.3681664375e+01    0.1879086    0.1483354  86.23 0.0002687729    1.015    0.015
       157 -14.9984    217.2584    133.3662   5.6867299296e+01   1.2150872478e+01     3.456396      1.45316  46.78   0.01462813    2.477    0.596
       158 -14.6381    220.6830    115.3292   5.2229628108e+01   1.4271828953e+01     2.371571     1.488613  32.58   0.01086668    1.862    0.463
       159 -10.9007     28.5474    139.5358   1.0235139707e+02   4.3473970352e+01    0.4129909    0.1532397 -61.30  0.001135766    2.335    0.572
       160 -10.8690     11.8459    129.0145   1.0579254380e+02   4.7395380957e+01     0.180574    0.1580954  77.82 0.0003140267    1.121    0.108
       161  -9.8768     47.0039    126.6814   9.5528235791e+01   4.4523628089e+01    0.1907173    0.1096564  -3.93 0.0006432725    4.196    0.762
       162  -9.4387     24.0485    125.5248   1.0197187301e+02   4.7183218730e+01    0.1613059    0.1204286  37.81 0.0003998609    1.474    0.322
       163 -11.6721    249.5840    120.1604   4.9080807756e+01   8.1483453336e+00     0.555458    0.2118911 -35.29  0.002423806    2.231    0.552
       164  -9.8598     15.0888    122.1051   1.0415330774e+02   4.8755333786e+01    0.1720188     0.143283 -61.23 0.0003607007    1.227    0.185
       165 -10.1416     68.4697    117.7258   8.7697007680e+01   4.3842812642e+01    0.2814502    0.1793987  18.09  0.001297443    2.219    0.549
       166  -9.5714     97.7472    117.6918   7.9332178777e+01   3.9121263697e+01    0.2011981    0.1276893  48.13 0.0009261265    1.621    0.383
       167  -9.5735     26.9609    116.4924   9.9947588473e+01   4.9057445629e+01    0.1655269    0.1271891  29.55 0.0004925135    1.517    0.341
       168 -10.7658      2.4498    111.9662   1.0679745530e+02   5.2046924318e+01    0.1893175    0.1636042  56.25  0.000302248    1.266    0.210
       169  -9.8332    200.6510     12.6776   2.8276495402e+01   3.2864848769e+01    0.1352881   0.09615393  38.12 0.0007048976    1.745    0.427
       170 -10.7380    100.4870     15.9707   4.4685465716e+01   5.7400240794e+01     0.294846    0.1902711  53.13 0.0006582888    1.460    0.315
