#   1 NUMBER                 Running object number                                     
#   2 MAG_AUTO               Kron-like elliptical aperture magnitude                    [mag]
#   3 X_IMAGE                Object position along x                                    [pixel]
#   4 Y_IMAGE                Object position along y                                    [pixel]
#   5 X_WORLD                Barycenter position along world x axis                     [deg]
#   6 Y_WORLD                Barycenter position along world y axis                     [deg]
#   7 A_WORLD                Profile RMS along major axis (world units)                 [deg]
#   8 B_WORLD                Profile RMS along minor axis (world units)                 [deg]
#   9 THETA_WORLD            Position angle (CCW/world-x)                               [deg]
#  10 FWHM_WORLD             FWHM assuming a gaussian core                              [deg]
#  11 ELONGATION             A_IMAGE/B_IMAGE                                           
#  12 ELLIPTICITY            1 - B_IMAGE/A_IMAGE                                       
         1 -14.7679      5.3031     68.7603   6.2013205742e+01   6.4521564105e+01     2.544888     1.033031 -59.38   0.01067901    2.065    0.516
         2 -15.3724     11.9928     23.8821   4.3360775935e+01   7.4490579832e+01     3.017082     1.784728 -34.86   0.01583849    1.692    0.409
         3 -12.7200     64.8927     19.3701   1.0409529817e+01   6.5807513137e+01    0.9088262    0.5042316 -59.26  0.003844835    2.794    0.642
         4 -12.9635     75.9505     12.8658   3.6706066587e+00   6.4002374337e+01    0.4847732    0.3955577  39.30  0.001521445    1.269    0.212
         5 -14.9312     85.3883      5.8901   3.5806761720e+02   6.2417942298e+01      2.52702     1.063435  63.70   0.01127387    1.996    0.499
         6 -15.9286     49.0939     39.4859   2.7107770240e+01   6.5930302930e+01     4.339015     2.357982  27.02   0.01809434    2.369    0.578
         7 -11.2958    174.7630     13.5260   3.4919242615e+02   4.0296137683e+01    0.2404492    0.1889959 -65.65  0.000808922    1.019    0.018
         8 -12.9538    184.7116     10.4987   3.4769207140e+02   3.8468420682e+01    0.6450622    0.3562506 -59.28  0.003003222    1.500    0.333
         9 -10.5948    155.4846     10.4365   3.4997244439e+02   4.4963577015e+01    0.2340049    0.1279228 -59.21  0.001111534    1.651    0.394
        10 -12.5217    148.5597      6.8759   3.4955727748e+02   4.6929748512e+01     0.525712    0.2835995 -67.88  0.001371701    1.758    0.431
        11 -11.3196    128.8001      7.2234   3.5172289737e+02   5.1620096113e+01     0.263755    0.2065494 -36.71 0.0008225276    1.355    0.262
        12 -12.3884    137.7165      4.7183   3.4993130741e+02   4.9703951954e+01    0.4392728    0.2765997 -78.44 0.0007298511    1.452    0.311
        13 -10.7332    131.0570      1.4827   3.4955016179e+02   5.1595846174e+01     0.253219    0.1550491  88.47 0.0004091742    1.454    0.312
        14 -10.5062    215.8262      2.4117   3.4411082516e+02   3.3051750439e+01    0.1826932    0.1092654 -50.87 0.0004282672    1.228    0.186
        15 -14.2092    119.6810     10.0799   3.5388104053e+02   5.3573333725e+01     1.890778    0.8129161  82.14  0.007009021    2.391    0.582
        16 -11.4616    178.9733      8.4885   3.4757775452e+02   3.9903907102e+01    0.2295948    0.1715151  82.30 0.0008725062    1.309    0.236
        17  -9.8685    134.3681     78.3109   1.3381752490e+01   4.0104288348e+01    0.1459111     0.117623  14.83 0.0001886138    1.765    0.433
        18 -10.3801    203.5793     93.0175   5.3284710314e+00   2.3472040745e+01     0.262617    0.1630615  86.79  0.001294748    2.536    0.606
        19 -11.5963    144.3368     91.4890   1.4870797196e+01   3.5422561592e+01    0.3554718    0.2536352  54.47  0.001531149    1.480    0.325
        20 -11.1225     96.3400     84.2323   2.5154645753e+01   4.7251244818e+01    0.3445532    0.3047677 -48.84  0.001597402    1.133    0.117
        21 -12.7254    193.4193    248.7906   3.4860851252e+01  -1.4233458802e-01    0.3635171    0.2718762  10.98  0.002764611    1.190    0.160
        22 -13.1422    184.6640    246.3359   3.6091109112e+01   1.0271520345e+00    0.5190966    0.2444028 -45.35   0.00299068    2.346    0.574
        23 -12.3657    239.3448    198.6725   2.0098327746e+01   2.2459419827e+00     0.296034    0.2457742 -73.89  0.001984021    2.774    0.640
        24 -10.2004    207.0558     76.0370   1.1384418480e+00   2.5478801372e+01    0.2082821    0.1252657 -60.98  0.000855674    1.693    0.409
        25 -11.6732     96.3824     70.7843   2.0899129084e+01   5.0076852721e+01     0.361928    0.3124879  40.00 0.0008499212    1.223    0.182
        26  -9.7415    138.3174     65.3439   8.7901477054e+00   4.1533255226e+01    0.1398481     0.115367  14.54 0.0007048821    1.718    0.418
        27 -11.4107    234.8635     75.7771   3.5817740670e+02   2.0737077512e+01     0.216195    0.1921359 -89.58 0.0007171937    1.337    0.252
        28 -11.3351    214.7097     60.8223   3.5696014964e+02   2.6279069440e+01    0.3195974    0.2460415 -81.48  0.001180546    1.346    0.257
        29 -10.1380    165.0904     59.8879   2.6777930384e+00   3.6400068468e+01    0.1972571    0.1582024 -66.05            0    1.135    0.119
        30  -9.5632    124.5520     57.4957   9.2257405039e+00   4.6060072831e+01    0.1449456    0.1322337 -78.22 0.0001360237    1.015    0.015
        31  -9.2753    174.3218     56.2858   4.4418385351e-01   3.4944580766e+01    0.1198683    0.1046632  24.64 0.0003881524    1.597    0.374
        32 -10.2317    214.1597     53.8483   3.5547945606e+02   2.7333403780e+01    0.1425547     0.133616 -43.80            0    1.295    0.228
        33 -10.4083    210.0856     54.4336   3.5599008635e+02   2.8012116659e+01    0.1860233    0.1611836  68.19 0.0009855333    1.405    0.288
        34  -9.4239    170.6680     52.6942   3.5998678831e+02   3.6260522193e+01    0.1231321     0.104867  25.71 0.0007038644    1.662    0.398
        35 -11.3466    154.0117     49.0073   1.3160198529e+00   4.0519233244e+01    0.2593603    0.1454817 -44.51 0.0007765177    1.619    0.382
        36 -10.0741    133.9967     52.2405   5.6555636468e+00   4.4686069282e+01    0.1931368    0.1660147  78.91  0.001087336    1.119    0.106
        37  -9.5993    213.6831     50.2819   3.5473546856e+02   2.7898181207e+01    0.1251416   0.07235785 -61.03   0.00029891    1.580    0.367
        38 -10.9888    121.4724     43.7568   5.3603936953e+00   4.8969378603e+01    0.3429355    0.2539242  73.53  0.001115003    1.310    0.237
        39 -11.3698    156.9919     42.9462   3.5916026077e+02   4.0702458790e+01    0.2899425    0.1906374  73.03 0.0006185633    1.512    0.339
        40 -10.3054    100.9851    175.9879   4.4189428225e+01   2.4428730368e+01    0.1977109    0.1897859  22.60 -0.007547014    1.001    0.001
        41 -11.1252    228.9974     40.5614   3.5142854477e+02   2.6371842816e+01    0.2060501    0.1842697 -58.58 0.0006320917    1.251    0.201
        42 -13.2136    213.3000     39.2654   3.5232889765e+02   2.9390725365e+01    0.2876033    0.2315769 -76.27 0.0006574783    1.188    0.158
        43 -11.8052    130.5999     36.9358   1.3849255423e+00   4.7743746597e+01    0.7828025    0.4141199 -83.19  0.002205688    2.706    0.630
        44 -12.0452    135.1819     32.0738   3.5906033912e+02   4.7287168155e+01    0.4796107    0.4588637  48.94  0.002527721    1.256    0.204
        45 -10.6195    160.0594     35.7178   3.5671410495e+02   4.0974972928e+01    0.2293728    0.1812936 -37.88 0.0004323961    1.300    0.231
        46 -11.4630    240.9550     34.6043   3.4943237413e+02   2.5038011107e+01    0.1939886     0.144243 -51.80 0.0002448847    1.055    0.052
        47 -10.7236    180.6739    166.6556   2.4252627510e+01   1.4368418119e+01    0.1368922   0.09180062 -13.44 0.0007050633    1.742    0.426
        48 -11.7971    152.2413     31.1387   3.5637673138e+02   4.3364109066e+01     0.484112    0.2047207  64.60  0.001298645    2.256    0.557
        49 -10.7672    175.0430     81.2488   6.6677100997e+00   3.0844114498e+01    0.3094807     0.173431 -40.95 0.0008359845    1.585    0.369
        50 -10.7110    189.3219     30.9113   3.5238533302e+02   3.5186264330e+01    0.2192803    0.1488942 -79.08   0.00131978    1.378    0.274
        51 -11.2395    182.8452     27.8363   3.5219562853e+02   3.6924382798e+01    0.2825299    0.1659343 -70.13  0.001192345    1.612    0.380
        52 -11.4151    168.3842     27.2373   3.5342815241e+02   4.0156729975e+01    0.4145406    0.2130348  76.64  0.001958398    1.924    0.480
        53 -10.6782    146.3292     26.6836   3.5580009797e+02   4.5301840952e+01    0.1912336     0.115345 -50.96 0.0007317141    1.525    0.344
        54 -11.2580    143.2931     24.3575   3.5547674219e+02   4.6299977298e+01    0.3792171    0.1917079 -41.44  0.001834887    1.823    0.452
        55 -10.3487    155.6053     24.8970   3.5415049679e+02   4.3345007844e+01    0.2030107    0.1609189  74.82 0.0005585678    1.249    0.199
        56 -10.5851    242.0015     23.3976   3.4715951125e+02   2.6147870030e+01     0.317356   0.08947372 -53.61  0.001520891    2.700    0.630
        57 -10.5861    208.2500     16.9691   3.4770518467e+02   3.2984446427e+01    0.1875977    0.1428893 -76.41 0.0005977908    1.177    0.151
        58 -13.3300     59.2373    144.7451   5.1727588675e+01   3.8314541004e+01     1.624261    0.8139804  29.79  0.006526002    1.957    0.489
        59 -10.5351     75.2519     78.4129   3.0575700471e+01   5.2833700887e+01    0.2902851    0.1817837 -41.09  0.001255612    1.703    0.413
        60 -11.0093    143.3696     14.7880   3.5250158619e+02   4.7354421591e+01    0.2204276    0.1539033 -85.00  0.000518835    1.296    0.228
        61 -13.4022     51.8195    143.0207   5.3979337623e+01   3.9742961435e+01    0.9505145    0.9049257  20.51  0.003807639    1.115    0.103
        62 -13.0871    148.7800    129.4928   2.3176183448e+01   2.6856949647e+01      0.51007    0.4185078 -73.90  0.002700691    1.433    0.302
        63  -9.8833    202.0156     11.4554   3.4682707404e+02   3.4806661114e+01    0.1587689     0.101355  85.03 0.0005582882    1.530    0.346
        64 -11.3982     64.9698    129.4007   4.7096935041e+01   4.1646298917e+01    0.3772308    0.2324553  58.79  0.001550874    1.917    0.478
        65 -10.1276    122.4975    127.4873   2.9027019504e+01   3.2196590427e+01    0.1492704    0.1444158 -59.68  0.000810517    1.014    0.014
        66 -11.7363    141.2713    121.3981   2.3013840850e+01   2.9963667093e+01    0.2799828     0.174278 -37.35  0.001191475    1.650    0.394
        67 -11.5218      2.0080    114.3834   6.9363945958e+01   5.2306251413e+01    0.4309734    0.1909024 -83.27  0.001746109    2.108    0.526
        68 -10.3589    148.0266    111.2694   1.9096342062e+01   3.0743824735e+01    0.1928657    0.1890807  71.58 0.0004430735    1.089    0.081
        69 -11.7836     95.0444    109.9402   3.2666984332e+01   4.1550790843e+01    0.6489044    0.3383143  60.95   0.00217489    3.034    0.670
        70 -12.1737     75.3130    108.7397   3.8975696336e+01   4.5435484342e+01    0.4654813    0.2926422  36.01  0.001971246    1.608    0.378
        71 -10.6673     54.6334     95.3904   4.3633386425e+01   5.2243448096e+01    0.2911293    0.2591619 -29.50 0.0007790984    1.200    0.167
