#   1 NUMBER                 Running object number                                     
#   2 MAG_AUTO               Kron-like elliptical aperture magnitude                    [mag]
#   3 X_IMAGE                Object position along x                                    [pixel]
#   4 Y_IMAGE                Object position along y                                    [pixel]
#   5 X_WORLD                Barycenter position along world x axis                     [deg]
#   6 Y_WORLD                Barycenter position along world y axis                     [deg]
#   7 A_WORLD                Profile RMS along major axis (world units)                 [deg]
#   8 B_WORLD                Profile RMS along minor axis (world units)                 [deg]
#   9 THETA_WORLD            Position angle (CCW/world-x)                               [deg]
#  10 FWHM_WORLD             FWHM assuming a gaussian core                              [deg]
#  11 ELONGATION             A_IMAGE/B_IMAGE                                           
#  12 ELLIPTICITY            1 - B_IMAGE/A_IMAGE                                       
         1 -10.7034    238.0238     12.2991   1.4939418297e+01   2.5713083102e+01    0.8108515    0.4322714 -36.83  0.004858909    1.396    0.284
         2 -10.1441    232.4057     14.3017   1.5661223689e+01   2.6576537098e+01    0.6526022    0.1799111 -32.01  0.002888214    2.514    0.602
         3  -9.1533    120.0376      8.8497   2.3239121584e+01   5.3641392276e+01    0.4330064    0.3353795  76.45  0.002166355    1.211    0.174
         4  -8.4016    179.2140      8.3941   1.7221937373e+01   3.8615585858e+01    0.1832413    0.1101225 -79.80 0.0008026391    1.614    0.380
         5  -6.9161    209.4489      6.5610   1.4927239555e+01   3.1996383625e+01    0.1226318    0.1006151 -52.01 5.512517e-05    1.058    0.055
         6  -7.7364    171.6685      1.7529   1.5747789885e+01   4.1048875901e+01    0.1915882   0.09844669 -36.46 0.0008701835    1.671    0.402
         7  -8.1586     79.8529    244.8938   8.9064251513e+01   1.4354468045e+01    0.1704805    0.1304121  42.31 0.0007023788    1.111    0.100
         8  -8.4101     62.8209    249.5476   9.2937579032e+01   1.5433651009e+01    0.2580365    0.1208096  53.32  0.001149747    2.041    0.510
         9 -13.0460     39.8082    191.6079   9.4398415046e+01   2.9096581719e+01      8.04816      1.50527  46.46   0.01183827    4.041    0.753
        10  -8.5666    245.2415    239.9983   5.8400848742e+01  -3.0048051449e+00    0.1184204   0.06392502 -24.43 0.0008742032    1.575    0.365
        11 -11.2709    127.9119    233.6236   7.8002982031e+01   1.0523067218e+01    0.6393865    0.3580362  19.52   0.00366583    1.660    0.398
        12 -11.2680    123.7060    228.1611   7.8246857843e+01   1.1889150383e+01    0.7827387    0.3638394 -62.24  0.003826488    3.287    0.696
        13  -9.3572     76.9569    234.0882   8.8837127534e+01   1.6500730642e+01    0.2240125    0.1721042 -73.27 0.0005800633    1.610    0.379
        14  -9.3453    114.7093    235.4399   8.0916076926e+01   1.1834382835e+01    0.3051233   0.09803528  27.81  0.001308976    2.700    0.630
        15  -8.3761    234.1912    234.0126   5.9183743095e+01  -1.3769799130e+00    0.1394288    0.1091868  -4.61 0.0006159353    1.303    0.233
        16  -8.4652    185.9846    229.3319   6.6372695593e+01   4.2239530723e+00    0.2116471    0.1427582 -41.14  0.001116242    1.824    0.452
        17  -7.6317     84.8755    228.8634   8.6662135220e+01   1.6495368991e+01    0.1686686    0.1465129   8.68 0.0006677794    1.257    0.204
        18  -8.4212    158.3090    227.5758   7.1236650769e+01   7.7184347840e+00    0.1581776   0.09150995  20.31 0.0009358545    1.507    0.336
        19 -10.3542    113.5099    228.0681   8.0381138049e+01   1.3164518586e+01    0.3676024    0.3029976   3.94  0.001532185    1.246    0.197
        20  -8.4335    146.4552    222.9382   7.2955950275e+01   9.8595428298e+00    0.1414178    0.1071763 -89.42 0.0008087193    2.630    0.620
        21  -9.0768    153.2134    217.6225   7.0900714702e+01   9.8089870965e+00    0.3213204    0.1769944  26.17   0.00182019    1.563    0.360
        22 -10.2884    119.9436    213.5558   7.7307272784e+01   1.4787560933e+01    0.3920805    0.2678881  34.15  0.002265847    1.245    0.197
        23 -10.5750    110.4935    214.9587   7.9555667476e+01   1.5774330882e+01    0.3732152    0.3417346  19.94  0.002604003    1.101    0.092
        24 -14.4266      6.4408    178.0585   1.0248284234e+02   3.5298767298e+01     9.275482     1.304415 -81.33   0.01492164    6.430    0.844
        25 -13.5145     10.2449    207.2807   1.0254782822e+02   2.8515482033e+01     2.196224    0.8746281  47.89   0.01129024    1.851    0.460
        26  -8.4092    134.1857    208.9986   7.3641446448e+01   1.3674366728e+01    0.2050225    0.1300716 -17.60  0.001086345    2.047    0.511
        27  -8.0672    143.0293    208.0000   7.1639285659e+01   1.2654350906e+01      0.20856   0.06102452  32.82 0.0008061103    2.968    0.663
        28  -9.0804    124.3305    205.7054   7.5335797342e+01   1.5571050461e+01    0.2648959    0.1374471  48.60 0.0008422173    2.242    0.554
        29  -9.2605    101.6282    202.7868   8.0125731811e+01   1.9176478686e+01    0.3680076     0.207862  71.61  0.001532323    3.419    0.707
        30  -8.0238     73.1091    204.6541   8.7136733981e+01   2.2480774048e+01    0.1941866    0.1588085  73.57 0.0006780219    1.300    0.231
        31  -7.6201     90.6456    202.8069   8.2723395797e+01   2.0625550456e+01    0.1631081    0.1216486 -83.86 0.0006691921    1.658    0.397
        32  -8.7319     67.9593    202.6430   8.8201941664e+01   2.3517903541e+01    0.2368897    0.1749794  82.86  0.000497461    1.513    0.339
        33  -7.9764     71.7050    242.6399   9.0613502259e+01   1.5627135689e+01    0.2492183   0.08877857 -60.70  0.001235385    3.319    0.699
        34  -9.1917     56.3132    193.5249   9.0295095334e+01   2.6834445397e+01    0.2952755    0.1894207  33.43   0.00106283    1.359    0.264
        35  -7.4419     70.2473    188.6016   8.6227783586e+01   2.6207674763e+01    0.1786094    0.1203708  18.73 0.0005390752    1.596    0.373
        36 -11.3746     54.4063    181.1864   8.9663141631e+01   2.9817218684e+01     1.366277    0.5854741  44.25  0.006012788    2.005    0.501
        37  -9.6608    140.6390    181.7717   6.8168948847e+01   1.7547569644e+01     0.272202    0.2103887 -31.38 0.0006669534    1.346    0.257
        38  -7.8353    146.5089    179.0036   6.6421201458e+01   1.7161512651e+01    0.1985562    0.1615042  24.38 0.0003781179    1.130    0.115
        39  -8.8950     70.5254    178.2912   8.5005666068e+01   2.8464622695e+01     0.387045    0.2347176  14.41  0.001799665    2.039    0.509
        40  -9.1940     63.4634    175.5043   8.6607008180e+01   3.0015908664e+01      0.40819    0.3231988 -45.13  0.001795333    1.488    0.328
        41  -7.9999     88.9785    174.0247   7.9533256657e+01   2.6880377995e+01    0.2305346    0.1556354  63.20  0.001133553    1.712    0.416
        42  -7.7927     35.0438    173.6952   9.4350278342e+01   3.3733561010e+01    0.1900333    0.1593121  49.74 0.0009441187    1.057    0.054
        43  -7.6144    146.5295    172.4573   6.5286747412e+01   1.8355833794e+01    0.1327141    0.1208144  10.36   9.6654e-05    1.014    0.014
        44  -7.2232    139.3289    171.2572   6.6679891170e+01   1.9717261262e+01    0.1344515   0.09955872   1.62 0.0002633766    1.559    0.359
        45  -7.6140    104.6510    171.6975   7.5116481089e+01   2.5060178501e+01    0.1409293     0.106429  -8.71 0.0004467786    1.694    0.410
        46  -8.7608     84.0247    170.8192   8.0410783326e+01   2.8311613959e+01    0.2067486    0.1932743 -89.22 0.0003007777    1.121    0.108
        47 -12.1273     69.2964    147.4090   8.1242526703e+01   3.6028133681e+01     1.620134    0.7869152 -80.61  0.005934041    2.859    0.650
        48  -9.9799     81.0217    161.7407   7.9945791912e+01   3.0845268265e+01    0.4687737      0.42417  56.86  0.002001173    1.042    0.041
        49  -9.4411     81.4650    156.1891   7.8985739731e+01   3.2097467137e+01    0.3512437    0.2754438  83.53  0.000585834    1.412    0.292
        50  -9.3658     68.1822    169.1808   8.4556251991e+01   3.0880498392e+01    0.2977802    0.2517344 -29.48  0.001338677    1.442    0.307
        51  -9.9682     72.9091    164.6100   8.2637241578e+01   3.1319745803e+01    0.4788584    0.2788418 -42.86  0.001283214    2.115    0.527
        52  -8.0196     58.9863    170.0630   8.7246595422e+01   3.1859106757e+01     0.398038    0.1833052  14.05  0.001426578    3.372    0.703
        53  -8.3388     56.0041    166.7394   8.7725795941e+01   3.3027094880e+01    0.1987936    0.1652465  43.46  0.000429542    1.100    0.091
        54  -7.5929     52.7736    166.7894   8.8661059562e+01   3.3409864870e+01    0.2817394    0.1438921  78.62  0.000742774    2.545    0.607
        55  -8.9867     50.2452    162.5764   8.8944719343e+01   3.4742902604e+01    0.6176292    0.2066765  58.34  0.001770814    4.791    0.791
        56  -9.7196     46.8061    173.6775   9.1046038158e+01   3.2456689681e+01    0.5788416    0.3647464  72.40  0.002451113    1.641    0.390
        57  -8.1530     66.6205    162.9784   8.4218236954e+01   3.2566875631e+01    0.4706215    0.1131065  40.60  0.001502183    3.379    0.704
        58  -7.1274     35.5256    163.4956   9.3376692810e+01   3.6166758166e+01    0.1377776    0.1199869  62.53 0.0001765941    1.007    0.007
        59 -12.9517     31.3600    246.7235   9.9326275194e+01   1.9064141098e+01     1.406625     1.218932 -40.18  0.006376637    1.645    0.392
        60  -7.9179    226.9500    156.1872   4.7504097094e+01   8.9134540639e+00    0.1596291    0.1407667 -26.04 0.0004258978    1.284    0.221
        61  -7.8940     48.9662    155.2719   8.8517676329e+01   3.6716702446e+01    0.1938134    0.1650959  47.09 0.0002967385    1.092    0.084
        62  -9.2797     87.9196    151.0122   7.6300210751e+01   3.2348503324e+01    0.4433667    0.3352691 -11.89  0.001342904    1.791    0.442
        63  -9.0185     92.9493    146.3110   7.4040704006e+01   3.2665737810e+01    0.2619273    0.2345732 -36.26 0.0005638936    1.219    0.180
        64  -8.6601     76.3383    150.5811   7.9610471788e+01   3.4217144788e+01    0.2443762    0.1759937 -83.32  0.001190239    1.544    0.352
        65 -10.7960     55.4535    150.2836   8.5914955658e+01   3.7176862098e+01    0.9388784    0.4834722 -73.59   0.00403048    2.019    0.505
        66  -8.2552     37.6537    150.9363   9.1552990856e+01   3.9111191348e+01    0.2026345    0.1687736  82.91 0.0008200601    1.118    0.106
        67  -8.6395    134.4218    148.2661   6.3506432350e+01   2.5107598712e+01     0.365333    0.2090542 -61.87  0.001521584    2.359    0.576
        68  -7.5402     44.6239    149.2242   8.9173750822e+01   3.8769957776e+01     0.187558     0.125483 -64.36 0.0003916201    1.502    0.334
        69  -9.4980     42.8304    144.5221   8.9202106194e+01   4.0194959654e+01     0.544321    0.2332744 -48.51  0.002059247    2.787    0.641
        70 -12.6705     53.0805    229.9131   9.3794173100e+01   1.9887003516e+01     1.861111     1.254408  58.59  0.002951498    1.377    0.274
        71 -11.4038     58.3415    131.4989   8.2259474948e+01   4.1660949142e+01    0.7759461    0.6307341  35.93  0.004050815    1.233    0.189
        72  -9.0804     25.6895    138.4822   9.4223602658e+01   4.3578540701e+01    0.3124702    0.1986234  62.13  0.001018073    1.491    0.330
        73  -8.9923    152.8352    136.8398   5.6880212520e+01   2.4076333387e+01    0.3388308    0.2444391 -24.15   0.00101875    1.510    0.338
        74  -9.8079     89.7831    136.4252   7.3125947654e+01   3.5574986666e+01    0.3096161    0.2662132 -62.57 0.0003698349    1.178    0.151
        75  -9.4107     51.5017    147.4907   8.6792859969e+01   3.8388673199e+01    0.4755762    0.3341944 -43.36  0.002346723    1.681    0.405
        76  -9.8805     38.1102    130.1213   8.9027692082e+01   4.4545542407e+01    0.3897596    0.2636114 -87.15  0.001895714    1.452    0.311
        77  -7.5527    111.5066    128.5096   6.5212745215e+01   3.3600104055e+01    0.1478676    0.1475032  18.28 0.0001262964    1.020    0.019
        78  -9.3945     49.2277    125.1757   8.4398743863e+01   4.4551705534e+01    0.5352406    0.2678969  71.18   0.00147691    2.893    0.654
        79  -9.6181     73.8497    126.0145   7.6107865900e+01   4.0794541621e+01    0.4282035     0.228775  31.66  0.001305689    1.926    0.481
        80  -9.6433     19.5543    125.8943   9.5175006981e+01   4.7504591362e+01     0.395561    0.2054427  21.18  0.001764268    2.058    0.514
        81  -8.6024     98.7179    124.5772   6.8003255616e+01   3.6891750493e+01    0.2798041    0.2640069 -39.06 0.0008201696    1.111    0.100
        82  -8.3904     29.8152    129.0856   9.1830029991e+01   4.5696909981e+01    0.3278174    0.1210406  48.77   0.00118684    2.684    0.627
        83  -6.9723    234.3262    123.2888   3.9977155573e+01   1.2411066752e+01    0.1189994   0.08301488  -2.82 0.0002578116    1.612    0.380
        84  -9.4824     12.1314    122.1599   9.7554159294e+01   4.9103223424e+01    0.5582452     0.236024 -67.22  0.002037727    2.118    0.528
        85 -10.4688      5.4230    120.3613   9.9896151906e+01   5.0047442178e+01     0.744625    0.3426369  40.42  0.003332241    2.018    0.504
        86 -14.0222     12.1898    245.8057   1.0324072105e+02   2.0960072575e+01    0.8558157    0.4289826 -87.00   0.00249598    2.212    0.548
        87  -8.5487     71.4301    118.2921   7.5373875972e+01   4.3179847343e+01    0.3429073    0.2064175  56.00  0.001422419    1.866    0.464
        88  -7.4058    107.9746    117.9962   6.3781421132e+01   3.6712033183e+01    0.1810985    0.1734968  51.26 0.0003446653    1.047    0.045
        89 -10.3838     59.2527    116.0356   7.9208818345e+01   4.5636164513e+01    0.3002579    0.2385491  50.21 0.0002270639    1.245    0.196
        90  -7.2954    130.7838    121.4206   5.8499050005e+01   3.1455889524e+01    0.1508585    0.1129585 -71.29 0.0004695547    1.677    0.404
        91  -8.3565    120.2034    113.4159   5.9267215022e+01   3.5330045142e+01    0.2174744     0.144409  54.18 0.0007633264    1.639    0.390
        92 -15.1227      5.4929    240.8521   1.0449608001e+02   2.2406732136e+01     1.923228    0.9919564   3.09   0.00812898    3.390    0.705
        93  -8.2834    120.6169    104.4085   5.6818449490e+01   3.7239317970e+01    0.3065149    0.1363722  57.64 0.0009629966    3.271    0.694
        94  -7.4099    110.0404    103.2658   5.9443975274e+01   3.9708338135e+01    0.2103403    0.1943938  50.86            0    1.097    0.089
        95  -8.4208     26.5889    100.2205   8.9283561543e+01   5.3934119654e+01    0.2259824    0.1356448 -74.57 0.0004619381    1.539    0.350
        96  -7.5878     41.6568     98.3288   8.2573722620e+01   5.2804528838e+01    0.1633511    0.1060737  64.44 0.0007050993    1.746    0.427
        97  -7.4668    137.1012     80.8049   4.5960139271e+01   3.8451993133e+01    0.2015384    0.1780599  -9.91 0.0003065659    1.312    0.238
        98  -8.0677    203.2515     78.2111   3.3829816166e+01   2.4366234218e+01    0.1857885    0.1606167 -26.08 0.0004392918    1.135    0.119
        99  -8.5659    130.1244     77.9480   4.6703821204e+01   4.0633395405e+01    0.2341746    0.2176964  66.45            0    1.103    0.093
       100  -7.7814    216.1241     75.1015   3.1500671772e+01   2.2313163036e+01     0.180149     0.154025 -21.49            0    1.191    0.161
       101  -8.6998    100.5738     65.5024   5.0485421520e+01   5.0072142395e+01    0.2987607     0.251024 -71.16 0.0005327084    1.276    0.216
       102  -7.2289    169.6375     64.2885   3.4860930024e+01   3.3728329224e+01     0.151952    0.1024901 -66.73 0.0007024553    1.693    0.409
       103  -7.9284    143.9713     59.6658   3.7881978125e+01   4.0600982903e+01    0.2096476    0.1857181  83.79 0.0005208942    1.148    0.129
       104  -7.7903    169.0066     58.2723   3.3200334352e+01   3.4803590966e+01    0.1909495     0.173379  88.02  0.000242432    1.142    0.125
       105 -10.3631    188.9121     55.7044   2.9769747540e+01   3.0646802878e+01    0.4199181    0.3103194 -63.83  0.002305229    1.356    0.262
       106 -11.3448    200.3253     46.3784   2.5985780189e+01   2.9424225266e+01    0.8134689    0.6642573 -34.38  0.003799368    1.144    0.126
       107 -11.1454    209.8080     38.4348   2.3038587420e+01   2.8417534901e+01    0.5915935    0.5316793 -45.02  0.001549634    1.129    0.114
       108  -7.4193     97.9331     49.9272   4.5345153597e+01   5.3708655250e+01    0.1745606    0.1682101  73.30 0.0002988175    1.031    0.030
       109  -8.0974    149.0654     41.9746   3.1162644984e+01   4.2062806737e+01    0.2151757     0.187363 -57.72  0.001177277    1.055    0.052
       110  -8.5584    221.8543     40.1589   2.2477701198e+01   2.5764345784e+01     0.200773    0.1370149 -51.88 0.0005417217    1.234    0.190
       111  -8.1478    186.0343     20.3403   2.0157211907e+01   3.5770351776e+01    0.1965744    0.1690874 -27.60 0.0004689993    1.244    0.196
       112  -9.0199    140.5921    248.3172   7.7133168174e+01   6.9135378087e+00    0.2158815    0.1460572 -67.79  0.001372078    2.610    0.617
       113  -7.9353    133.3385    247.6715   7.8464010659e+01   7.8302974778e+00     0.110022   0.07338856  47.18 -7.813286e-05    1.733    0.423
       114 -10.3076    103.7351    244.7135   8.4092876301e+01   1.1676801103e+01    0.2179142    0.1942514  14.51  0.001006877    1.181    0.153
       115 -13.6437      5.1664    247.0388   1.0469263724e+02   2.1340393795e+01    0.4331915    0.3405201  20.84  0.002506575    1.428    0.300
       116  -8.8914     48.6133    244.0646   9.5591227818e+01   1.7829146575e+01    0.2404699    0.1236491  47.12 0.0004399085    1.524    0.344
