#   1 NUMBER                 Running object number                                     
#   2 MAG_AUTO               Kron-like elliptical aperture magnitude                    [mag]
#   3 X_IMAGE                Object position along x                                    [pixel]
#   4 Y_IMAGE                Object position along y                                    [pixel]
#   5 X_WORLD                Barycenter position along world x axis                     [deg]
#   6 Y_WORLD                Barycenter position along world y axis                     [deg]
#   7 A_WORLD                Profile RMS along major axis (world units)                 [deg]
#   8 B_WORLD                Profile RMS along minor axis (world units)                 [deg]
#   9 THETA_WORLD            Position angle (CCW/world-x)                               [deg]
#  10 FWHM_WORLD             FWHM assuming a gaussian core                              [deg]
#  11 ELONGATION             A_IMAGE/B_IMAGE                                           
#  12 ELLIPTICITY            1 - B_IMAGE/A_IMAGE                                       
         1 -13.0574    201.0093     32.7657   5.8504179524e+01   3.0645692719e+01     1.266672    0.9448845  -6.50  0.006121775    1.455    0.313
         2 -12.4712      2.4039     18.7179   1.1291540019e+02   7.1517629746e+01    0.9007869    0.1741102 -61.94   0.00324607    4.072    0.754
         3 -13.6234    218.4815     15.1721   5.1055698926e+01   2.8125633876e+01     1.170822    0.9215951  20.11  0.006139621    1.477    0.323
         4 -10.7147     73.7213    244.2969   1.2551078397e+02   1.8579121606e+01    0.2632063    0.1970274  83.73  0.002246601    1.295    0.228
         5 -11.5945    184.7108    249.1949   1.0876786453e+02   2.6155073606e+00    0.3634523     0.211725  35.84  0.002536914    1.333    0.250
         6  -9.5725    175.4811    250.4961   1.1032822287e+02   3.8164246815e+00    0.1054254    0.0765428  38.97 7.151644e-05    1.037    0.036
         7 -10.8081    169.2927    249.0586   1.1112092078e+02   4.8699623073e+00    0.2282698     0.157451  29.81  0.000447321    1.382    0.276
         8 -11.6978    170.1756    243.8441   1.1040373003e+02   5.3238619405e+00    0.3065783    0.1678784  52.07  0.001062269    1.652    0.395
         9 -11.4579    143.0527    248.8810   1.1516436666e+02   8.6728226673e+00    0.3411478    0.1772811  63.88  0.001970869    2.564    0.610
        10 -12.0976    116.7598    238.4678   1.1832289331e+02   1.3742323910e+01     0.403562    0.3707189 -37.83  0.003415169    1.632    0.387
        11 -11.0885    109.9440    247.7500   1.2019618498e+02   1.3423168651e+01    0.4147796    0.2489075 -87.70  0.002868223    2.199    0.545
        12 -12.2250    122.4355    245.6871   1.1807697115e+02   1.1982784927e+01     0.746406    0.3177963  58.28  0.003805091    2.472    0.595
        13 -12.1651    125.9682    243.1866   1.1729433788e+02   1.1815146881e+01     0.387212    0.2772849 -72.25   0.00139677    1.766    0.434
        14 -11.4671    100.0525    247.8572   1.2172963616e+02   1.4727802076e+01    0.5620462    0.2424431  49.72   0.00357688    1.677    0.404
        15 -12.2738    102.1464    239.0850   1.2070277855e+02   1.5664732811e+01    0.5334604    0.3693334  83.09            0    1.521    0.342
        16 -10.4406     96.9850    239.1551   1.2152540996e+02   1.6345733929e+01    0.2216957    0.1324521  59.26 0.0007819138    1.323    0.244
        17 -10.6635     84.0540    241.1161   1.2370196007e+02   1.7747235328e+01    0.3494852    0.1910242  60.17  0.001932986    1.444    0.308
        18 -11.5982    105.4303    228.4601   1.1925290999e+02   1.6751761833e+01    0.5198331    0.2389859  36.04  0.002869611    2.348    0.574
        19 -11.2115    109.5046    232.3513   1.1893827924e+02   1.5616433122e+01    0.3408354    0.2009091  70.21  0.001793205    1.824    0.452
        20 -11.2272    113.3713    230.8654   1.1817046547e+02   1.5287513852e+01    0.2452191    0.2141052  84.85  0.001137685    1.271    0.213
        21 -10.8081     91.8553    241.4422   1.2250962415e+02   1.6695003677e+01    0.2280453      0.18077  63.86  0.001461171    1.129    0.114
        22 -11.3720     87.8106    236.9179   1.2280230846e+02   1.7874699299e+01    0.5032099    0.1996121  55.73  0.002908466    2.091    0.522
        23 -10.4385     84.4675    229.9530   1.2280256187e+02   1.9348849980e+01    0.2241778    0.1731567 -69.23  0.001788601    1.573    0.364
        24  -9.9908     81.6009    247.7638   1.2454184103e+02   1.7110468992e+01    0.2677993    0.1365304 -87.47  0.001703191    2.395    0.583
        25  -9.9269     90.5254    250.5238   1.2338027176e+02   1.5600383372e+01    0.2217681    0.1268152  41.39 0.0009370302    1.560    0.359
        26 -11.3113     86.4572    248.3791   1.2384656049e+02   1.6413309866e+01    0.2953162    0.2075344  38.23 0.0008696427    1.588    0.370
        27 -11.5152     59.8647    245.6951   1.2768863576e+02   2.0032065800e+01    0.3656467    0.1751032  54.21  0.002253249    1.466    0.318
        28  -9.4517     66.3406    244.2735   1.2663053243e+02   1.9475266105e+01    0.1591271    0.1194408  32.26 0.0009634083    1.893    0.472
        29 -10.6825     50.3045    249.7493   1.2931826611e+02   2.0536560731e+01    0.2351034    0.1590725  46.12  0.001912505    1.436    0.304
        30 -12.7448     11.1550    215.3454   1.3365102411e+02   2.9955218360e+01     1.087322    0.3937282  39.63  0.005595244    2.450    0.592
        31 -12.3313     11.3613    206.1844   1.3324052414e+02   3.1491094613e+01    0.9369403    0.5081129  22.25  0.005596477    3.701    0.730
        32 -12.3187      4.5946    226.4661   1.3505079104e+02   2.8746077312e+01    0.7155229    0.3931845  60.41  0.005860635    1.229    0.187
        33 -13.3975     26.1475    247.2648   1.3268520521e+02   2.3475888418e+01     1.090972    0.6297084  49.25  0.009071443    1.391    0.281
        34 -13.8961      7.1260    243.8406   1.3524301374e+02   2.5833329058e+01     1.018734    0.7306428  58.08  0.009644232    1.303    0.233
        35 -12.6857     41.8465    206.7361   1.2822547927e+02   2.8304336650e+01     1.400145    0.5286412  72.40  0.007012356    3.016    0.668
        36 -12.3986     43.6402    242.8886   1.2995351388e+02   2.2278940017e+01    0.4512563    0.3215373  88.83  0.001866466    1.360    0.265
        37 -14.0091     32.2569    218.8892   1.3048936675e+02   2.7274365819e+01    0.8503401    0.6482903  76.79  0.007315024    1.180    0.153
        38 -11.7153    179.0532    243.8142   1.0901530503e+02   4.0171932875e+00    0.3487498    0.1507047  44.38  0.002057122    1.739    0.425
        39 -10.9230    159.3034    244.1754   1.1214351414e+02   6.8844559196e+00    0.1816866    0.1182925  45.43 0.0004248431    1.145    0.127
        40 -11.7552    143.8953    241.7587   1.1431930344e+02   9.4292711611e+00    0.2797741    0.2247169 -64.84  0.002247701    1.626    0.385
        41 -10.7101    162.9882    250.1625   1.1221158173e+02   5.6598792235e+00    0.2335417     0.128814  50.84 0.0006419894    1.510    0.338
        42 -12.1709     38.5429    238.1992   1.3048230814e+02   2.3538551029e+01    0.5998569     0.226498 -66.85  0.001049507    2.918    0.657
        43 -12.7957     26.1325    225.8637   1.3178360075e+02   2.6769263534e+01    0.3239823    0.2319313  49.41 0.0007622545    1.415    0.293
        44  -9.1945     66.6720    239.3714   1.2627575556e+02   2.0156587522e+01    0.1941973   0.09740317  63.75  0.001036074    1.630    0.387
        45  -9.8225     48.2964    237.1952   1.2896090664e+02   2.2620688239e+01    0.2069771   0.08674611  51.69  0.001379024    1.682    0.405
        46  -9.4941    172.9941    236.0368   1.0905020039e+02   5.8004515828e+00    0.1288896     0.100598  40.53 0.0002999147    1.031    0.030
        47 -11.4663    129.2931    235.2902   1.1600521083e+02   1.2391808214e+01    0.2417084     0.167841  65.16  0.001749062    1.396    0.284
        48 -12.5649    134.8992    234.1694   1.1498316925e+02   1.1726533047e+01      1.41425    0.4655678 -53.97  0.007124929    3.915    0.745
        49  -8.8927     70.6104    235.2493   1.2539489422e+02   2.0295880887e+01    0.1141156   0.08624182 -75.42 0.0009275753    1.539    0.350
        50  -9.3886     54.6377    235.3051   1.2788411221e+02   2.2188352083e+01    0.1690985   0.08079318  65.45  0.001128733    1.720    0.419
        51  -9.6638    169.3793    233.4529   1.0931986481e+02   6.6536167393e+00     0.182003     0.124965   1.97  0.001136844    2.364    0.577
        52  -9.8697    156.6971    232.2498   1.1123015268e+02   8.7261666098e+00    0.1495836    0.1342694 -60.20 0.0006216686    1.444    0.307
        53  -8.6580     78.2441    233.3872   1.2405873329e+02   1.9626055648e+01   0.08165072   0.07794435 -62.32 0.0005726721    1.655    0.396
        54  -9.1329     45.6703    231.0961   1.2903234020e+02   2.3856564976e+01    0.1566473   0.08616024  72.40  0.001139814    1.463    0.317
        55  -9.9452     56.8989    228.5768   1.2712573033e+02   2.2970277073e+01    0.1960793    0.1201298 -84.29  0.001473154    1.581    0.367
        56 -10.4816     79.3092    225.9684   1.2333419318e+02   2.0629114569e+01    0.3341808    0.1858821 -73.92  0.001783314    1.946    0.486
        57  -9.4754     77.1740    220.8270   1.2328812906e+02   2.1716072896e+01    0.1611689    0.1070593  66.66 0.0004370507    1.201    0.167
        58  -9.4209     92.8010    226.1965   1.2113617232e+02   1.8820478558e+01    0.1678204    0.1100389  62.41 0.0007727776    1.227    0.185
        59  -9.7210     51.4733    225.4277   1.2779475716e+02   2.4099091080e+01    0.1605028    0.1207383  71.26 0.0002940013    1.108    0.098
        60 -11.4053    115.8785    249.8866   1.1945838159e+02   1.2337902627e+01    0.6541396    0.1997482  42.95   0.00342998    2.449    0.592
        61 -10.1314    117.3268    224.4639   1.1689685102e+02   1.5652914146e+01    0.1877739    0.1726287  35.55 0.0007160197    1.382    0.276
        62  -9.5382     65.0175    224.3524   1.2554613962e+02   2.2671070869e+01    0.1939834     0.128851 -58.33  0.001352697    2.042    0.510
        63  -9.1022     68.9022    247.0000   1.2641072294e+02   1.8775066445e+01    0.1608887   0.04210112  41.58 0.0004912816    2.978    0.664
        64  -9.1311    164.3127    223.9840   1.0899036026e+02   8.6080212818e+00     0.141834    0.1263375  43.17 0.0003805882    1.137    0.120
        65 -11.1370     98.6619    222.9057   1.1987505794e+02   1.8527427822e+01    0.3129561     0.189957  55.97  0.001317568    1.295    0.228
        66 -10.3916     87.4387    223.5072   1.2179816906e+02   1.9952460086e+01    0.1960062    0.1383661  62.48 0.0007617657    1.086    0.079
        67 -10.4464     70.8150    219.3641   1.2423401598e+02   2.2758142517e+01    0.4112591    0.2207088  81.11  0.002603307    1.944    0.486
        68 -10.8192    142.1730    219.9716   1.1221945342e+02   1.2584446763e+01    0.3021968    0.2394485 -67.79  0.002204509    1.558    0.358
        69 -10.4642    245.7213    220.4787   9.5529108117e+01  -3.5529369642e+00    0.2560437   0.09030369 -22.47  0.001222274    3.595    0.722
        70  -9.5025    110.6751    219.3452   1.1750976785e+02   1.7381240867e+01    0.2496199    0.1002094 -70.46  0.001148024    3.961    0.748
        71  -9.4697    110.9283    215.8381   1.1711328948e+02   1.7885588274e+01    0.2495936    0.1800505  15.74  0.001507625    2.489    0.598
        72  -9.7827    117.9813    214.9613   1.1580423263e+02   1.6986451185e+01    0.1667545    0.1325591  60.42 0.0004618705    1.043    0.041
        73  -9.5912     88.1354    212.8179   1.2075736809e+02   2.1569807600e+01    0.2054061    0.1282583  87.62 0.0009575472    1.692    0.409
        74 -10.8441     62.8300    208.9391   1.2479874511e+02   2.5484295732e+01    0.5020649    0.2503371 -62.81  0.003140789    2.223    0.550
        75  -9.3571    112.4670    208.4615   1.1606954686e+02   1.8825387310e+01    0.2143757    0.1474979  73.80 3.623432e-05    1.487    0.328
        76  -9.0821    110.5930    205.5230   1.1608286884e+02   1.9578957097e+01    0.1686332    0.1200576  44.86  9.75966e-05    1.269    0.212
        77  -8.7064    156.3783    208.4302   1.0833570006e+02   1.1974331270e+01    0.1142674    0.0951221  47.96 5.810505e-05    1.030    0.029
        78  -9.1089    134.3756    207.7405   1.1211081225e+02   1.5592286941e+01    0.1374023    0.1093617 -43.58 0.0008553784    1.617    0.381
        79 -10.8852     55.3840    208.3043   1.2602826035e+02   2.6487877976e+01    0.5504543     0.263782  81.36  0.002744521    2.186    0.543
        80  -9.5464     91.1444    204.9364   1.1949331339e+02   2.2470101941e+01    0.2866331    0.1399309  35.43  0.001351949    2.318    0.569
        81  -9.9128    106.8384    203.6771   1.1655471074e+02   2.0437373476e+01    0.2126398    0.1527363  82.20 0.0004256764    1.431    0.301
        82 -11.2689      4.2641    186.1407   1.3355167567e+02   3.5704373453e+01    0.3848557    0.1857927  71.04  0.001636027    1.563    0.360
        83  -9.7997      8.5190    185.4508   1.3277946274e+02   3.5461163117e+01    0.1445733   0.09697712  74.02 0.0006248049    1.039    0.038
        84  -9.7230      2.5118    202.0046   1.3450027302e+02   3.3012939689e+01    0.2171118    0.1031052 -84.73  0.001437247    1.710    0.415
        85  -9.8812      3.0178    197.6545   1.3424775918e+02   3.3732733279e+01     0.255735    0.1131447  53.66 0.0007821078    1.688    0.408
        86 -10.8370      2.2370    192.8244   1.3418225393e+02   3.4661886840e+01    0.4402229    0.1742857  69.63  0.002732772    1.973    0.493
        87 -10.2659    250.1661    201.3954   9.1759339449e+01  -2.4007325451e+00     0.250761    0.1192774  -9.16  0.001238001    2.799    0.643
        88 -10.5057     83.8126    201.5857   1.2048407887e+02   2.4049002140e+01    0.1949559    0.1499289  73.26 0.0002730626    1.082    0.076
        89  -9.6608     43.0411    200.2455   1.2760160246e+02   2.9314475653e+01     0.247031    0.1560431 -63.58  0.001064572    1.854    0.461
        90  -8.5294    130.6530    199.2649   1.1172413902e+02   1.7508705009e+01    0.1210452   0.07852808  64.62 0.0002838286    1.609    0.379
        91 -11.9245     55.2984    193.9173   1.2496621051e+02   2.9048156996e+01    0.3698797    0.2515178 -62.63 0.0009426516    1.718    0.418
        92  -9.9594     21.4908    193.3699   1.3092687404e+02   3.2800763379e+01    0.2687623    0.1711506 -83.17 0.0007377968    1.368    0.269
        93 -10.6089     31.1141    192.5892   1.2919914033e+02   3.1977754050e+01     0.409982    0.2833795 -56.78  0.001372957    2.005    0.501
        94  -8.6788    103.1824    196.4065   1.1642058976e+02   2.2205953944e+01    0.1635753   0.08872563  53.16 0.0003556442    1.575    0.365
        95  -9.8337    249.6606    194.2008   9.0594779617e+01  -1.5985711416e+00    0.2483928    0.1307361  31.84   0.00142801    1.618    0.382
        96  -8.7393     77.9677    193.9807   1.2082504288e+02   2.6178044986e+01    0.1348993    0.1049044  67.01 -0.001877172    1.022    0.022
        97  -9.5026    191.5016    191.5091   9.9676892908e+01   8.4144776297e+00    0.2056927    0.1781177  30.62 0.0006253138    1.033    0.032
        98 -10.2586    250.3167    187.8885   8.9371243741e+01  -1.0467932512e+00    0.2720029    0.1298471 -19.33   0.00142108    2.231    0.552
        99  -8.9417     77.0047    188.3697   1.2045776630e+02   2.7328956492e+01    0.1555648    0.1215803  65.95  0.001093837    1.046    0.044
       100  -9.8928     10.9512    188.5231   1.3250421371e+02   3.4676756755e+01    0.1383992   0.08487885  45.71  0.001026084    1.574    0.365
       101  -8.2955    145.5654    187.4677   1.0735908938e+02   1.6964528105e+01    0.1227183    0.1062236  52.39 8.953118e-05    1.008    0.007
       102  -9.8940     83.5429    186.6730   1.1904481087e+02   2.6754066846e+01    0.1898916     0.153698  71.65 0.0002623032    1.016    0.015
       103 -10.5370     71.4545    186.8744   1.2135966119e+02   2.8337683890e+01    0.2494147    0.1972103  36.05 0.0001162886    1.570    0.363
       104 -11.6214     61.8913    185.9979   1.2308297947e+02   2.9715143076e+01    0.2131461    0.1908009 -84.02 0.0004444938    1.336    0.251
       105  -8.9253     24.3100    184.0565   1.2989232606e+02   3.4249418426e+01    0.1583533    0.1295888  62.66 0.0008302536    1.287    0.223
       106  -9.3790     26.0061    192.7619   1.3010687466e+02   3.2465770379e+01    0.2121796    0.1606215  86.09    0.0009894    1.179    0.152
       107  -8.7332     85.6945    180.2860   1.1793315940e+02   2.7646780755e+01    0.1221273   0.07595173  69.59 0.0001553143    1.565    0.361
       108 -10.6798      3.8444    178.9743   1.3329748650e+02   3.7075544100e+01    0.2420901    0.1419572  46.27  0.001476285    1.614    0.380
       109 -12.1486    248.1791    172.0750   8.6751055818e+01   1.0344784691e+00     0.755446    0.3957599 -23.53  0.004052034    1.883    0.469
       110 -11.2543    245.1519    162.0957   8.5259287789e+01   2.7200453189e+00     0.347044     0.213085 -15.83  0.001916493    1.601    0.376
       111 -10.4975    249.5023    161.0387   8.4365336847e+01   2.0873170502e+00    0.3099377    0.2039963 -17.35  0.001614828    1.425    0.298
       112 -11.4660    245.4807    156.1499   8.3996606695e+01   3.3819481170e+00    0.8620569    0.4814503  65.70   0.00337787    4.248    0.765
       113  -8.7258    103.0150    176.0030   1.1399317585e+02   2.5907682224e+01     0.144038    0.1229452  74.13 0.0009585608    1.028    0.027
       114  -9.7540     65.0390    175.7895   1.2151344900e+02   3.1275005572e+01    0.1832515    0.1235163  68.41 0.0008262127    1.268    0.211
       115 -10.8628     73.0760    173.9845   1.1973161480e+02   3.0585065234e+01     0.205329    0.1886562  85.89 0.0003906531    1.260    0.206
       116 -10.5810     19.3373    174.3228   1.3021252442e+02   3.6587773851e+01    0.3116526    0.1419341  74.76 0.0007319601    1.918    0.479
       117 -11.2521     58.8764    172.9547   1.2245446704e+02   3.2597975767e+01    0.2529019    0.2489232  81.80 0.0006371152    1.470    0.320
       118 -10.4081     12.2745    172.9225   1.3144923118e+02   3.7503030437e+01      0.24173    0.1053479 -70.30   0.00146705    2.033    0.508
       119 -11.6478     10.7493    158.2116   1.3086844297e+02   4.0546418393e+01    0.4432107    0.1731105  80.46   0.00154736    2.415    0.586
       120 -10.6783     12.3828    154.2244   1.3028252243e+02   4.1218357296e+01    0.2493095    0.1244105  83.55  0.001513223    1.643    0.391
       121 -10.8455      2.8451    172.6617   1.3317631784e+02   3.8359767152e+01    0.3274232    0.1461697  72.72  0.001777848    1.786    0.440
       122 -11.2037     13.6444    167.1246   1.3085187007e+02   3.8515377504e+01    0.3362927    0.2140618  37.58  0.002395561    1.800    0.444
       123 -11.0912      5.0416    167.1453   1.3248841728e+02   3.9247656609e+01    0.3269192    0.2035011  55.18 0.0004449158    1.406    0.289
       124 -11.0996      8.9456    166.0311   1.3168663481e+02   3.9138999365e+01    0.3247637    0.1566105 -73.11   0.00142678    1.766    0.434
       125 -10.0321     27.4920    171.3986   1.2847097820e+02   3.6374104622e+01    0.2614436    0.1552394 -60.10 0.0005487815    1.934    0.483
       126 -10.0017    166.9174    170.2641   1.0054749517e+02   1.5983260871e+01    0.1832412    0.1812125   7.66 0.0003305801    1.108    0.098
       127  -8.6638    124.8303    171.5348   1.0900462771e+02   2.3230661345e+01    0.1661359    0.1074159  56.36 0.0009050983    1.460    0.315
       128  -9.2475     51.7630    171.0437   1.2368804957e+02   3.3826970510e+01    0.1850749    0.1378653  58.74 0.0005519174    1.209    0.173
       129  -8.7355     95.9510    169.0341   1.1450767722e+02   2.8314001443e+01    0.1461201    0.1211163  65.96            0    1.053    0.050
       130 -11.6363     80.7159    165.8561   1.1724331021e+02   3.1152949426e+01    0.4220852    0.3732944  36.84  0.001653747    1.424    0.298
       131 -10.4401     81.9878    158.3328   1.1602310372e+02   3.2498071339e+01    0.3520726    0.2208429 -70.12  0.000672318    1.520    0.342
       132 -10.6365     67.8897    166.3953   1.1995466127e+02   3.2771249144e+01     0.297228     0.198559  35.73  0.001164666    1.745    0.427
       133  -9.2347     37.9861    163.1550   1.2575662853e+02   3.6949436636e+01    0.1997001   0.09072521  59.78  0.001082314    2.034    0.508
       134  -9.8032     30.0144    162.4185   1.2730799802e+02   3.7918606088e+01    0.3607177    0.1370776  67.72  0.001285085    2.932    0.659
       135 -10.3741     44.4561    165.2025   1.2462400121e+02   3.5831950220e+01    0.2742056    0.1976603 -38.82  0.001488659    2.343    0.573
       136  -9.3679     24.2000    161.9926   1.2844257957e+02   3.8571690554e+01    0.1527288    0.1114656  82.87  0.000424213    1.017    0.017
       137  -8.8641     43.2036    161.1951   1.2451600855e+02   3.6786500475e+01    0.1610094    0.1031946  70.50 0.0003646788    1.336    0.251
       138  -8.9233     46.4517    156.4635   1.2338667684e+02   3.7402847966e+01    0.1187584   0.09135485  82.16 -1.964346e-06    1.021    0.020
       139 -10.8939     26.2301    155.3290   1.2752079011e+02   3.9740134775e+01    0.3987989     0.143051  40.63  0.002105861    2.582    0.613
       140  -8.7744    228.4295    155.5009   8.6623089845e+01   6.5758634276e+00     0.129632    0.1144424   8.69 0.0001170331    1.054    0.052
       141 -10.0869     32.6365    153.5307   1.2603154340e+02   3.9484442492e+01    0.2488989    0.1396282  84.36  0.000481821    1.554    0.356
       142 -13.0840    247.3076    101.5715   7.1276750171e+01   1.0159712563e+01     1.865427    0.7282161 -20.66  0.006691537    2.897    0.655
       143 -11.7006    248.4039    112.9072   7.3880724781e+01   8.4071362258e+00    0.6560954    0.4481272   4.78   0.00335837    1.585    0.369
       144 -12.0251    248.0037    142.3582   8.0681163906e+01   4.6391629209e+00    0.5911376    0.4310589  -4.05  0.003422788    1.273    0.215
       145 -12.9882    248.2024    134.2696   7.8866272954e+01   5.6342036897e+00     1.401862    0.7134907 -20.90  0.006550475    1.932    0.482
       146 -10.1737     94.8776    150.3556   1.1209061642e+02   3.2236281277e+01      0.29243    0.2184197  60.40  0.001122838    1.257    0.204
       147  -9.3100     87.0144    151.0606   1.1392997906e+02   3.3275777908e+01    0.1869681    0.1583444  83.87            0    1.022    0.021
       148 -11.3247     21.8698    149.3296   1.2795630987e+02   4.1395414664e+01    0.4146984    0.1527134  46.58   0.00221169    2.436    0.589
       149 -10.8669      4.9699    150.9763   1.3158335345e+02   4.2490143896e+01    0.1712756    0.1228663  84.03 0.0005926532    1.019    0.018
       150 -10.4951     82.9052    149.3964   1.1460109765e+02   3.4223755225e+01    0.2173897    0.1828079 -80.23 0.0003566199    1.099    0.090
       151  -8.8143     55.2814    150.3265   1.2083195827e+02   3.7669370324e+01    0.1108659   0.08633029 -51.80 0.0003435648    1.598    0.374
       152  -8.8278     44.7653    148.9436   1.2298580942e+02   3.9171979817e+01    0.1544685   0.08274952 -73.01 0.0008698948    1.597    0.374
       153 -12.0337     68.3228    144.3694   1.1718191481e+02   3.7306107238e+01    0.6173918    0.3871201  81.15  0.002723149    1.662    0.398
       154 -12.4973      9.7471    141.5930   1.2995970749e+02   4.4058615786e+01    0.5771386    0.2160077 -71.55 0.0005246173    2.079    0.519
       155 -11.6257      5.6836    141.9674   1.3085710877e+02   4.4299036330e+01     0.345959     0.192933 -86.93  0.001311125    1.345    0.257
       156  -9.2303     41.0319    147.5183   1.2365733739e+02   3.9880870468e+01    0.1558791    0.1078526  44.93 0.0004330378    1.524    0.344
       157  -9.6264    235.8809    145.8718   8.3365327163e+01   6.4506595171e+00    0.2096105    0.1564705  11.83 0.0004963135    1.287    0.223
       158  -8.7652     97.8675    146.3789   1.1080501078e+02   3.2597604418e+01    0.1652099    0.1224883  32.66 0.0003868988    1.622    0.383
       159 -11.5991      2.2430    143.9880   1.3171559098e+02   4.4139483600e+01    0.5236829    0.1448639 -79.04  0.002464855    2.764    0.638
       160 -10.2006    133.1535    141.0692   1.0202777430e+02   2.7580850972e+01    0.3181063    0.2151057 -62.77  0.001057565    1.623    0.384
       161 -10.0414     37.7105    141.3219   1.2375977076e+02   4.1559541616e+01    0.3260039    0.1196952  67.47  0.001188348    4.397    0.773
       162 -11.3264     17.0243    140.0327   1.2825456205e+02   4.3787215696e+01    0.3313847    0.1669573  57.21  0.001393475    1.838    0.456
       163  -9.5733    107.7480    135.9830   1.0677226031e+02   3.3166363315e+01    0.3391029     0.221216 -28.82    0.0015242    2.545    0.607
       164  -9.3511     59.5173    136.5058   1.1816028326e+02   4.0140295434e+01    0.1264409    0.1029135  89.31 -4.491986e-05    1.016    0.016
       165 -12.2525     11.9303    127.3955   1.2835355729e+02   4.6926288298e+01    0.4579329    0.2185294  40.18  0.001866337    2.195    0.544
       166 -12.5384      3.4360    122.8785   1.2997313595e+02   4.8535829515e+01     0.586704     0.296034 -70.03  0.001104068    1.572    0.364
       167  -8.9687     94.3358    133.0778   1.0938493559e+02   3.5988245973e+01    0.1834974    0.1541503 -66.82  0.000432168    1.134    0.118
       168 -10.8073     44.7240    130.5500   1.2090321350e+02   4.3175890002e+01    0.2768336    0.1673229  79.18 0.0007864255    1.640    0.390
       169 -11.8765      3.1352    130.6973   1.3063085629e+02   4.6873269505e+01    0.5332956    0.2214226 -72.14  0.003036952    1.841    0.457
       170 -10.4260     57.6400    147.3463   1.1996293690e+02   3.8019566880e+01    0.3115812    0.2069926  32.64   0.00185189    1.859    0.462
       171 -10.0136     48.2375    126.0053   1.1946211052e+02   4.3802010795e+01    0.1878555    0.1713642  71.94  0.000307816    1.223    0.183
       172 -11.9368     18.0121    122.6720   1.2647292671e+02   4.7474488354e+01    0.3262729    0.1942966  25.93  0.002009891    2.244    0.554
       173  -9.9849    238.9280    121.7641   7.7435521342e+01   9.1131070382e+00    0.2881489    0.1606618  -0.80  0.001169345    2.573    0.611
       174 -10.4415     31.4821    117.1674   1.2251647411e+02   4.7518578298e+01    0.3466658    0.1249465 -47.65  0.001374963    3.895    0.743
       175 -10.4193    231.9094    116.3661   7.7261706435e+01   1.1310457015e+01    0.2403948    0.1818001 -33.08 0.0006444028    1.293    0.227
       176 -13.2255      9.4228    111.3345   1.2749183650e+02   5.0651052467e+01    0.7992271    0.2642713 -77.51  0.003357973    2.369    0.578
       177  -9.8086    167.6263    112.7938   8.8231099983e+01   2.5993104175e+01    0.2767918    0.2374208  84.22  0.000942771    1.388    0.280
       178 -10.9546    249.6882    150.8491   8.2235679327e+01   3.2782065802e+00    0.4173994    0.2750565 -34.58  0.002346316    1.616    0.381
       179  -8.7283    203.4904    111.5327   8.0913660614e+01   1.8198011931e+01    0.1487086    0.1357943   3.69 3.778644e-05    1.050    0.047
       180 -10.9494     18.9743    105.9875   1.2441811108e+02   5.1131878342e+01     0.234358    0.1602629 -85.23 0.0007297046    1.158    0.137
       181 -12.3881     14.9761    100.8084   1.2487950239e+02   5.2611851534e+01    0.4366623    0.2759199 -59.87  0.001670923    1.423    0.297
       182  -8.6744     71.7595    100.0563   1.0883164326e+02   4.6777705876e+01     0.169713    0.1014201 -61.84 0.0003008878    1.472    0.321
       183 -11.1134     21.1156     92.7148   1.2207917425e+02   5.3987055255e+01    0.3927852     0.108268 -63.22  0.001690062    2.522    0.603
       184 -10.6229    249.7159    117.9215   7.4878255000e+01   7.4786836079e+00    0.4592829     0.265079 -11.12  0.001834313    1.867    0.464
       185 -11.7244      2.1298     76.8992   1.2562604783e+02   5.8857593888e+01    0.6489209    0.0827564 -73.19  0.001908428    5.732    0.826
       186 -11.6031    150.0459    247.2253   1.1391162518e+02   7.8692146332e+00    0.2955343    0.2361943  38.07  0.002395306    1.190    0.159
       187 -12.1001    200.9459    246.3010   1.0594397198e+02   5.4994010460e-01    0.5307284    0.1470907  44.50  0.002532986    2.780    0.640
