#   1 NUMBER                 Running object number                                     
#   2 MAG_AUTO               Kron-like elliptical aperture magnitude                    [mag]
#   3 X_IMAGE                Object position along x                                    [pixel]
#   4 Y_IMAGE                Object position along y                                    [pixel]
#   5 X_WORLD                Barycenter position along world x axis                     [deg]
#   6 Y_WORLD                Barycenter position along world y axis                     [deg]
#   7 A_WORLD                Profile RMS along major axis (world units)                 [deg]
#   8 B_WORLD                Profile RMS along minor axis (world units)                 [deg]
#   9 THETA_WORLD            Position angle (CCW/world-x)                               [deg]
#  10 FWHM_WORLD             FWHM assuming a gaussian core                              [deg]
#  11 ELONGATION             A_IMAGE/B_IMAGE                                           
#  12 ELLIPTICITY            1 - B_IMAGE/A_IMAGE                                       
         1 -15.6998     69.1681    144.2930   9.8940923445e+01   3.7396361355e+01     5.224962     2.532448  64.53  0.006659275    4.977    0.799
         2 -13.8651    198.0525     43.1785   4.1852575846e+01   3.0947601954e+01    0.9305048     0.819257 -57.01  0.003114779    1.083    0.077
         3 -14.0262    231.9190      7.9488   3.0671768408e+01   2.7763804711e+01    0.8143002    0.6650777 -71.62  0.004171001    1.036    0.035
         4 -14.2610    206.9221     34.5365   3.8721870938e+01   3.0062685679e+01    0.7624222    0.6887855  29.32  0.001312915    1.423    0.297
         5 -11.8319     61.2479      8.0908   5.8943798196e+01   6.5209220197e+01    0.2597495    0.1602187  49.02 0.0008001747    1.585    0.369
         6 -12.4375     58.9982      3.4717   5.7582162756e+01   6.6046742077e+01     0.368944    0.2188281  32.81  0.002166061    1.418    0.295
         7 -10.5990     88.7225    210.2390   1.0399178838e+02   1.8932689347e+01    0.2153042     0.196261  86.43 0.0006193768    1.092    0.084
         8 -12.5924    139.4899    246.6412   9.7697033850e+01   4.3362978440e+00    0.6578899    0.3943856 -59.47  0.003530618    2.165    0.538
         9 -15.4030     43.4624    195.0874   1.1275944091e+02   2.8146386601e+01     5.611864     1.719353  56.61   0.01619402    5.859    0.829
        10 -13.9740     28.7126    216.2778   1.1787143255e+02   2.4983791127e+01     1.112281    0.4494729  76.28  0.002771422    3.397    0.706
        11 -18.3658     11.7991    241.3936   1.2274855553e+02   2.1507018381e+01     8.779461     6.437726 -89.47   0.03490859    1.221    0.181
        12 -11.1080     59.8897    197.4672   1.0916382793e+02   2.5665611685e+01     0.224277    0.1964455 -85.55  0.001054334    1.072    0.067
        13 -10.0073     82.4657    194.8691   1.0342565398e+02   2.3264375375e+01    0.2635432    0.1872488  10.24     0.001184    1.886    0.470
        14 -16.6433      5.9980    209.3443   1.2206217169e+02   2.8613384642e+01     2.627452    0.8653008 -66.72   0.01031116    2.619    0.618
        15 -11.6513    149.3963    191.5177   8.6829909566e+01   1.3259427424e+01    0.5013151    0.3369711 -77.86   0.00210993    2.626    0.619
        16 -11.1979    146.4979    185.9826   8.6473381706e+01   1.4923930086e+01    0.2621503    0.2504919  42.75 0.0007208659    1.111    0.100
        17 -12.0014    118.2790    191.0497   9.4121361680e+01   1.8631202187e+01    0.3227015    0.2579857 -78.52  0.001504771    1.477    0.323
        18 -13.8365     57.1311    184.2650   1.0825400076e+02   2.9100006400e+01     1.112715    0.8190337  25.35  0.006179813    1.537    0.350
        19 -10.7057     31.1963    202.6767   1.1624919633e+02   2.7721757203e+01    0.3106299    0.2030005  62.43  0.001637695    1.420    0.296
        20 -10.2194     79.7296    182.7523   1.0238112533e+02   2.6485421365e+01    0.2763623    0.1871301 -78.42  0.001033151    1.614    0.380
        21 -11.3704     99.3419    180.9801   9.7132666040e+01   2.3978676002e+01    0.2782216    0.2753815  57.53 0.0006539059    1.030    0.029
        22 -10.2168     38.1294    181.3672   1.1259816475e+02   3.1945710981e+01    0.2090726    0.1561349 -65.75 0.0004980686    1.251    0.201
        23  -9.8705     89.1991    179.8120   9.9524267643e+01   2.5807500187e+01    0.1872054    0.1635632 -31.26 0.0003028505    1.283    0.221
        24 -10.8151     42.6597    179.8314   1.1131466202e+02   3.1829481549e+01    0.2427393    0.2135777 -62.67 0.0007296985    1.168    0.144
        25 -10.7992     45.9330    176.4899   1.1010715377e+02   3.2274074073e+01    0.2542227    0.2359357  86.08 0.0008286433    1.063    0.059
        26 -12.9021     83.2693    158.3016   9.7479732447e+01   3.1906965807e+01    0.9181176    0.6975453 -79.76 0.0005675279    1.446    0.309
        27 -13.7059     71.9148    152.7556   9.9665856378e+01   3.4908845730e+01    0.5745325    0.4757817  57.64  0.001443248    1.287    0.223
        28 -11.7859     83.3197    245.1590   1.0912776314e+02   1.2552761100e+01    0.2974871    0.2182932  52.64 0.0009514361    1.189    0.159
        29 -12.2963     75.1249    166.1444   1.0102633585e+02   3.1149635152e+01    0.4389117    0.3278909 -26.32  0.001205705    1.680    0.405
        30 -11.3155    186.4032    174.3656   7.5235981350e+01   1.0169365453e+01    0.3629712    0.3487007 -88.69  0.001214204    1.321    0.243
        31 -11.7900    240.5883    169.7251   6.4005395617e+01   1.9187373958e+00    0.2383744    0.1498403 -40.66  0.001077555    1.476    0.323
        32 -12.2543    193.6701    196.0081   7.8023620241e+01   4.8648260313e+00    0.8935221    0.4676896 -59.76  0.003134909    4.162    0.760
        33 -10.1568    110.8586    168.0974   9.1894730287e+01   2.5136199218e+01    0.2308739    0.2023815  78.09 0.0006106472    1.277    0.217
        34 -11.4016     33.7503    165.7815   1.1196010906e+02   3.6157620069e+01      0.44096    0.2254369  49.52  0.001704014    2.077    0.519
        35  -9.3823    120.5026    165.5507   8.8910759786e+01   2.4069464309e+01    0.1476292    0.1451047  65.27 0.0001005871    1.053    0.051
        36  -9.1846    130.3008    159.2949   8.5129965909e+01   2.3752071351e+01    0.1524904    0.1182916 -10.90 0.0002055771    1.573    0.364
        37 -12.2684     71.1475    170.6239   1.0278592971e+02   3.0598169055e+01    0.3970709    0.2750805 -28.73  0.001913571    1.901    0.474
        38 -12.3581     90.2919    151.1839   9.4202849153e+01   3.2585090391e+01    0.7214544    0.4616798 -26.87  0.003059215    2.119    0.528
        39 -10.8329    132.8132    140.4087   8.0313372613e+01   2.7606747332e+01    0.4918077    0.2126092 -53.22  0.001698478    2.535    0.606
        40 -12.4726     55.0335    147.4220   1.0358028402e+02   3.8414280851e+01    0.7654045    0.5261098 -59.24   0.00395802    1.311    0.237
        41 -12.0714    122.5139    199.1276   9.4446391308e+01   1.6172061761e+01    0.3813729    0.2603866 -68.83  0.001440056    1.790    0.441
        42 -10.3223    174.8729    149.1210   7.2260048026e+01   1.7395448513e+01    0.2279357    0.2101292 -73.87 0.0006484647    1.288    0.223
        43 -11.4316    134.3150    147.2899   8.1498607876e+01   2.5747054416e+01    0.7573596    0.2428591 -52.36  0.002236453    3.500    0.714
        44 -10.8694     39.2792    146.5822   1.0796930493e+02   4.0360545480e+01    0.3129039    0.2042305  49.82  0.001355357    1.684    0.406
        45 -10.9625    103.3236    138.0469   8.7786545827e+01   3.3627294573e+01    0.5318968    0.3330344 -20.27  0.002056368    2.455    0.593
        46 -11.1657    105.9522    130.8679   8.5400025825e+01   3.4879748608e+01    0.4056571    0.3279089 -57.80  0.001220879    1.259    0.206
        47 -12.3692     91.0837    137.2148   9.1123559932e+01   3.5886583267e+01    0.2940258    0.2620852 -33.76 0.0004213753    1.125    0.111
        48 -12.4589     44.1652    130.2047   1.0393383354e+02   4.3951746489e+01    0.4410592    0.2879151 -78.81  0.001340752    1.628    0.386
        49 -11.9501    203.3184    199.9867   7.6835577440e+01   2.6101421822e+00     0.318595    0.1912805  33.17  0.001617301    1.638    0.389
        50 -11.1815     32.9535    130.8669   1.0748282902e+02   4.4895067182e+01    0.2515482    0.1748953 -62.00  0.001372786    1.228    0.186
        51 -10.8335    135.7427    128.8309   7.6785167181e+01   2.9639705110e+01    0.3699616    0.1325428 -48.10  0.001182315    2.800    0.643
        52 -10.5524    112.3590    128.8544   8.3105556622e+01   3.4184719744e+01    0.2915196    0.2438158   1.78 0.0006257294    1.360    0.265
        53 -11.1117     99.5199    124.6755   8.5799599955e+01   3.7490714295e+01    0.2955772    0.2416553 -10.22 0.0006691169    1.402    0.287
        54  -9.8417     91.8782    124.6456   8.8066950990e+01   3.8804702437e+01    0.2068872    0.1870353  47.14 0.0008188646    1.188    0.158
        55 -11.0777    118.0506    123.6331   8.0236185817e+01   3.4316105362e+01    0.3659858    0.2419316  17.21  0.001284286    2.020    0.505
        56 -12.1735     70.7598    160.4016   1.0127894303e+02   3.3167082243e+01    0.7199172     0.427746 -74.08  0.003232653    1.845    0.458
        57 -10.0894    135.0000    119.9888   7.4756767744e+01   3.1746717279e+01    0.2612707   0.08701768 -45.06 0.0008007807    2.931    0.659
        58  -9.9673    108.3037    118.0614   8.1598441417e+01   3.7447868055e+01    0.2094803    0.1873199 -42.97 0.0003109392    1.082    0.076
        59 -10.6361    231.3477    113.7668   5.3655759810e+01   1.3030713152e+01     0.246512    0.2225932 -35.31 0.0007484651    1.043    0.042
        60 -13.1791     51.8111    107.6212   9.7003201056e+01   4.8656771260e+01    0.7340541    0.4577457 -53.12  0.003039757    1.409    0.290
        61 -12.7167     43.3606    109.1444   1.0020486313e+02   4.9230324136e+01    0.4304108    0.3496011 -32.69  0.001187705    1.207    0.171
        62 -12.4873     18.7737    110.2254   1.0869250390e+02   5.1137342283e+01    0.3761654    0.2555113 -71.55  0.001191922    1.326    0.246
        63 -10.0408    205.5156    110.2142   5.7047178032e+01   1.8733519299e+01    0.2413933    0.2032175  50.75 0.0006068951    1.297    0.229
        64 -11.6109    115.9048    108.8529   7.7009568047e+01   3.8061198202e+01    0.3792493    0.2807504 -16.67   0.00172075    1.631    0.387
        65  -9.3974    139.3797    106.1849   6.9996907733e+01   3.3771372671e+01    0.2086359    0.1428775 -51.52 0.0004411686    1.543    0.352
        66  -9.7607    134.6168    105.8228   7.1115128840e+01   3.4863877254e+01     0.226728    0.1428385 -51.82 0.0009532443    1.704    0.413
        67 -11.2633     33.4371    100.4664   1.0184034144e+02   5.2293411278e+01    0.2602231    0.2298243  87.11 0.0009297011    1.321    0.243
        68  -9.9273    127.8718     95.1480   6.9910333860e+01   3.8496710108e+01    0.2347762    0.2097781  87.11  0.001201173    1.343    0.256
        69 -11.1059     51.4357     92.9811   9.3655967218e+01   5.2148321404e+01    0.2337029    0.1807799 -22.02 0.0005442676    1.306    0.234
        70 -10.4275    155.8160     87.8543   6.1053660045e+01   3.3714808778e+01    0.3770335    0.2642289 -75.37  0.001398489    2.112    0.526
        71 -11.4985    142.0062    207.0250   9.1238379265e+01   1.1333800719e+01    0.3023934    0.2038545 -81.40  0.001326869    2.601    0.616
        72 -10.1422     74.9969     84.9145   8.3055973805e+01   5.0652147507e+01    0.2096013    0.1956541 -17.20 0.0003102192    1.049    0.047
        73  -9.3764    158.3066     83.2993   5.9245924334e+01   3.3969686712e+01    0.1483692    0.1165845  13.60 0.0003009588    1.593    0.372
        74 -12.0329     12.9048     59.4401   1.0024396590e+02   6.3106645269e+01    0.3754188    0.2756662  60.93  0.001158763    2.188    0.543
        75 -13.3328    186.4972     52.0247   4.5674495496e+01   3.2388398707e+01    0.6845769    0.4991337  39.80 0.0008462138    1.617    0.381
        76 -10.2108    168.1336    232.6132   8.9713687518e+01   2.4538289050e+00    0.1897906    0.1829843 -31.13 0.0005412839    1.266    0.210
        77  -9.6477     71.7539     53.5895   7.3914546295e+01   5.7236960823e+01    0.1865598    0.1262144  46.44 0.0009487995    1.691    0.409
        78 -11.6606     27.0222     35.4240   8.5753847713e+01   6.6495022455e+01    0.2563902    0.1898299  35.03  0.001031629    1.703    0.413
        79 -11.5728     18.2754     33.5820   8.9337380888e+01   6.7659457346e+01    0.2510328    0.1324152  26.26  0.001402897    2.000    0.500
        80 -11.1194    150.8107    220.8333   9.1530549584e+01   7.2360414376e+00    0.1826877    0.1592486  56.98 0.0008350591    1.341    0.254
        81 -10.9752    184.4967    212.5047   8.2952893812e+01   3.3998951622e+00    0.2244897    0.1293991 -53.39  0.001036115    2.305    0.566
        82 -10.3664     76.3472    211.0164   1.0692658215e+02   2.0480529071e+01    0.2900545    0.1551688 -74.62 0.0009772978    2.120    0.528
