#   1 NUMBER                 Running object number                                     
#   2 MAG_AUTO               Kron-like elliptical aperture magnitude                    [mag]
#   3 X_IMAGE                Object position along x                                    [pixel]
#   4 Y_IMAGE                Object position along y                                    [pixel]
#   5 X_WORLD                Barycenter position along world x axis                     [deg]
#   6 Y_WORLD                Barycenter position along world y axis                     [deg]
#   7 A_WORLD                Profile RMS along major axis (world units)                 [deg]
#   8 B_WORLD                Profile RMS along minor axis (world units)                 [deg]
#   9 THETA_WORLD            Position angle (CCW/world-x)                               [deg]
#  10 FWHM_WORLD             FWHM assuming a gaussian core                              [deg]
#  11 ELONGATION             A_IMAGE/B_IMAGE                                           
#  12 ELLIPTICITY            1 - B_IMAGE/A_IMAGE                                       
         1 -14.4937     68.4303    144.8607   9.8343446247e+01   3.7360558161e+01     4.494035     2.461573  80.15  0.006103042    3.540    0.717
         2 -14.2677    208.8257     39.8678   3.8874765045e+01   2.8883739753e+01     1.798164     1.376809   9.93  0.008502029    2.201    0.546
         3 -13.9651    224.5223     25.4259   3.4105894136e+01   2.7314183572e+01      1.21156     1.018425  44.89  0.005205239    1.652    0.395
         4 -11.9141    249.5093      6.5105   2.8512016482e+01   2.4454057952e+01    0.4350669    0.2153532 -30.87  0.002450483    2.338    0.572
         5 -12.6466    245.3295      4.3326   2.8357938860e+01   2.5499510383e+01    0.5343165    0.3760183 -56.91  0.003791866    1.157    0.136
         6  -9.3665     89.3040    211.1115   1.0299392054e+02   1.7997930230e+01     0.186289    0.1638937  81.17 0.0004281654    1.109    0.098
         7 -14.5759      5.0266    185.2210   1.2016622868e+02   3.4037197068e+01     3.178452    0.8702808 -77.85   0.01234199    3.111    0.679
         8 -13.5801     81.6784    217.9779   1.0560384814e+02   1.7582663254e+01     1.649112    0.6992283  38.05  0.002695597    2.105    0.525
         9 -16.9128     20.1387    242.9092   1.2065857861e+02   1.9881140246e+01     8.484385     5.423677  35.13   0.02161846    1.616    0.381
        10 -13.2402     32.9044    200.5843   1.1499860918e+02   2.7758149879e+01      0.50449      0.38347 -36.94  0.001390707    1.818    0.450
        11 -15.6112     41.5915    191.5084   1.1209465014e+02   2.8953238683e+01     4.261276      1.98778  72.84   0.01709889    2.829    0.647
        12 -10.2191    111.7088    204.6619   9.6787156676e+01   1.5956736798e+01    0.3039814    0.2198977 -85.41 0.0006450149    1.718    0.418
        13  -8.8848    121.2705    196.6194   9.3220963558e+01   1.6174421533e+01    0.1477346    0.1108722  77.93 0.0006994419    1.695    0.410
        14 -15.8080     10.1522    208.9033   1.2061759094e+02   2.8125428387e+01     7.652494     1.291098 -77.95  0.004495093    5.777    0.827
        15  -9.6584     99.3609    181.0112   9.6093449021e+01   2.3480658075e+01    0.2298876    0.2057987  15.96 0.0005723207    1.254    0.202
        16 -10.1532    188.3486    176.4955   7.4064601046e+01   8.5182264803e+00    0.3960764    0.2710261 -65.19  0.001782368    2.154    0.536
        17 -12.1396     61.0725    174.5326   1.0513214512e+02   3.0762923361e+01    0.4585954    0.3073139 -31.65  0.002153504    2.069    0.517
        18 -11.9526     66.1937    169.5448   1.0304864350e+02   3.1337931648e+01    0.3449792    0.2706828 -41.55 0.0006908095    1.439    0.305
        19 -11.2850    112.5643    173.4126   9.1348623095e+01   2.3090289597e+01    0.6201426    0.1564273  33.70  0.001628458    4.645    0.785
        20 -13.5617     63.1804    156.0569   1.0179402899e+02   3.5194265532e+01    0.5284064    0.3619359 -44.21  0.001826608    1.564    0.361
        21 -12.5987     83.4823    153.9960   9.5650305800e+01   3.2776624668e+01     1.085777    0.5775408 -48.70  0.001980008    1.867    0.464
        22 -12.4070     76.2043    160.2106   9.8807456724e+01   3.2294640124e+01     0.617322    0.4606737  28.22 0.0006398932    1.475    0.322
        23 -10.5777     64.5876    223.2766   1.1001597846e+02   1.8768674581e+01    0.2448503    0.2006458  42.34  0.001099929    1.200    0.167
        24 -10.0749     44.7843    165.8386   1.0832343965e+02   3.4965248714e+01    0.2941853    0.1773605  62.96  0.001043205    1.828    0.453
        25 -11.4405    193.6079    195.8642   7.6793312916e+01   3.8889121475e+00     1.056906    0.5609083 -64.73   0.00300945    6.417    0.844
        26 -10.8161    133.8101    144.8789   7.9921012381e+01   2.5968777477e+01     1.082734    0.2684141 -54.05   0.00247565    5.610    0.822
        27 -11.3656     24.0777    147.7852   1.1178956509e+02   4.1668028885e+01     0.363149    0.2288198  88.85  0.001864466    1.573    0.364
        28  -9.8990    174.8865    149.1131   7.1074891656e+01   1.6720579684e+01    0.2336559    0.2104145 -81.00 0.0006692238    1.299    0.230
        29  -8.8234    149.3343    147.6906   7.6663150163e+01   2.2196586010e+01     0.158121    0.1253772  84.77 0.0005171637    1.676    0.403
        30 -10.8835     29.9068    143.7594   1.0959255627e+02   4.2163746845e+01    0.3903318    0.3348829  -7.28  0.001984027    1.447    0.309
        31 -10.2187     97.5250    140.5320   8.8912999309e+01   3.3869777250e+01    0.3526289    0.2907393 -61.92 0.0008522242    1.193    0.162
        32  -9.7988    100.7737    137.8211   8.7380569091e+01   3.3974361960e+01    0.4180773    0.2643693 -25.76  0.001507003    2.277    0.561
        33 -12.4186     85.8620    139.2105   9.2052265147e+01   3.6167453962e+01    0.3238119    0.2889762 -59.24 0.0004454899    1.065    0.061
        34 -10.5556     21.7237    132.3779   1.1049351157e+02   4.5786666510e+01    0.2837674    0.1957125  52.96  0.001549768    1.616    0.381
        35 -10.9158    135.4936    128.3262   7.5560601390e+01   2.9489819459e+01    0.5774215    0.1547528 -48.49  0.001574257    3.736    0.732
        36  -9.3697    160.6692    127.3511   6.9153405940e+01   2.4359111650e+01    0.1626542    0.1242411 -82.86 0.0007047546    1.773    0.436
        37  -9.7338     96.8529    125.5714   8.5722724059e+01   3.7709737590e+01    0.2846738    0.2247337 -21.76  0.001173806    1.489    0.329
        38 -10.9688    107.2430    130.5587   8.3850143765e+01   3.4582970269e+01    0.5649219    0.3522922  31.74  0.002379363    1.760    0.432
        39 -10.8774     13.7441    121.6160   1.1150202849e+02   4.9105813755e+01     0.215988    0.1683435  40.90  0.001298713    1.481    0.325
        40  -9.9022    106.2603    118.9761   8.1308028878e+01   3.7567061615e+01    0.2330116    0.2181203  29.39 0.0003156703    1.106    0.096
        41 -11.6468    248.4883    113.3359   5.0116737691e+01   9.3930277813e+00    0.3195095    0.2130637 -60.42  0.001729085    1.632    0.387
        42  -9.0275     79.6064    114.2980   8.8380027201e+01   4.3414497297e+01    0.1568988    0.1165326  70.91 6.354101e-05    1.799    0.444
        43  -9.8545    230.3040    166.3228   6.3944598461e+01   3.2254758116e+00    0.1379413   0.09620727 -10.13 0.0003847608    1.637    0.389
        44 -10.0760    205.4716    110.2049   5.5986626076e+01   1.8228310411e+01    0.2959957    0.2096502  42.89  0.000979741    1.609    0.378
        45 -11.9680    242.2439     94.4705   4.6969817248e+01   1.3673283126e+01    0.3355681    0.1886709 -59.40  0.001509101    1.939    0.484
        46 -11.2645     53.2277     91.7500   9.1809921997e+01   5.2628052659e+01    0.4520778    0.2048546 -58.71  0.001635342    2.200    0.545
        47  -9.4636    160.9656     83.0222   5.7500060565e+01   3.3246767521e+01    0.1811536    0.1742034 -73.13 0.0004274247    1.004    0.004
        48 -11.1705    245.9949     81.2010   4.3713304175e+01   1.5101125382e+01    0.1856162    0.1391928 -23.73  0.001065688    1.625    0.385
        49 -11.4989     13.4563     60.1424   9.9660100676e+01   6.3544271950e+01    0.3020209    0.2004234 -57.00 0.0005145303    1.366    0.268
        50 -13.5477    199.4952     46.0217   4.1442385986e+01   3.0146410095e+01      0.99988    0.7292051  68.43    0.0019805    1.343    0.255
        51 -10.3168    156.5147    218.4853   8.8726404171e+01   5.7270998623e+00    0.1367457    0.1237904  20.74 2.041553e-05    1.010    0.010
        52 -12.7858    217.6955     31.8408   3.6129181008e+01   2.7979193987e+01    0.5812567    0.4296429  63.08  0.001068909    1.460    0.315
        53 -11.5019    164.6522    216.8949   8.6695196210e+01   4.7072784690e+00        0.279    0.2257892  10.20  0.001587931    1.224    0.183
        54  -9.3635     24.8293     58.0375   9.3895970858e+01   6.3079787800e+01    0.1714615    0.1670159 -36.75 0.0005780268    1.281    0.219
        55 -10.3187     43.8875     60.2576   8.6246013129e+01   6.0601785391e+01    0.2430592    0.2080091  45.26 0.0008254527    1.490    0.329
        56 -10.1898    133.4275     40.1776   5.0568481843e+01   4.6606257708e+01    0.2495215    0.2059779  88.87 0.0005552701    1.325    0.245
        57  -9.5498     21.9635     30.6489   8.5575850929e+01   6.8445764594e+01    0.1779073   0.08065705  44.76 0.0007046513    4.416    0.774
        58 -10.7488    198.1962     23.8647   3.6287850709e+01   3.3270520530e+01    0.2537311    0.2233786 -17.51  0.001045948    1.486    0.327
        59  -9.6751    189.6707     15.0172   3.5063145060e+01   3.6205835592e+01     0.172561     0.148839 -65.52 0.0006472637    1.120    0.107
        60 -12.2063    185.4868    213.1315   8.1636139896e+01   2.0493174320e+00     0.439026    0.3607687  -7.51   0.00258826    1.163    0.140
