#   1 NUMBER                 Running object number                                     
#   2 MAG_AUTO               Kron-like elliptical aperture magnitude                    [mag]
#   3 X_IMAGE                Object position along x                                    [pixel]
#   4 Y_IMAGE                Object position along y                                    [pixel]
#   5 X_WORLD                Barycenter position along world x axis                     [deg]
#   6 Y_WORLD                Barycenter position along world y axis                     [deg]
#   7 A_WORLD                Profile RMS along major axis (world units)                 [deg]
#   8 B_WORLD                Profile RMS along minor axis (world units)                 [deg]
#   9 THETA_WORLD            Position angle (CCW/world-x)                               [deg]
#  10 FWHM_WORLD             FWHM assuming a gaussian core                              [deg]
#  11 ELONGATION             A_IMAGE/B_IMAGE                                           
#  12 ELLIPTICITY            1 - B_IMAGE/A_IMAGE                                       
         1 -11.1035    187.4982     11.3004   6.9179163995e+01   3.6639622754e+01    0.8527493     0.364379 -61.66  0.001701645    3.524    0.716
         2 -13.0023    179.3471      4.3602   6.7793413665e+01   3.9299282202e+01     3.244692    0.9177458  78.14   0.00977521    4.441    0.775
         3 -11.9426    204.9667     18.5114   6.9583730378e+01   3.1686705748e+01     1.841726    0.6639546 -57.20  0.005575258    4.766    0.790
         4 -13.7796    216.4485     37.8615   7.3928680501e+01   2.6996598494e+01     1.763101     1.475268 -75.77   0.01004424    1.362    0.266
         5 -13.2105    240.2145     82.1728   8.2715904245e+01   1.6741308282e+01     3.965956    0.8436703 -39.34   0.01176557    4.852    0.794
         6 -13.1335    134.2148     38.2988   8.7269168790e+01   4.7089312019e+01     2.233819    0.9931482  66.66  0.007706137    3.011    0.668
         7 -11.1853    232.3712     32.3620   7.0786542015e+01   2.4041973368e+01    0.6897819    0.4663653   3.56  0.002121416    1.704    0.413
         8 -12.4683    182.5620     80.2984   9.1171463827e+01   2.9198646278e+01     2.940531    0.4572509 -38.97  0.006995905    5.890    0.830
         9 -10.2007    189.1714     42.9881   7.8927044526e+01   3.2827723877e+01     1.295563    0.4201128 -37.30  0.004520593    2.791    0.642
        10 -11.0431    244.8312     33.3181   6.9903314202e+01   2.1309088106e+01    0.8476041    0.2660674 -34.06  0.003499281    2.443    0.591
        11 -13.1159    172.2544     54.3581   8.5234788875e+01   3.5444130017e+01     1.934651     1.163105  76.14  0.007971556    2.330    0.571
        12 -10.4681    179.0945     24.8042   7.4548087934e+01   3.7416160554e+01      0.59342    0.5622966   0.38   0.00346622    1.047    0.045
        13 -10.3192    215.7743     20.8539   6.9208622460e+01   2.8916989588e+01    0.4917423    0.1978117 -42.73 0.0009037983    2.341    0.573
        14 -11.5765    231.8145     16.5811   6.6654945777e+01   2.5706647373e+01    0.5723292    0.3003491 -54.06  0.002318519    2.010    0.502
        15 -13.5810    238.5211     12.2068   6.5013247967e+01   2.4650733228e+01     1.334293    0.6089378 -59.83  0.005958382    2.600    0.615
        16 -11.8864    247.7025      2.2577   6.1930757018e+01   2.3573860663e+01    0.6917565    0.4966655 -37.91  0.003954939    1.176    0.150
        17 -11.8088    236.4944      2.0293   6.2538790165e+01   2.5961639147e+01     0.629028    0.2930661 -71.30  0.001828549    2.656    0.624
        18 -11.5637    222.9873     15.4543   6.7068502902e+01   2.7778206108e+01    0.5363473    0.3049293 -35.31  0.001255739    1.540    0.351
        19 -12.6508    217.1150      7.9679   6.5478681220e+01   2.9793553943e+01    0.9167214    0.3242888 -45.49  0.002923158    2.711    0.631
        20 -10.0253    136.0222     15.3235   7.7848505727e+01   4.9479948336e+01    0.2949824    0.1957748 -38.28 0.0007520601    1.555    0.357
        21 -11.1867    135.2280     11.0099   7.6239968627e+01   5.0122074442e+01    0.3755415    0.1985741  60.12   0.00162994    1.787    0.440
        22 -10.2211    115.7872     12.4162   8.0701985599e+01   5.4921346400e+01     0.339151    0.2310554  55.33  0.001475214    1.419    0.295
        23 -11.4085    120.3910      9.0517   7.8220040132e+01   5.4112325616e+01    0.4740217    0.4091356  42.41  0.001503521    1.098    0.090
        24  -9.1673    208.1199      9.8088   6.6746004737e+01   3.1740391555e+01    0.1954336    0.1598306 -48.32 0.0003271016    1.169    0.144
        25 -10.5653    145.4866      8.9711   7.3734517504e+01   4.7654382720e+01    0.2812408    0.2034845 -85.94   0.00135142    1.617    0.382
        26 -11.4784      3.4559      3.6681   1.2770060505e+02   7.5993498432e+01    0.5903628    0.3782911 -30.16  0.003674356    1.373    0.272
        27  -9.2692    195.8600      1.7377   6.5411272191e+01   3.5387450088e+01    0.2371812    0.1770003  53.54 0.0007515165    1.388    0.280
        28 -10.9915    137.9702      6.1735   7.3811059152e+01   4.9863715932e+01    0.3502405    0.1681224  58.62  0.001473671    1.905    0.475
        29  -8.7943    200.0652      1.6579   6.5034431616e+01   3.4367442994e+01    0.1876209    0.1709557  86.21 0.0008904939    1.117    0.105
        30  -9.0112    219.3504    231.3253   1.1540621053e+02   2.4218508064e+00    0.1142954   0.06251354  11.88 0.0007048558    1.756    0.431
        31 -11.8627    247.8055    249.3635   1.1351787471e+02  -2.5595928484e+00    0.4201665    0.3090716  13.75  0.003636284    1.251    0.201
        32  -8.8368    205.5127    122.4337   9.7842799003e+01   1.8067605088e+01    0.1377637    0.1191909   1.17 0.0002736856    1.011    0.011
        33 -10.5135    130.8710    121.8780   1.1356192478e+02   3.2622764784e+01    0.2397007    0.2273894  -3.62 0.0003508928    1.034    0.033
        34 -10.4948    216.9979    117.3498   9.4682126537e+01   1.6612080580e+01    0.4858271    0.3523722  86.69  0.002228195    3.000    0.667
        35 -10.8963    167.4673    113.6524   1.0313451127e+02   2.6982723172e+01    0.4226645    0.3466643 -15.02 0.0007618175    1.201    0.167
        36  -9.5298    200.1858    115.9142   9.7255493766e+01   2.0054397052e+01    0.2018849    0.1879019 -38.07 0.0007164971    1.282    0.220
        37 -10.9999    187.2403    112.2225   9.8771262559e+01   2.3202204963e+01    0.6397296    0.2684643 -43.58  0.002422234    2.715    0.632
        38 -10.8129    134.6433    111.9349   1.1027874687e+02   3.3864499584e+01    0.6780905    0.1324483 -41.76  0.001716517    5.384    0.814
        39 -13.0834      8.2100    217.9873   1.5248579256e+02   2.9316630540e+01    0.6909308    0.4970793  62.16  0.004270979    1.039    0.037
        40 -10.0913    204.5984    110.3392   9.5118372694e+01   2.0005222776e+01    0.4114625    0.2219956  37.69  0.001886589    1.903    0.475
        41 -10.3469    160.3973    127.7874   1.0802403875e+02   2.5917478239e+01    0.3197127    0.2221033 -48.44  0.001596303    1.635    0.388
        42 -11.1625    180.9019     65.0062   8.6993877114e+01   3.1858839082e+01    0.5865732    0.4105942 -70.57   0.00183728    2.115    0.527
        43  -8.4178     47.0103    223.2886   1.4564516618e+02   2.4960380580e+01    0.1401072    0.1014465  48.03 0.0002135757    1.077    0.071
        44  -8.3985    179.4858    105.5261   9.8603456777e+01   2.5868269338e+01    0.1428659    0.1345158 -11.61 0.0008082881    1.092    0.084
        45  -8.6748    142.4848    101.4366   1.0567164874e+02   3.4318199313e+01    0.1489578    0.1376676   3.06 0.0001236381    1.050    0.048
        46 -11.9054    174.8108     72.5867   9.0383693982e+01   3.2150591007e+01    0.8358786    0.6680285 -14.52  0.002609449    1.229    0.187
        47  -9.4275    170.6773     97.2514   9.8217448444e+01   2.9100059544e+01    0.2920522    0.2406455 -71.35  0.001194941    1.673    0.402
        48  -9.5569    148.2280     95.5360   1.0270546157e+02   3.4215821805e+01    0.3556224      0.25104  15.04 0.0009231053    1.763    0.433
        49  -9.0995    134.6275     93.1233   1.0535044923e+02   3.7533680329e+01    0.2419021    0.2049866  60.56 0.0009275779    1.350    0.259
        50 -13.9704     38.8916    192.0988   1.4537901196e+02   3.1167436340e+01     1.027551    0.8077009  -6.73   0.00465932    1.941    0.485
        51  -9.6805    157.4885     87.9930   9.8471852876e+01   3.3556079978e+01    0.3744559    0.2385482 -16.85  0.001460257    1.860    0.462
        52 -10.3640    160.4783     85.0313   9.6965430429e+01   3.3401761710e+01    0.3878042    0.2950482 -18.36 0.0009088987    1.337    0.252
        53  -9.7324    189.4377    190.0857   1.1426160239e+02   1.1274528490e+01    0.2065594    0.1614988  38.73 7.446729e-05    1.347    0.258
        54 -10.1639    142.1721     84.0853   1.0087888407e+02   3.7622988977e+01    0.3370528     0.282062 -41.43 0.0008382139    1.210    0.173
        55 -10.3207    247.9706     78.8826   8.0941213458e+01   1.5650375242e+01    0.3422273     0.285814 -54.58  0.001344486    1.470    0.320
        56  -8.3552    203.0215     80.5175   8.7679555698e+01   2.4628990385e+01    0.1758083    0.1274818 -80.90  0.000803391    2.236    0.553
        57 -11.4982    156.9188     74.6573   9.4648570943e+01   3.5957580571e+01    0.3810229    0.2753578 -19.90 0.0005937378    1.419    0.295
        58 -13.4114     51.2104    181.1978   1.4195596579e+02   3.1988237004e+01    0.9018446    0.7154604  56.31  0.003260816    1.067    0.063
        59 -11.3577    204.5790     63.2191   8.2640413092e+01   2.6636453968e+01     1.452607    0.6548408 -59.87  0.003497967    7.770    0.871
        60 -10.9890    191.7845     57.2549   8.2858077535e+01   3.0375615100e+01    0.3751934    0.3102572 -15.92  0.000698757    1.146    0.128
        61 -11.7925    197.4007     53.1023   8.0777507250e+01   2.9598894841e+01    0.5743224    0.4078619  14.05    0.0016508    1.636    0.389
        62 -10.7417    210.7584     64.1557   8.2006206065e+01   2.5131347050e+01    0.4603306    0.2592371 -61.23  0.001821652    2.935    0.659
        63 -11.8340    205.3366     58.2967   8.1134857102e+01   2.7101813580e+01     1.116989    0.5094475 -57.63  0.003374489    4.600    0.783
        64  -9.2431    221.1219     73.0232   8.2943601446e+01   2.1748395622e+01    0.2511718    0.1975537  40.60 0.0008279734    1.349    0.259
        65  -8.4810    129.6280     71.3371   1.0007971090e+02   4.2725555279e+01     0.156849    0.1217192 -77.31 4.920035e-05    1.854    0.461
        66 -12.1986    224.6768     29.0573   7.0633275074e+01   2.6073748374e+01    0.5815607    0.3497513  38.80  0.001622738    1.955    0.488
        67  -9.4997     91.1653     65.1105   1.0934896745e+02   5.1851884503e+01    0.4281199     0.244225 -66.22  0.001523582    3.209    0.688
        68 -10.6263    145.0495     60.2876   9.2677294703e+01   4.1101489069e+01    0.4586432    0.2886766 -53.44  0.001285415    1.987    0.497
        69  -8.8172    135.4691     59.9690   9.4821058457e+01   4.3404963208e+01    0.2207329    0.1202645 -53.36  0.000809418    2.510    0.602
        70  -8.1793     72.6846     58.2984   1.1356872299e+02   5.6516092595e+01    0.1367032    0.1141035  88.76  0.000340076    1.609    0.379
        71  -8.6792    113.6844     55.3082   9.8914764917e+01   4.9161207727e+01    0.1479392    0.1205096 -72.45 0.0002849516    1.630    0.387
        72  -9.1536    218.5411     51.8451   7.7569013271e+01   2.4925794134e+01    0.2158487    0.1732805 -50.37 0.0006231972    1.322    0.243
        73  -9.3034     32.0755     51.8892   1.2857059854e+02   6.3208125329e+01    0.1930622     0.168286 -83.07 0.0004839493    1.266    0.210
        74 -11.5290      8.5111     49.4971   1.3907937655e+02   6.5477817197e+01    0.8680708    0.3144746  14.80  0.003857425    3.336    0.700
        75  -9.8046    248.2351     46.3158   7.2863671775e+01   1.9266863224e+01    0.4103357    0.1904776 -40.06  0.001951311    1.933    0.483
        76  -9.9630    249.8516     30.0249   6.8653671920e+01   2.0610574898e+01     0.555159    0.2100175 -20.23  0.002360173    2.444    0.591
        77  -9.7652    250.4943     40.8509   7.1290585744e+01   1.9388248024e+01    0.3055001    0.1066455 -24.74            0    2.381    0.580
        78 -12.1532    220.9167    180.8487   1.0711906237e+02   7.6756743745e+00    0.7011978    0.2940312  33.91  0.003491775    2.134    0.531
        79  -9.0515    159.5279     41.1001   8.3143391144e+01   4.0399571373e+01     0.225238    0.1417106 -27.19  0.001010236    1.532    0.347
        80 -11.1164    103.6814     36.7821   9.4576627805e+01   5.4531604896e+01    0.4083607    0.2800149  24.73  0.001880294    1.660    0.398
        81  -8.5190     93.2718     37.6451   9.8191888328e+01   5.6648652253e+01    0.1443772     0.113436 -60.51 0.0006999063    1.640    0.390
        82  -8.7058    198.2270    126.1762   1.0002768712e+02   1.8901593762e+01    0.1636517    0.1577782 -17.18  0.000280162    1.251    0.201
        83  -8.1740    181.4976     34.5176   7.7369099957e+01   3.5726373998e+01    0.1431294    0.1368458 -15.64 -7.189689e-05    1.002    0.002
        84 -13.2740    238.3523    166.8159   1.0166807933e+02   6.7030106299e+00     2.578205    0.6393138  43.96  0.009710299    4.211    0.763
        85  -9.7671    199.3591     30.7531   7.3847094619e+01   3.1777942861e+01    0.3252523     0.187538 -50.87 0.0009574008    1.896    0.473
        86 -12.3076    215.1302    167.9368   1.0572919352e+02   1.0155576118e+01    0.9657404    0.4825484  55.49  0.002939192    4.258    0.765
        87 -10.3586    145.0053     22.7027   7.9109857413e+01   4.6364217351e+01    0.4036929    0.2507067  -7.07 0.0008446516    1.807    0.447
        88 -12.6708    240.9206    195.4762   1.0641308149e+02   3.2052598492e+00     1.441243    0.4264201  37.09  0.006661087    2.949    0.661
        89  -8.9453    212.5615     15.7969   6.8071920300e+01   3.0147327747e+01    0.2052293    0.1022626 -35.79 0.0009434405    1.775    0.437
        90 -11.3967    206.5838    146.8218   1.0303363026e+02   1.4393837088e+01     0.520666    0.1981706  42.49  0.002198162    2.540    0.606
        91 -11.5570    175.4493    145.0542   1.0861134108e+02   2.0202369178e+01    0.4978261    0.4081575  37.00  0.002917219    1.208    0.172
        92 -10.2584    133.4382    137.8442   1.1636556288e+02   2.9048370643e+01     0.396259    0.2341312 -35.41  0.001854627    1.889    0.471
        93 -10.1752     69.6693    145.3330   1.3372501646e+02   3.7236010739e+01    0.3190032    0.2395884  73.10  0.001201479    1.385    0.278
        94 -10.3486     66.4050    144.2151   1.3442448144e+02   3.7880844027e+01    0.4263573    0.2663205  89.77  0.001618269    1.873    0.466
        95  -8.6475    233.8315    145.1453   9.8074451883e+01   1.0002506221e+01    0.1810329     0.124917   8.31 0.0006961206    1.332    0.250
        96 -10.3271    108.4962     22.6547   8.7078213828e+01   5.5478697022e+01    0.2552765    0.1342842  55.73   0.00107647    1.906    0.475
        97 -10.5407     10.4354     20.1107   1.2986632405e+02   7.2088700658e+01    0.2294185    0.1530329  40.54  0.001343604    1.955    0.488
        98 -10.6786    192.4270    144.5040   1.0515982839e+02   1.7229166633e+01    0.2382622     0.231716  19.22   0.00044611    1.294    0.227
        99 -11.0724    159.6278    142.8491   1.1146392974e+02   2.3436495667e+01    0.4129005    0.2436327  50.74  0.001941171    1.915    0.478
       100 -11.9458    136.7704    127.5306   1.1338708044e+02   3.0428308905e+01    0.5638102    0.4679947  76.04  0.002646521    1.579    0.367
       101 -11.1553    150.6408    122.5684   1.0900613680e+02   2.8736913725e+01    0.4798381    0.3337985 -67.39  0.002156931    2.263    0.558
       102 -12.5015    146.4980    129.1229   1.1144976579e+02   2.8316151152e+01    0.7732796    0.4901978  59.09  0.003486203    2.122    0.529
       103 -12.0079    141.5501    121.8767   1.1096778906e+02   3.0613462642e+01      1.14467    0.5591417  62.17  0.003227918    5.513    0.819
       104  -9.3307     69.3161    244.2899   1.4287325697e+02   1.9447611129e+01    0.1498192    0.1220348  35.43 0.0005023578    1.236    0.191
       105  -9.5446    233.5184    229.5042   1.1290803157e+02   8.2652490480e-01    0.1077761    0.0744317  14.28 0.0008103916    1.003    0.003
       106 -13.1210    243.3042    112.6336   8.9531281881e+01   1.2420740744e+01     2.079443    0.8395846 -30.45  0.001874018    2.129    0.530
