#   1 NUMBER                 Running object number                                     
#   2 MAG_AUTO               Kron-like elliptical aperture magnitude                    [mag]
#   3 X_IMAGE                Object position along x                                    [pixel]
#   4 Y_IMAGE                Object position along y                                    [pixel]
#   5 X_WORLD                Barycenter position along world x axis                     [deg]
#   6 Y_WORLD                Barycenter position along world y axis                     [deg]
#   7 A_WORLD                Profile RMS along major axis (world units)                 [deg]
#   8 B_WORLD                Profile RMS along minor axis (world units)                 [deg]
#   9 THETA_WORLD            Position angle (CCW/world-x)                               [deg]
#  10 FWHM_WORLD             FWHM assuming a gaussian core                              [deg]
#  11 ELONGATION             A_IMAGE/B_IMAGE                                           
#  12 ELLIPTICITY            1 - B_IMAGE/A_IMAGE                                       
         1 -15.5601    246.1109    147.8490   3.0755356238e+01   3.0163542532e+00     3.520809     1.120253 -36.94     0.013155    3.179    0.685
         2 -14.5322     10.2261      8.4567   5.6965038274e+01   7.2205456341e+01      1.21231    0.7962842  37.60  0.007948504    2.184    0.542
         3 -13.8665     33.3437     36.7130   5.6456689887e+01   6.5056975545e+01     1.114526    0.8137438  -3.96  0.007050641    1.517    0.341
         4 -14.0172     19.0270     29.2944   6.0374334851e+01   6.7707120255e+01     1.282177    0.5589973 -58.86  0.006537618    2.061    0.515
         5 -14.6107     34.8747     21.1730   4.9872744072e+01   6.7818826675e+01      1.22587    0.7640691 -17.44  0.007074662    1.672    0.402
         6 -15.4704     72.3696      5.8920   2.6730385003e+01   6.4662626009e+01     2.196604    0.8508317  52.21  0.009083223    2.955    0.662
         7 -14.6607     44.7964      5.5672   3.7835789670e+01   6.9128128379e+01     1.191674    0.6720891  36.93  0.005646594    1.922    0.480
         8 -13.3324      3.1119     20.6180   6.5223584875e+01   7.0365995328e+01    0.8835496    0.2736581 -61.88  0.004065795    2.739    0.635
         9 -14.1342    212.5316     11.3308   6.3132513003e-01   2.9535624695e+01     2.059818    0.7783103 -52.33  0.007226927    3.178    0.685
        10 -15.1193    171.0069      9.0801   5.0926689141e+00   4.0811803336e+01     1.843185     1.381647 -85.40  0.007776479    1.454    0.312
        11 -13.9008     73.3568     19.2769   3.2821204987e+01   6.2702303629e+01    0.7372553    0.6570418  68.07  0.003915512    1.621    0.383
        12 -14.3176    132.5964      3.2091   9.3865814114e+00   5.1487893855e+01     1.305208    0.5337885  71.19  0.004755142    2.817    0.645
        13 -12.9943     98.0004      2.0270   1.6812245664e+01   5.9873744217e+01    0.7185141     0.214163  60.12  0.002440239    3.632    0.725
        14 -13.6952    180.4899     38.7503   1.3252956508e+01   3.4813778226e+01     1.255443     0.923406 -89.02  0.005724099    1.619    0.382
        15 -12.2218    108.2483    209.7207   6.8090398809e+01   1.8579171432e+01    0.5515593    0.2048841  49.72  0.002544517    2.294    0.564
        16 -13.4062      3.7118    246.4589   8.8212410186e+01   2.5210006091e+01    0.8246427      0.40308  78.98  0.006400081    1.567    0.362
        17 -14.7638     10.4799    236.2022   8.6867243638e+01   2.6181382937e+01     1.364747    0.4758402  68.80  0.008260507    2.360    0.576
        18 -14.8045      5.6849    223.2040   8.7117986663e+01   2.8758478381e+01    0.8761862    0.6644697  45.74  0.007645945    1.513    0.339
        19 -14.3764     21.9028    209.8427   8.3875605073e+01   2.9517286368e+01    0.9704837    0.2927844 -82.74  0.004825618    3.259    0.693
        20 -14.7504     11.4504    209.5077   8.5621954379e+01   3.0580708042e+01     0.980201    0.3955824  48.50  0.006032922    1.882    0.469
        21 -13.9642    117.0495    201.7556   6.5443469139e+01   1.8573158731e+01    0.9257759    0.3588183  52.55  0.004018966    2.521    0.603
        22 -14.0889    173.4832    195.3697   5.3417950065e+01   9.8553753582e+00    0.6529024    0.4103286 -41.63  0.003574211    1.891    0.471
        23 -11.2098     95.3787    198.4552   6.9330496867e+01   2.2519861085e+01    0.2129447    0.1870338  84.85  0.001494489    1.164    0.141
        24 -12.3670     16.6508    197.9566   8.4165253321e+01   3.2176015312e+01    0.2739156     0.224292  79.08  0.001699822    1.222    0.182
        25 -12.3701    209.5381    195.7242   4.6686157609e+01   3.2923597018e+00    0.4293607    0.3490202 -55.28  0.002618669    1.827    0.453
        26 -12.1050     81.8970    191.0377   7.1207795325e+01   2.5857830264e+01    0.4886492    0.2694182 -76.19  0.002690112    1.963    0.491
        27 -11.6338     71.7329    193.7518   7.3511297410e+01   2.6732225503e+01    0.2898435    0.2208525  75.86  0.001981231    1.120    0.107
        28 -12.9553      5.2821    187.9522   8.5683117148e+01   3.5057788765e+01    0.3995126    0.2619981  27.19 0.0007115288    2.080    0.519
        29 -13.7933      8.9968    182.0208   8.4704208570e+01   3.5866117077e+01    0.8559585     0.355862  32.80  0.004989901    2.614    0.617
        30 -12.3347    104.0142    160.3694   6.2450687318e+01   2.8606562325e+01    0.5791826    0.2887929 -57.82  0.002697547    2.079    0.519
        31 -13.5404     91.8297    167.8396   6.6287867594e+01   2.8996072261e+01     1.620331    0.4406147  46.85  0.005850093    3.395    0.705
        32 -13.7265     95.1174    183.5453   6.7627698398e+01   2.5365741415e+01    0.7473848    0.5142614  57.62  0.003698333    1.280    0.219
        33 -13.4771     96.8404    177.0456   6.6431468769e+01   2.6374127339e+01     1.060351     0.402205  38.73  0.004535222    2.523    0.604
        34 -14.6640    169.1274    178.1704   5.1359880821e+01   1.3415960395e+01    0.9741316      0.71872 -57.79  0.005322961    1.718    0.418
        35 -11.8997     37.9811    181.0844   7.9079321005e+01   3.3254935987e+01    0.3340915    0.2235469  47.50  0.002008585    1.405    0.288
        36 -12.2517     66.7133    178.9729   7.3040554259e+01   3.0274968156e+01    0.4942172    0.2184542  51.25  0.002435682    2.024    0.506
        37 -12.2309      3.3726    180.9036   8.5685396957e+01   3.6553442348e+01    0.2632413    0.2208549  81.61  0.001959016    1.254    0.202
        38 -14.9998    228.5138    160.1512   3.6406933623e+01   4.6623604184e+00     2.336348    0.9315111 -26.08  0.009123296    2.924    0.658
        39 -13.2700     86.5012    206.4248   7.1893431598e+01   2.2367118425e+01    0.5113084     0.312474  54.71  0.002534508    1.340    0.254
        40 -12.5540     62.2116    168.4322   7.2871837535e+01   3.2998559917e+01    0.5324218    0.3341642  37.28  0.002541308    1.679    0.404
        41 -13.0225     74.9031    172.8267   7.0625120622e+01   3.0423728966e+01    0.6725776    0.5221491 -35.95  0.004069002    1.921    0.480
        42 -13.3077     70.1465    168.5036   7.1152360674e+01   3.1954399290e+01    0.7173207    0.6123349 -21.01  0.004579168    1.809    0.447
        43 -14.0690    144.6204    165.4695   5.4238204644e+01   2.0349739812e+01     1.030723    0.7407704  67.89  0.005278808    1.646    0.393
        44 -14.7252    145.4047    146.6033   5.0467945643e+01   2.3827071393e+01      1.67295     1.169812 -30.14  0.008082853    1.763    0.433
        45 -10.8330     40.5877    166.7523   7.7344315714e+01   3.5871536066e+01    0.1696857    0.1487922  52.33  0.001008069    1.299    0.230
        46 -11.3673     29.0256    165.9413   7.9704728845e+01   3.7223832833e+01    0.2685008     0.161115  62.88  0.001107374    1.453    0.312
        47 -14.2808    163.5797    160.9408   4.9315039899e+01   1.7484155969e+01    0.8467177    0.6429772  -7.71   0.00432068    1.739    0.425
        48 -11.9586     48.7455    161.1518   7.5043114245e+01   3.6137351449e+01    0.2728319    0.2502019  36.79 0.0008612562    1.396    0.284
        49 -13.4238     45.8968    148.7434   7.4363583261e+01   3.9108252389e+01    0.5980632    0.5005555 -14.39  0.001502426    1.836    0.455
        50 -13.1730     42.1183    141.1411   7.4398630607e+01   4.1173309010e+01      1.15168    0.5429733 -44.36  0.005252889    3.115    0.679
        51 -13.5345     29.6669    141.9528   7.7433782724e+01   4.2231096700e+01    0.6339776    0.4437661  75.80  0.003092553    1.264    0.209
        52 -15.0831     19.8406    135.7156   7.9146296140e+01   4.4450723913e+01     1.179559     0.597708 -77.12   0.00470949    1.608    0.378
        53  -9.9431     61.3042    153.3176   7.1323354428e+01   3.6308150957e+01    0.1155937   0.09319077 -41.96 0.0007026586    1.626    0.385
        54 -12.9538      8.1147    148.0309   8.2798295860e+01   4.2760433802e+01    0.3646318    0.2735328  74.44  0.001463112    1.117    0.104
        55 -12.6262      3.8202    137.3049   8.2981810331e+01   4.5329519333e+01    0.3619759    0.2616965 -50.76  0.002094963    1.675    0.403
        56 -11.9185     75.2734    134.5278   6.5272281165e+01   3.8593634842e+01    0.2386513    0.2101108 -83.82 0.0005140217    1.027    0.026
        57 -12.9476     68.6161    131.1723   6.6439418041e+01   4.0254609606e+01    0.5634021     0.521347 -44.71  0.003644248    1.273    0.215
        58 -11.5610    206.2551    130.7736   3.4034673609e+01   1.3701639457e+01    0.3527132    0.2072388  63.18  0.001429096    2.392    0.582
        59 -13.2896     56.9792    117.7714   6.7370029646e+01   4.4760451170e+01    0.6475562    0.5088519 -66.72  0.003438441    1.130    0.115
        60 -13.5184     46.6900    124.7239   7.1176552786e+01   4.4347153005e+01     0.762677     0.377116 -66.52  0.002999808    1.739    0.425
        61 -12.6348      6.8608    120.8196   8.0934236731e+01   4.8663735972e+01    0.3656321    0.2229536  72.57  0.001716553    1.539    0.350
        62 -12.4336    217.0110    117.5271   2.8845410135e+01   1.3470787520e+01    0.6266519    0.4983071 -83.81  0.003052258    1.877    0.467
        63 -12.9915     18.6058    116.8040   7.7542143669e+01   4.8706946252e+01    0.6543951    0.3947249 -62.33  0.003226927    1.433    0.302
        64 -13.6080     13.2791    166.2558   8.2949664711e+01   3.8600624441e+01    0.5777116     0.424684  39.89  0.002960764    1.543    0.352
        65 -12.3378    116.6244    129.1367   5.3748117430e+01   3.3030069424e+01    0.5819619    0.4290666  69.01  0.002885153    1.569    0.363
        66 -12.8234     41.7584    127.1934   7.2788184641e+01   4.4309727328e+01    0.6136514    0.2683108 -65.36  0.002450799    1.924    0.480
        67 -12.9612    246.9675    103.5169   2.0430975746e+01   9.0665009015e+00    0.9114133    0.4474173 -37.49  0.003978245    1.933    0.483
        68 -12.6384     50.3005    108.6796   6.7722821058e+01   4.7605395279e+01    0.5044822    0.3970916 -45.80  0.002470594    1.347    0.257
        69 -14.9925    246.0310    126.5278   2.6010410117e+01   5.9824257916e+00     1.507015     1.084526 -12.96  0.008087953    1.338    0.253
        70 -12.0995     17.6621     98.8850   7.5644971122e+01   5.2781894638e+01    0.3720072    0.2713468  87.38  0.002074472    1.274    0.215
        71 -12.3632     15.8407     92.3375   7.5297822104e+01   5.4375740223e+01    0.4336683    0.2230548 -61.90  0.002341707    1.521    0.342
        72 -12.9609    226.4940     85.4611   1.9084259505e+01   1.6286450174e+01     0.745048    0.3778424 -44.14  0.003027482    2.078    0.519
        73 -11.5981    148.4034     84.1570   3.4258888086e+01   3.5608995559e+01    0.4017222     0.265999 -67.62  0.001576638    2.299    0.565
        74 -11.9826    218.8147     67.3905   1.5463451546e+01   2.0821737298e+01    0.2820665    0.2518156 -74.60  0.001511461    1.231    0.188
        75 -13.0301     11.7846     62.4665   7.1797327990e+01   6.1248868473e+01    0.5605779    0.3704995 -49.45  0.003373104    1.276    0.216
        76 -12.5164      3.8418     60.4445   7.4315178951e+01   6.2105335931e+01    0.3962449    0.2839338  87.60  0.002400974    1.485    0.327
        77 -13.0657    198.0932     48.2894   1.3277565486e+01   2.8845969503e+01    0.7199361    0.4931385 -44.97  0.003339964    1.496    0.331
        78 -12.3844    230.5080     46.9228   8.2729849752e+00   2.0775139103e+01    0.5487046    0.3477214 -32.92  0.002603157    1.484    0.326
        79 -12.3386    239.6436     45.5348   6.7876409379e+00   1.8747232941e+01    0.3065889    0.1989554  32.22  0.001080087    1.973    0.493
        80 -12.6036     69.9013    220.9308   7.6233992173e+01   2.2079929761e+01    0.3483372    0.1866788  54.77  0.002202308    1.457    0.314
        81 -11.6312     77.6560    218.4644   7.4644193893e+01   2.1480000208e+01    0.2399131    0.1475575  60.16  0.001568335    1.317    0.241
        82 -12.8995    135.2213    212.5359   6.3284590638e+01   1.3812224050e+01    0.4413976    0.2657734 -73.24  0.002349466    2.484    0.597
        83 -13.3243    134.1826    205.5548   6.2580228200e+01   1.5117410314e+01    0.4083377    0.3339494  82.74  0.002658923    1.381    0.276
        84 -13.6248     59.9813    210.6398   7.7209068656e+01   2.5130567620e+01    0.5315232    0.4412088  26.11  0.003006207    1.744    0.426
        85 -13.4862     61.2450    203.7128   7.6420971365e+01   2.6226030102e+01    0.7060351    0.4953017 -51.12  0.004658489    2.015    0.504
        86 -10.8793      1.7104     41.0163   7.1320647902e+01   6.6327730744e+01    0.1712826     0.116212 -58.76  0.001173775    1.099    0.090
        87 -14.8162    155.7057    205.9765   5.8479009393e+01   1.1378280981e+01    0.9371399    0.8651435  24.36  0.005543195    1.186    0.157
        88 -14.6962    116.3022    189.3562   6.3988972539e+01   2.0914089761e+01     1.427991    0.5587712  47.31  0.006294551    2.215    0.549
        89 -13.6012    131.2078    179.9553   5.9525244582e+01   2.0107111493e+01    0.7536308     0.649558 -59.89  0.003603659    1.302    0.232
        90 -13.9601    120.0984    174.2977   6.1027438126e+01   2.3111780302e+01     1.245147    0.9700416 -83.47  0.007231444    1.435    0.303
        91 -14.9728    144.4954    189.7448   5.8282184740e+01   1.6003839031e+01     1.259625    0.9963309 -78.68  0.006642644    1.579    0.367
        92 -14.0213    134.6805    194.0379   6.0900343930e+01   1.6981341777e+01     1.010772    0.5933928  75.31   0.00444068    2.972    0.664
