#   1 NUMBER                 Running object number                                     
#   2 MAG_AUTO               Kron-like elliptical aperture magnitude                    [mag]
#   3 X_IMAGE                Object position along x                                    [pixel]
#   4 Y_IMAGE                Object position along y                                    [pixel]
#   5 X_WORLD                Barycenter position along world x axis                     [deg]
#   6 Y_WORLD                Barycenter position along world y axis                     [deg]
#   7 A_WORLD                Profile RMS along major axis (world units)                 [deg]
#   8 B_WORLD                Profile RMS along minor axis (world units)                 [deg]
#   9 THETA_WORLD            Position angle (CCW/world-x)                               [deg]
#  10 FWHM_WORLD             FWHM assuming a gaussian core                              [deg]
#  11 ELONGATION             A_IMAGE/B_IMAGE                                           
#  12 ELLIPTICITY            1 - B_IMAGE/A_IMAGE                                       
         1 -10.8134    198.8715     51.4964   5.3413935509e+01   2.8599463090e+01     4.209487     1.795797 -66.20  0.007763719   11.375    0.912
         2 -10.8424    211.2762     29.4886   4.5756090791e+01   2.8458438619e+01    0.6291122    0.3974926 -74.21 0.0006217595    1.738    0.425
         3 -11.5649    223.7112     14.7486   4.0700701654e+01   2.7166140571e+01     1.432401    0.6994241 -70.29  0.006173621    2.401    0.583
         4 -12.5380    238.2163      4.8063   3.7138768880e+01   2.4858939593e+01     1.342075     0.902967  71.95   0.00438468    1.452    0.311
         5  -8.9502    134.5672     13.6540   5.2360214260e+01   4.9885128135e+01    0.3442457     0.239108 -32.90  0.001793874    1.556    0.357
         6  -8.3613    116.2710     12.4097   5.5701150314e+01   5.4450060153e+01    0.3964078    0.1715737  58.16  0.001679731    2.067    0.516
         7  -9.5715    119.8705      8.8138   5.3505337760e+01   5.3939747370e+01    0.5907678    0.3506859  54.01  0.002223957    1.468    0.319
         8  -7.4032    144.3555      6.3136   4.8030111944e+01   4.8118601829e+01    0.1508907   0.08930448  39.25 0.0007044704    1.738    0.425
         9  -7.7824    193.3121      2.9614   4.0630688698e+01   3.5907790598e+01    0.2292977   0.05203955 -44.91   0.00070456    4.328    0.769
        10  -7.2270    172.3990      3.1508   4.3036205680e+01   4.1224266077e+01    0.1869694    0.1162055 -41.04 0.0005694137    1.681    0.405
        11  -8.6137    216.2423    189.2957   8.3845828021e+01   1.1076389566e+00    0.2193591    0.1949493 -11.32 0.0003063796    1.126    0.112
        12  -7.1689     79.7252    250.3091   1.1891923485e+02   1.3691160579e+01    0.1152447   0.06626301  65.31 0.0005537583    1.551    0.355
        13  -7.2109    225.7513    189.3465   8.2083905554e+01  -5.7610968781e-01    0.1169161    0.1051081 -57.90 0.0002942671    1.580    0.367
        14  -8.9011    215.1394    198.9345   8.5887779729e+01  -1.6836742088e-01    0.2466452    0.1995527  28.09 0.0006407797    1.115    0.103
        15 -10.2611    184.1452    185.2657   8.9398742092e+01   7.7341800279e+00    0.2550967    0.2410021  26.12 0.0002697596    1.073    0.068
        16  -8.3419    136.2483    185.5883   9.9731305762e+01   1.6773851369e+01    0.2155559    0.1903205 -61.16 0.0004813141    1.221    0.181
        17  -7.5555    242.7949    184.7955   7.8134696919e+01  -2.8121231351e+00    0.1580695     0.149181  13.76 0.0004116957    1.299    0.230
        18  -9.1802     69.2642    181.3920   1.1419878843e+02   2.8648377259e+01    0.2177211    0.1940922 -85.67  0.000693047    1.141    0.124
        19  -8.8395    204.8266    169.0925   8.1973894860e+01   6.5610290488e+00    0.2280995    0.2080609  36.86 0.0002918613    1.146    0.128
        20  -8.1332    190.6521    167.4475   8.4487396908e+01   9.6641498051e+00    0.2471553    0.2087724  64.53 0.0007009329    1.431    0.301
        21  -9.0085     69.8628    165.9108   1.1207655895e+02   3.2077527648e+01    0.2125606    0.2089074 -57.24 0.0003268481    1.279    0.218
        22  -7.0422    114.4821    165.4233   1.0125752266e+02   2.5057437644e+01    0.1436953    0.1326735  68.95 0.0001618686    1.011    0.011
        23  -7.6364    132.9111    162.5176   9.6324377550e+01   2.2261998276e+01    0.2125267    0.1883766 -57.92 0.0004476703    1.165    0.142
        24  -7.5983    137.5108    158.0521   9.4352100113e+01   2.2335164765e+01    0.2140502    0.1477192 -51.04 0.0004665053    1.497    0.332
        25  -9.1807     84.5135    152.0210   1.0634901642e+02   3.3184724700e+01    0.3296092    0.1147793 -53.88   0.00120712    2.714    0.632
        26  -9.0382     96.0705    146.9507   1.0248638575e+02   3.2522068326e+01    0.2883538    0.1799074 -35.77  0.001247918    2.163    0.538
        27  -8.8774    215.9617    194.1171   8.4825571908e+01   4.1591098900e-01    0.2032483    0.1764455  -7.86  0.000321212    1.113    0.101
        28  -7.9370    250.0000    143.9940   6.8349211392e+01   2.0777976104e+00    0.2285551   0.07002902 -34.79 0.0008014255    2.935    0.659
        29  -8.4979     91.1983    144.5764   1.0331241591e+02   3.3890139066e+01    0.1807105      0.14167  25.54 0.0004041389    1.534    0.348
        30  -7.1270    162.1834    141.6237   8.4995073670e+01   2.0722149312e+01    0.2053789    0.1427704  34.86 0.0002348283    1.508    0.337
        31  -7.6184    132.6225    139.2040   9.1540847780e+01   2.7500004997e+01    0.2242927    0.1418423 -40.08 0.0005964748    1.703    0.413
        32  -8.6531    136.1904    130.8605   8.8722774392e+01   2.8636144293e+01    0.3510675    0.1181304 -52.64  0.001029138    3.433    0.709
        33  -8.1662    247.9890    127.4879   6.4973731237e+01   5.0757169680e+00    0.1770703    0.1265403  87.02 0.0008099128    2.492    0.599
        34  -8.8485    150.5764    117.9862   8.1959278918e+01   2.8324244599e+01    0.2772993    0.2268443  44.75 0.0005134771    1.229    0.186
        35  -9.6458    206.9855    115.0294   6.9047197937e+01   1.5877059310e+01     0.277555    0.2462977  51.12 0.0003609897    1.186    0.157
        36  -8.8800    134.5843    114.0770   8.4956193337e+01   3.2722308846e+01     0.356686    0.1514895 -45.46  0.001237825    2.325    0.570
        37  -8.5115    113.1261    113.6693   9.0608291271e+01   3.7259179935e+01    0.2864313    0.2107009 -40.76 0.0002609852    1.374    0.272
        38  -9.3378    212.0415    111.4297   6.7210924560e+01   1.5380875118e+01    0.2822846    0.2421889 -13.37 0.0007226467    1.212    0.175
        39  -7.5709    225.1635    110.8292   6.4764326117e+01   1.2562330153e+01    0.2047732    0.1710371   0.39  0.000758728    1.331    0.248
        40  -9.4954    135.4053    106.3852   8.2692290917e+01   3.4229349478e+01    0.4765924    0.2831515 -33.88  0.001903882    1.871    0.466
        41  -8.0132    209.8091    104.6989   6.5909245843e+01   1.7095979957e+01    0.2642595    0.1865383  48.96  0.001240346    1.479    0.324
        42  -9.4960    187.8064    103.7031   6.9852206756e+01   2.2470424927e+01     0.394509    0.2315478 -32.02  0.001606875    1.761    0.432
        43  -7.4530    113.3644    104.8280   8.8242199980e+01   3.9228930095e+01    0.2187326    0.1382959 -38.08 0.0002294127    1.647    0.393
        44  -7.6882    203.2916    104.6738   6.7098182268e+01   1.8617446125e+01    0.1555888    0.1181499 -67.04 0.0002197122    1.618    0.382
        45  -9.5103    141.6030    101.1276   7.9648214147e+01   3.3961617615e+01    0.4104881    0.3697374  -6.64  0.002057179    1.217    0.179
        46  -8.3196    195.9717     96.2213   6.6251089614e+01   2.1896701344e+01    0.2826741    0.2205185 -36.84 0.0007016702    1.241    0.194
        47  -7.7563    145.4963     96.0491   7.7230547049e+01   3.4120869555e+01     0.246365    0.1559612 -38.41 0.0008121548    1.582    0.368
        48  -8.5292     95.8385     93.9717   9.0412695056e+01   4.5022038102e+01     0.222635    0.2122205  28.72 0.0002601867    1.109    0.098
        49  -9.4867    152.5206     90.6395   7.3953840350e+01   3.3549364715e+01    0.5891067      0.34986 -42.45   0.00168094    1.670    0.401
        50  -9.1150    154.3129     86.6501   7.2357690020e+01   3.3899305684e+01    0.3726349    0.2873869 -75.38  0.001126477    1.665    0.400
        51  -7.7051    137.1178     89.1060   7.7322548875e+01   3.7489613942e+01    0.2374412    0.2157491  -1.69 0.0006591047    1.185    0.156
        52  -7.7211    206.4830     82.8598   6.0777343704e+01   2.1704857668e+01    0.2262136    0.1446828 -34.94 0.0005869605    1.506    0.336
        53 -10.7762    162.8456     63.2062   6.3328603746e+01   3.6010682584e+01    0.6265963    0.4901359 -46.11 0.0009936715    1.306    0.234
        54  -9.3734    163.0305     78.0164   6.7808027638e+01   3.3376434076e+01    0.4552724    0.3288743   6.19  0.001648161    1.963    0.491
        55 -11.2650    167.2600     73.5624   6.5565657199e+01   3.3113673832e+01    0.9697729    0.7378099  59.18  0.003486319    1.330    0.248
        56  -8.0939    128.5268     78.6212   7.6375797725e+01   4.1560951755e+01     0.327371    0.2165867  17.08 0.0007932124    2.241    0.554
        57  -9.4477    146.8952     76.3026   7.0985252949e+01   3.7675996218e+01    0.3917546    0.3038331 -57.26 0.0006407351    1.437    0.304
        58  -8.6973    184.7636     77.3263   6.3163504925e+01   2.8035388133e+01    0.2798879    0.1982011  45.75  0.001038341    1.467    0.318
        59 -10.2040    111.2516     73.2526   7.9498722294e+01   4.6404313055e+01    0.2689284    0.2469421 -29.81  0.000332829    1.053    0.050
        60  -9.7245    207.7332     66.8587   5.6269154370e+01   2.4030190160e+01    0.5082408    0.3680867 -40.79  0.001612579    1.313    0.239
        61 -11.6532    181.5475     58.5509   5.8303628119e+01   3.1965309735e+01    0.9245619    0.8806263 -64.77  0.002495687    1.035    0.034
        62 -10.3592    183.2440     39.7654   5.2454642248e+01   3.4273009571e+01    0.4001504     0.341714 -71.16 0.0004841518    1.188    0.158
        63 -10.9696    185.0368     35.4503   5.0907067243e+01   3.4381705094e+01    0.4429856    0.4115087 -78.33 0.0005913242    1.036    0.035
        64  -9.6503    189.8248     51.1679   5.4738044295e+01   3.0959095514e+01    0.5446164     0.284194 -60.68   0.00139878    2.653    0.623
        65  -8.0003    234.3722     50.7231   4.8444023657e+01   2.0041617042e+01    0.2544333    0.1798774 -24.71  0.001309848    1.535    0.348
        66  -9.2926    227.1116     48.7336   4.8821755141e+01   2.2030022920e+01    0.4997171    0.2116173 -55.38  0.001770172    2.875    0.652
        67  -8.0322    148.3038    247.9926   1.0625957987e+02   3.7461086546e+00    0.1607015    0.1418974  43.33  0.001150927    1.125    0.111
        68  -7.5387    156.3340     45.9058   5.9158933643e+01   4.0383481873e+01    0.1976719    0.1929466 -29.96 0.0003227885    1.062    0.058
        69  -8.2982    141.4019     41.6500   6.0871763343e+01   4.4782502333e+01    0.3077168    0.2257126 -26.14 0.0008360007    1.429    0.300
        70 -10.5786    202.7911     37.6331   4.9011162507e+01   2.9540787929e+01    0.5183148    0.3188944 -64.85 0.0004606983    1.843    0.457
        71 -10.1789    116.2753    245.8644   1.1193055498e+02   9.0986260606e+00    0.2191025    0.1930864  82.38 0.0003793165    1.242    0.195
        72  -9.2244    181.3129     24.4371   4.8201763379e+01   3.6711284169e+01    0.3557845    0.2218191  57.53  0.001708744    1.509    0.337
        73  -7.4054    136.6942     25.2106   5.6099039507e+01   4.8098702042e+01    0.1889171     0.131438 -11.14 0.0004479912    1.640    0.390
        74  -7.9620    216.7767     23.2117   4.3511330912e+01   2.7866367669e+01    0.1782713     0.155318  46.32 0.0003962845    1.343    0.255
        75  -8.4381    118.8366    231.3772   1.0983813345e+02   1.1126192661e+01     0.235988    0.1628761  73.33 0.0009340721    1.624    0.384
        76  -8.5335    228.3725    221.8724   8.7566700243e+01  -5.5355721575e+00    0.1894704    0.1661187  29.78 0.0003710923    1.313    0.238
        77  -7.9317    142.9770     16.4841   5.1793262460e+01   4.7485416428e+01    0.3122255    0.1482922 -44.93  0.001273533    2.471    0.595
        78  -7.6324    189.6159     16.1917   4.4720985206e+01   3.5500342806e+01     0.184018     0.135758  -6.97 0.0009477177    1.719    0.418
        79  -7.6319    175.1717     16.3193   4.6633043572e+01   3.9212599047e+01    0.2166426    0.1514166  52.91 0.0004845617    1.385    0.278
        80  -8.2850    166.9803     15.6044   4.7577062462e+01   4.1410652209e+01    0.2224475    0.1914689  17.44 6.944116e-05    1.339    0.253
        81 -12.1317     32.4354    211.9704   1.2458352430e+02   2.6737104633e+01    0.8512492    0.6360953  76.79  0.002121239    1.029    0.028
        82  -9.1061    226.6802    204.0943   8.4709498221e+01  -2.8744914249e+00    0.2702603    0.2444597 -62.37  0.001285225    1.706    0.414
        83 -11.8038     51.7713    192.6341   1.1919608782e+02   2.8476474241e+01     1.180015      0.96781  78.14  0.006278515    1.043    0.041
        84 -10.3495    246.2186    196.7818   7.9869879384e+01  -5.0353910297e+00     0.232348    0.1998721   8.89 0.0003692202    1.136    0.120
        85  -6.8272     76.2619    192.3191   1.1395551736e+02   2.5278719033e+01    0.1145798   0.09863462 -43.81 0.0002626467    1.548    0.354
