#   1 NUMBER                 Running object number                                     
#   2 MAG_AUTO               Kron-like elliptical aperture magnitude                    [mag]
#   3 X_IMAGE                Object position along x                                    [pixel]
#   4 Y_IMAGE                Object position along y                                    [pixel]
#   5 X_WORLD                Barycenter position along world x axis                     [deg]
#   6 Y_WORLD                Barycenter position along world y axis                     [deg]
#   7 A_WORLD                Profile RMS along major axis (world units)                 [deg]
#   8 B_WORLD                Profile RMS along minor axis (world units)                 [deg]
#   9 THETA_WORLD            Position angle (CCW/world-x)                               [deg]
#  10 FWHM_WORLD             FWHM assuming a gaussian core                              [deg]
#  11 ELONGATION             A_IMAGE/B_IMAGE                                           
#  12 ELLIPTICITY            1 - B_IMAGE/A_IMAGE                                       
         1 -11.2842    201.2827     37.2297   5.8556128925e+01   3.0037044438e+01     1.458228    0.7760814  -4.31  0.005270413    2.864    0.651
         2 -10.4075    250.1762     18.3691   4.7906427583e+01   2.0078723801e+01    0.7940403    0.2288171 -20.61  0.002554194    3.941    0.746
         3  -9.5549    248.8800      2.3869   4.3917231503e+01   2.2024601235e+01    0.3447374    0.2140386 -56.49  0.001586751    1.506    0.336
         4  -9.1517    230.6548     15.5800   4.8877823032e+01   2.5068702491e+01    0.3682076    0.2061336 -40.94  0.001240689    1.613    0.380
         5  -9.8858    249.3315      7.4421   4.5171499697e+01   2.1417166710e+01    0.4113034    0.3218769 -36.04  0.002423944    1.153    0.132
         6 -10.1082    244.8029     13.5932   4.7112532139e+01   2.1849216465e+01    0.4443335    0.2428626  72.92  0.002139498    1.915    0.478
         7  -9.9360    235.5410      9.2489   4.6726067275e+01   2.4528018092e+01    0.7683265    0.4321229  58.58  0.003216293    1.860    0.462
         8  -9.7677    234.1682     19.7211   4.9684194985e+01   2.3755002190e+01    0.3577156    0.2607712  22.77  0.001827973    1.736    0.424
         9 -10.7028    239.3956     17.4847   4.8602169296e+01   2.2727933096e+01    0.6983218    0.3897205 -51.56  0.003299161    1.740    0.425
        10  -8.6888    224.1718      5.6066   4.6690408639e+01   2.7712911311e+01    0.5084079    0.1596817  61.30    0.0016584    2.936    0.659
        11  -9.3665    221.0000     17.0142   5.0211714347e+01   2.7335534326e+01     0.342797     0.194356 -25.62  0.001300676    1.699    0.411
        12 -10.5800    221.8506     13.1526   4.9028320504e+01   2.7531443712e+01    0.8367829    0.3021389 -41.98  0.003172832    2.498    0.600
        13  -9.0206    198.1434     10.5981   5.0721174200e+01   3.3950334642e+01    0.3569851    0.2433198 -14.53  0.001363421    1.582    0.368
        14  -9.6733    199.8852     15.0392   5.1900788778e+01   3.3025338033e+01     0.313091     0.278677  86.89 0.0008281748    1.113    0.102
        15  -9.0577    201.5358     11.5368   5.0635777829e+01   3.2957907203e+01    0.2446668     0.216071  58.73 0.0007837241    1.156    0.135
        16  -8.8673    168.5787     11.2911   5.4690031966e+01   4.1786543880e+01    0.3434434    0.1848485 -44.75  0.001445049    1.951    0.487
        17  -8.7312    192.7949     10.8057   5.1396453069e+01   3.5349268015e+01    0.2044288    0.1589532 -62.90 0.0006469882    1.320    0.243
        18  -9.3177    186.5968      9.1217   5.1588986142e+01   3.7174630071e+01    0.5654376    0.2333241 -51.07  0.002009191    2.854    0.650
        19 -10.4050    212.8842      8.3173   4.8498989875e+01   3.0322920487e+01    0.5245194    0.3226061 -32.47  0.002541476    1.530    0.347
        20 -10.0147    154.9013      8.2779   5.5646334017e+01   4.5739776475e+01    0.5811213    0.1684958 -32.88  0.001945427    3.083    0.676
        21  -9.2607     68.0493     10.3059   7.7946484202e+01   6.5436267436e+01     0.182062    0.1584765  15.05 0.0009462002    1.130    0.115
        22  -9.1350    206.6177      6.6179   4.8611718464e+01   3.2120030903e+01    0.2852438    0.1667854 -27.52  0.001326581    1.655    0.396
        23  -9.1374    102.6339      6.7927   6.5514516650e+01   5.8886484397e+01    0.2033046    0.1166532 -32.14 0.0009587146    1.718    0.418
        24  -9.2820    171.4870      5.5238   5.2277233200e+01   4.1579837776e+01    0.2914647    0.1425982 -20.53 0.0009081844    2.106    0.525
        25  -9.1996    116.4861      6.4839   6.2077330186e+01   5.5692473974e+01    0.1389682     0.131373  15.82 0.0003072637    1.032    0.031
        26  -8.6540    111.3656      5.7701   6.2916995002e+01   5.6984041324e+01    0.1964561    0.1272005  -7.32  0.000947986    1.621    0.383
        27  -8.1443    165.0000      3.0513   5.2269790421e+01   4.3550014302e+01    0.3924776   0.08220573 -19.69  0.001052865    4.948    0.798
        28  -9.4386    240.0017      2.1550   4.4492825420e+01   2.4152243558e+01    0.3278725     0.194696 -85.09  0.001310247    1.794    0.443
        29  -9.6557    231.6909      2.4380   4.5200143396e+01   2.6148722628e+01    0.3144315    0.1985651 -73.27  0.000923201    1.646    0.393
        30  -8.7365    190.2622      1.9903   4.8871126650e+01   3.6881554123e+01    0.1920034    0.1904539   1.63 0.0008438183    1.073    0.068
        31  -9.4761     63.9919      1.9394   7.4978452126e+01   6.7249698430e+01    0.1963468    0.1685845  -8.17  0.001048304    1.057    0.054
        32  -9.2428    132.5106    213.9590   1.1136198194e+02   1.5049104169e+01    0.1471977    0.1143231 -63.88 0.0006890654    1.553    0.356
        33  -9.2465    193.3490    250.2408   1.0555628744e+02   1.1528053728e+00    0.2029845   0.09356201  36.26 0.0008296741    1.681    0.405
        34  -9.1399    229.8757    210.2775   9.4242980894e+01  -2.4211170293e-01    0.2284756    0.1238753  29.25  0.001336018    1.607    0.378
        35  -9.9373    207.2208    208.9033   9.7713065355e+01   3.5469996965e+00    0.2663364    0.1514198  53.84  0.001463267    2.039    0.509
        36  -8.4782     86.3378    208.6616   1.1908684777e+02   2.2726344628e+01    0.1222287    0.0671871  66.58 0.0007051069    1.757    0.431
        37  -9.0197    188.1984    203.8041   1.0016407566e+02   7.3461746837e+00    0.1835558      0.12612  77.05 0.0009421284    2.788    0.641
        38  -9.1459    198.5996    202.8797   9.8233302199e+01   5.7119455869e+00    0.2042018    0.1524016 -54.22  0.001284009    1.917    0.478
        39  -9.1520    193.9712    203.0600   9.9054057671e+01   6.4686399660e+00    0.1811512    0.1428906  71.63  0.001133582    1.810    0.448
        40  -9.4353    217.8409    201.1320   9.4723262376e+01   2.7132108084e+00    0.2526857    0.1618602 -61.13  0.001214241    3.720    0.731
        41  -9.5075    165.0446    201.3768   1.0389414261e+02   1.1604192074e+01    0.2285176    0.1738832  58.99  0.001462886    1.339    0.253
        42  -9.5322    222.7692    201.4123   9.3959944078e+01   1.8708469040e+00    0.1739981    0.0900078  34.34 0.0009527904    1.645    0.392
        43  -8.5164     16.4458    201.4703   1.3092614078e+02   3.2161951306e+01    0.1022194   0.07160428  72.58 0.0001937947    1.028    0.027
        44  -8.8211    240.1800    199.8176   9.0903055880e+01  -7.5799681300e-01     0.167817     0.112155  15.88  0.000756613    1.360    0.265
        45  -8.7515    231.7907    198.5992   9.2031934737e+01   7.1802660935e-01    0.1649237   0.09923358  48.88 0.0009507062    1.765    0.434
        46  -9.9185    204.1215    197.6776   9.6464299107e+01   5.4333691380e+00    0.2708706    0.1770654  33.24  0.001637131    1.304    0.233
        47  -9.8276    184.8867    196.1806   9.9569371269e+01   8.9356698881e+00    0.2610112    0.1874958 -41.99  0.001390852    1.669    0.401
        48  -8.9340    176.4036    197.1866   1.0123507472e+02   1.0261468379e+01    0.1530017    0.1172602 -59.88 0.0008567731    1.735    0.424
        49  -8.9086    192.0581    197.9837   9.8593499704e+01   7.4561461371e+00    0.1774494    0.1439846  70.26  0.001015263    1.655    0.396
        50  -9.7493    249.0828    194.1801   8.8549768979e+01  -1.5693099900e+00    0.2683518    0.1770468  36.03  0.001045949    1.322    0.244
        51  -8.5457    231.4995    194.5253   9.1388510665e+01   1.2217325250e+00    0.1186528   0.09723131  23.15 2.873806e-05    1.059    0.056
        52 -10.2689    238.0429    191.5957   8.9832635113e+01   4.7878018905e-01    0.3323161    0.2474942 -35.51  0.001463194    1.657    0.397
        53 -10.1047    197.9970    192.0884   9.6606465645e+01   7.2106755153e+00    0.4189731    0.1500226  41.75  0.001832093    2.375    0.579
        54 -10.4748    225.4237    184.8378   9.0691762786e+01   3.3767079627e+00    0.2946199    0.2425534 -11.98  0.001283589    1.241    0.194
        55 -10.1562    226.7644    179.6490   8.9534125371e+01   3.7793966346e+00    0.3536452    0.2974919  56.74   0.00157134    1.527    0.345
        56  -9.3942    210.0000    184.0045   9.3148719949e+01   6.1680053026e+00     0.187071   0.07023035 -35.56  0.000807407    2.977    0.664
        57  -9.3571    204.1185    184.1730   9.4197045823e+01   7.1876636171e+00    0.1670895    0.1447891  56.32  0.001081975    1.354    0.262
        58  -8.0713    217.6626    183.3329   9.1722723353e+01   4.9075655645e+00    0.1137044   0.09916157  79.87 0.0006522147    1.742    0.426
        59  -9.1175    198.1245    182.3001   9.4924793236e+01   8.5139519404e+00    0.2064638    0.1681308 -10.34  0.001071546    1.340    0.254
        60  -9.9153    157.6826    178.8630   1.0183038313e+02   1.6361909808e+01    0.3517714    0.2392492 -27.42  0.001896186    2.017    0.504
        61  -8.3627    236.4894    181.5164   8.8284515275e+01   1.8868271798e+00    0.1234325    0.1001401  17.69 3.504579e-05    1.004    0.004
        62  -9.9050    218.0136    177.8580   9.0676045476e+01   5.5449398675e+00    0.4648566     0.237132  58.45   0.00200099    3.059    0.673
        63  -8.6039    245.9470    178.4839   8.6220527411e+01   6.4885906172e-01    0.1444826    0.1074671  67.01 0.0005706956    2.358    0.576
        64  -8.5378    242.5228    181.9575   8.7400250716e+01   8.2421097554e-01    0.1682643   0.09204438  -0.48 0.0008088506    2.459    0.593
        65  -8.9031    197.5270    176.9823   9.4092602505e+01   9.3663491989e+00    0.1761585    0.1258783 -35.30 0.0007257045    1.563    0.360
        66  -9.7819    233.7327    174.6523   8.7462339617e+01   3.1790129688e+00    0.2622308    0.2414814  -1.61  0.001730307    1.221    0.181
        67  -9.1943    193.5039    174.0004   9.4281316950e+01   1.0535619980e+01    0.2737237    0.1221063 -45.36  0.001209622    2.721    0.633
        68  -9.2028    225.1159    172.5912   8.8499474514e+01   4.9549632677e+00    0.3147366    0.1662773 -18.95  0.001522937    2.289    0.563
        69  -9.2853    222.6239    167.8359   8.8013557197e+01   6.0201717827e+00    0.2569883    0.1686804 -58.81  0.001229101    2.819    0.645
        70  -8.6925    237.5136    170.0364   8.5972372008e+01   3.0817999358e+00    0.1770062    0.1154636 -24.92 0.0006839197    1.545    0.353
        71 -10.0406    212.7165    169.1923   8.9972981725e+01   7.6557881187e+00    0.3549193    0.2454037 -35.58  0.001414329    1.586    0.370
        72  -9.4553    212.8785    163.8607   8.8919544625e+01   8.3607126993e+00    0.3249148    0.1985614  23.85   0.00163145    1.815    0.449
        73  -9.4987    147.2513    167.9493   1.0208309714e+02   2.0108878483e+01    0.2216202    0.1703202  49.06 0.0004484119    1.164    0.141
        74  -8.7081    249.9735    167.5013   8.3506252942e+01   1.2331515322e+00    0.1464211    0.1115104  71.16 0.0008072251    2.369    0.578
        75  -9.9553    192.9858    165.6984   9.2841517664e+01   1.1862474019e+01    0.2889255    0.2691285 -81.45  0.001826619    1.352    0.261
        76  -8.6469    184.4965    165.9888   9.4474143580e+01   1.3436605320e+01    0.1738372    0.1156921 -66.80 0.0008101227    2.507    0.601
        77  -8.9626    234.7671    164.8470   8.5412958384e+01   4.2102220533e+00    0.1565162    0.1549292 -83.35 0.0006783748    1.408    0.290
        78  -9.9068    245.5992    158.5829   8.2429742382e+01   3.0574534188e+00    0.5378406    0.1596165  40.38  0.002059766    3.230    0.690
        79  -9.1810    170.1011    168.9918   9.7760941235e+01   1.5687013283e+01    0.2703369    0.1737249 -60.95  0.001349253    2.140    0.533
        80  -9.5452    226.3680    156.9122   8.5224677662e+01   6.7793095288e+00    0.3108395    0.2121698  13.79  0.001562125    1.577    0.366
        81  -8.2827    233.0000    152.9707   8.3316384684e+01   6.0635354309e+00     0.336659    0.1906478 -31.42  0.001722491    1.772    0.436
        82  -9.5295    229.5104    152.0313   8.3699928779e+01   6.8436813940e+00    0.3005672    0.2221024 -28.80 0.0009572314    1.373    0.272
        83  -9.8027    229.6026    147.8042   8.2802463699e+01   7.3973508544e+00    0.2807839    0.2057098 -40.44  0.001232179    1.549    0.354
        84  -8.8282    156.5948    157.1876   9.8290620595e+01   2.0261788169e+01    0.1834973    0.1291146 -32.07 0.0008854694    1.718    0.418
        85 -10.2664    197.1906    149.2430   8.8805063360e+01   1.3562948632e+01    0.6618236    0.2561716 -49.35  0.002261317    3.967    0.748
        86  -9.6932    243.3889    153.2279   8.1691019995e+01   4.1183898210e+00    0.2780024     0.215098 -19.24   0.00169918    1.237    0.191
        87 -10.8009    244.2007    148.8274   8.0651146205e+01   4.5268006581e+00    0.4999245    0.3685486 -32.47  0.002442675    1.421    0.296
        88  -9.4331    221.8613    153.0057   8.5191030043e+01   8.1650601437e+00    0.2802869    0.2070159 -38.16  0.001078087    1.494    0.331
        89  -8.8710    206.3967    152.7651   8.7851186443e+01   1.1200464086e+01    0.1796494    0.1246689 -18.86 0.0009383324    1.587    0.370
        90  -9.2638    250.3401    151.6296   8.0273542711e+01   3.0665675074e+00    0.2486965    0.1321929 -37.81  0.001243774    2.051    0.512
        91  -8.9720    234.6922    147.9229   8.1988467550e+01   6.4140721083e+00    0.1850516    0.1576099  -7.83 0.0009281934    1.096    0.088
        92 -10.2875    206.7586    146.3875   8.6459157837e+01   1.2082452898e+01    0.4326104     0.270779  -5.84  0.001963774    2.248    0.555
        93  -9.1250    191.4117    148.2341   8.9676871492e+01   1.4884288819e+01    0.1900333    0.1292463 -47.81 0.0009574245    1.690    0.408
        94  -9.8642    224.2594    146.2069   8.3362182785e+01   8.6485264579e+00    0.3184595    0.2609248   8.50   0.00158304    1.159    0.137
        95  -9.3534    217.5572    147.4848   8.4781989562e+01   9.7779644775e+00    0.3841352    0.1144172  44.86  0.001369589    3.116    0.679
        96  -8.7756    111.6601    147.3539   1.0616726217e+02   3.0388631580e+01     0.208959    0.1456066  77.33  0.001078601    1.653    0.395
        97  -9.8043    230.7791    141.0196   8.1159085425e+01   8.0985388601e+00    0.2900326    0.2710287 -18.93  0.001262378    1.181    0.153
        98  -8.5779      9.0252    141.5332   1.2892094576e+02   4.4477422887e+01    0.1562678    0.0586625  55.36  0.000808346    2.438    0.590
        99  -9.2811    249.6929    140.3009   7.7989692400e+01   4.5986948742e+00    0.3122984    0.1570538  39.92  0.001510172    1.941    0.485
       100 -10.1604    225.1222    138.3732   8.1527248782e+01   9.5827451205e+00    0.4624204    0.2122673 -26.21    0.0019531    2.339    0.573
       101  -8.9542    187.4951    140.4713   8.8783460658e+01   1.6948618092e+01    0.1390163    0.1309524  31.48 0.0004334986    1.025    0.025
       102  -9.6663    219.4577    138.8275   8.2592450311e+01   1.0650935215e+01    0.3060374    0.1877937  63.17  0.001393672    2.272    0.560
       103  -9.7587    216.1006    135.7083   8.2486375359e+01   1.1789979338e+01    0.2561147    0.1947958  29.48 0.0008325391    1.278    0.217
       104  -9.2439    209.5192    137.5110   8.4047288785e+01   1.2867402386e+01    0.1387774    0.1267661  14.49 0.0008102792    1.002    0.002
       105 -10.0302    249.4413    135.2024   7.6924042357e+01   5.2976583744e+00    0.3868722    0.2039604 -36.79  0.001366997    1.925    0.481
       106  -9.6523    248.7847    130.5888   7.6008286894e+01   6.0199315020e+00    0.2899863     0.225863  63.82  0.001493474    1.713    0.416
       107  -8.7628    164.6701    136.3085   9.2451926888e+01   2.2409731763e+01    0.1427635    0.1122367  86.62 0.0007040226    1.663    0.399
       108 -10.2324    241.9988    133.1004   7.7614904751e+01   6.9928037738e+00     0.411693     0.357075 -52.11  0.002472678    1.483    0.326
       109  -9.1095    233.7223    134.7475   7.9303279342e+01   8.3861721834e+00    0.2729026     0.115257 -23.51  0.001065305    2.704    0.630
       110  -9.6595    169.8849    134.2856   9.0937317201e+01   2.1689190397e+01    0.2472536    0.2053625 -27.18 0.0004777615    1.303    0.232
       111  -8.5931     52.9861    135.7429   1.1816675671e+02   4.1432124077e+01    0.1457577    0.1016623  42.55 0.0005475572    1.526    0.345
       112  -9.1967     86.9415    130.2211   1.0904537563e+02   3.8050359835e+01    0.2879906    0.1601337 -89.21  0.001187161    2.750    0.636
       113  -8.5743     61.5601    129.5286   1.1522388998e+02   4.1757088433e+01    0.1280619    0.1061982 -89.88  4.11896e-05    1.020    0.020
       114  -9.7331    193.5126    127.8613   8.4820063861e+01   1.7768242958e+01     0.286508    0.1933429  66.39   0.00109945    1.918    0.479
       115  -8.9156    186.2504    128.3969   8.6340373382e+01   1.9240114264e+01    0.2019735    0.1352872  58.42  0.000916894    1.642    0.391
       116  -9.6444    229.0667    125.3458   7.7942936464e+01   1.0644653359e+01    0.3755296    0.2617762   4.24  0.001893578    1.641    0.391
       117 -10.0201    206.2206    126.5411   8.2160301571e+01   1.5257211507e+01    0.2627228    0.2271801 -32.23 0.0006360575    1.179    0.152
       118 -10.1699    211.7080    124.6796   8.0747140902e+01   1.4377215837e+01    0.5087463    0.3140475  25.15  0.002287468    1.971    0.493
       119 -10.1134    241.3999    124.3557   7.5742550310e+01   8.2899170730e+00    0.3681196    0.3222433  56.77   0.00193114    1.364    0.267
       120  -9.1638    221.3051    129.2180   8.0128697821e+01   1.1680368916e+01    0.2652925    0.1925787  60.04 0.0009634594    1.637    0.389
       121  -9.1567    189.0240    123.4355   8.4648784374e+01   1.9481862430e+01    0.3246267    0.2038933 -34.98    0.0015115    1.623    0.384
       122  -9.1172    161.5586    124.1157   9.0391627902e+01   2.5316583268e+01    0.2327392    0.1979971  65.53 0.0005576619    1.243    0.195
       123  -9.3530    222.0434    121.0397   7.8110552632e+01   1.2734913299e+01    0.2977713    0.2042436  53.87  0.001483259    1.567    0.362
       124  -9.6708    197.0640    121.1731   8.2583670121e+01   1.8101533854e+01    0.3909307    0.1725477  31.21  0.001219218    3.876    0.742
       125  -8.9930    243.8650    119.5199   7.4251616132e+01   8.4554997482e+00    0.2812969    0.1482746 -50.47  0.001150552    2.821    0.646
       126  -9.7206    235.3789    115.5916   7.4649981915e+01   1.0729554161e+01    0.5440385     0.245313 -44.19  0.002169443    2.596    0.615
       127 -10.1815    230.3925    115.9077   7.5519954974e+01   1.1725993815e+01    0.4250499    0.3303823  54.72  0.001512691    1.422    0.297
       128 -11.0540    213.9545    115.5933   7.8196007856e+01   1.5295584962e+01    0.8038149     0.353493  41.51    0.0030583    2.384    0.581
       129 -10.1062    245.1273     97.9371   6.8923063916e+01   1.1147811297e+01    0.4128832    0.2057307 -34.31  0.001651711    1.825    0.452
       130 -10.4288    235.5948     74.4325   6.4309433324e+01   1.6502540128e+01    0.7363654    0.1900224 -36.49  0.002364875    3.242    0.692
       131  -9.8656    246.7739     86.5012   6.5860717792e+01   1.2357775003e+01    0.4919569    0.2715158  42.91  0.002264785    1.969    0.492
       132 -11.4877    244.7196     79.6834   6.4419836227e+01   1.3731011750e+01     1.028786    0.6602912 -60.31  0.004754879    2.092    0.522
       133  -9.2309    249.7554     98.7766   6.8468245790e+01   1.0065614258e+01    0.3248103    0.2194178 -54.63   0.00148694    1.907    0.476
       134 -10.9836    247.7439    111.5505   7.1809922585e+01   8.7539917707e+00    0.6312155     0.538263  11.45  0.003760647    1.124    0.110
       135 -10.8974    248.6513    105.3603   7.0209665251e+01   9.4048682643e+00    0.6386795    0.3151217 -31.04  0.002592568    1.828    0.453
       136 -10.0291    243.2859     92.9911   6.7967371419e+01   1.2220356576e+01    0.3727805    0.3255289  -8.60  0.001427226    1.068    0.063
       137  -8.9953     52.3865    113.2300   1.1513449227e+02   4.6539824680e+01    0.2412303    0.1015426 -62.84 0.0009377691    2.007    0.502
       138  -9.9643    104.5588    111.6711   1.0096469597e+02   3.9214285728e+01    0.2326936    0.2167123  46.93 0.0004723341    1.162    0.139
       139 -10.4019    183.1775    108.2114   8.2068455423e+01   2.3411134887e+01    0.3944631    0.2191806 -29.85  0.001635818    1.944    0.486
       140  -9.0230    236.2565    107.9217   7.2678623709e+01   1.1630758727e+01    0.2039963     0.173772 -14.52 0.0008508174    1.080    0.074
       141  -9.5141     15.1375    111.8584   1.2490410052e+02   5.0425095917e+01    0.1755662    0.1261772  82.62 0.0004418074    1.181    0.153
       142 -10.4481    241.6429    105.0441   7.1163919016e+01   1.0900066875e+01    0.4342475    0.3385169 -38.70  0.002398068    1.302    0.232
       143  -8.5691    196.0405    103.2235   7.8324435085e+01   2.1305186867e+01    0.1960736    0.1207894  50.92 0.0006162148    1.631    0.387
       144  -9.9725    215.0168    107.5005   7.6027867367e+01   1.6310549057e+01    0.4521591    0.2685731  64.36   0.00159126    2.143    0.533
       145 -10.6480    221.8637    100.9040   7.3230176454e+01   1.5786492743e+01    0.3188278    0.2463363 -62.23   0.00160133    1.653    0.395
       146  -8.5911    235.4851    102.0159   7.1355767837e+01   1.2633847817e+01     0.303721    0.1728382 -54.98  0.001243231    2.594    0.614
       147  -9.0837    160.9861     99.3251   8.4356791819e+01   3.0114364225e+01    0.2133687    0.2012815  46.58   0.00107932    1.062    0.059
       148  -9.1374    235.8509     97.9468   7.0292716626e+01   1.3133343078e+01    0.2408045    0.2207138  88.91 0.0009198618    1.334    0.250
       149  -9.5370    130.0925     97.9916   9.1179106361e+01   3.7185000003e+01    0.2255786    0.2178058 -54.94 0.0007086495    1.029    0.028
       150  -8.9932    176.8201     95.9845   8.0136333885e+01   2.7040345246e+01     0.262417    0.1826378   2.33  0.001100276    2.080    0.519
       151  -9.3645     51.1166     95.5443   1.1244758376e+02   5.0726001214e+01    0.2144265    0.1534086 -75.31 0.0004269498    1.244    0.196
       152  -9.7114    230.5733     94.2820   7.0174870754e+01   1.4819467816e+01    0.4104293    0.2732798 -26.71   0.00176049    1.412    0.292
       153  -9.2635    224.7094     94.3863   7.1115101074e+01   1.6118735556e+01     0.399419    0.1344787 -24.68  0.001220629    3.664    0.727
       154  -8.5814    208.0401     95.2013   7.4083711043e+01   1.9820659393e+01     0.197275    0.1165794  53.05 0.0008576553    1.732    0.423
       155 -10.1182    237.1026     89.6671   6.8026627996e+01   1.4030892115e+01    0.4127715    0.3628113 -89.24  0.002003114    1.403    0.287
       156 -10.0506    225.8248     86.5797   6.8921143584e+01   1.7013935329e+01    0.5382943    0.3482349   1.94  0.002295303    2.058    0.514
       157  -8.7719    232.5318     85.4472   6.7617486085e+01   1.5650122417e+01    0.2382189    0.1902715  57.79 0.0006992904    1.367    0.268
       158  -9.6874    231.4895     81.7891   6.6820498789e+01   1.6408247641e+01    0.3153229    0.2990077  55.70  0.001058911    1.151    0.131
       159  -9.0069    171.6406     90.8014   7.9773549935e+01   2.9190052515e+01    0.2188388    0.1363521 -45.41  0.000597711    1.640    0.390
       160 -10.1431    216.1871     89.2615   7.1151397064e+01   1.8842989611e+01    0.4236369    0.3416719 -87.19  0.002137786    1.602    0.376
       161  -8.9175     19.3566     90.2876   1.2108827121e+02   5.4950074306e+01    0.1181144   0.07587798 -46.46 0.0004541219    1.677    0.404
       162  -9.7949    176.6395     87.3545   7.7793500595e+01   2.8602983876e+01    0.2365124     0.181076 -70.99 0.0009176811    1.659    0.397
       163  -9.1182    139.5934     87.1885   8.5898720962e+01   3.7305616652e+01    0.2163947    0.1436502 -30.23 0.0007777747    1.665    0.400
       164  -8.9766    179.6423     85.3131   7.6621981390e+01   2.8231240333e+01    0.1596024     0.120177 -73.46 0.0002103091    1.743    0.426
       165  -8.4294    205.6684     83.3071   7.1300970336e+01   2.2252267993e+01    0.1533459    0.1155471 -66.00 0.0003123444    1.664    0.399
       166  -9.3877    237.8738     83.9465   6.6457110652e+01   1.4662208198e+01    0.3638777    0.2091485 -50.94   0.00156027    2.081    0.520
       167  -9.3593    195.1437     77.7161   7.1566924348e+01   2.5699013063e+01    0.4636184    0.1947275 -50.72  0.001459861    3.342    0.701
       168  -9.3003    119.3969     78.6908   8.8515325782e+01   4.3375780965e+01    0.2487834    0.1842879  24.42 0.0009948825    1.705    0.413
       169  -9.5890    176.0062     77.2783   7.5022104672e+01   3.0497504749e+01    0.3154788     0.219491 -42.79  0.001078445    1.430    0.301
       170  -9.7840    214.6680     75.5144   6.7689885658e+01   2.1274366355e+01     0.336772    0.2839409  12.94  0.001618939    1.287    0.223
       171  -8.9778    189.3468     77.3194   7.2497561120e+01   2.7193167083e+01    0.1619714    0.1168337  20.22 0.0007049041    1.731    0.422
       172  -9.5825    226.1616     74.3042   6.5618268912e+01   1.8712323056e+01    0.4453133    0.3868826  26.63  0.002252324    1.218    0.179
       173  -8.8054    230.3934     71.7959   6.4338651232e+01   1.8074411537e+01    0.2496842    0.1648819   8.69 0.0007950628    2.023    0.506
       174  -8.2679    126.4830     76.4759   8.5998792191e+01   4.2310879037e+01    0.1493239    0.1442981 -38.60 7.330489e-05    1.020    0.020
       175  -9.0648    250.2076     70.5785   6.1389254117e+01   1.3739051028e+01    0.1957153    0.1392231  57.16 0.0006709835    1.548    0.354
       176  -9.3324    250.2237     65.0751   5.9982130123e+01   1.4454827707e+01    0.5003558     0.174877 -28.32  0.001799204    2.523    0.604
       177  -9.0948    241.7594     68.8277   6.2015078402e+01   1.5860557474e+01    0.3878702    0.1922624  57.30  0.001682868    2.142    0.533
       178  -9.4865    238.5571     64.6265   6.1327731050e+01   1.7158821745e+01    0.3300795    0.2066619 -24.01    0.0010986    1.513    0.339
       179 -10.3309    225.8602     66.5594   6.3565887106e+01   1.9880314186e+01    0.5397841    0.4175827  85.63   0.00227373    1.565    0.361
       180  -9.2533    221.2513     61.1326   6.2722173224e+01   2.1752252936e+01    0.3374563    0.1720083 -36.76 0.0009412524    1.800    0.444
       181  -9.0457    219.2723     68.4520   6.5039616593e+01   2.1196104523e+01    0.1943285    0.1471772  78.98  0.000944373    1.569    0.363
       182  -8.8058    198.1089     64.1526   6.7134649512e+01   2.7071293002e+01    0.2118949     0.176038 -58.58 0.0006029258    1.294    0.227
       183 -10.0552    207.0981     60.1653   6.4534683313e+01   2.5396393004e+01     0.405395    0.1994352 -38.83  0.001619171    1.917    0.478
       184  -8.5740    158.5942     61.7643   7.3802643724e+01   3.7461798330e+01    0.2307088    0.1372697 -43.52 0.0009550554    1.688    0.408
       185  -9.5602    236.3534     59.9285   6.0361797284e+01   1.8300375505e+01     0.480105    0.2364946  65.94   0.00200525    2.308    0.567
       186  -9.0589    226.5862     59.7607   6.1603336952e+01   2.0647385759e+01     0.212456    0.1234033 -38.20 0.0009435503    1.593    0.372
       187  -9.5987    214.0562     57.7057   6.2786785731e+01   2.4005910903e+01    0.4758995    0.3149273  72.43  0.002076178    1.723    0.420
       188 -10.1316    198.7888     58.6105   6.5385917446e+01   2.7725104363e+01     0.396428    0.2955597 -46.14   0.00190985    1.347    0.258
       189  -9.1636    202.4960     57.5076   6.4471349035e+01   2.6943377477e+01    0.2605427     0.148151  59.65 0.0007884307    1.801    0.445
       190 -10.6650    201.4859     53.0492   6.3305443305e+01   2.7840120130e+01     0.414815    0.3040558   0.90  0.001924182    1.647    0.393
       191  -9.7596    199.2547     47.9717   6.2119501437e+01   2.9126607973e+01    0.3157153    0.2124017 -27.17 0.0007424174    1.453    0.312
       192  -9.3582    171.3154     58.9723   7.0342217552e+01   3.4704482494e+01    0.2992165    0.2223551  48.45 0.0007107816    1.364    0.267
       193  -9.1125    126.5623     58.4709   8.0160457171e+01   4.5716274899e+01    0.1498066    0.1429559 -40.81 0.0001398951    1.033    0.032
       194 -10.1114    131.5882     54.7894   7.7628198780e+01   4.5213795444e+01    0.3798327    0.1376078 -37.97   0.00128657    2.613    0.617
       195  -9.2957    250.3666     54.3494   5.7205619962e+01   1.5797728748e+01    0.2762432    0.1690289 -26.48  0.001347896    1.480    0.324
       196 -10.3940    228.4904     51.9898   5.9210375670e+01   2.1231028891e+01    0.5022299    0.4111587  -1.58  0.002352398    1.334    0.250
       197  -9.8446    236.6234     53.4504   5.8589282490e+01   1.9090108355e+01    0.4207085    0.2886513  87.84  0.002032231    1.826    0.452
       198  -8.6655    232.2889     54.6929   5.9466934211e+01   1.9958423671e+01      0.19722    0.1307463  50.28 0.0006467933    1.608    0.378
       199 -10.1698    244.7242     51.4931   5.7105460985e+01   1.7447364059e+01    0.3876123    0.3057018 -64.45  0.001404044    1.383    0.277
       200  -9.9539    249.7979     46.0850   5.5127372108e+01   1.6957041123e+01    0.6645343    0.2179157 -30.66  0.002486096    2.520    0.603
       201 -10.6412    244.3753     41.9764   5.4633319409e+01   1.8714179360e+01    0.4519484    0.3347346 -19.38  0.001496329    1.328    0.247
       202  -9.2526    220.9900     53.2899   6.0560654242e+01   2.2894081625e+01    0.3518082    0.1600043  56.59  0.001399793    2.216    0.549
       203  -8.4976    207.5725     53.5069   6.2522890771e+01   2.6224663020e+01    0.1490311    0.1412206 -34.62 2.212712e-05    1.011    0.011
       204  -9.1417    163.2195     52.3339   6.9773499981e+01   3.7824689300e+01    0.3384987    0.2003708 -41.10  0.001423338    1.672    0.402
       205  -9.1115    198.2973     51.6489   6.3378583903e+01   2.8857422662e+01    0.2801582    0.2010352 -40.55  0.001285779    1.350    0.259
       206  -8.7238    238.5318     44.9925   5.6086263142e+01   1.9718293545e+01      0.20951    0.1293581 -28.19 0.0009942076    1.483    0.326
       207  -9.9214    215.8362     42.0839   5.8042309209e+01   2.5667084475e+01     0.552879    0.3458097   9.52  0.002129361    2.312    0.568
       208  -9.0522    220.0000     41.9677   5.7474885389e+01   2.4632609416e+01    0.3060643    0.2017542  -9.63  0.001395334    1.752    0.429
       209  -8.4368    162.2986     45.6475   6.7714853018e+01   3.9085778894e+01    0.1625106    0.1146085 -60.75 0.0003757595    1.693    0.409
       210 -10.4337    189.4939     42.5922   6.1962698250e+01   3.2410842245e+01    0.4650993     0.270844 -21.70  0.001843577    1.804    0.446
       211  -9.5948    192.5195     40.4858   6.0834993243e+01   3.1902521686e+01    0.2623135     0.144566 -27.03  0.001000956    1.783    0.439
       212 -10.6219    186.0426     38.0114   6.1046817926e+01   3.3938154473e+01    0.6797286    0.2597236 -30.77  0.002413625    2.431    0.589
       213  -9.8991    175.8379     41.0204   6.3695875044e+01   3.6219171890e+01     0.609071    0.3558784 -82.09  0.002214565    2.788    0.641
       214  -8.4486    197.4979     28.5063   5.6381909664e+01   3.2120305682e+01    0.2974753    0.1477148 -50.03  0.001153469    2.210    0.548
       215  -9.1766    221.7299     31.2116   5.4191035355e+01   2.5530966927e+01    0.4072628    0.2432381 -33.94  0.001893756    1.534    0.348
       216 -10.3585    214.9425     30.5045   5.4781392955e+01   2.7340213910e+01    0.6629351    0.3685182  55.04  0.002937752    1.833    0.454
       217  -9.8076    201.5397     27.4515   5.5526678655e+01   3.1183677415e+01    0.4691944    0.2548732   1.43  0.001722335    2.876    0.652
       218  -9.7130    205.4772     24.4810   5.4128948002e+01   3.0501999843e+01     0.421627    0.2870743  87.40  0.001996136    1.623    0.384
       219  -9.1483    209.2024     39.3916   5.8127506046e+01   2.7707308023e+01    0.2714373     0.198217 -29.42 0.0007106229    1.312    0.238
       220  -9.0479    165.7049     39.7531   6.5067595760e+01   3.9057527890e+01    0.2684481    0.1876504 -24.58    0.0012321    1.447    0.309
       221  -9.8106    238.5337     38.2154   5.4260264654e+01   2.0554224231e+01    0.2703408    0.2437957 -57.69   0.00126446    1.087    0.080
       222  -9.7909    250.3383     35.6646   5.2365698054e+01   1.8087726215e+01    0.3180803    0.1541762 -45.62  0.001232392    1.936    0.484
       223 -10.7188    247.7369     31.7085   5.1588819185e+01   1.9152893463e+01    0.5489135     0.448587 -61.95  0.002144451    1.218    0.179
       224 -10.5197    227.4082     33.1841   5.4104931561e+01   2.3874208593e+01     0.655803    0.2824009 -35.24  0.002663784    2.033    0.508
       225 -10.3418    234.9984     31.5527   5.2830205042e+01   2.2204507658e+01    0.5754929    0.2966529  65.73  0.002567248    2.017    0.504
       226  -8.8505    235.0300    248.0123   9.8940421731e+01  -4.5998008210e+00    0.1461025    0.1096633  48.23 0.0008010669    1.656    0.396
       227  -9.3208    242.2340     33.9385   5.2724152495e+01   2.0185509227e+01    0.3104913    0.1948223 -69.74  0.001439305    1.892    0.472
       228  -9.5751    190.8103     33.2071   5.8793666769e+01   3.3303654925e+01    0.2142562    0.1756694  18.67  0.001071579    1.381    0.276
       229  -8.5742    183.6330     43.1566   6.3082531528e+01   3.3871420447e+01    0.2167681    0.1448682 -13.44 0.0009430795    1.693    0.409
       230  -8.9189    169.4874     32.5006   6.1919614341e+01   3.9050588544e+01    0.2324603    0.1500795  -9.80 -3.283823e-05    1.819    0.450
       231  -8.7057    170.5110     29.5100   6.0723626962e+01   3.9165862849e+01    0.2346349    0.1316115 -37.55 0.0007817895    1.741    0.426
       232 -10.8535    224.9101     22.8390   5.1465608609e+01   2.5704376889e+01    0.5919265     0.387516 -72.49  0.002835171    1.720    0.419
       233  -9.5941    177.1959    248.1277   1.0783441296e+02   3.7506140664e+00    0.2229048    0.1137702  48.53 0.0009889347    1.610    0.379
       234  -9.8574    226.4924     17.6376   4.9844200200e+01   2.5883384168e+01    0.2802665     0.261501 -63.11  0.001040939    1.028    0.027
       235  -9.5469    187.0062    247.0329   1.0616426441e+02   2.4179784030e+00    0.1670735    0.1214227  37.34 0.0005619985    1.011    0.011
       236  -8.7030    226.7942    244.5927   9.9717435481e+01  -3.1421645332e+00     0.146496   0.07885835  45.78 0.0008124554    1.703    0.413
       237  -8.9936    204.5833    242.2739   1.0282533796e+02   3.0793178123e-01    0.2017359    0.1039911  47.02  0.001249713    1.687    0.407
       238  -8.7181    216.4832    241.4687   1.0087521432e+02  -1.3635657662e+00    0.1079238    0.0786766  31.60 0.0001948779    1.022    0.021
       239  -8.5066    182.5748    239.7540   1.0599270166e+02   3.8753528052e+00    0.1213219     0.105115 -68.96 0.0007884292    1.700    0.412
       240  -8.5990    235.7641    237.9624   9.7456742082e+01  -3.8244910250e+00    0.1183261   0.08208302 -16.31 0.0008512185    1.619    0.382
       241 -10.2877    244.1440     21.6499   4.9283012186e+01   2.1137523849e+01    0.3739995    0.3531742  44.80  0.001318972    1.197    0.165
       242 -10.3811    206.9939    236.2617   1.0166267865e+02   5.6146847042e-01    0.3821292    0.2480747  44.67  0.002269365    1.339    0.253
       243  -9.8447    118.7532     25.0686   6.9520155866e+01   5.2904213213e+01    0.3132789    0.1783546 -39.26   0.00100327    1.773    0.436
       244 -10.2282    144.1189     25.0709   6.3903830129e+01   4.6647285435e+01    0.4187889    0.2183773  58.56  0.001738573    1.864    0.463
       245  -9.0184    199.5018     20.8500   5.3745805794e+01   3.2487618563e+01    0.2192522    0.1421659 -23.89  0.001016547    1.543    0.352
       246  -8.3937    176.3074     20.3495   5.6695274667e+01   3.8726979908e+01    0.1585307    0.1082065  29.53 0.0006449515    1.708    0.414
       247  -8.6345    147.5078     19.0280   6.0958556253e+01   4.6513859876e+01    0.3886116   0.07020531 -36.07  0.001041132    4.500    0.778
       248  -8.2426    243.6794    236.3362   9.6039280080e+01  -4.8025402684e+00   0.09060727   0.07833569  48.67 0.0007049917    1.707    0.414
       249  -8.5951    217.3572     15.7190   5.0208434832e+01   2.8403665588e+01    0.2239942    0.1837441 -58.41 0.0007629037    1.178    0.151
       250  -9.6374    219.3998    235.1624   9.9572630184e+01  -1.1807727953e+00    0.2727047     0.117811  37.48  0.001144357    1.761    0.432
       251  -9.0330    240.3310    231.9784   9.5913952427e+01  -3.9394721714e+00    0.2314553    0.0942542  26.50  0.001168571    2.619    0.618
       252  -8.5931    230.5001    229.5456   9.7061785676e+01  -2.2799205136e+00    0.1097281   0.08170723  27.74 0.0001258503    1.035    0.034
       253  -8.2870    174.7014    229.6660   1.0602843540e+02   6.2658755329e+00    0.1089174   0.07604616  20.04 0.0007031967    1.650    0.394
       254  -9.3077    211.1972    228.1812   9.9893636086e+01   7.6556629573e-01    0.1455535    0.1159919  46.52 0.0008372087    1.351    0.260
       255  -8.5494    187.4290     16.5046   5.3887380935e+01   3.6179209854e+01    0.1466563    0.1372665 -60.67  0.000128207    1.054    0.052
       256  -9.4860    162.7778     15.1038   5.6912526414e+01   4.2932117722e+01    0.2410303    0.1973623 -60.43  0.001240105    1.314    0.239
       257  -8.7705    207.6494     13.6148   5.0603199663e+01   3.1137600735e+01    0.2161448    0.1566553  33.28 0.0007064257    1.613    0.380
       258  -8.7614    164.4879    228.5364   1.0758856863e+02   8.0017295565e+00    0.1138044   0.08721409  43.43 2.731392e-05    1.006    0.006
       259  -8.5259     99.4043    226.1998   1.1838591493e+02   1.8082561652e+01    0.1371958   0.09149388  87.94 0.0009382176    1.640    0.390
       260  -8.5818    219.3601    224.8144   9.8117458238e+01  -1.3316352263e-01    0.1420078   0.09488541  -9.80 0.0009443918    1.747    0.428
       261  -9.5710    239.1040    220.5182   9.4393551119e+01  -2.6889652112e+00    0.2550653    0.2077463  60.31  0.001803224    1.967    0.492
       262  -9.0038    230.0241    222.2260   9.6059361405e+01  -1.4929593163e+00    0.1764345     0.115238  22.51  0.000927433    1.299    0.230
       263 -10.0489    194.3360    219.5741   1.0142597892e+02   4.3714044901e+00    0.3403094    0.2068479  49.77  0.002099294    1.552    0.356
       264  -9.1842    212.9678    219.9919   9.8435953397e+01   1.3687790386e+00    0.1641926    0.1333327  63.08  0.001136786    1.757    0.431
       265  -9.3686    205.1005    219.6069   9.9657527622e+01   2.6521003783e+00    0.2627537    0.1741283  -1.93  0.001639704    1.948    0.487
       266  -8.5159    159.9624    219.0000   1.0717120967e+02   9.9704664220e+00      0.19961   0.05307551  43.41 0.0008055083    2.964    0.663
       267 -10.5618    218.6499    215.0137   9.6775926036e+01   1.0169353326e+00    0.4626489    0.2285102  47.83  0.002563215    1.940    0.485
       268 -10.0706    214.6690    215.6914   9.7522019071e+01   1.5723831558e+00    0.1963352    0.1502736  42.72 0.0009179682    1.263    0.208
       269  -8.8077    179.7782    216.3746   1.0342752350e+02   7.1149865877e+00    0.1735049   0.08785025  36.53 0.0009472451    1.701    0.412
       270  -8.3748    109.2931    216.3335   1.1573434942e+02   1.8203203371e+01   0.09796061   0.08693004  16.20 0.0004821536    1.637    0.389
       271  -8.8310     63.3453    216.6623   1.2378704065e+02   2.4374516938e+01    0.1181661   0.05846544  65.04 0.0007048539    1.776    0.437
       272 -10.1390    187.1803    214.1583   1.0185929707e+02   6.1886101907e+00    0.2512574    0.2095143 -75.90  0.001725215    1.806    0.446
