#   1 NUMBER                 Running object number                                     
#   2 MAG_AUTO               Kron-like elliptical aperture magnitude                    [mag]
#   3 X_IMAGE                Object position along x                                    [pixel]
#   4 Y_IMAGE                Object position along y                                    [pixel]
#   5 X_WORLD                Barycenter position along world x axis                     [deg]
#   6 Y_WORLD                Barycenter position along world y axis                     [deg]
#   7 A_WORLD                Profile RMS along major axis (world units)                 [deg]
#   8 B_WORLD                Profile RMS along minor axis (world units)                 [deg]
#   9 THETA_WORLD            Position angle (CCW/world-x)                               [deg]
#  10 FWHM_WORLD             FWHM assuming a gaussian core                              [deg]
#  11 ELONGATION             A_IMAGE/B_IMAGE                                           
#  12 ELLIPTICITY            1 - B_IMAGE/A_IMAGE                                       
         1 -14.2748     68.3095    144.2297   1.0722159689e+02   3.7209030656e+01     3.460325     1.600173 -85.18  0.003137089    4.644    0.785
         2 -13.9167    222.6631     16.7772   3.9516189441e+01   2.7725919976e+01     1.115983    0.8941383  38.43  0.002827011    1.602    0.376
         3 -13.7911    198.0140     39.4378   4.8171343383e+01   3.0867214806e+01     1.466008     1.150358  -2.23  0.003721348    1.634    0.388
         4 -13.8716    206.6244     33.1855   4.5375685948e+01   2.9572752641e+01     1.281549     1.147796 -38.71  0.005514903    1.159    0.137
         5 -10.5963      2.2340      3.2509   9.4294420814e+01   7.3837615210e+01     0.324116   0.05959712 -46.07  0.001304222    3.817    0.738
         6 -10.2849     51.2172      4.1448   6.9726619568e+01   6.8038631976e+01    0.1748486    0.1545311  -5.05  0.000572131    1.277    0.217
         7 -10.4098     46.8460      2.1076   7.0482952913e+01   6.8945774957e+01    0.2312749    0.1671485  50.93 0.0009973939    1.909    0.476
         8 -12.5153    214.3401     25.6688   4.2548078630e+01   2.8646137034e+01    0.5356378    0.4146426  52.70  0.001157313    1.423    0.297
         9  -9.5816     61.4860      1.4475   6.4377947981e+01   6.6597164133e+01    0.1258399   0.09791368  15.88 0.0008078404    1.040    0.038
        10 -13.9196      5.3082    186.4202   1.2653246035e+02   3.4142977188e+01     1.442713    0.5879173 -83.44  0.002050088    2.032    0.508
        11 -15.5570     79.3407    246.0040   1.1688165340e+02   1.3947958169e+01     8.551806       2.6201  31.37    0.0284868    5.689    0.824
        12 -13.1054     24.0688    225.0412   1.2533569914e+02   2.4497581288e+01    0.7255825    0.4098516  60.04  0.003553346    1.401    0.286
        13 -16.0815     36.3170    187.1092   1.2020313720e+02   3.1035274985e+01     8.420577     3.181898  77.77    0.0285152    4.807    0.792
        14 -12.1073     63.4617    179.7743   1.1343498675e+02   2.9461004625e+01    0.4051392    0.3050289 -33.09   0.00226111    1.919    0.479
        15 -11.9636     68.3033    174.4502   1.1164676782e+02   3.0038548439e+01    0.3396679     0.265754 -48.38 0.0008993505    1.479    0.324
        16  -9.4090     99.4965    180.9215   1.0523553460e+02   2.3970926455e+01    0.2074352    0.1740338  48.91 0.0005401247    1.144    0.126
        17 -10.6754     49.0674    180.1970   1.1674703199e+02   3.1144334250e+01     0.214212    0.1627625 -80.13 0.0005367132    1.162    0.139
        18 -11.7633     40.4482    177.6312   1.1841313855e+02   3.2702371850e+01    0.4577554    0.3050456 -33.51  0.001902189    2.425    0.588
        19 -13.5812     65.3412    160.5693   1.1048521012e+02   3.3678052915e+01    0.5459232    0.3824106 -48.77  0.001708065    1.557    0.358
        20 -11.6600     77.7589    164.5580   1.0798799723e+02   3.1027587010e+01    0.3149942     0.275327  80.41 0.0003166843    1.058    0.055
        21 -13.8767     81.7142    157.7455   1.0593918006e+02   3.2060838496e+01     3.148752     1.243889  55.70  0.003188534    3.844    0.740
        22  -9.0654    162.4316    167.4822   8.8224231700e+01   1.5476863738e+01    0.1446855    0.1404709  25.95 7.808645e-05    1.031    0.030
        23 -11.8127     32.8008    155.8775   1.1792049322e+02   3.8528245079e+01    0.4084623    0.2365947 -84.51  0.001922806    1.569    0.363
        24 -13.6183     37.3469    207.8274   1.2169940096e+02   2.6503756321e+01    0.7786456    0.5443274  29.27  0.004997107    1.794    0.443
        25  -9.8723    174.1884    248.6202   9.9449205198e+01  -6.0182936457e-01    0.2140748    0.1709134  55.16 0.0009778674    1.470    0.320
        26 -10.8723    133.8315    143.5262   8.9894743532e+01   2.6304486040e+01     1.124453    0.2488307 -52.64  0.002600333    5.860    0.829
        27 -15.7286     10.9603    239.9800   1.2834174908e+02   2.3034798172e+01     2.110081      1.45316  67.67   0.01654524    1.036    0.035
        28 -10.0020    137.7405    170.9465   9.4561841604e+01   1.9497349171e+01    0.2685139    0.1820073  54.99 0.0009239407    1.577    0.366
        29 -14.8713      9.5784    207.8370   1.2696857469e+02   2.9317688661e+01     1.185172     1.129252  78.16   0.00706477    1.455    0.312
        30 -10.6550     98.8117    143.1965   9.8879902645e+01   3.2832158446e+01    0.3165624    0.2531539 -54.73 0.0009330698    1.207    0.172
        31  -9.9475    101.7684    139.8423   9.7416833714e+01   3.3129104065e+01    0.3446665    0.2418774 -27.21  0.001557975    1.898    0.473
        32 -12.3135     87.0343    142.0521   1.0180810312e+02   3.5016158091e+01    0.2935043    0.2629734 -41.13  0.000430671    1.205    0.170
        33 -10.2457     81.8129    141.6791   1.0314633676e+02   3.5905195457e+01    0.2914016    0.2099546  73.94 0.0005210696    1.627    0.385
        34  -9.6181    174.7072    148.9725   8.1500134177e+01   1.6752542949e+01    0.2134517     0.199563 -29.65 0.0004157792    1.062    0.059
        35 -11.3439    193.1232    193.0037   8.6721464000e+01   4.9275921743e+00    0.7734582    0.4458025 -53.25  0.003509858    2.369    0.578
        36 -10.3599    109.6410    131.6137   9.3533509606e+01   3.3685399875e+01    0.4056022    0.2818243  22.74  0.001097476    1.798    0.444
        37 -10.0995    106.0000    131.0003   9.4386008699e+01   3.4489427751e+01    0.3243929    0.2607269 -64.68  0.001632797    1.254    0.202
        38 -11.2029     46.2101    129.5256   1.1090696192e+02   4.3481366581e+01     0.277152    0.2025581   7.78  0.001316356    1.867    0.464
        39 -10.2713     32.2815    129.9466   1.1485552117e+02   4.4774589196e+01    0.1858208    0.1437211 -71.56 0.0004004456    1.070    0.066
        40 -10.7618     97.2331    127.7836   9.6096480309e+01   3.6789662585e+01    0.2995496    0.2495269 -25.40 0.0006362646    1.384    0.277
        41  -9.5607    161.3177    128.6682   7.9732351891e+01   2.3816722918e+01    0.1586685    0.1261555 -84.11 0.0004003643    1.689    0.408
        42  -9.0674     80.0140    129.0000   1.0120920220e+02   3.9254207424e+01    0.2228487   0.08319779  34.68 0.0007962888    2.900    0.655
        43  -8.9833    125.6515    127.3364   8.8264761755e+01   3.1619388217e+01      0.16199    0.1231878  84.96 0.0007047342    1.781    0.439
        44 -10.0460    116.1147    125.6541   9.0407630411e+01   3.3872062537e+01    0.2672355    0.2101145 -61.57  0.000695469    1.311    0.237
        45 -11.0708     47.7548    124.1576   1.0958958529e+02   4.4621504306e+01    0.3026944    0.1628896 -60.49  0.001468734    1.569    0.363
        46 -10.8582    135.3792    122.0882   8.4444984345e+01   3.0819479526e+01    0.5895215    0.1408359 -52.02  0.001260408    6.393    0.844
        47 -11.1542     23.7287    118.5763   1.1568246914e+02   4.8249906401e+01    0.3583785    0.1525684 -74.80  0.001607651    2.130    0.531
        48 -11.6561     13.8335    114.6315   1.1800550567e+02   4.9926134232e+01    0.3362248     0.199003  69.72  0.001811112    1.981    0.495
        49 -10.0124    106.9407    120.0312   9.1591154117e+01   3.6909655913e+01    0.2178939    0.2091509 -50.48 0.0002885821    1.012    0.011
        50 -10.2617     39.8127    113.1073   1.1005001945e+02   4.8133465000e+01    0.2000994    0.1650269 -88.32 0.0007579345    1.221    0.181
        51 -10.0218    205.4775    110.2683   6.5806032518e+01   1.7585581921e+01    0.3164104    0.2385092  39.82 0.0009919356    1.419    0.295
        52  -9.6234     33.6499    109.3127   1.1127928787e+02   4.9631247306e+01    0.1324051   0.09199104  72.60 0.0007046019    1.722    0.419
        53  -9.8635    168.1956    113.0089   7.4157507147e+01   2.5531395100e+01    0.3686574    0.2394456 -64.81   0.00115795    2.189    0.543
        54 -10.3685     29.2738    106.9935   1.1223881560e+02   5.0570774253e+01    0.1872041    0.1451104 -65.67 0.0004138889    1.059    0.056
        55  -9.7536    134.6790    102.9967   7.9580591028e+01   3.5163471055e+01    0.2316833    0.1990299 -42.08 0.0006002085    1.137    0.120
        56 -10.2971    230.5787    166.7790   7.4242102458e+01   2.6005973918e+00    0.1940511    0.1208055 -42.91 0.0009532506    1.704    0.413
        57 -10.7224    243.2211    102.4064   5.7636721812e+01   1.0885242934e+01     0.183926    0.1373475  73.47 0.0009568199    1.719    0.418
        58  -9.4284     39.6283    102.2774   1.0811311315e+02   5.0756701616e+01    0.1307659   0.09557464  69.73 0.0007007997    1.690    0.408
        59 -10.5097    250.0157     88.0072   5.3333762882e+01   1.1809741772e+01    0.2074914    0.1625776   1.63 0.0005796989    1.635    0.389
        60  -9.9951     73.4411     83.9349   9.2443910228e+01   5.0872502160e+01    0.2399997    0.1960175  56.24 0.0006216322    1.504    0.335
        61  -9.1809    159.6605     81.2995   6.7219723504e+01   3.3747133977e+01    0.1589648    0.1234474 -77.84 0.0003943148    1.665    0.399
        62 -10.6415      2.0853     78.8634   1.1647653685e+02   5.8916478149e+01    0.2606789    0.1292925 -71.15  0.001122338    1.645    0.392
        63  -8.7942    109.5103     79.5328   7.9646847642e+01   4.5416310391e+01    0.1500012    0.1443741 -28.08 0.0008092409    1.047    0.044
        64  -9.3709     61.9467     71.3518   9.2759550824e+01   5.5261892417e+01    0.1866501    0.1675825  -8.53 0.0005734594    1.122    0.108
        65 -10.2904     13.4880     60.1688   1.0839712615e+02   6.2439311199e+01    0.2231996    0.1740081 -49.73 0.0004719519    1.022    0.021
        66 -13.6780     44.2538    221.8121   1.2143153309e+02   2.2899484597e+01     1.218108    0.9013909  36.25  0.005003541    1.544    0.352
        67 -13.8138     88.2919    227.9042   1.1350059603e+02   1.5990863793e+01     1.088621    0.7638965  59.80 0.0005038314    1.231    0.188
        68 -10.8915     75.5739    231.7869   1.1633043198e+02   1.7027958266e+01    0.2018992    0.1426053  59.15 0.0005457592    1.160    0.138
        69 -11.1499    138.4300     44.3617   6.0268453960e+01   4.5061787015e+01    0.3850496    0.2882203 -83.84  0.000403576    1.815    0.449
        70  -9.4830     64.3788    198.2105   1.1530179169e+02   2.5270305220e+01    0.2307765    0.1534725  58.01 0.0009606099    1.352    0.260
        71 -10.4640    189.6477     15.1047   4.2570213073e+01   3.5852941840e+01    0.2290798    0.1753892 -88.52 0.0006204983    1.254    0.202
        72 -10.1774     66.8330    195.6435   1.1450077105e+02   2.5500225711e+01    0.3145659    0.2062311  69.72  0.001389376    1.477    0.323
        73  -9.3598     82.3372    195.3060   1.1108639026e+02   2.3427354734e+01    0.1210137    0.1033842 -22.42  0.000704087    1.674    0.403
        74 -12.0299    183.6288    215.0764   9.2543828670e+01   2.9206812274e+00      0.43787    0.2998305  23.64  0.002426273    1.405    0.288
        75 -12.5664     40.1784    234.0757   1.2303389914e+02   2.1018535233e+01    0.4310805    0.2410993  75.55   0.00250086    1.591    0.372
