#   1 NUMBER                 Running object number                                     
#   2 MAG_AUTO               Kron-like elliptical aperture magnitude                    [mag]
#   3 X_IMAGE                Object position along x                                    [pixel]
#   4 Y_IMAGE                Object position along y                                    [pixel]
#   5 X_WORLD                Barycenter position along world x axis                     [deg]
#   6 Y_WORLD                Barycenter position along world y axis                     [deg]
#   7 A_WORLD                Profile RMS along major axis (world units)                 [deg]
#   8 B_WORLD                Profile RMS along minor axis (world units)                 [deg]
#   9 THETA_WORLD            Position angle (CCW/world-x)                               [deg]
#  10 FWHM_WORLD             FWHM assuming a gaussian core                              [deg]
#  11 ELONGATION             A_IMAGE/B_IMAGE                                           
#  12 ELLIPTICITY            1 - B_IMAGE/A_IMAGE                                       
         1 -15.3035      5.9144     79.6628   1.0798094733e+02   5.9472450035e+01     3.803521    0.2135353 -61.78   0.01140412    4.724    0.788
         2 -13.2277     25.2960     17.0238   7.8268110898e+01   7.0133465702e+01    0.7757744    0.5063564   7.27  0.004875564    1.352    0.260
         3 -14.6970     13.5997     24.4833   8.8062401564e+01   7.0163800681e+01     1.782819    0.5442977 -46.33  0.007978079    2.816    0.645
         4 -14.8983    151.2799     59.1923   5.2354714286e+01   3.9505870549e+01     2.194103     1.310713  64.09  0.006530229    1.729    0.422
         5 -15.9837    166.8916     43.5544   4.4985417321e+01   3.7987419250e+01     3.692181     2.116036 -64.23   0.01336554    2.264    0.558
         6 -14.7167    166.9230     21.6963   3.8951792939e+01   4.0618796590e+01     2.076285     1.070586  84.28  0.007552583    2.209    0.547
         7 -13.3553     14.7138      3.9852   7.7587380567e+01   7.3084423770e+01    0.7352906    0.5473191 -17.91  0.005319415    1.214    0.176
         8 -13.9477    228.9299     29.5589   3.3995035632e+01   2.5655664035e+01    0.7709331    0.6053491  43.24  0.002544816    1.782    0.439
         9 -13.7129    248.9870     10.5749   2.8689312201e+01   2.3841810588e+01    0.9621937    0.3597744 -41.08  0.004052149    2.178    0.541
        10 -12.8400    241.3488      3.6632   2.7868907970e+01   2.6076667774e+01    0.4994565    0.3723929 -71.24  0.002625918    1.020    0.020
        11 -12.3630     96.3958      2.1011   4.4956305217e+01   5.8996009001e+01      1.09059    0.3865907  64.10  0.004526215    2.639    0.621
        12 -14.4476    111.4266      6.7931   4.3482470775e+01   5.5233036568e+01     1.771682    0.8449709  60.34  0.007251942    1.735    0.424
        13 -12.6857    124.5999      3.1998   3.9817414048e+01   5.2452944471e+01    0.7708513    0.3743394  66.64  0.003281278    1.751    0.429
        14 -11.6654    168.6971      6.0762   3.4550395037e+01   4.1748738475e+01    0.3445134    0.2326143 -65.61  0.001995016    1.507    0.337
        15 -13.1989    134.0648     97.4617   6.7656964616e+01   3.6576173565e+01    0.9519151    0.8067234   9.66  0.003639977    1.340    0.254
        16 -13.6363    144.6238    184.8956   8.5625219223e+01   1.4693209566e+01     2.773527     1.184861 -58.01  0.009423323    3.140    0.682
        17 -15.8582    115.8242    220.3209   9.8382748047e+01   1.1916276675e+01     3.291572     1.914068 -43.54    0.0136501    1.992    0.498
        18 -15.5556    147.2532    223.9571   9.1786098044e+01   6.1836092356e+00     2.464366     1.885458   2.00  0.007800207    1.463    0.316
        19  99.0000     60.9926    232.0164   1.1203422020e+02   1.7294210949e+01      1.87691     1.598545  15.53   0.01206238    1.490    0.329
        20 -14.6398     25.2741    199.2404   1.1706628573e+02   2.8689523085e+01     1.490691     1.211457 -86.71  0.006300875    1.093    0.085
        21 -13.3226     11.0211    224.5266   1.2180619152e+02   2.4441384922e+01    0.4521776    0.3077542  73.62  0.001661259    1.184    0.155
        22 -15.5968     24.8330    222.7694   1.1890681572e+02   2.3452464770e+01     2.307138    0.8263814  58.97  0.008459212    2.840    0.648
        23 -14.2035     19.2086    227.3398   1.2034444445e+02   2.3048406158e+01    0.6497938    0.3856775  64.00  0.001914537    1.426    0.299
        24 -15.4479      9.6983    210.7745   1.2126654444e+02   2.7545089194e+01     1.357012     0.789649  82.75  0.004390297    1.484    0.326
        25 -13.0073     16.5176    206.5203   1.1954683798e+02   2.7867285665e+01    0.3306563    0.2841082 -82.52 0.0009035153    1.185    0.156
        26 -10.7358      8.4878    250.1077   1.2358835066e+02   1.9507176251e+01    0.2157263    0.1226585  48.41 0.0009639048    1.412    0.292
        27 -12.1552    192.0317    143.9834   6.6051450101e+01   1.4334305684e+01    0.7327154    0.4455377  64.06  0.002898711    2.635    0.620
        28 -13.2379    167.2781    146.5350   7.2045604982e+01   1.8788959156e+01     1.037059     0.699783 -23.14  0.004464898    1.766    0.434
        29 -14.2630    179.0240    139.9396   6.7867407052e+01   1.7788343325e+01     1.699654     1.300663 -58.90  0.008123862    1.487    0.327
        30 -12.6182     75.6211    156.7536   9.8725385140e+01   3.3178187629e+01    0.4805385    0.4484277  18.70  0.001267105    1.172    0.147
        31 -13.3111     53.4971    159.6608   1.0550109970e+02   3.5370816280e+01    0.5428626    0.3187547 -38.26  0.001746174    2.092    0.522
        32 -13.3450      2.6146    114.8782   1.1469944104e+02   5.1190943180e+01     1.069372    0.3412371 -74.34  0.004221174    2.703    0.630
        33 -13.3926      7.6277    148.5119   1.1694379308e+02   4.2523190672e+01     1.104229    0.3454566 -87.18   0.00349988    4.427    0.774
        34 -13.1251      3.1802    133.8390   1.1670793223e+02   4.6460300460e+01     1.341292    0.2918752 -80.56  0.003362784    6.849    0.854
        35 -13.4533     67.9223    144.0994   9.8722844808e+01   3.7526475805e+01    0.7573308    0.5440177  73.51  0.002806169    1.713    0.416
        36  -9.7578     92.3124    143.3263   9.1270514600e+01   3.4006698855e+01    0.1599225    0.1181081 -23.35 0.0005584175    1.664    0.399
        37 -11.8408     79.6494    141.4781   9.4675045901e+01   3.6498759298e+01    0.2982365    0.2517391 -48.28 0.0005301627    1.142    0.124
        38 -12.2596    135.8931    135.2074   7.7119200568e+01   2.7798534666e+01    0.7529131    0.5058088 -42.13  0.002668794    1.470    0.320
        39 -12.5473    162.5896    132.6149   6.9828259231e+01   2.2783378004e+01    0.8202811     0.566119 -59.84  0.003555652    1.715    0.417
        40 -10.3711    106.0093    131.0913   8.4483412688e+01   3.4653112028e+01    0.2476989    0.2346575 -20.80   0.00088582    1.062    0.059
        41 -10.1029     92.7868    127.8433   8.7699010599e+01   3.7818972988e+01    0.2391425    0.2021131 -21.99 0.0006406614    1.279    0.218
        42 -13.5220    194.6362    116.3869   5.9033029165e+01   1.9265633356e+01     1.156933     1.035838  68.83  0.005293943    1.243    0.196
        43  -9.5182    103.9918    119.7522   8.2304548750e+01   3.7783423322e+01    0.1877491    0.1348827  36.40 0.0002395687    1.431    0.301
        44 -11.8741     53.1199    116.5523   9.8051811193e+01   4.6497373493e+01    0.3380396    0.1974398 -63.21  0.001025451    1.628    0.386
        45  -9.7847     15.4440    248.4951   1.2225123994e+02   1.9130495411e+01    0.1154828   0.08237366  66.11 7.984658e-05    1.063    0.059
        46 -13.8483    126.0127    202.4896   9.3258947704e+01   1.4067204286e+01     1.974727    0.7606212  44.41  0.007202207    2.604    0.616
        47  -9.4135     85.0000    246.9473   1.0838769502e+02   1.1094461331e+01    0.1729696     0.070742 -64.40 0.0004636609    2.770    0.639
        48 -13.0038    170.0529     83.8474   5.5524988017e+01   3.0895573435e+01    0.9428127     0.701367 -82.12   0.00441704    1.712    0.416
        49 -14.0089    147.3985     78.8271   5.8976647499e+01   3.7133176255e+01     1.083194    0.7814825 -26.18   0.00400512    1.543    0.352
        50  -9.6875     85.9640    222.0338   1.0546560655e+02   1.6043713837e+01    0.2058639    0.1414893  70.76 0.0005888685    1.609    0.378
        51 -12.5976    228.4306    194.3880   6.9543205934e+01  -1.3528507581e+00     0.941683    0.2282482 -43.01  0.003054534    4.167    0.760
        52 -13.1143     91.2879    194.5359   1.0056697143e+02   2.1470139642e+01    0.8730081    0.6370844  26.37  0.002701675    1.465    0.317
        53 -13.9566     14.2539     46.2297   9.5758917322e+01   6.6168506482e+01    0.6804848    0.4329367 -26.28  0.002386669    1.340    0.254
        54 -11.8445    131.9395    186.1698   8.8972770288e+01   1.6675510252e+01    0.5697387    0.3727354 -50.06  0.001644869    1.573    0.364
        55 -11.3972     48.7014    179.3774   1.0940793078e+02   3.0953719758e+01    0.3161586    0.2280988 -36.88  0.001657731    1.731    0.422
        56 -11.5069    123.9876     31.8488   4.9523890265e+01   4.9792403056e+01    0.3845561    0.2611983 -82.21  0.001149844    2.149    0.535
        57 -11.9487    132.0162     30.0238   4.7234064169e+01   4.8101014212e+01    0.6381188    0.4338039  77.38  0.003255317    1.617    0.382
        58 -11.9144    116.7489     25.2011   4.8851639224e+01   5.2244792750e+01    0.4621911    0.2725183 -78.09  0.001804905    3.455    0.711
        59 -12.9086    221.6989     35.4489   3.5943870613e+01   2.6446542506e+01    0.3894028    0.3335687 -34.29  0.002555911    1.354    0.261
        60 -14.0968    184.6093    169.8417   7.3332209084e+01   1.0515078477e+01     1.383624    0.6567355 -51.78  0.005234489    2.502    0.600
        61 -12.1077    176.0460    164.2289   7.4013887438e+01   1.3282295354e+01    0.4766898    0.4159409  61.32  0.001954285    1.388    0.279
        62 -14.1489      4.4588    228.3377   1.2328623752e+02   2.4249357131e+01    0.7921532    0.4162527  85.75  0.002789739    1.637    0.389
        63 -11.6409     55.7918    173.2097   1.0676507069e+02   3.1644301060e+01    0.2900808    0.2498504 -43.32 0.0006302089    1.293    0.227
        64 -11.0138     67.6112    163.3921   1.0210100468e+02   3.2604708523e+01    0.2527283    0.2302633 -50.37 0.0003652116    1.134    0.118
        65 -12.2110    168.2043    157.0829   7.4226650231e+01   1.6323397073e+01     1.108064    0.6587127 -28.47  0.004503546    1.977    0.494
