#   1 NUMBER                 Running object number                                     
#   2 MAG_AUTO               Kron-like elliptical aperture magnitude                    [mag]
#   3 X_IMAGE                Object position along x                                    [pixel]
#   4 Y_IMAGE                Object position along y                                    [pixel]
#   5 X_WORLD                Barycenter position along world x axis                     [deg]
#   6 Y_WORLD                Barycenter position along world y axis                     [deg]
#   7 A_WORLD                Profile RMS along major axis (world units)                 [deg]
#   8 B_WORLD                Profile RMS along minor axis (world units)                 [deg]
#   9 THETA_WORLD            Position angle (CCW/world-x)                               [deg]
#  10 FWHM_WORLD             FWHM assuming a gaussian core                              [deg]
#  11 ELONGATION             A_IMAGE/B_IMAGE                                           
#  12 ELLIPTICITY            1 - B_IMAGE/A_IMAGE                                       
         1 -10.6113    208.5748     20.9947   4.9513832759e+01   2.9666106791e+01    0.5475861    0.3393885  23.74  0.001359467    2.267    0.559
         2 -11.4644    201.1037     29.3314   5.2851444393e+01   3.0639975224e+01    0.7946334     0.715162   1.75  0.004424701    1.226    0.184
         3  -9.9840     32.6743     20.2807   9.5107191624e+01   6.8808838828e+01    0.4152164   0.09216658 -47.83  0.001485178    3.713    0.731
         4 -11.1540    218.0030     13.2396   4.6339998055e+01   2.8098049107e+01    0.6546895    0.5218307  24.67  0.003586591    1.523    0.343
         5 -10.7067    214.7307      9.4147   4.5596364568e+01   2.9319142812e+01    0.6334303    0.3970388  19.53   0.00288956    2.281    0.562
         6 -10.1536     33.0000      8.4669   8.9328303831e+01   7.0783208455e+01    0.3351317    0.1276911 -42.30  0.001575556    2.274    0.560
         7 -10.9159     21.3619      5.8335   9.4168528461e+01   7.2477856486e+01     0.511407    0.2013077 -51.09  0.002401407    2.651    0.623
         8 -10.6682     71.0216    152.7102   1.1362278111e+02   3.5448477886e+01    0.5929355    0.1759232 -65.50   0.00223596    3.383    0.704
         9 -10.8969    163.2231    248.1461   1.0712667322e+02   5.0819282602e+00    0.2912779    0.2337544   6.64  0.002199384    1.575    0.365
        10 -12.2600    132.1006    248.8280   1.1241694014e+02   9.6082179690e+00    0.8171059    0.2886646  38.08  0.004082898    2.401    0.583
        11 -11.2135    114.5309    248.5933   1.1534088288e+02   1.2161125714e+01    0.3768426    0.2511351 -63.80  0.002747696    1.940    0.485
        12 -11.7073    100.2959    249.5297   1.1779151095e+02   1.4005052100e+01    0.6213002    0.3019473  42.91  0.003936796    1.553    0.356
        13 -12.2568     42.4056    212.8720   1.2510820686e+02   2.7186527731e+01    0.7483187    0.5945922 -57.74  0.001336822    1.796    0.443
        14 -15.1726     51.6652    203.7029   1.2279191264e+02   2.7757677287e+01     13.10981     4.705189  80.22   0.04399458    6.358    0.843
        15 -11.1375     65.8642    142.2860   1.1345367083e+02   3.8404874692e+01    0.4692217    0.3401868  62.05  0.002070012    1.310    0.236
        16  -9.8168     67.5480    183.6978   1.1794558953e+02   2.9555189296e+01     0.337919    0.2165765 -44.89  0.001527294    2.335    0.572
        17  -9.8816     33.0000    124.0040   1.1944919215e+02   4.6243292088e+01     0.356158    0.1096021 -72.24  0.001448219    2.887    0.654
        18 -10.7951     33.0000    135.9679   1.2080296718e+02   4.3577551757e+01    0.4277691    0.1459349 -77.55  0.001796784    2.884    0.653
        19 -10.0484     33.0000    129.5295   1.2009427377e+02   4.5005873573e+01    0.4075929    0.1252478 -77.00  0.001553322    3.417    0.707
        20 -10.3661     89.2435    143.9703   1.0797709162e+02   3.4678516003e+01    0.2474681    0.2330965 -45.79 0.0005102364    1.272    0.214
        21  -9.0447    101.5795    143.8542   1.0496891318e+02   3.2715629968e+01    0.3179559    0.1880908 -35.85  0.001396865    2.539    0.606
        22 -14.5290      6.5285    207.0838   1.3108512318e+02   3.1843939474e+01     2.813708     1.210358 -82.20   0.01781222    2.015    0.504
        23 -10.3195     59.0959    132.8995   1.1383268307e+02   4.1358687328e+01    0.4043725    0.1780554 -78.80   0.00166445    2.780    0.640
        24  -8.6184    110.9439    132.5527   1.0059495408e+02   3.3507768169e+01    0.1915785     0.126362  16.59 0.0008080396    2.531    0.605
        25 -10.2318     72.4599    177.5354   1.1627674802e+02   3.0116284527e+01    0.3172715    0.2404187 -56.40 0.0008297875    1.565    0.361
        26  -8.0520    106.3188    131.3299   1.0150643309e+02   3.4591784711e+01     0.136695    0.1124737 -14.51 -0.0001117171    1.687    0.407
        27  -9.3220     98.4195    129.2543   1.0310199467e+02   3.6401981378e+01    0.2608841    0.2198396  -8.22  0.000870357    1.645    0.392
        28 -10.5630     70.4973    144.5325   1.1263301225e+02   3.7290704590e+01    0.3726459    0.2963419 -76.87  0.001210607    1.163    0.140
        29  -7.6781    107.5580    120.5588   9.8993792402e+01   3.6708037979e+01    0.1417909    0.1321244  85.09 0.0001005664    1.031    0.030
        30 -10.2720     33.0000     89.1273   1.1438328262e+02   5.4192459621e+01     1.037713          nan -64.55  0.002011281   11.627    0.914
        31 -10.3473     32.8256    109.5089   1.1762275188e+02   4.9545036242e+01    0.7409097    0.1175847 -69.99  0.001991732    6.376    0.843
        32 -11.1538     21.9067    112.3117   1.2104752035e+02   4.9866387197e+01    0.4969836    0.1165286 -68.36  0.001952236    3.146    0.682
        33 -15.4392      9.5073    242.5580   1.3190568469e+02   2.5671031081e+01     13.30965     2.491173 -80.76   0.06112867    5.211    0.808
        34 -10.8223     17.5960    110.6908   1.2205269343e+02   5.0574376804e+01     0.264091    0.1605821 -73.84  0.001608049    1.322    0.243
        35  -8.2996    167.6920    112.3256   8.2634869246e+01   2.5898175804e+01    0.1513292    0.1206026 -80.77 0.0007037261    1.652    0.395
        36  -9.9100     81.3211    167.4808   1.1317560936e+02   3.0909462187e+01    0.2400459    0.2112263  70.15 0.0006773546    1.071    0.066
        37 -11.2709     68.7897    163.9598   1.1553873926e+02   3.3372557671e+01    0.4203085    0.2962493 -42.65  0.001172604    1.982    0.495
        38 -10.0281     32.8233     70.0497   1.1068675436e+02   5.8533752585e+01    0.4300729     0.108843 -64.70  0.001485276    3.669    0.727
        39  -8.6817    164.0000    226.0169   1.0432317607e+02   7.7601335793e+00    0.1568581   0.06847186 -45.99 0.0008038601    2.952    0.661
        40 -10.7063     85.8938    161.5718   1.1137463698e+02   3.1457690297e+01    0.3868572    0.3391027  32.41  0.001516651    1.362    0.266
        41 -11.9720     99.2210    228.0760   1.1613094972e+02   1.7353535668e+01    0.6351508    0.2622444  54.94  0.003304576    2.192    0.544
        42 -10.4332    120.3731    248.6886   1.1437100585e+02   1.1318592484e+01    0.2351713     0.182263 -68.58  0.001544093    1.665    0.400
        43 -11.0373    192.8136     35.4527   5.5823006509e+01   3.2055130587e+01      0.56809    0.3771438  54.26  0.001692913    1.489    0.328
        44 -10.3029     97.2110    238.7667   1.1742368242e+02   1.5995026456e+01     0.214241    0.1260553  63.73  0.001195859    1.568    0.362
        45  -9.9020     33.0000     34.4444   1.0055818334e+02   6.6096489983e+01    0.5499117   0.05964768 -53.95  0.001328192    7.777    0.871
        46  -9.6780     20.5940     34.6038   1.0627335893e+02   6.7175534884e+01    0.2604223   0.05078031 -48.21 0.0009582589    3.441    0.709
        47 -10.2639     12.8642     32.4512   1.0922172816e+02   6.8173857954e+01    0.2669364    0.1011164 -47.67  0.001338605    1.990    0.497
        48  -8.9048    193.7572    238.0386   1.0077520559e+02   1.6178476502e+00    0.1207791    0.0952616 -29.73 0.0008867952    1.615    0.381
        49 -11.8919    114.9354    229.2137   1.1344115945e+02   1.4904449683e+01     0.437867     0.337248  86.34  0.003158304    1.463    0.316
        50 -11.7455    127.7600    230.5419   1.1129753125e+02   1.2789231616e+01    0.3387481    0.2987507 -60.57  0.002610159    1.458    0.314
        51 -11.3767     83.4417    221.8374   1.1840374149e+02   2.0546532839e+01    0.5560293    0.2779042 -73.14   0.00327686    2.309    0.567
