#   1 NUMBER                 Running object number                                     
#   2 MAG_AUTO               Kron-like elliptical aperture magnitude                    [mag]
#   3 X_IMAGE                Object position along x                                    [pixel]
#   4 Y_IMAGE                Object position along y                                    [pixel]
#   5 X_WORLD                Barycenter position along world x axis                     [deg]
#   6 Y_WORLD                Barycenter position along world y axis                     [deg]
#   7 A_WORLD                Profile RMS along major axis (world units)                 [deg]
#   8 B_WORLD                Profile RMS along minor axis (world units)                 [deg]
#   9 THETA_WORLD            Position angle (CCW/world-x)                               [deg]
#  10 FWHM_WORLD             FWHM assuming a gaussian core                              [deg]
#  11 ELONGATION             A_IMAGE/B_IMAGE                                           
#  12 ELLIPTICITY            1 - B_IMAGE/A_IMAGE                                       
         1 -14.0323      5.7956     65.5906   1.0622754138e+02   6.2558367552e+01     2.432308    0.5794919 -46.52  0.009809599    2.832    0.647
         2 -13.0920      3.7885     51.6172   1.0369893314e+02   6.5638516514e+01     1.064651    0.4287741 -63.30  0.005076118    2.310    0.567
         3 -13.2168    229.7538     29.4574   3.5508299475e+01   2.5316144115e+01    0.7633577    0.6515101  60.91  0.005115935    1.409    0.290
         4 -11.6973     54.0019     28.6651   7.1721544760e+01   6.4498423667e+01     1.217936    0.5983937 -10.85  0.004605451    3.726    0.732
         5 -11.8587     62.7124     28.7678   6.8266776778e+01   6.3046275195e+01    0.7716379    0.5418337  17.96  0.004431816    1.351    0.260
         6 -12.0982     45.9001     27.0549   7.4503928593e+01   6.5958454093e+01    0.5284294    0.3421117  -7.88  0.002973751    1.578    0.366
         7 -13.2859     36.1682     19.7457   7.5673174282e+01   6.8355341144e+01     1.838689    0.5089948  32.57  0.007094361    3.710    0.730
         8 -13.4174     19.6099      8.5932   7.8756503867e+01   7.1908661919e+01     1.268327    0.9112949   0.16  0.008830349    1.102    0.092
         9 -12.3580     14.6149     21.3256   8.7597941645e+01   7.0524885609e+01    0.6448054    0.3642173 -15.76  0.003343625    1.692    0.409
        10 -12.4689     10.2248     19.2249   8.9145814393e+01   7.1240955437e+01    0.5849521    0.3503507 -51.86  0.003474438    1.953    0.488
        11 -12.3635    166.1834      2.2586   3.5399676275e+01   4.2735233867e+01    0.9986903    0.2476884  72.69   0.00344446    3.704    0.730
        12 -12.5638    167.5823     15.6653   3.8871746742e+01   4.1126239446e+01     1.192049    0.4469408  78.39   0.00442285    3.159    0.683
        13 -12.6306    177.4347      6.0247   3.5153430369e+01   3.9728147790e+01     1.024122    0.5520296  42.97  0.005032377    2.358    0.576
        14 -11.0997    198.3483      5.4898   3.2978414361e+01   3.4932780156e+01    0.4348026    0.2514794   5.61  0.001873805    4.062    0.754
        15 -11.5019    209.2161      4.6911   3.1870461053e+01   3.2575242911e+01    0.5398344    0.2881467 -63.37  0.002932117    1.765    0.433
        16 -12.4383      3.3743     20.7794   9.3741408702e+01   7.1494625358e+01     1.187722    0.3688516 -48.12  0.005708111    2.521    0.603
        17 -11.5307     37.5305     13.5359   7.2032238245e+01   6.8996709006e+01    0.2496218    0.2111714   5.29  0.001753742    1.177    0.150
        18 -11.3360    103.3451      2.3891   4.5222119573e+01   5.7538285383e+01    0.5232443    0.1557546  58.77  0.002120268    2.565    0.610
        19  -9.0233    135.4757    163.5281   8.5384978405e+01   2.1164277061e+01    0.1522767    0.1490224  70.31 0.0008088047    1.059    0.056
        20 -11.3909    243.6101    248.7488   7.8404760394e+01  -1.1463624508e+01    0.3402674    0.2050591   1.44  0.002120403    1.511    0.338
        21 -11.2624    248.5968    244.8149   7.6893939849e+01  -1.1555565843e+01    0.3158104    0.2105979  -7.66  0.001968629    1.214    0.177
        22 -12.7749    173.3995    249.2658   9.1753669481e+01  -2.1273856676e+00      1.27755    0.2914227  33.98  0.004288751    4.001    0.750
        23 -13.3647     63.3230    209.0286   1.1042968108e+02   2.2164974010e+01     2.266362     1.173425  37.54   0.01112322    1.809    0.447
        24 -12.1061     45.5167    181.4987   1.1164438192e+02   3.0859696368e+01    0.7947752    0.3452025 -53.32  0.001121101    2.376    0.579
        25 -14.7426      6.6167    243.7029   1.2452621427e+02   2.1246931103e+01     4.648405     1.262135 -81.17   0.02069997    3.489    0.713
        26 -14.4690      7.1642    128.9728   1.1601839693e+02   4.7429670471e+01     5.041035    0.6450287 -71.18   0.01404487    5.292    0.811
        27 -12.5598     67.9410    143.5818   1.0005086381e+02   3.7586990109e+01    0.7686834    0.4660124  62.14  0.002905835    2.128    0.530
        28  -9.9979     90.5721    144.3506   9.3575944648e+01   3.3950217810e+01    0.2893882    0.2697812 -19.48 0.0008735468    1.168    0.144
        29 -11.7592     78.0339    142.2820   9.6826428699e+01   3.6456388592e+01    0.3181307    0.2676741 -54.76 0.0005727066    1.128    0.113
        30  -9.3097     94.1674    140.8652   9.1812853188e+01   3.4225528155e+01    0.2122971    0.1771834 -28.93 0.0003608273    1.324    0.245
        31 -15.0887     29.1175    185.5071   1.1603436383e+02   3.1672074938e+01     3.767735     1.699026  69.59   0.01367475    2.668    0.625
        32 -10.4674    105.5942    131.5069   8.6414673592e+01   3.4522628663e+01    0.3629203    0.3100044  -7.33  0.001175062    1.358    0.264
        33 -12.9363     55.6079    123.9771   1.0014885811e+02   4.4217280261e+01    0.9402074     0.782375  45.67  0.005180567    1.319    0.242
        34 -12.9488     53.4699    111.8605   9.8360962603e+01   4.7525016942e+01     1.518141    0.6031294 -48.56  0.005886125    2.247    0.555
        35 -10.3040     91.2966    128.3654   8.9918564375e+01   3.7838568943e+01    0.2835277    0.2610456 -22.36  0.000518191    1.142    0.124
        36  -9.1555    103.3297    120.0740   8.4321274564e+01   3.7720541895e+01    0.2092889    0.1913146 -51.85  0.000478697    1.068    0.063
        37 -12.8595     41.6965     92.6038   9.8179132200e+01   5.3549155925e+01    0.8758987    0.7061915 -45.31  0.003741021    1.075    0.070
        38 -13.3839      3.8422     87.1137   1.1125725735e+02   5.7768639329e+01     1.730713    0.4440124 -63.38  0.006920145    2.668    0.625
        39 -12.9344     16.2706     90.6201   1.0725496638e+02   5.6217010098e+01    0.8663217    0.5901586 -70.48  0.003111325    1.364    0.267
        40 -12.4701     29.6672     87.2705   1.0147861687e+02   5.5971854604e+01     0.758772    0.6384495 -73.10  0.002929154    1.274    0.215
        41 -13.7527     19.8036     77.7006   1.0316563791e+02   5.8974982365e+01     1.449117    0.9747928 -18.91  0.006690972    1.571    0.363
        42 -12.4661     21.2767     65.8367   9.9604900877e+01   6.1499020654e+01    0.6270626    0.5970367 -55.07  0.003017737    1.246    0.197
        43 -10.3429    132.4677    247.4967   9.9890224017e+01   4.2883294894e+00    0.1276947    0.1076666  35.68 -8.452088e-06    1.002    0.002
        44  -9.9664     58.9934    239.0231   1.1421422428e+02   1.6323565770e+01    0.2700671    0.1796494  80.79  0.001435585    1.482    0.325
        45 -11.9879     54.0402     95.6059   9.4386663238e+01   5.1408232363e+01    0.6212184    0.4119875 -54.61  0.003111635    1.374    0.272
        46 -10.9742     52.8057     89.9871   9.3402170994e+01   5.2881326341e+01    0.3273988    0.2948278  -4.17  0.001184776    1.144    0.126
        47 -10.3079    102.0250     97.7201   7.8747689809e+01   4.3167703982e+01    0.2250021    0.2073472  32.84  0.001181027    1.108    0.098
        48 -12.1207     46.9776     76.1032   9.1824801707e+01   5.6729729181e+01    0.4706006    0.4005109 -54.03  0.002777734    1.213    0.176
        49 -10.5541     40.0828     68.5998   9.2417041519e+01   5.9141820954e+01    0.4168674    0.1539759 -47.30  0.001718403    2.267    0.559
        50 -11.4005     46.7532     65.3910   8.8671692299e+01   5.9038602776e+01    0.5767009    0.1944327 -46.89  0.002240302    2.567    0.610
        51 -12.4788    212.2899     45.8583   4.1007835358e+01   2.6974777061e+01    0.6664936    0.4020016  40.34  0.003176431    2.420    0.587
        52 -12.0918     97.0869     39.2736   6.0874436214e+01   5.4954053551e+01    0.5842829     0.441567 -49.54  0.003132544    1.625    0.385
        53 -10.1545     60.2757    234.1378   1.1353078443e+02   1.7151232707e+01    0.4067817    0.2085513 -84.36   0.00203619    2.225    0.551
        54 -12.2956     12.7665     31.6955   9.2818004517e+01   6.8916937231e+01    0.6257718    0.4199062  19.05  0.002768032    1.580    0.367
        55 -12.1278    132.4968    238.1507   9.8657929666e+01   5.9506962022e+00    0.3277898    0.2445337   9.58  0.001850155    1.587    0.370
        56 -12.6314    128.6319    230.9836   9.8512317384e+01   7.8879665890e+00    0.7229925    0.2294436  39.58  0.002755469    2.674    0.626
        57 -10.3361     83.1958    229.4550   1.0821920236e+02   1.5026955707e+01    0.3023266    0.1679317 -62.16  0.001560114    1.930    0.482
        58 -10.6015    154.1971    227.5998   9.2483631975e+01   4.4578618828e+00    0.1968856    0.1157036  26.34 0.0009548274    1.675    0.403
        59 -10.3679    133.8769    224.3318   9.6417595274e+01   8.3330924554e+00    0.2204057    0.1945487 -82.38  0.001323771    1.349    0.259
        60 -11.8865     74.4412    157.6699   1.0064951362e+02   3.3069445784e+01    0.5479516    0.5131181 -29.08  0.003107164    1.197    0.165
        61 -14.0202     12.5355    208.2790   1.2146641532e+02   2.8047072793e+01    0.9643743     0.554645  60.52  0.001064845    1.500    0.333
        62 -11.4683     53.3094     18.3476   6.7363674509e+01   6.5984640539e+01    0.2741435    0.2198087  10.90   0.00178738    1.019    0.018
        63 -14.5062     20.1741    202.4243   1.1945067040e+02   2.8625428381e+01     1.730931    0.8928571  64.49  0.005346777    1.818    0.450
        64 -12.4829     81.5175    206.8215   1.0597077202e+02   2.0152222509e+01      1.18058    0.7251391  79.46    0.0055642    2.039    0.510
        65  -9.7345    134.0000    146.5104   8.2079303295e+01   2.5427222132e+01    0.3565474   0.08865378 -49.01 0.0009397455    3.975    0.748
        66 -10.3766     93.8021    202.6704   1.0252600061e+02   1.9261698476e+01    0.3316334    0.2260821 -66.50   0.00163233    1.533    0.348
        67 -11.5962     53.1559    174.8929   1.0892191963e+02   3.1574237976e+01    0.2767458    0.2550926 -49.88 0.0004206053    1.233    0.189
        68 -10.7096     65.5912    164.6528   1.0420692211e+02   3.2538852605e+01     0.253692    0.2359445 -60.67 0.0004059804    1.115    0.103
        69 -12.9530     51.1297    161.1059   1.0763151220e+02   3.5275756730e+01    0.5529795    0.3172192 -39.22  0.001673395    2.219    0.549
