#   1 NUMBER                 Running object number                                     
#   2 MAG_AUTO               Kron-like elliptical aperture magnitude                    [mag]
#   3 X_IMAGE                Object position along x                                    [pixel]
#   4 Y_IMAGE                Object position along y                                    [pixel]
#   5 X_WORLD                Barycenter position along world x axis                     [deg]
#   6 Y_WORLD                Barycenter position along world y axis                     [deg]
#   7 A_WORLD                Profile RMS along major axis (world units)                 [deg]
#   8 B_WORLD                Profile RMS along minor axis (world units)                 [deg]
#   9 THETA_WORLD            Position angle (CCW/world-x)                               [deg]
#  10 FWHM_WORLD             FWHM assuming a gaussian core                              [deg]
#  11 ELONGATION             A_IMAGE/B_IMAGE                                           
#  12 ELLIPTICITY            1 - B_IMAGE/A_IMAGE                                       
         1  -7.8707     83.5962     10.8030   2.3847281270e+01   6.2621110935e+01    0.1845334    0.1159716 -35.80 0.0005632197    1.624    0.384
         2  -8.6776     55.7892      9.9088   3.3626047537e+01   6.7767487414e+01    0.2128525    0.1573662 -42.86 0.0007186296    1.532    0.347
         3  -8.3585     90.9824      8.9075   2.0649033282e+01   6.1308972596e+01    0.2020264    0.1620728 -60.12  0.000634907    1.663    0.399
         4  -7.6847     13.3035      8.6663   5.4024140839e+01   7.3004494028e+01   0.09908603   0.08549416 -72.08  0.000576253    1.661    0.398
         5  -7.5808    101.3496      7.7247   1.7198612932e+01   5.9146431080e+01    0.1327874    0.1072185 -68.70 0.0006668766    1.635    0.388
         6  -7.9507     70.4046      6.1950   2.5984290889e+01   6.5748741085e+01    0.1797086    0.1091752 -35.74 0.0009412915    1.675    0.403
         7  -8.3895     33.5002      5.0180   4.1267067395e+01   7.1589709009e+01    0.2578457   0.09919247 -44.91  0.001179794    2.625    0.619
         8  -8.4916     97.2851      4.6504   1.6831374550e+01   6.0396993632e+01    0.2423145    0.1925277  25.56  0.001110579    1.188    0.159
         9  -8.6160     79.3055      3.6992   2.1650014884e+01   6.4324158301e+01    0.2765664    0.1661556 -44.09  0.001104649    2.062    0.515
        10  -8.0278    114.9361      2.0000   1.1347279233e+01   5.6508549317e+01    0.2283053   0.07515267  63.57 0.0005931123    2.896    0.655
        11  -8.0899     62.5128      1.4328   2.6333508000e+01   6.7745027838e+01    0.1829856     0.123047  59.84 0.0006406145    2.031    0.508
        12  -7.4859     39.4784      1.4473   3.6287750132e+01   7.1338799456e+01    0.1194415   0.09651587 -13.20  4.33702e-05    1.038    0.036
        13  -9.0602     21.2003    245.5361   8.5182851676e+01   2.2696396755e+01    0.1710032    0.1390619  81.18  0.000873242    1.493    0.330
        14  -8.4660    248.9194    249.5674   4.8595565463e+01  -1.1095331556e+01    0.2338907    0.1249003  12.11  0.001447255    2.036    0.509
        15  -9.7346    248.7363    241.7988   4.7487820733e+01  -1.0386026222e+01    0.3706847    0.2012004 -30.29  0.001862256    2.204    0.546
        16  -8.9735    247.7284    234.1566   4.6490087061e+01  -9.5364585470e+00    0.2157674     0.160509  -4.40  0.001154339    1.326    0.246
        17  -9.3898    246.5920    228.6637   4.5816073796e+01  -8.8412783473e+00    0.3831617    0.1882159 -25.40  0.002055686    2.267    0.559
        18  -9.4934    233.3805    246.8355   5.0623373440e+01  -8.6341921128e+00     0.424486    0.2314602 -21.93  0.002356329    2.216    0.549
        19  -9.2849    210.9039    246.3642   5.4159673010e+01  -5.2060182670e+00    0.2092591    0.1612575 -57.86  0.001071332    2.232    0.552
        20  -7.5723    125.2829    250.6406   6.8882191607e+01   7.8258567129e+00    0.1135211   0.06789397  66.37 0.0006726672    1.673    0.402
        21  -7.3504     86.6334    250.3174   7.5208162532e+01   1.3632376166e+01    0.1202242   0.05767519  63.40 0.0007038496    1.779    0.438
        22  -8.4062    139.4983    244.4471   6.5873667714e+01   6.4500762391e+00    0.1667393     0.105835 -77.60   0.00101995    2.300    0.565
        23  -8.8856     67.4812    244.5275   7.7906331826e+01   1.7190217692e+01    0.1830759   0.09399066 -76.82  0.001184324    2.076    0.518
        24  -9.0668    202.0140    242.4233   5.5085236209e+01  -3.3931269579e+00    0.2711064    0.1695433 -34.71   0.00163886    2.069    0.517
        25  -8.6452    169.2456    243.4097   6.0705105078e+01   1.7709285923e+00    0.2379703    0.1466961  62.03  0.001008555    1.907    0.476
        26  -9.5012     78.0061    242.8031   7.6068709915e+01   1.6022968452e+01    0.3215264    0.1611899  74.10  0.001494346    2.008    0.502
        27  -8.0430     49.5058    243.0039   8.0694450689e+01   1.9774403649e+01    0.1519509   0.06094851  74.97 0.0007854274    2.536    0.606
        28  -9.2272    193.9953    239.3172   5.6004350410e+01  -1.7562390371e+00     0.164841    0.1592105  72.54 0.0005010038    1.409    0.290
        29  -9.3265    183.3687    240.2187   5.7914915533e+01  -1.3656343488e-01    0.4069542    0.2295085  63.85  0.002050851    2.890    0.654
        30  -9.6393    160.0966    240.1486   6.1872967574e+01   3.6883875590e+00    0.3012707    0.2053667  84.17  0.001676405    2.325    0.570
        31  -8.0846    153.5382    241.7784   6.3186220406e+01   4.5442048744e+00    0.1357073    0.1060552 -88.41 0.0009368584    1.681    0.405
        32  -7.7665     96.6873    242.6740   7.2950993486e+01   1.3350911975e+01   0.09622911   0.08321489  34.62 0.0005707673    1.664    0.399
        33  -7.9748     88.1430    242.1455   7.4337951090e+01   1.4685218240e+01    0.1566403   0.09663647  68.93 0.0007713409    1.356    0.262
        34  -8.6122    146.6480    239.8957   6.4154820430e+01   5.9263160283e+00    0.3351375    0.1764794  67.18  0.001138374    2.812    0.644
        35  -8.9991    241.2868    238.3289   4.8136643565e+01  -8.9903013089e+00    0.4188447    0.1958451  -5.29  0.001884778    4.144    0.759
        36  -9.1527    135.5748    238.5873   6.5921641010e+01   7.9135139792e+00    0.2255008    0.1306353  67.45  0.001204846    1.992    0.498
        37  -9.1517    230.7746    236.1237   4.9485836287e+01  -7.2042742888e+00    0.2834805    0.2173144 -18.67  0.001531219    1.504    0.335
        38  -8.5485    208.9937    237.7770   5.3288674038e+01  -3.9881045905e+00    0.1940543    0.1557811 -15.46  0.000915403    1.484    0.326
        39  -8.1840    128.9762    238.2246   6.7024393497e+01   9.0309519159e+00    0.1618849    0.1075118  71.86  0.001025277    1.600    0.375
        40  -8.6634    217.3152    235.6920   5.1615957298e+01  -5.0770092226e+00    0.1845923    0.1667739  29.58 0.0006065518    1.291    0.226
        41  -9.5439    213.7550    231.7984   5.1638521752e+01  -4.0859395724e+00    0.3201483    0.2510459 -78.84  0.001626434    2.629    0.620
        42  -9.1255    203.2102    234.4647   5.3787600942e+01  -2.6872268451e+00    0.2535598    0.1914563 -60.35  0.001159679    2.185    0.542
        43  -9.7020    175.6758    233.2081   5.8319276849e+01   2.0146026971e+00    0.3823483    0.2246063 -58.93  0.002163098    2.663    0.624
        44  -8.0397    170.4133    235.8767   5.9573162013e+01   2.5451471580e+00    0.1378719   0.09757406 -89.74 0.0008011416    2.394    0.582
        45  -8.0411    153.3250    235.6267   6.2505690553e+01   5.4211133042e+00    0.1208874   0.07805108  67.34 0.0007029935    1.820    0.451
        46  -9.4029    109.5308    234.4870   7.0025554871e+01   1.2683674351e+01    0.4995335    0.1650657  54.34  0.002220639    2.692    0.629
        47  -8.3882    122.8850    234.1050   6.7656842179e+01   1.0630209907e+01    0.1862675    0.1247466  63.38 0.0009537927    1.303    0.233
        48  -8.2210     99.8095    234.2278   7.1688637592e+01   1.4221020343e+01    0.1999414   0.08876924  67.10 0.0009431272    2.742    0.635
        49  -8.6088     78.7706    234.0066   7.5283101237e+01   1.7351863158e+01     0.193488   0.09408598  71.67  0.001071203    2.083    0.520
        50  -9.3613     68.5473    232.2813   7.6889571409e+01   1.9067872484e+01    0.4299719    0.1497507  64.56  0.001909469    3.228    0.690
        51  -8.5828    194.4946    232.5182   5.4990326100e+01  -1.0316280350e+00    0.2100707    0.1632495  56.18 0.0007760258    1.431    0.301
        52  -8.5558    144.4891    232.7234   6.3711003764e+01   7.3023937015e+00    0.3347487    0.1437371  63.07  0.001239913    4.395    0.772
        53  -8.3725    139.9038    229.9299   6.4197409361e+01   8.4779128094e+00    0.1921757    0.1175263  64.54 0.0007204188    1.710    0.415
        54  -8.3195    132.7367    232.7408   6.5781744231e+01   9.2398754626e+00    0.1912207    0.1074772  67.30  0.001029862    2.083    0.520
        55  -8.6729     92.6679    231.8950   7.2720700947e+01   1.5677748573e+01     0.331039    0.1558649  72.95  0.001243239    2.676    0.626
        56  -9.6427    186.2012    230.3191   5.6109496354e+01   6.2060401117e-01    0.2802382    0.2149171 -85.24  0.001357085    2.193    0.544
        57  -8.2155    157.6184    231.8227   6.1293995321e+01   5.2347551569e+00     0.138615    0.1104698 -79.75 0.0004751403    1.656    0.396
        58  -9.1054    236.0932    230.6264   4.7798766930e+01  -7.4578876806e+00    0.1946682    0.1669026   4.99 0.0007535663    1.251    0.201
        59  -8.8743      2.0363    230.7042   8.7533508946e+01   2.7184529370e+01    0.2407434   0.06138914  61.45  0.001286434    2.617    0.618
        60  -8.0584    229.5777    228.7191   4.8563651565e+01  -6.2560955927e+00    0.1271995    0.1074179 -30.27 0.0005311225    1.555    0.357
        61  -8.9087    162.3484    227.7123   5.9940016906e+01   5.0106619588e+00    0.2863144    0.1671787  61.81  0.001352634    1.987    0.497
        62  -8.8799    127.8585    227.1620   6.6032182433e+01   1.0899950423e+01    0.3039344    0.1625842  65.16  0.001269991    2.096    0.523
        63 -10.0597    149.6310    225.9629   6.1986316385e+01   7.4307026421e+00    0.5456049    0.3199227 -88.63  0.002455586    3.737    0.732
        64  -8.1086    119.8298    227.0447   6.7457349528e+01   1.2231598299e+01    0.1890435    0.1141847  76.39 0.0007692585    1.973    0.493
        65  -8.7915    206.0316    225.4862   5.2008738926e+01  -2.0980394809e+00    0.2137842     0.164788 -47.65  0.001090952    1.803    0.445
        66  -8.1481    200.0119    226.2653   5.3153843506e+01  -1.1895533417e+00    0.1675702    0.1285627  39.53 0.0005325256    1.080    0.074
        67  -7.6565     49.3532    226.6645   7.9753586163e+01   2.2568295064e+01    0.1236479    0.0555107  65.35  0.000704466    1.792    0.442
        68  -8.8178    180.6250    224.1967   5.6232713783e+01   2.3631115532e+00    0.2889076    0.1809369  58.63  0.001061157    1.781    0.439
        69  -8.8888     94.1627    224.0180   7.1751342148e+01   1.6776909698e+01    0.3480895    0.1397662  64.06  0.001518874    3.007    0.667
        70  -8.7793    216.4762    223.3719   4.9917613695e+01  -3.5716799959e+00    0.2067342    0.1876779  87.42 0.0009725276    1.733    0.423
        71  -8.6026    173.1422    223.2098   5.7421610723e+01   3.7861810432e+00    0.1961136    0.1480772  86.71 0.0006811094    1.972    0.493
        72  -8.1207    113.9145    223.8988   6.8188563117e+01   1.3700185943e+01    0.1929689    0.1146119  68.44 0.0006230444    1.692    0.409
        73  -8.7972    104.8564    223.4831   6.9780419285e+01   1.5212567539e+01    0.2969216    0.1592523  77.88  0.001524525    2.395    0.582
        74  -8.0096     38.3165    224.6531   8.1483020760e+01   2.4282281017e+01    0.1199184   0.05410114  66.56 0.0007048134    1.724    0.420
        75  -9.4723    192.5555    221.2202   5.3707008615e+01   7.0671504307e-01    0.3101104    0.2462803  76.65 0.0009509388    1.843    0.457
        76  -8.6814    162.9902    222.4859   5.9139863577e+01   5.6448874719e+00    0.3489172    0.1511201  57.96  0.001452071    3.060    0.673
        77  -8.4528    158.9122    220.1617   5.9566477685e+01   6.6926965496e+00    0.2064686    0.1540446  72.68 0.0006919079    1.579    0.367
        78  -8.1487     59.4000    223.1996   7.7808741917e+01   2.1879975914e+01    0.1540036   0.08383366  84.96 0.0009431879    1.704    0.413
        79  -9.4288    238.9300    220.8212   4.5797389081e+01  -6.8787729586e+00    0.2920136    0.1625283 -24.93  0.001301093    1.995    0.499
        80  -9.2211    225.4876    221.5694   4.8127462867e+01  -4.8306636949e+00    0.2361523    0.1897392  55.65 0.0009802367    1.638    0.389
        81  -8.0700    140.4338    222.2665   6.3192478701e+01   9.5582501042e+00    0.1483776    0.1113444 -85.46 0.0009344345    1.635    0.388
        82  -8.0220     73.1786    220.7579   7.5208759884e+01   2.0427880803e+01    0.2054534   0.08388065  67.68 0.0008767814    2.754    0.637
        83  -8.4247    202.5774    219.7618   5.1741682314e+01  -8.1910080871e-01    0.1833221    0.1175519 -30.22 0.0007151298    1.902    0.474
        84  -9.1837    120.2993    218.8613   6.6477008155e+01   1.3493592015e+01    0.4352382    0.1979606  65.18  0.001858485    3.040    0.671
        85  -9.3662    248.0360    216.5861   4.3636422871e+01  -7.8402899133e+00    0.4277484    0.2934509 -51.21  0.002504637    2.793    0.642
        86  -9.3240    132.9785    215.8526   6.3779109085e+01   1.1856196518e+01    0.4694125    0.2537908  76.33  0.001734602    3.292    0.696
        87  -8.8205     51.8120    217.5014   7.8733678721e+01   2.3897449478e+01    0.2198411    0.1081955  77.73 0.0009265331    1.861    0.463
        88  -8.6919    169.3346    215.9238   5.7089469747e+01   5.4867287366e+00    0.2735647    0.1959826 -89.40  0.001141775    2.216    0.549
        89  -8.6656    142.9965    216.2355   6.1969902094e+01   1.0066463876e+01    0.2717235    0.1755284  79.81  0.001360714    2.146    0.534
        90  -8.4402     82.3228    220.1056   7.3521093470e+01   1.9227599065e+01    0.2359709    0.1043142  61.58 0.0009596479    2.054    0.513
        91  -8.3039     62.1401    217.0470   7.6879762842e+01   2.2621254678e+01    0.2349954   0.09678394  61.02  0.001073846    2.067    0.516
        92  -8.3103    210.1692    218.9047   5.0300331739e+01  -1.9968974049e+00    0.1678044    0.1453372  41.39 0.0005009691    1.227    0.185
        93  -8.7860    232.1706    214.4246   4.5866067108e+01  -5.1074399840e+00    0.2217683    0.1824835 -44.75 0.0009790239    1.756    0.430
        94  -8.1044    154.3768    215.0873   5.9715766985e+01   8.2546860255e+00    0.1543334    0.1149525 -76.02 0.0009279344    1.767    0.434
        95  -8.4815    185.7822    213.8085   5.3804422831e+01   2.8775252964e+00    0.2412842    0.1779846 -50.78  0.001367341    1.759    0.431
        96  -9.0146     93.2174    213.8864   7.0956070979e+01   1.8698422027e+01     0.321824    0.1332215  60.54  0.001481719    2.429    0.588
        97  -9.3456     73.3520    211.8530   7.4434566784e+01   2.2020380127e+01    0.6430137     0.180868  59.92   0.00212593    5.050    0.802
        98  -9.3747    213.8577    211.9826   4.8568109408e+01  -1.7725034883e+00    0.3252026    0.2150083  55.76  0.001455465    1.826    0.452
        99  -8.7088    161.6515    212.2549   5.7980323231e+01   7.3993319032e+00     0.212503    0.1642377  63.49 0.0007591068    1.321    0.243
       100  -8.0530    224.9810    212.2223   4.6707706968e+01  -3.6746913932e+00    0.1444431    0.1301987 -48.49 0.0005858244    1.599    0.374
       101  -9.0830    204.3354    210.8802   5.0049688789e+01   9.8458004220e-03    0.2376508    0.2007441 -86.01 0.0007679704    1.861    0.463
       102  -9.5079    175.4433    209.8297   5.5084522814e+01   5.2895186826e+00    0.4058801    0.2620664  74.17  0.001878104    2.608    0.617
       103  -8.0061    106.7173    212.5743   6.8303988131e+01   1.6799129712e+01    0.1808702   0.08911854  53.76 0.0009384155    1.650    0.394
       104  -8.8841    147.6492    210.1028   6.0294327383e+01   1.0233220886e+01    0.2634841    0.1858877  80.40 0.0009103824    1.796    0.443
       105  -8.7878    116.3705    210.3795   6.6238990939e+01   1.5598256487e+01    0.3022112    0.1512433  60.18  0.001023606    1.946    0.486
       106  -9.0270      6.9764    209.8326   8.5975968362e+01   3.0409554295e+01    0.3906281   0.09256463  72.47  0.001391813    5.569    0.820
       107  -8.3361    192.2462    210.2110   5.2091589075e+01   2.2276119138e+00    0.1582201    0.1380894  64.95 0.0005722169    1.374    0.272
       108  -8.6346     85.5007    209.1405   7.1931742912e+01   2.0741158025e+01    0.2744472    0.1505393  79.33  0.001041253    1.974    0.494
       109  -7.9281     46.6607    209.9207   7.9126847918e+01   2.5956557444e+01    0.2146729    0.0655662  62.16 0.0008923436    3.338    0.700
       110  -7.7317     33.0082    210.6744   8.1585237677e+01   2.7459269140e+01    0.1915913   0.02772909  53.05 0.0007051292    4.338    0.769
       111  -9.3130    236.4802    207.7688   4.4037007595e+01  -5.0509469797e+00    0.2907102    0.2243205 -40.65  0.001262029    1.742    0.426
       112  -9.3120    246.4226    207.0050   4.2276296291e+01  -6.5637814699e+00    0.2506537    0.1863174 -21.81   0.00109388    1.430    0.301
       113  -9.2940    250.2005    201.8877   4.0772621402e+01  -6.5966156498e+00    0.3540354    0.1737837 -23.82  0.001461559    2.154    0.536
       114  -7.8920    156.4698    207.9550   5.8337545301e+01   8.9987536145e+00     0.155937    0.1063534  89.76 0.0006671189    2.246    0.555
       115  -8.4830    138.9042    207.5989   6.1612206828e+01   1.2196168263e+01    0.2285703    0.1579279 -85.44 0.0008762507    1.878    0.467
       116  -8.1676    126.6218    208.3959   6.4053357667e+01   1.4204145535e+01    0.1949328    0.1242869  67.04 0.0009784143    1.584    0.369
       117  -9.1023     99.5012    206.0922   6.8966640230e+01   1.9130680162e+01    0.3466654    0.1795347  75.43  0.001402605    2.483    0.597
       118  -9.3427    194.7520    203.4894   5.0567195924e+01   2.7113574161e+00     0.336768    0.3056198 -54.12  0.001413457    1.408    0.290
       119  -9.3048    192.3145    196.9652   4.9933424484e+01   4.0937587303e+00    0.3132743    0.2516764 -54.66  0.001064911    1.599    0.374
       120  -9.1770    183.7432    203.8019   5.2628708667e+01   4.6693977926e+00    0.3159804     0.224558  72.99  0.001228481    2.052    0.513
       121  -8.1779    109.0615    205.0223   6.7011500290e+01   1.7771977173e+01    0.2045719    0.1239757  69.55 0.0008951123    1.662    0.398
       122  -8.3259     56.2500    205.1002   7.7031357630e+01   2.5642449310e+01    0.2370694    0.1020041  62.87  0.001037698    2.039    0.510
       123  -9.6385    163.6363    202.7749   5.6227199587e+01   8.5175778523e+00     0.433264    0.2377273  59.77  0.001435811    2.094    0.522
       124  -8.7187    131.3609    203.7187   6.2545290206e+01   1.4191956584e+01    0.2800861    0.1747374  70.10  0.001389633    1.815    0.449
       125  -8.9085    243.2725    200.8044   4.1708118542e+01  -5.3587573570e+00     0.227608    0.1545431 -30.43 0.0008067619    1.628    0.386
       126  -8.6369    211.1061    201.6283   4.7332757737e+01   3.1817617165e-02    0.2298493     0.195655 -79.08 0.0009683736    1.850    0.459
       127  -8.9519    140.2716    200.6984   6.0409692528e+01   1.3128539408e+01    0.3170573    0.2062768 -86.57  0.001160159    2.199    0.545
       128  -8.1966     48.1818    201.7863   7.8272227239e+01   2.7322452141e+01    0.2087253   0.07893971  67.85 0.0009400374    2.786    0.641
       129  -8.0657    221.9935    201.0548   4.5335044427e+01  -1.8041998444e+00    0.1661478    0.1516447  84.84 0.0005096439    1.646    0.392
       130  -8.4553     79.8178    200.7862   7.2199033051e+01   2.3171971649e+01    0.2346042    0.1241015  77.81  0.001199414    2.053    0.513
       131  -9.5071    149.5385    198.4677   5.8290060876e+01   1.1821821059e+01     0.417326    0.2664407  83.97  0.001381874    2.494    0.599
       132  -8.8311    124.1283    199.2398   6.3365987090e+01   1.6259323646e+01    0.3015415     0.193314  85.59  0.001158292    1.971    0.493
       133  -9.2533    113.0480    198.4190   6.5442081162e+01   1.8321365570e+01    0.4315281    0.2155861  69.46  0.001809099    2.754    0.637
       134  -9.0073    237.0996    198.3128   4.2288855720e+01  -4.0447080147e+00    0.2399677    0.1635396 -33.00 0.0009768103    1.657    0.397
       135  -8.4856    177.0985    198.7328   5.3057127528e+01   6.6581822121e+00    0.1942572    0.1749715 -88.05 0.0005356096    1.357    0.263
       136  -8.9702     88.7414    198.2959   7.0209691085e+01   2.2298874013e+01    0.3617203     0.180898  72.67  0.001695164    2.381    0.580
       137  -8.3804    202.2731    197.6102   4.8225870384e+01   2.1686149062e+00    0.2020974    0.1543758 -52.26 0.0007230856    1.735    0.424
       138  -9.1489     61.2442    196.8923   7.5415318879e+01   2.6574702006e+01    0.3807018    0.1642654  74.89  0.001713156    2.777    0.640
       139  -8.1247     12.9739    197.4957   8.4388142547e+01   3.2146276363e+01    0.1589378   0.04871644  56.88 0.0008085215    2.418    0.586
       140  -9.1317    245.8506    193.5160   3.9977324164e+01  -4.9316213510e+00    0.3031929     0.243798 -75.05  0.001725979    2.630    0.620
       141  -8.8625    215.8712    195.3174   4.5401559915e+01   2.0919397717e-02    0.2411463    0.1760498 -51.13 0.0008789331    1.905    0.475
       142  -7.9278    132.8785    195.7787   6.1171976675e+01   1.5331607854e+01    0.1813211    0.1331341  69.23 0.0005069949    1.334    0.251
       143  -8.6289    224.4656    193.6931   4.3612089526e+01  -1.2940349248e+00    0.2780629    0.1883554 -49.03  0.001406035    2.085    0.520
       144  -7.7300    209.3173    195.6572   4.6623741071e+01   1.1569935918e+00    0.1193006      0.10064  77.37 0.0007048853    1.715    0.417
       145  -9.1562    185.1838    194.3112   5.0813155573e+01   5.8228021384e+00    0.3299952    0.2145978 -40.34  0.001091323    1.801    0.445
       146  -9.1196    160.8909    194.1351   5.5425221051e+01   1.0437558575e+01    0.3156421    0.2046572  69.79   0.00106709    2.014    0.503
       147  -8.1632    231.0122    193.7904   4.2505920946e+01  -2.4512420721e+00    0.2057935    0.1512302 -40.16  0.001245506    1.681    0.405
       148  -8.7549     76.8780    193.7180   7.2068234998e+01   2.4992734270e+01     0.223307    0.1504155  87.55 0.0005783063    1.350    0.259
       149  -8.8803     43.7891    193.2704   7.8462557748e+01   2.9549772381e+01    0.3550437    0.1421571  73.75  0.001629207    2.739    0.635
       150  -8.3128    198.9581    191.5090   4.7775508720e+01   3.6546445676e+00    0.2143774    0.1836428 -64.64 0.0007688952    1.571    0.364
       151  -8.4504    172.5638    191.7900   5.2790392920e+01   8.6109262596e+00    0.2266685    0.1626535 -63.94  0.000911147    1.844    0.458
       152  -7.8780    205.1548    191.1995   4.6589885757e+01   2.5444881257e+00    0.1619974    0.1512217  69.18 0.0005499689    1.338    0.253
       153  -7.8677    179.1664    191.1964   5.1427222801e+01   7.4475219406e+00    0.1725801    0.1505059  76.15 0.0005631242    1.347    0.258
       154  -9.1710    139.3953    190.2984   5.9082321825e+01   1.5133315036e+01    0.3384454    0.2261565  80.94  0.001291414    1.942    0.485
       155 -10.2283     92.4838    188.8582   6.8405579539e+01   2.3567226662e+01    0.8674349     0.193539  50.12   0.00285791    4.055    0.753
       156  -8.9418    216.5734    187.8871   4.3944250815e+01   9.0226524418e-01    0.2571798    0.2200053 -55.81   0.00082935    1.594    0.373
       157  -8.4122    148.6134    189.1049   5.7056051326e+01   1.3623229832e+01    0.2007872    0.1584466 -88.38  0.001144386    1.484    0.326
       158  -8.9232    129.3160    188.4545   6.0845786815e+01   1.7326179671e+01    0.2762759    0.1939967  77.83 0.0009406434    1.576    0.366
       159  -8.2410    237.2928    188.1216   4.0405443454e+01  -2.8253009123e+00    0.1706866    0.1447829  -8.33 0.0009203488    1.171    0.146
       160  -8.9878    191.4937    187.4854   4.8454406133e+01   5.6707335673e+00    0.2604525    0.2115452 -83.63  0.000921008    1.782    0.439
       161  -9.2182    156.0330    187.3810   5.5304462751e+01   1.2516497642e+01    0.2967628    0.2216452 -76.00 0.0009347242    1.699    0.411
       162  -9.4585    120.6337    186.0210   6.2272119396e+01   1.9356662444e+01    0.4454085    0.2481549 -80.83  0.001964985    2.633    0.620
       163  -9.2466     54.8388    186.8733   7.5790121125e+01   2.9449679545e+01    0.3745005    0.1616428  71.64  0.001278124    2.566    0.610
       164  -8.5152     34.3234    187.9754   7.9885210943e+01   3.1741528965e+01    0.2735403    0.1044483  69.13  0.001276938    2.624    0.619
       165  -9.0807    249.4094    185.5995   3.7928604666e+01  -4.5777789538e+00    0.2875228    0.1985705 -41.80  0.001166037    1.866    0.464
       166  -8.2353    230.5003    187.0460   4.1359172402e+01  -1.4975299273e+00    0.1759998    0.1204517 -29.62 0.0006181093    1.554    0.356
       167  -8.8852    164.7988    186.5856   5.3438994256e+01   1.0967312136e+01    0.2448027    0.2053717  80.52 0.0006800191    1.368    0.269
       168  -9.2111    109.6254    185.9604   6.4530024229e+01   2.1299603442e+01    0.3821978    0.2150813  76.04  0.001273479    2.306    0.566
       169  -8.9597    210.1242    184.1467   4.4413299081e+01   2.6277440099e+00    0.2384413    0.1835974 -36.71 0.0004831562    1.466    0.318
       170  -8.7012    202.7377    184.4249   4.5813331841e+01   3.9855603435e+00    0.2279454    0.2015013  79.38 0.0007465939    1.485    0.327
       171  -8.8115    182.9067    184.6536   4.9584926023e+01   7.7728722693e+00    0.2305735      0.19657 -62.15 0.0007380189    1.439    0.305
       172  -9.0732     66.8877    184.4433   7.3137587182e+01   2.8316488003e+01    0.4093991    0.1706372  61.80  0.001239129    2.433    0.589
       173  -8.6773    224.1447    183.4027   4.1779038558e+01   1.3149938672e-01    0.2229032     0.178708 -33.44 0.0005716246    1.401    0.286
       174  -9.0559    174.2818    183.3576   5.1028210740e+01   9.6682301527e+00    0.2724505    0.2205218 -72.84 0.0006087816    1.574    0.365
       175  -8.3093    197.1499    183.1735   4.6621513137e+01   5.2452269013e+00    0.1717974    0.1577616  85.80 0.0004901445    1.371    0.270
       176  -9.1669     44.5499    182.5159   7.7466874015e+01   3.1652973701e+01    0.2928452    0.1288395  59.47  0.001111279    1.961    0.490
       177  -7.9797      1.7848    183.5904   8.5729462953e+01   3.5949656377e+01    0.1483003   0.07086281  53.18 0.0009463755    1.673    0.402
       178  -9.3889    147.5182    180.5461   5.5911142657e+01   1.5385843120e+01    0.3313129    0.2374195 -87.40  0.001024048    1.813    0.448
       179  -7.5690    235.4400    181.4518   3.9463380634e+01  -1.6443205323e+00    0.1269588    0.1087652  16.45 0.0001028666    1.033    0.032
       180  -9.2425     25.8804    179.1412   8.0908271505e+01   3.4492590431e+01    0.5594676    0.1827305  76.77  0.002099946    4.200    0.762
       181  -8.6893    137.7639    179.2113   5.7706511679e+01   1.7507232378e+01    0.3214989    0.2142509  75.56  0.001179444    1.830    0.454
       182  -8.6950    250.5131    172.5068   3.5219332638e+01  -3.1401895031e+00    0.2348561    0.1704391 -10.93 0.0006282453    1.302    0.232
       183  -9.2177    249.1308    177.1750   3.6360591949e+01  -3.4921236089e+00    0.2651737    0.2144789 -35.92 0.0004497665    1.472    0.321
       184  -8.5666    247.3087    173.6895   3.5975623370e+01  -2.7328830009e+00    0.1904158    0.1435503 -20.08 0.0005238932    1.280    0.219
       185  -8.8140    205.1942    177.7700   4.4122139974e+01   4.5120577919e+00    0.2748636    0.2097872 -54.60 0.0009437838    1.704    0.413
       186  -9.4035    191.5102    178.2750   4.6785381364e+01   7.1113678372e+00    0.3005385    0.2378801  67.78 0.0006255832    1.531    0.347
       187  -7.9938    169.5477    178.7367   5.1151242611e+01   1.1388414588e+01    0.1712618    0.1330806 -65.55 0.0009261169    1.578    0.366
       188  -8.9469     36.1611    176.9089   7.8697966099e+01   3.3821544917e+01    0.4579946    0.1669777  79.27  0.001793763    3.672    0.728
       189  -8.6706    129.2833    177.1617   5.9156329357e+01   1.9505153258e+01    0.3043334    0.2117251  85.30 0.0008605312    1.706    0.414
       190  -8.4929    231.1413    176.7408   3.9291428814e+01  -2.4041680361e-01    0.2094662    0.1700189 -36.65 0.0007472716    1.418    0.295
       191  -8.4795    217.5070    177.1117   4.1757361407e+01   2.2478357525e+00    0.1943316    0.1820754  58.03  0.000766782    1.298    0.229
       192  -9.2150    183.2667    176.1418   4.7979062324e+01   9.0963236254e+00    0.2898819     0.241641 -79.28 0.0007313654    1.560    0.359
       193  -8.9892     89.0798    176.7148   6.7637853626e+01   2.6602732388e+01     0.276537    0.1660478  78.69 0.0009470524    1.779    0.438
       194  -9.2066     58.4788    174.9970   7.3927599160e+01   3.1458959981e+01     0.500454    0.2026859  70.35  0.001967052    3.333    0.700
       195  -9.1064     55.7813    170.3886   7.4032940752e+01   3.2808699268e+01    0.3569262    0.1667015  76.84  0.001615636    2.460    0.593
       196  -8.4977     13.0532    176.5801   8.3243912194e+01   3.6324854598e+01    0.2447812    0.1165189  70.77  0.001232989    1.681    0.405
       197  -7.9919    211.6240    176.2042   4.2644492111e+01   3.5042745076e+00    0.1766774    0.1237457 -20.86 0.0008873054    1.589    0.371
       198  -9.1988    158.7483    174.8386   5.2642463123e+01   1.4231908859e+01    0.3534105    0.2422613  80.85  0.001065977    2.081    0.520
       199  -9.3722    104.2985    174.6043   6.4098000240e+01   2.4521141739e+01    0.5389823    0.2437101  64.79  0.001891339    3.094    0.677
       200 -10.6060     75.6923    169.5745   6.9641286499e+01   3.0197010358e+01     1.181118    0.4067145 -77.38  0.003743612    4.849    0.794
       201  -9.4960     81.3062    155.1443   6.6483724624e+01   3.2539707465e+01    0.4809088    0.4175572 -80.78  0.002394477    1.166    0.142
       202  -8.5723    224.6082    173.7889   3.9852032067e+01   1.3816499399e+00    0.2574449    0.1570062 -39.40 0.0009168737    1.817    0.450
       203  -9.4748    175.6583    172.0168   4.8712839725e+01   1.1331529697e+01     0.344706    0.2518821 -43.13  0.001144007    1.529    0.346
       204  -8.3939    142.9885    172.3752   5.5487527064e+01   1.7814102609e+01    0.2487036    0.1838035  86.66 0.0007673691    1.623    0.384
       205  -9.5269    121.3431    170.4240   5.9792841316e+01   2.2339112181e+01    0.3601739    0.2349261 -88.33   0.00086481    1.910    0.477
       206  -9.1512     45.0639    170.6823   7.6333763137e+01   3.4098625456e+01    0.4307027    0.1833706 -88.13  0.001923934    2.449    0.592
       207  -8.3807    205.9621    170.2550   4.2528825580e+01   5.5153551429e+00    0.2281243    0.1900215 -64.89 0.0007185018    1.608    0.378
       208  -8.3597    134.6892    171.2562   5.7058497486e+01   1.9646446862e+01    0.2110351    0.1655016  88.33 0.0007912641    1.377    0.274
       209  -8.3881    237.2432    169.3185   3.6783549098e+01  -3.4717710652e-01     0.212519    0.1763517 -18.77 0.0006836021    1.194    0.162
       210  -9.1996    230.2247    168.9491   3.7911478514e+01   1.0092610223e+00     0.360736    0.2056681 -41.41  0.001782323    1.988    0.497
       211  -8.5470    198.3386    169.9016   4.3891097044e+01   7.0945655349e+00    0.2426787    0.2072255 -84.09 0.0007467688    1.578    0.366
       212  -9.3639    167.0638    168.3765   4.9768582352e+01   1.3732168290e+01    0.3900414     0.271528  72.74  0.001328149    1.861    0.463
       213  -8.6756    149.7768    169.4106   5.3543732453e+01   1.7041599072e+01    0.2640485    0.2023329  81.03 0.0007006183    1.510    0.338
       214  -8.2393    244.6030    169.3175   3.5551716932e+01  -1.6830572739e+00    0.1723113    0.1558934 -66.02 0.0006208615    1.633    0.387
       215  -8.1601     88.9776    168.9194   6.6648685126e+01   2.8279787428e+01     0.221899    0.1348151  72.27 0.0006980867    1.690    0.408
       216  -8.5331    218.7850    168.1550   3.9769047043e+01   3.3135418960e+00    0.1860676    0.1825151  13.51 0.0005191729    1.190    0.159
       217  -7.8837    211.4563    167.9467   4.1056766073e+01   4.7831243250e+00    0.1781497    0.1175329 -60.66 0.0006255339    2.444    0.591
       218  -8.7434    111.9498    167.5319   6.1391081592e+01   2.4657120488e+01    0.3102646    0.1949092  73.46  0.001155544    1.803    0.445
       219  -8.8978    191.8974    166.5818   4.4473879518e+01   8.9463478205e+00    0.2407295    0.2028535 -48.45 0.0004780754    1.344    0.256
       220  -8.6739    184.9813    166.4330   4.5796336712e+01   1.0392193967e+01    0.2480127    0.1948598 -61.59 0.0006738198    1.568    0.362
       221  -9.0993     20.6802    166.1817   8.1048336117e+01   3.7764483312e+01    0.3194735    0.1156444  58.84  0.001323765    2.460    0.593
       222  -9.6008    137.6911    164.6577   5.5284066607e+01   2.0381869470e+01    0.6769026     0.272304  58.66   0.00219772    3.546    0.718
       223 -10.0420     95.0937    162.7909   6.4431766358e+01   2.8608013655e+01    0.8235688    0.3845866  73.96  0.002638267    4.412    0.773
       224  -8.2746    234.0513    164.7152   3.6395434876e+01   8.8613709589e-01    0.2167805    0.1724167 -35.83 0.0006139159    1.375    0.273
       225  -9.4829     34.0987    163.3135   7.8005085626e+01   3.6974315453e+01    0.6046829    0.1689198  56.28  0.002354429    3.656    0.726
       226  -7.9139    240.3820    164.1720   3.5212181248e+01  -2.1996413312e-01    0.1758815    0.1158151 -39.41 0.0004487723    1.677    0.404
       227  -8.7307    212.8903    163.3981   3.9875042818e+01   5.1995584070e+00    0.2752731    0.1905967 -38.91  0.000800263    1.553    0.356
       228  -8.6777    159.4791    163.9145   5.0500130738e+01   1.6120520910e+01     0.264991    0.2084055  75.81 0.0007707203    1.440    0.306
       229  -8.8539    246.1688    162.7228   3.3955170589e+01  -1.0838276210e+00    0.2100773    0.1646759 -30.76  0.000528954    1.324    0.245
       230  -8.7702    204.9489    162.4463   4.1153106327e+01   6.9553508484e+00    0.2388208    0.1934925 -53.18 0.0005072884    1.486    0.327
       231  -9.3811      3.6019    162.3201   8.4283843916e+01   4.0163488479e+01    0.3585593    0.1376656  56.77  0.001851995    2.164    0.538
       232  -9.0869    177.3884    160.3453   4.6110798184e+01   1.3046542221e+01    0.2981277    0.2379125 -69.75 0.0008137337    1.549    0.355
       233  -8.7501    151.7669    160.7573   5.1537964649e+01   1.8319056217e+01    0.2706047    0.1957509 -68.70 0.0009602773    1.631    0.387
       234  -8.7193    227.2764    158.8215   3.6350441644e+01   3.0414165610e+00    0.2799523    0.2027011 -54.29  0.001255345    1.876    0.467
       235  -8.9591    127.8729    159.1656   5.6475881411e+01   2.3438317075e+01    0.2363335     0.215555 -57.11 0.0007800313    1.240    0.194
       236  -8.6925     60.8446    160.1304   7.1807671693e+01   3.4394156865e+01    0.2200207     0.137015  72.95  0.001205008    1.474    0.321
       237  -9.9371    249.8350    157.2551   3.2224705578e+01  -1.0119022054e+00    0.3622456    0.2982358 -55.53  0.001315293    1.705    0.413
       238  -9.3981    241.8332    154.1051   3.2872055868e+01   9.1511758920e-01    0.4801362    0.3355061  88.80  0.002030973    3.497    0.714
       239  -9.2004    238.4060    149.6647   3.2493682043e+01   2.2133042417e+00    0.3260949    0.2033406  24.10  0.001581994    1.809    0.447
       240  -8.1364    236.8508    158.8105   3.4698843415e+01   1.1932813276e+00    0.1698394    0.1603732 -48.27 0.0005154363    1.335    0.251
       241  -9.6194    105.8060    157.7026   6.1218626202e+01   2.7872249764e+01    0.4633119    0.2781799  78.26  0.001239734    2.114    0.527
       242  -8.5808    196.4677    157.7943   4.1810771056e+01   9.4779376107e+00    0.2552249     0.218123  85.35 0.0009305188    1.491    0.329
       243  -8.3091    188.1570    157.6407   4.3404016471e+01   1.1254785367e+01       0.2365    0.1909138 -53.29 0.0005254754    1.408    0.290
       244  -9.1666    167.5294    157.1195   4.7494230039e+01   1.5725734954e+01     0.348012    0.2569637 -88.86  0.001151775    1.876    0.467
       245  -8.6579    218.2409    156.3729   3.7442564071e+01   5.2135614141e+00    0.2755411    0.1945111 -66.88 0.0009223237    2.371    0.578
       246  -8.8810    157.7285    155.7788   4.9299638271e+01   1.8055290321e+01    0.2817696    0.1986253 -61.42 0.0009370204    1.625    0.385
       247  -9.2776    119.6120    154.9280   5.7594352268e+01   2.5931863645e+01    0.3991523    0.2497553 -85.14  0.001514657    2.125    0.529
       248  -9.2189     49.7800    155.1754   7.3749730032e+01   3.6943977847e+01    0.4070522    0.1783895  61.88   0.00185149    2.381    0.580
       249  -8.1704    204.8367    155.1367   3.9655978499e+01   8.1700683832e+00    0.2038061     0.192597 -69.26 0.0006384026    1.250    0.200
       250  -9.0943    144.3226    154.5718   5.1976748275e+01   2.1093409393e+01    0.2744904    0.2223481 -79.14 0.0007056558    1.349    0.259
       251  -9.3672     68.1943    153.7199   6.9337656539e+01   3.4818859803e+01    0.4273643    0.2132831  72.39  0.001198204    2.466    0.594
       252  -8.0191    232.5190    153.5117   3.4319146196e+01   2.7994784598e+00    0.2272532    0.1196703 -43.27 0.0006925088    2.149    0.535
       253  -9.6679    132.8114    152.7233   5.4194256076e+01   2.3821358563e+01    0.4517884    0.2901774  74.13  0.001164829    1.985    0.496
       254  -9.2995    133.5883    148.1785   5.3149066857e+01   2.4630990210e+01    0.3838852    0.2261933 -45.39  0.001503939    1.889    0.471
       255  -9.4809     29.3599    150.3439   7.7893420498e+01   4.0357744223e+01    0.4902521     0.185142  71.84  0.001956765    3.396    0.706
       256  -8.7691     20.4902    152.5201   8.0055940484e+01   4.0757929324e+01    0.1959694   0.07958432  48.05 0.0008678153    2.216    0.549
       257  -8.9618    189.4355    150.0383   4.1552858493e+01   1.2324105463e+01    0.2938238    0.2406585 -68.20 0.0009410434    1.506    0.336
       258  -8.0224    182.4367    150.9459   4.3151077785e+01   1.3676085880e+01    0.2098792    0.1442946 -44.67  0.000771322    1.555    0.357
       259  -8.2408    162.6316    150.5364   4.7191745491e+01   1.8038664517e+01    0.2355226    0.1764693 -74.12  0.001125665    1.666    0.400
       260  -8.7993     98.4085    150.7455   6.1806022701e+01   3.0720016162e+01    0.2778045    0.1938704  77.69 0.0009692365    1.471    0.320
       261  -9.3636    248.9238    149.1339   3.0650163228e+01   2.7639204783e-01    0.3059428    0.1791197 -29.70  0.000743745    1.618    0.382
       262  -8.2695    243.3749    150.2053   3.1784220337e+01   1.1763612581e+00      0.18813    0.1163852 -39.06 0.0006540287    1.688    0.408
       263  -8.2983    212.9305    149.5469   3.6948909673e+01   7.3918840448e+00    0.2072442    0.1847487 -19.14 0.0003653083    1.126    0.112
       264  -9.6634     40.1095    147.9033   7.5189355893e+01   3.9743559983e+01    0.5572744    0.2114724  64.50  0.002203173    3.327    0.699
       265  -8.5741      2.6439    149.8077   8.3732708643e+01   4.2922163603e+01    0.1669227   0.07718585  87.79 0.0005215334    1.683    0.406
       266  -8.4541    198.7665    148.8621   3.9470985157e+01   1.0515872523e+01    0.2439563    0.1952813 -61.27 0.0004927574    1.535    0.349
       267 -10.0083     89.2897    146.1294   6.3229141446e+01   3.3313831553e+01    0.6738186    0.3438928  88.67  0.002414921    3.368    0.703
       268  -9.3656    233.6695    147.6765   3.2863613290e+01   3.4403889688e+00    0.2519485    0.2118116 -24.89 0.0007028364    1.165    0.142
       269 -10.3887     54.9112    144.6012   7.1306421365e+01   3.8714150171e+01    0.8048753    0.3407984  72.34  0.002846834    3.846    0.740
       270  -9.8608     55.3123    135.8659   7.0057848019e+01   4.0701853842e+01    0.4891803    0.3073552  -1.47  0.001857733    4.914    0.797
       271  -8.3000    223.1490    146.7836   3.4498409822e+01   5.7094459278e+00    0.1922226    0.1882096  27.54 0.0003620142    1.142    0.125
       272 -10.5034    148.7748    144.9607   4.9067564487e+01   2.2137850491e+01    0.6017169    0.3941312 -86.34  0.001594698    2.384    0.580
       273  -8.9425    150.6796    136.1245   4.6749697729e+01   2.3566762226e+01    0.5541629    0.3268729  25.75  0.002015833    2.857    0.650
       274 -10.2029    106.8471    144.5118   5.8729502850e+01   3.0625367548e+01     0.718113    0.3825829  75.29  0.002526068    3.262    0.693
       275  -8.9743     77.8599    146.7395   6.6076616367e+01   3.4990911672e+01    0.2729835    0.1689478 -81.19 0.0009068316    1.591    0.371
       276  -8.9649     13.2813    146.0247   8.1142648806e+01   4.2860103640e+01    0.2999729    0.1417265  76.33  0.001575632    1.893    0.472
       277  -8.0014    206.4316    146.2270   3.7432695527e+01   9.3181349765e+00    0.1909385    0.1354417 -47.74 0.0004183203    1.575    0.365
       278  -8.1372    175.7573    145.9840   4.3460291684e+01   1.6057546737e+01    0.2370378    0.1699224 -75.75  0.000723235    1.984    0.496
       279  -9.5576    139.1390    144.8789   5.1226820109e+01   2.4190698460e+01    0.3849965    0.2567981 -76.04  0.001220595    1.929    0.482
       280  -9.3446    139.3880    137.7729   4.9695852288e+01   2.5658910836e+01    0.4731603    0.3048912 -22.13  0.001803581    2.887    0.654
       281  -9.0010    240.3650    145.1461   3.1183936792e+01   2.4917951515e+00    0.2099312    0.1821111 -45.02 0.0005660954    1.342    0.255
       282  -9.2263    243.1590    141.8602   3.0000565598e+01   2.4253685597e+00     0.464372    0.1736473 -25.76  0.001655458    3.169    0.684
       283  -9.8510    125.0360    142.5528   5.4033195090e+01   2.7577675411e+01    0.5875266    0.3558049 -83.26   0.00139898    2.503    0.601
       284  -8.4177    124.9043    135.6241   5.2667339626e+01   2.9141609874e+01    0.2994265    0.1990139  28.12  0.001289709    2.087    0.521
       285  -8.5633    247.1232    143.7023   2.9762019043e+01   1.3882771205e+00    0.2177615    0.1692663 -33.67 0.0004852163    1.290    0.225
       286  -8.9026    165.5531    143.9863   4.5184616103e+01   1.8690337461e+01    0.3199294    0.2346058  64.22 0.0008897358    1.464    0.317
       287  -7.7545    194.2988    143.6557   3.9198385117e+01   1.2399402060e+01    0.1464995     0.117418 -80.56 0.0005191257    1.674    0.403
       288  -9.0977      2.8452    141.5684   8.3149360356e+01   4.4706566276e+01    0.3732469    0.1286638  73.92  0.001512985    3.100    0.677
       289  -8.4364    181.9628    141.4332   4.1180101859e+01   1.5539844948e+01    0.2754093    0.2061142 -60.73 0.0007141708    1.582    0.368
       290 -10.4723     69.7685    140.8449   6.7173133508e+01   3.7563963473e+01    0.5239092     0.292421  80.10  0.001851121    2.143    0.533
       291  -9.4614     69.9387    133.9005   6.6071222705e+01   3.9172866827e+01     0.367271    0.2452388   6.84  0.001576723    3.321    0.699
       292  -7.9223    250.4168    140.2743   2.8481867610e+01   1.2463489694e+00    0.1838995    0.1173192 -38.05  0.000736345    1.572    0.364
       293  -9.7360     23.7610    138.1750   7.8051121269e+01   4.3670342004e+01    0.5112017    0.1920657  66.75  0.002113571    3.252    0.692
       294  -8.7062    172.3851    138.1227   4.2435561675e+01   1.8320047260e+01    0.3336763     0.233679 -70.97 0.0009905865    1.939    0.484
       295  -8.2176    218.4501    138.2407   3.3429060959e+01   8.0662540608e+00    0.1968344    0.1320653 -45.67 0.0008444179    1.626    0.385
       296  -8.3808    207.4423    137.7502   3.5340390588e+01   1.0538265926e+01    0.2833757    0.1977596 -57.91  0.001039464    1.837    0.456
       297  -8.6660    197.5786    137.2857   3.7119803255e+01   1.2806306894e+01    0.3115101     0.216168 -58.84 0.0009716104    1.820    0.451
       298  -9.1787    241.2664    136.6113   2.9139379692e+01   3.5784106620e+00    0.2627535     0.165279  -9.85  0.001221112    1.901    0.474
       299 -10.4016     83.5850    132.9939   6.2442365053e+01   3.7303934617e+01     0.549312    0.3177014 -77.94  0.001586816    1.869    0.465
       300  -9.5029     39.2264    136.0782   7.4084142967e+01   4.2567374980e+01    0.2706041    0.1669049  72.49 0.0006892896    1.520    0.342
       301  -8.8908    248.6076    134.8827   2.7568115602e+01   2.3761118817e+00    0.2844738    0.1767622 -35.81 0.0007601803    1.541    0.351
       302  -8.3484    162.6843    136.1981   4.4092698333e+01   2.0883254891e+01     0.238816    0.1894393 -74.92 0.0008543216    1.478    0.323
       303  -7.9977    187.6691    135.2438   3.8615051554e+01   1.5410288211e+01    0.2032262    0.1403891 -30.98  0.000471095    1.577    0.366
       304  -8.2509     95.6921    135.1747   5.9770188587e+01   3.4765473527e+01    0.2299652    0.1652297 -86.55 0.0007326421    1.430    0.301
       305  -7.9538    231.3758    133.8300   3.0158526311e+01   6.0331429164e+00    0.1900064    0.1283085 -20.25 0.0002851304    1.535    0.349
       306  -9.0234    112.9323    133.3237   5.5117127707e+01   3.2030546326e+01    0.3490607    0.2240988  72.35 0.0009338953    1.895    0.472
       307 -10.3011    132.3926    130.1681   4.9702991008e+01   2.8804156819e+01    0.7983084    0.4384437 -53.23   0.00240089    1.854    0.461
       308  -9.4469    143.0441    131.6460   4.7510263660e+01   2.6191644215e+01    0.3252796    0.2511111  83.61 0.0008164687    1.496    0.331
       309  -8.8262    250.7181    129.6492   2.6054012597e+01   2.7256181561e+00    0.4232935    0.1118508 -32.58  0.001386706    3.485    0.713
       310  -9.9470     12.9277    128.9663   7.9803554430e+01   4.6730178743e+01    0.4803676     0.195389  78.48  0.002073092    2.665    0.625
       311  -8.3643    246.9397    129.9001   2.6703791844e+01   3.4409243495e+00    0.2079002    0.1614507 -56.78 0.0006765002    1.648    0.393
       312  -8.0642    220.5735    129.8235   3.1105711377e+01   8.9901923432e+00    0.1951079    0.1332575 -43.53 0.0005455984    1.523    0.343
       313  -8.1134    204.5095    130.0635   3.4107161161e+01   1.2525974347e+01    0.2206689    0.1443971 -39.42 0.0006805229    1.539    0.350
       314  -7.9517    192.6206    129.8259   3.6356541070e+01   1.5281127664e+01    0.2077473    0.1394391 -49.08 0.0003761488    1.605    0.377
       315  -9.3618    168.3036    129.2732   4.1275531586e+01   2.1000844391e+01    0.3372933    0.2531454 -66.60 0.0007186339    1.571    0.364
       316  -9.4426    152.9736    129.0845   4.4639336238e+01   2.4535047446e+01    0.4057414    0.2699071 -63.46  0.001134579    1.764    0.433
       317 -10.1067     99.2456    127.6349   5.7429157101e+01   3.5900705173e+01    0.6339945    0.3682002  88.59  0.001773104    2.692    0.629
       318  -8.7939     99.4173    119.8420   5.5784692187e+01   3.7702862227e+01    0.3467217    0.2577696   3.06  0.001524718    2.453    0.592
       319  -9.7687     73.2500    129.3418   6.4477665253e+01   3.9768687698e+01    0.3633328    0.2364585  87.47  0.001121767    1.626    0.385
       320  -8.8392    179.5059    133.8085   3.9955717464e+01   1.7540061207e+01    0.2894625    0.2348489 -86.10  0.001029668    1.528    0.345
       321  -8.2201    211.5711    128.8453   3.2500887754e+01   1.1147614629e+01    0.2089146    0.1335581 -47.86 0.0006163613    1.715    0.417
       322  -7.3208    186.3151    129.6335   3.7577431485e+01   1.6769688970e+01    0.1585742    0.1206615 -78.74 0.0007038589    1.772    0.436
       323  -9.2526     50.0339    128.2942   7.0350812770e+01   4.3148010414e+01    0.4023287    0.1989103  81.06  0.001695946    2.638    0.621
       324 -10.5218     44.2708    123.1295   7.1135837770e+01   4.5050334537e+01     0.910614    0.3806818  88.73  0.003165524    3.921    0.745
       325 -10.4721     60.2745    125.0089   6.7174566721e+01   4.2630255092e+01    0.7035588    0.3516271  79.54  0.002733552    3.042    0.671
       326  -9.5969     36.6173    127.6131   7.3721359763e+01   4.4829594384e+01    0.2375631    0.1779826  86.08 0.0002277013    1.106    0.096
       327  -9.9364    117.8594    125.1104   5.2164654054e+01   3.2942694121e+01     0.571417    0.3495048  76.98  0.001399287    2.425    0.588
       328  -7.9421    228.4289    125.2039   2.8651753645e+01   8.0333213306e+00    0.2096524    0.1284283 -42.95 0.0009527633    1.675    0.403
       329  -8.9394    179.2971    124.6508   3.7829245778e+01   1.9357001494e+01    0.3072284    0.2422745 -84.94 0.0008084442    1.606    0.377
       330 -10.7401     28.1279    121.0201   7.5120810208e+01   4.7229620338e+01    0.9548267    0.3752972  87.32  0.003615189    3.498    0.714
       331  -7.9647    188.7797    123.9527   3.5713685982e+01   1.7265334189e+01    0.2474026    0.1723632 -66.89 0.0007891809    1.933    0.483
       332  -9.7536    158.8170    121.4629   4.1503556492e+01   2.4793519412e+01    0.4131989    0.2783916 -80.42   0.00109477    2.236    0.553
       333  -8.1560    195.1230    121.7123   3.3904802547e+01   1.6193429802e+01    0.2888393    0.1592541 -49.81 0.0005873553    2.036    0.509
       334  -8.6419    171.9119    121.3150   3.8580481790e+01   2.1752972057e+01     0.254212    0.2112853 -60.84 0.0005146539    1.282    0.220
       335  -7.6688    203.2654    121.6692   3.2324520385e+01   1.4298937879e+01     0.149776    0.1178576 -67.62 0.0002134648    1.577    0.366
       336  -9.8319    131.1680    118.7073   4.7381144341e+01   3.1619439198e+01    0.5800956    0.3591779  79.43  0.001960383    2.597    0.615
       337  -9.3401     71.0036    119.8093   6.3412573848e+01   4.2378934055e+01    0.3148802    0.2090052  85.30 0.0009287001    1.637    0.389
       338  -9.9286    141.7620    118.5649   4.4766537105e+01   2.9315690040e+01    0.4995727    0.3347607 -81.87  0.001221687    2.156    0.536
       339  -9.6405      3.2719    117.4902   8.1189456242e+01   5.0069651663e+01    0.4204709    0.1665155  70.81   0.00193076    2.791    0.642
       340  -8.1033    185.7771    115.8086   3.4300658164e+01   1.9522259742e+01    0.2172791    0.1800705 -68.76 0.0004891113    1.374    0.272
       341  -9.8590    109.3353    113.9815   5.1859955400e+01   3.7205544574e+01    0.5863031    0.3575455 -80.71  0.001564877    2.387    0.581
       342  -9.0949    109.8271    106.9972   5.0064993650e+01   3.8733232113e+01    0.4375039     0.269695  20.62  0.001592148    3.097    0.677
       343  -8.2791    193.0038    115.0188   3.2653250994e+01   1.7936086722e+01    0.2413369    0.1852694 -69.75 0.0004890915    1.618    0.382
       344  -8.4112     83.7657    122.6670   6.0511448378e+01   3.9725840528e+01    0.2477423    0.1898912 -69.40  0.000915685    1.183    0.155
       345 -10.1550     92.7061    112.3806   5.5982997607e+01   4.0669346313e+01     0.578678    0.3162445 -70.69  0.001380084    2.134    0.531
       346  -8.6336     93.5223    104.4764   5.3957918892e+01   4.2399897257e+01    0.2763669    0.2111546  -2.08  0.001108955    2.164    0.538
       347  -9.9024     79.2238    112.4855   5.9739462821e+01   4.2889233865e+01    0.5521902     0.325652  83.30  0.001701007    2.463    0.594
       348  -8.6920     59.9712    114.6992   6.5538238633e+01   4.5143413110e+01    0.3134097    0.1831365  13.17  0.001285588    3.503    0.715
       349  -8.2690    167.4016    114.2386   3.7788279037e+01   2.4252098172e+01    0.2175676    0.1467659 -53.39 0.0003346752    1.575    0.365
       350 -10.3126    133.5215    109.6699   4.4574498901e+01   3.3120239643e+01    0.7182985    0.3510748 -51.64  0.002096272    2.077    0.519
       351  -9.5872    121.9625    112.5109   4.8214291336e+01   3.4982447178e+01    0.3360794    0.2726658  79.37 0.0004964888    1.313    0.238
       352  -8.5467    174.8034    111.5438   3.5494709573e+01   2.3006044222e+01    0.3082974    0.1964876 -56.96 0.0007768347    1.819    0.450
       353  -9.0674    159.1040    111.5861   3.8961373886e+01   2.6782972786e+01    0.2974783    0.2123372 -59.66 0.0006377336    1.537    0.349
       354  -9.7829     66.4732    110.3263   6.2905237360e+01   4.5309905320e+01    0.4247427    0.2592437 -88.82  0.001387609    1.933    0.483
       355  -8.4871     66.7601    105.2355   6.1819957720e+01   4.6494832222e+01    0.1772069    0.1425837  21.70 0.0007460405    1.644    0.392
       356  -9.8764     14.3834    111.1055   7.7639456870e+01   5.0727726039e+01     0.350955    0.1647408  81.29  0.001342845    2.235    0.553
       357  -7.9407    149.9881    109.9836   4.0656613831e+01   2.9279587876e+01     0.193142    0.1837005 -70.17 0.0004465082    1.035    0.034
       358  -7.6857    231.4978    117.5054   2.6296022820e+01   8.6048675217e+00    0.1446908     0.135376 -39.28 0.0008084669    1.107    0.097
       359 -10.6527    249.0640    106.2005   2.0808406167e+01   6.5796366362e+00     0.778402    0.3242278 -23.91  0.002811498    2.806    0.644
       360  -7.9729    182.7850    109.0527   3.3177029962e+01   2.1545821454e+01    0.2113333    0.1269245 -40.07 0.0005111931    1.661    0.398
       361  -8.2308    189.3787    107.7078   3.1491805269e+01   2.0186244005e+01    0.2878968    0.1440487 -42.28 0.0005514061    1.981    0.495
       362  -8.2197     44.2182    108.6173   6.8961865230e+01   4.8521244703e+01    0.1560248    0.1303681  15.00 0.0009518142    1.657    0.397
       363 -10.5499     45.8629    102.2406   6.7402954357e+01   4.9864895577e+01    0.7981244    0.3863519  73.55  0.002991193    3.615    0.723
       364 -10.7109     22.6399    102.2936   7.4235306526e+01   5.2124655003e+01    0.6875705    0.3234889  79.33  0.002267472    2.700    0.630
       365  -8.7306    166.8335    104.1647   3.5276380163e+01   2.6434021662e+01    0.3379807    0.2129692 -56.30 0.0006414729    1.793    0.442
       366  -9.6163    150.5959    102.9348   3.8650563607e+01   3.0634379254e+01    0.5054129    0.2951498 -63.24  0.001200346    2.298    0.565
       367  -9.3090    139.9190    104.3873   4.1614959161e+01   3.2832949710e+01    0.3789062    0.2713999 -86.56 0.0008185157    1.868    0.465
       368  -8.2420     78.3887    104.7779   5.8349522243e+01   4.4868960108e+01    0.2041023    0.1191087 -50.68 0.0006089301    1.646    0.392
       369 -10.1601    128.5636    101.3808   4.3675177382e+01   3.6068153652e+01    0.5793449    0.3506007 -43.56  0.001886812    1.668    0.400
       370  -8.9904      6.9964    103.0260   7.8783792311e+01   5.3129340155e+01    0.2404583    0.1407439  73.02  0.001063203    1.668    0.400
       371  -7.9011    175.6167    101.8735   3.2763167938e+01   2.4716035707e+01      0.22915     0.143233 -51.03 0.0004819328    1.693    0.409
       372 -10.7352    108.5894     98.4426   4.8238042669e+01   4.0958253812e+01    0.8697601    0.4647321  67.61 0.0009561802    3.253    0.693
       373  -8.9392    107.6103     92.5995   4.6950622343e+01   4.2493543976e+01    0.4690738    0.3432235  17.65  0.002078021    2.024    0.506
       374  -8.5047    159.6875    100.5770   3.5902285013e+01   2.8922496337e+01    0.2997579    0.1915512 -46.32 0.0004908952    1.562    0.360
       375  -9.5446     82.2782     99.9462   5.6127479888e+01   4.5398331876e+01    0.3717958    0.2403103 -82.87 0.0009583514    1.920    0.479
       376 -10.1062     64.0125     95.7500   6.0646470266e+01   4.9153340815e+01    0.5495403    0.3165919  88.80    0.0015436    2.614    0.617
       377  -9.3847     94.9696     96.5772   5.1610312256e+01   4.3997908310e+01    0.3513808    0.2222065 -64.62 0.0006756452    1.624    0.384
       378  -8.8219    151.1829     95.0120   3.6325779658e+01   3.2158427626e+01    0.2570899     0.192283  -9.41 0.0008778672    1.926    0.481
       379  -8.3545    164.8076     94.0536   3.2939233211e+01   2.8976312259e+01    0.2514912    0.2106812 -69.30 0.0004918555    1.286    0.222
       380  -8.3707    242.3312     93.6600   1.8719541139e+01   9.9889683344e+00    0.1531521    0.1064416 -60.79 0.0007051651    1.744    0.427
       381  -7.8577    188.6750     93.3081   2.7756934755e+01   2.3065681527e+01    0.1650561    0.1238221 -73.80 0.0007036894    1.651    0.394
       382  -8.4261    176.2142     92.9334   3.0171468944e+01   2.6309661139e+01     0.255318    0.2133329 -68.72 0.0006046129    1.299    0.230
       383  -9.4777    138.9803     91.5498   3.8303409690e+01   3.5824965024e+01    0.5449498    0.3351394 -48.80  0.001177431    1.613    0.380
       384 -10.1605    123.9535     90.9815   4.2017383038e+01   3.9397544199e+01    0.5382329    0.4680404  32.51  0.001150179    1.300    0.231
       385  -9.4896      5.1796     91.9164   7.8037558226e+01   5.5802801260e+01    0.3131801    0.1543986  65.11  0.001102935    2.336    0.572
       386  -9.0943     46.9549     91.8543   6.5119249475e+01   5.2223465258e+01     0.373914    0.1867047  20.34  0.001638382    3.097    0.677
       387  -9.6106     34.9849     89.8899   6.8521074264e+01   5.3945523563e+01    0.4588351    0.2298661 -88.82  0.001741622    2.619    0.618
       388  -7.7738    158.2486     91.6419   3.3726694196e+01   3.1106932569e+01    0.1655345     0.122199 -68.42 0.0003939972    1.603    0.376
       389  -8.9726     23.1480     89.5795   7.2200486234e+01   5.5070652502e+01    0.2339221    0.2179066  74.86 0.0009549648    1.248    0.199
       390  -8.0609    151.1839     89.1575   3.4647705530e+01   3.3371139232e+01    0.2284035    0.1843673 -69.47 0.0004875348    1.362    0.266
       391 -10.1541     86.4502     86.1513   5.1410741819e+01   4.7938301254e+01    0.6080906    0.3955278 -82.08  0.001613207    2.171    0.539
       392  -8.2362     64.8240     87.3887   5.8481561802e+01   5.1027458827e+01    0.1803233    0.1362286  14.44 0.0009427279    1.826    0.452
       393  -7.5466    164.2923     86.6914   3.0938200184e+01   3.0571204876e+01    0.1649178    0.1253525 -74.27 0.0002715179    1.583    0.368
       394  -9.7753     48.5763     84.1214   6.2974990314e+01   5.3870221638e+01      0.51682    0.2942889  80.92    0.0017065    2.819    0.645
       395  -8.3864    158.0815     83.7083   3.1445957409e+01   3.2743519826e+01    0.2839887     0.207468 -51.98 0.0004897954    1.395    0.283
       396  -9.5745    104.7062     82.9454   4.5052000163e+01   4.5255949151e+01    0.4264473    0.2950528 -71.13 0.0009741792    1.758    0.431
       397  -8.5407    104.9820     77.1759   4.3242460073e+01   4.6474235889e+01    0.2918302    0.2021193 -19.58 0.0009459834    2.079    0.519
       398  -9.0345    140.9262     82.6374   3.5191962527e+01   3.7231587714e+01    0.3066972    0.2287271 -54.30 0.0006399971    1.366    0.268
       399  -8.2757     35.4107     81.8122   6.6836299020e+01   5.5806741736e+01     0.188712   0.09333321 -56.00 0.0003747517    1.646    0.392
       400  -9.6921     24.8879     80.6505   7.0115344744e+01   5.7015588956e+01    0.4205313     0.234437  82.19  0.001530493    2.275    0.561
       401  -9.2212     10.1074     80.8838   7.5020696643e+01   5.8033273669e+01    0.3208902    0.1659122  65.81  0.001355234    2.431    0.589
       402  -8.6465    150.3730     80.1398   3.2151180730e+01   3.5403885972e+01     0.388137    0.2250731 -56.30  0.001203804    2.028    0.507
       403  -8.7201    119.3268     79.9505   4.0014883744e+01   4.2825004179e+01    0.3895768    0.2381238 -65.33  0.001076173    2.172    0.540
       404  -8.8700     74.8489     80.2999   5.3462193885e+01   5.1199806410e+01    0.3092669    0.1870987 -68.31 0.0008561917    1.837    0.456
       405  -7.9484    166.9564     79.3472   2.8181850997e+01   3.1310886965e+01    0.2217531    0.2079622  72.59 0.0004960573    1.064    0.060
       406  -7.6509    174.7445     78.0135   2.6150993616e+01   2.9527125179e+01    0.2078808    0.1378369 -37.53  0.000483541    1.491    0.329
       407  -7.6162    184.2719     77.6608   2.4152488532e+01   2.7086854638e+01    0.1670665    0.1205912 -64.80 0.0003787673    1.606    0.377
       408  -9.4324    128.1015     74.9816   3.6101092039e+01   4.1874015312e+01    0.5199899    0.2804157 -55.99 0.0008315891    2.204    0.546
       409  -7.5253    189.3202     76.6466   2.2896283873e+01   2.5940740418e+01      0.17301    0.1204825 -67.29 0.0007047014    1.750    0.429
       410  -7.9278    157.1284     76.1935   2.9382999923e+01   3.4461573264e+01    0.2283683    0.1881583 -74.17 0.0006117609    1.347    0.258
       411  -9.9575     63.2568     73.4607   5.5423170885e+01   5.4482908929e+01    0.5053939    0.2667281 -65.68  0.001004647    2.045    0.511
       412  -8.4012    140.3675     75.0518   3.2987436085e+01   3.8913827756e+01    0.2357277    0.1939423 -49.29 0.0008916783    1.197    0.165
       413  -9.7097     82.4469     72.4696   4.8761734721e+01   5.1732742262e+01    0.4035706    0.2843713 -81.03  0.001016687    1.933    0.483
       414  -8.3034    163.4454     72.8750   2.6962213401e+01   3.3453458420e+01    0.3079072    0.1501065 -41.49  0.001113639    2.002    0.500
       415  -8.6700    115.6550     72.6049   3.8735915756e+01   4.5194074086e+01    0.2967304     0.184277 -47.28 0.0006334162    1.556    0.357
       416  -8.1905     42.8818     72.7040   6.2274696424e+01   5.7165581035e+01     0.245211     0.154553 -89.01 0.0007366422    2.075    0.518
       417  -8.0213    151.4060     73.1754   2.9750787552e+01   3.6513625530e+01     0.231954    0.1446013 -50.13 0.0004041298    1.665    0.399
       418  -9.2589    105.8961     71.2384   4.1109531792e+01   4.7566028421e+01    0.3909691    0.2023667 -52.43  0.001314749    1.992    0.498
       419  -9.2821     95.1394     70.6770   4.4183764493e+01   4.9829056474e+01    0.4579622    0.2350404 -57.05  0.001222445    2.180    0.541
       420  -9.6089     51.4626     69.5375   5.8448176222e+01   5.6912021636e+01    0.4504785     0.224824 -70.71  0.001529292    2.455    0.593
       421  -8.9059     16.6644     69.6057   7.0891837354e+01   6.0182353002e+01    0.3375062    0.1471731 -78.21  0.001180848    2.320    0.569
       422  -7.6550    157.3050     69.7032   2.7313390361e+01   3.5653367183e+01    0.1648257    0.1247286 -73.66 0.0003425328    1.585    0.369
       423  -8.8249    147.0775     68.1457   2.9156273657e+01   3.8585016795e+01    0.3402422    0.2182759 -45.11 0.0005374931    1.547    0.354
       424  -8.5484     29.9893     69.5202   6.6113019256e+01   5.9154629873e+01    0.1636793   0.09649263 -23.17  0.000809666    2.497    0.599
       425  -7.3817    203.2906     66.6690   1.7538825602e+01   2.3971247411e+01    0.1659748    0.1150952 -62.84 0.0003247136    1.626    0.385
       426  -8.6253    138.8171     66.0977   3.0479168712e+01   4.1057806559e+01    0.2486388     0.208184 -65.31 0.0005429867    1.282    0.220
       427  -8.6405    121.6642     65.7993   3.4835536914e+01   4.5233933889e+01    0.3017485    0.2205838 -67.69 0.0008776551    1.678    0.404
       428  -8.3460    135.0044     64.7389   3.0978806826e+01   4.2261955116e+01    0.2164762    0.2059851  50.21 0.0003782187    1.074    0.069
       429  -8.3173     84.1625     64.6385   4.5742090293e+01   5.3145138828e+01     0.291153    0.1816299  12.97  0.001138214    2.950    0.661
       430  -8.6342     37.3762     64.2096   6.2155559137e+01   5.9670456699e+01     0.278833     0.191756 -82.61  0.001112876    1.658    0.397
       431  -8.7690    110.0752     63.4348   3.7300006076e+01   4.8298995959e+01     0.284724    0.2026586 -58.32 0.0006560087    1.545    0.353
       432  -8.7260     64.1700     63.0861   5.2083277167e+01   5.6677006511e+01    0.3041199    0.1897251 -22.25  0.001359606    2.367    0.577
       433  -8.1945    158.1749     61.7022   2.4548370459e+01   3.6892981528e+01    0.2482403     0.198925  89.87 0.0004509765    1.421    0.296
       434  -9.2739     97.6793     60.4496   4.0002702552e+01   5.1481911166e+01    0.3085101    0.2587867  71.86 0.0009510115    1.414    0.293
       435  -9.6913     73.3394     59.2315   4.7620840162e+01   5.6117522023e+01     0.465102    0.2325023 -56.03  0.001371388    2.069    0.517
       436  -7.9927     88.8455     59.0212   4.2319956887e+01   5.3476498603e+01    0.2369625    0.1600962 -67.77 0.0006874587    1.978    0.494
       437  -8.3324    130.8281     57.3620   2.9520271662e+01   4.4679096291e+01    0.2659869    0.2052183 -48.75 0.0006221589    1.309    0.236
       438  -9.8131     23.3418     56.2278   6.5499158254e+01   6.2699532212e+01    0.4213439    0.2484952  86.18  0.002091653    2.535    0.606
       439  -9.3810      7.5689     56.9538   7.1798794938e+01   6.3593772763e+01    0.3124195    0.1792751  85.02  0.001139731    2.141    0.533
       440  -8.1794    140.0064     55.9872   2.6768389992e+01   4.2639421167e+01    0.2569381    0.1876525 -68.87 0.0005375756    1.697    0.411
       441  -8.6578    119.4223     55.8047   3.1991796914e+01   4.7690190403e+01    0.2806634    0.2308769 -75.75  0.000706145    1.453    0.312
       442  -8.6604     44.0882     55.2869   5.7139718550e+01   6.0940884168e+01     0.277587    0.1594879 -63.90  0.001285791    1.715    0.417
       443  -9.1254     62.8894     54.3923   4.9742001917e+01   5.8729773229e+01    0.3087811     0.177777 -56.23 0.0006258681    1.690    0.408
       444  -8.8200     54.1306     53.8069   5.2825049183e+01   6.0050352385e+01    0.3709069    0.1956097 -66.28  0.001246044    2.484    0.597
       445  -8.4901    105.8463     53.0784   3.4887390307e+01   5.1241816887e+01    0.2308347    0.1986499 -68.48 0.0006027787    1.322    0.243
       446  -9.3963     92.5028     50.3893   3.8029777984e+01   5.4497096716e+01     0.396755    0.2372104 -52.97   0.00111709    1.839    0.456
       447  -8.2192    146.9940     58.9924   2.6149448393e+01   4.0306640419e+01    0.2568785    0.1876999 -66.54 0.0006110186    1.638    0.389
       448  -7.8369    144.9869     49.2026   2.3239066269e+01   4.2537292594e+01    0.2153242    0.2082891 -34.48  0.000722316    1.044    0.042
       449  -8.1304    129.5645     49.0099   2.6865897256e+01   4.6489422648e+01    0.2403165    0.1497297 -34.92 0.0003932658    1.590    0.371
       450  -8.4137    173.1843     47.1459   1.6779532244e+01   3.5288692679e+01    0.2302294    0.2117857  28.70 0.0004467091    1.197    0.164
       451  -8.2766    120.6289     47.2427   2.8541331973e+01   4.8960499033e+01    0.2133351    0.1436653 -24.79 0.0007500575    1.607    0.378
       452  -8.6204    112.1597     46.6359   3.0649557942e+01   5.1032151264e+01    0.2638468    0.1949492 -48.02 0.0007829499    1.395    0.283
       453  -8.8874     82.3211     46.5193   3.9955598752e+01   5.7157292217e+01    0.2839409    0.2227086 -62.39 0.0007591773    1.508    0.337
       454  -8.5309     45.0717     44.4936   5.3263740026e+01   6.3113090279e+01    0.2309281    0.1635385 -64.39  0.000617088    1.529    0.346
       455  -9.2012     16.7417     44.5804   6.5190367512e+01   6.5717712547e+01    0.2233615    0.1608643 -71.78 0.0006171807    1.336    0.252
       456  -8.2432    132.8353     43.0864   2.3881237322e+01   4.6673133646e+01    0.2382031    0.2049129 -63.47 0.0004892521    1.269    0.212
       457  -8.6316     92.8421     42.2925   3.4808013431e+01   5.5935892327e+01    0.2807884    0.1843742 -10.98  0.001225783    2.085    0.520
       458  -8.6389     58.2136     42.4998   4.7279509871e+01   6.1822363809e+01    0.2492713     0.192398 -65.86 0.0009456252    1.566    0.361
       459  -9.6472      5.2435     41.8711   6.9439480686e+01   6.6992676758e+01    0.3376117    0.1828936 -81.63  0.001726596    2.078    0.519
       460  -8.6071    105.9801     41.2490   3.0352459273e+01   5.3353730886e+01    0.2701614    0.1954944 -57.06 0.0007007492    1.648    0.393
       461  -9.2296     69.6529     41.3158   4.2457648321e+01   6.0320156763e+01    0.2970587    0.2161077 -60.10 0.0008937196    1.645    0.392
       462  -8.4569     36.8598     40.5770   5.5333131363e+01   6.4821428658e+01    0.2330034    0.1507432 -68.44 0.0006795407    1.836    0.455
       463  -7.5855    160.7059     39.3828   1.6518151717e+01   3.9899111415e+01    0.1705529    0.1140068 -61.71 0.0007018101    1.759    0.431
       464  -8.8367     95.5922     37.8399   3.2142760121e+01   5.6156170959e+01    0.2705293    0.2039964 -57.86 0.0007901478    1.604    0.377
       465  -8.4696     80.7825     36.4363   3.6471584132e+01   5.9291069673e+01    0.2564574    0.1560906 -46.97 0.0005928868    1.684    0.406
       466  -9.3425     26.1894     35.0552   5.8113649141e+01   6.6962864524e+01    0.3301792    0.1813028 -64.00 0.0009668561    1.883    0.469
       467  -8.1515    126.0178     35.3159   2.2604304740e+01   4.9611281999e+01    0.2041394    0.1984172  43.86 0.0004919034    1.028    0.027
       468  -8.7444    111.9247     34.4406   2.5939398322e+01   5.3129239066e+01    0.2778455    0.1913845 -47.68 0.0005683232    1.577    0.366
       469  -8.8157     48.5642     33.0446   4.7510585328e+01   6.4946454030e+01    0.2335049    0.1878095 -62.25 0.0006897523    1.489    0.329
       470  -8.4129    119.3982     33.2085   2.3448933891e+01   5.1552617290e+01    0.2106892    0.1326242 -42.05 0.0005053532    1.632    0.387
       471  -8.8019     60.8338     32.4978   4.2247317357e+01   6.3332955125e+01    0.2321643     0.194836 -61.32 0.0006989226    1.470    0.320
       472  -8.8514     72.0559     30.5637   3.7108187797e+01   6.1859959044e+01    0.2983389     0.175283 -50.72 0.0009803909    1.972    0.493
       473  -8.7423     12.9862     30.2544   6.2643617996e+01   6.8946258079e+01    0.2486226     0.148622 -73.85  0.001009393    1.966    0.491
       474  -8.2540    101.6381     29.1678   2.6684571205e+01   5.6266625007e+01    0.2242786    0.1698688 -45.51 0.0006667735    1.418    0.295
       475  -7.8201     42.2821     29.6764   4.8850298781e+01   6.6356154548e+01    0.1145155   0.09565058 -70.95 0.0004614685    1.594    0.373
       476  -8.8698     81.6074     27.2024   3.2211443631e+01   6.0683819329e+01    0.2904401    0.2045244 -53.34 0.0008941668    1.763    0.433
       477  -9.0324      3.8390     27.5712   6.6224036022e+01   7.0029013707e+01    0.2154392    0.1307059 -77.98  0.001289504    1.900    0.474
       478  -8.8448     91.9347     26.3458   2.8422727007e+01   5.8765737003e+01    0.2943383    0.1785687 -44.91 0.0007436088    1.796    0.443
       479  -8.5607    104.4908     22.9547   2.3194068924e+01   5.6534489243e+01    0.2137509    0.1355343 -30.18 0.0006106419    1.546    0.353
       480  -8.3008    120.9693     21.7117   1.8387340567e+01   5.2796574485e+01    0.1999283    0.1886978  48.65 0.0004070427    1.053    0.051
       481  -8.9260     63.5783     20.6452   3.5833591786e+01   6.4910065949e+01    0.3055832    0.1836085 -47.39 0.0009881724    1.878    0.468
       482  -8.6806     48.4542     21.2960   4.2446753995e+01   6.7067990408e+01    0.2071399    0.1952105 -39.93 0.0006688359    1.294    0.227
       483  -8.0171     19.5014     20.9994   5.6081770175e+01   7.0270825282e+01    0.1524892   0.09715857 -74.50 0.0008100814    2.497    0.599
       484  -8.8614     74.2232     19.5438   3.1289366682e+01   6.3235732510e+01     0.258836    0.2011357 -54.89 0.0007507725    1.677    0.404
       485  -8.0520     38.7923     18.0739   4.5329710368e+01   6.8851440678e+01    0.1656096   0.08360311 -43.44 0.0005805272    1.700    0.412
       486  -7.5424    211.7184     17.6996   2.1077158606e+00   2.8782488963e+01    0.1399889    0.1112335  35.66  0.000174989    1.547    0.354
       487  -8.1018    112.5343     16.9246   1.8439788664e+01   5.5455707521e+01    0.2068889    0.1388501 -22.50 0.0004488748    1.511    0.338
       488  -8.3857     87.8735     17.1645   2.5534777537e+01   6.0921181302e+01    0.2025236    0.1798376 -42.30 0.0006882306    1.272    0.214
       489  -7.9224     30.0203     15.7795   4.8503930162e+01   7.0233613132e+01     0.161036    0.1202869 -56.50   0.00101749    1.597    0.374
       490  -8.0035     97.4400     14.9722   2.1626559631e+01   5.9168935715e+01    0.2061067    0.1301881 -26.45 0.0004600306    1.551    0.355
       491  -7.6493     17.3324     13.7144   5.4123259857e+01   7.1787380018e+01   0.09802251   0.08861518 -82.50  0.000292967    1.619    0.382
       492  -8.9198    132.7349    248.1223   6.7393238530e+01   7.0136860161e+00    0.3142748    0.1542041  63.29  0.001102445    2.378    0.579
       493  -8.1773    113.2365    248.6982   7.0705979067e+01   9.9538192867e+00    0.1719138    0.1247224 -83.90   0.00124618    1.598    0.374
       494  -9.2609    103.8415    246.5147   7.2078740541e+01   1.1696705666e+01    0.3791294    0.1860835 -87.75  0.001949377    3.241    0.691
       495  -8.2473     93.8055    249.2077   7.3955799631e+01   1.2770702220e+01    0.1951606   0.08073116  66.01  0.000951364    2.821    0.646
       496  -9.2045    243.2361    246.1217   4.8976716574e+01  -9.9925800740e+00    0.3358199    0.1681724 -17.78     0.002054    2.437    0.590
       497  -9.0865    218.6346    246.6712   5.2951012249e+01  -6.4200114502e+00    0.2879818    0.1261187 -28.09  0.001595551    3.043    0.671
       498  -9.1975    175.7053    247.5115   6.0115179207e+01   2.2314804851e-01    0.2643276    0.1781631  66.08  0.001203394    1.935    0.483
       499  -8.8618    156.1820    247.9427   6.3435593510e+01   3.3046305299e+00    0.2082635    0.1520296  59.08 0.0008809557    1.292    0.226
       500 -10.0746    223.9257    243.8045   5.1700358377e+01  -6.9349354946e+00    0.3570173    0.2181678 -42.53  0.002319909    2.410    0.585
       501  -9.3910    147.1791    246.1018   6.4749521303e+01   4.9921247361e+00     0.312048    0.1733506  66.52  0.001710903    2.344    0.573
       502  -9.3394    120.0389    245.0246   6.9228242373e+01   9.4433822338e+00    0.3043321    0.1751052  80.53  0.001615573    2.369    0.578
