#   1 NUMBER                 Running object number                                     
#   2 MAG_AUTO               Kron-like elliptical aperture magnitude                    [mag]
#   3 X_IMAGE                Object position along x                                    [pixel]
#   4 Y_IMAGE                Object position along y                                    [pixel]
#   5 X_WORLD                Barycenter position along world x axis                     [deg]
#   6 Y_WORLD                Barycenter position along world y axis                     [deg]
#   7 A_WORLD                Profile RMS along major axis (world units)                 [deg]
#   8 B_WORLD                Profile RMS along minor axis (world units)                 [deg]
#   9 THETA_WORLD            Position angle (CCW/world-x)                               [deg]
#  10 FWHM_WORLD             FWHM assuming a gaussian core                              [deg]
#  11 ELONGATION             A_IMAGE/B_IMAGE                                           
#  12 ELLIPTICITY            1 - B_IMAGE/A_IMAGE                                       
         1 -14.9385      6.9686    146.2935   1.4283627400e+02   4.2604174679e+01     5.511539     1.479021 -86.89   0.02366517    3.769    0.735
         2 -13.5549    195.9031     28.0097   6.8625044330e+01   3.2401736879e+01     1.747575      1.46329  15.54  0.007102703    1.197    0.165
         3 -13.5474    211.3170      7.8214   6.0334436449e+01   3.0386034280e+01     1.431854    0.9593601  37.99  0.004796197    1.562    0.360
         4 -11.9192      2.2405      9.9756   1.2571875814e+02   7.2049098662e+01    0.6999604     0.183713 -65.37  0.002784515    3.465    0.711
         5  -9.8290     47.0006    249.4943   1.4103235844e+02   2.1800299962e+01    0.1317242   0.06540302  43.07 0.0003882947    1.515    0.340
         6 -12.2069    139.8645    248.7520   1.2651894884e+02   1.0808840036e+01    0.3817936    0.2745405  51.64  0.003067528    1.226    0.185
         7 -11.3175    156.8975    248.0458   1.2370680426e+02   8.5626333873e+00    0.2726418     0.188824   1.25  0.001910892    2.239    0.553
         8 -11.7632    124.6848    249.7805   1.2904195847e+02   1.2700650506e+01    0.4871612    0.1160541  42.02  0.002344216    2.870    0.652
         9 -11.2694     99.7107    248.8316   1.3292754286e+02   1.5981111847e+01    0.2953823    0.1969831  19.06  0.002056363    2.396    0.583
        10 -10.0594     29.8724    250.1760   1.4355276867e+02   2.3375928297e+01    0.2072242    0.1212706  76.08  0.001600655    1.443    0.307
        11 -11.7435     35.0848    245.9613   1.4263624822e+02   2.3456932616e+01    0.4241674    0.3139792  79.98  0.004074425    1.289    0.224
        12 -10.3892     11.9454    249.8118   1.4607114844e+02   2.5037563506e+01    0.1643401   0.08801739  66.46   0.00144712    1.322    0.243
        13  -9.8666      2.9422    249.3969   1.4730092399e+02   2.5852961098e+01    0.1419631   0.09928426  81.40  0.001010643    1.323    0.244
        14 -11.7507    146.9319    247.6792   1.2527789613e+02   9.9734141851e+00    0.3692578    0.2236292  57.60   0.00256581    1.793    0.442
        15 -11.4544    244.0241    245.6582   1.0965768647e+02  -3.3529946690e+00    0.2939351    0.1048581  31.17  0.001644102    2.081    0.520
        16 -11.1292     21.5145    244.4200   1.4455237038e+02   2.4933853316e+01    0.3516824   0.09932769  55.89  0.002171889    2.383    0.580
        17  -9.8830     82.4925    243.4779   1.3527135039e+02   1.8745304109e+01   0.09816945   0.06954765  53.26 3.928794e-05    1.002    0.002
        18 -11.2316     12.2821    239.8491   1.4573604050e+02   2.6387490473e+01    0.3098546   0.09755322  54.83  0.001658724    2.055    0.513
        19 -14.4815    102.6466    229.1866   1.3090649110e+02   1.8232343257e+01     6.048662          nan  42.78   0.01538039    9.976    0.900
        20 -10.3783    173.2523    222.0714   1.1799616011e+02   9.1649743005e+00    0.2280431    0.1734685  33.91  0.001403633    1.023    0.022
        21 -10.2245    248.6736    249.5250   1.0948312048e+02  -4.2615039733e+00    0.2925605   0.08194865  33.51  0.001487033    2.568    0.611
        22  -9.0203    152.6453    213.0665   1.2048335701e+02   1.3418930881e+01    0.1423395    0.1248268  37.27 0.0003287182    1.132    0.117
        23 -12.4145      9.7283    206.8766   1.4504546773e+02   3.1574661056e+01    0.5894274    0.2995785  34.41  0.003331365    1.990    0.498
        24 -11.7259     60.9674    200.2501   1.3589741103e+02   2.7715667513e+01    0.2066001    0.1853759 -86.36 0.0005027315    1.304    0.233
        25  -9.8889    194.2100    197.0318   1.1072879625e+02   8.8725710679e+00    0.3741403    0.2208165 -61.92  0.001477959    5.583    0.821
        26 -10.9254     17.1356    198.3560   1.4348391708e+02   3.2345527892e+01    0.2167592    0.1239043  52.24 0.0006628591    1.357    0.263
        27 -11.9485     67.3206    191.7105   1.3405572976e+02   2.8436142516e+01    0.2087342     0.193036  80.08 0.0004623315    1.244    0.196
        28 -13.9727     39.2985    227.7391   1.4120044808e+02   2.5656222329e+01    0.7870843    0.4250583  52.90  0.003390852    1.331    0.249
        29 -13.0544     49.0465    216.7727   1.3904515175e+02   2.6339269748e+01    0.8596441    0.7619333 -34.49  0.005654028    1.880    0.468
        30  -9.0224    177.5044    227.5056   1.1795770583e+02   7.8978337365e+00    0.1126123   0.08313138  36.42 0.0001077333    1.048    0.046
        31 -13.2539     64.2566    176.9440   1.3336689702e+02   3.1405809872e+01    0.3926161    0.2390379 -47.59  0.001852423    2.233    0.552
        32 -10.8020     77.5735    178.5622   1.3085132937e+02   2.9516830745e+01    0.1994444    0.1717352  64.89 0.0003064066    1.048    0.046
        33  -9.7512    100.0622    176.5947   1.2606406500e+02   2.6889341410e+01    0.2941591    0.1575991  59.74   0.00149296    2.078    0.519
        34 -11.8478     85.3510    169.1251   1.2823189702e+02   3.0246322089e+01    0.5598907    0.5165523  18.63  0.004065294    1.356    0.262
        35  -8.4728     69.6484    234.6727   1.3674992414e+02   2.1437612046e+01   0.08318438   0.07347027  13.77 0.0007047874    1.765    0.433
        36 -10.1411     97.6446    153.0936   1.2348383633e+02   3.1590441978e+01     0.265951    0.2486705 -70.00 0.0008479824    1.142    0.124
        37  -9.3808    100.6302    148.8833   1.2218531811e+02   3.1971367866e+01    0.2099644    0.1714945  21.34 0.0004055808    1.442    0.306
        38 -12.0189     86.2666    152.4396   1.2595678496e+02   3.3311219005e+01    0.2455753    0.2188562 -46.02 0.0006001182    1.320    0.243
        39  -9.0129    134.0000    146.5124   1.1421369522e+02   2.7018063651e+01    0.2775466    0.0765412 -48.60 0.0009351647    3.938    0.746
        40 -12.1429     67.4091    143.6029   1.2913859328e+02   3.7490696902e+01    0.6035999    0.3526281  61.36  0.003339755    1.813    0.448
        41 -10.3561     96.6149    135.3049   1.2097763790e+02   3.5279129538e+01     0.217392    0.2040908 -12.52  0.000342103    1.255    0.203
        42 -10.2654     32.9258    132.3660   1.3601104336e+02   4.3396512644e+01    0.2455889    0.1276123  65.24  0.001366943    2.004    0.501
        43  -9.9528    109.4264    137.8892   1.1834483854e+02   3.2784651044e+01    0.3806054    0.2598897 -14.55   0.00142755    2.527    0.604
        44 -12.9058     34.3904    234.7553   1.4227738652e+02   2.5104758104e+01    0.2332315    0.1996004  78.29 0.0007171664    1.357    0.263
        45 -10.0356    248.2472    230.9904   1.0692865161e+02  -2.7763473781e+00    0.1222602   0.07970973 -11.42 0.0005173945    1.598    0.374
        46  -9.0193    106.7468    124.2800   1.1650399362e+02   3.5966633486e+01    0.1651285       0.1494   3.84 0.0003084629    1.268    0.212
        47  -9.4333    167.8366    112.9251   9.9348823523e+01   2.6513092872e+01    0.2453729    0.2156781  63.34 0.0008686775    1.351    0.260
        48  -9.2819    203.4448    111.5391   9.1648340456e+01   1.9031545119e+01    0.1498474     0.129115  11.21 0.0001432513    1.031    0.030
        49  -9.0340     38.5009     94.9169   1.3000039190e+02   5.1055693532e+01    0.1651293    0.1509273 -85.92 0.0003889417    1.104    0.094
        50  -9.9070    242.0095     91.5072   7.9880532533e+01   1.3436339408e+01    0.1794486    0.1306545 -87.18 0.0008104668    2.550    0.608
        51  -8.4277     68.4512     83.4668   1.1866413634e+02   5.0410425020e+01    0.1321558    0.1186228 -69.21 0.0001962467    1.087    0.080
        52  -9.5737    157.9368     76.4740   9.1586261394e+01   3.5101920377e+01    0.2335271    0.1506582  48.67 0.0004724548    1.555    0.357
        53  -9.4843     40.8236     66.4113   1.2400017305e+02   5.7273006581e+01    0.4495452    0.1420149  47.78  0.001407762    6.133    0.837
        54 -11.3940      2.0018     60.2325   1.3664265750e+02   6.1204131463e+01    0.4862784    0.1275384 -77.25  0.001909285    3.427    0.708
        55 -11.1044     13.9942     54.8097   1.3141145513e+02   6.1837282168e+01    0.2385179    0.1907879  54.81 0.0008678311    1.534    0.348
        56 -12.5084      2.9043     41.3353   1.3326004951e+02   6.5342933826e+01    0.8675821    0.1951488 -71.90  0.003226371    3.746    0.733
        57 -11.8717    171.8287    248.2029   1.2131974755e+02   6.4676849720e+00    0.3965718     0.170132  35.72  0.002377499    1.758    0.431
        58 -10.3523     82.1247    248.8728   1.3567822007e+02   1.8072222173e+01    0.1561169   0.09401409  56.35 0.0008001308    1.263    0.209
