#   1 NUMBER                 Running object number                                     
#   2 MAG_AUTO               Kron-like elliptical aperture magnitude                    [mag]
#   3 X_IMAGE                Object position along x                                    [pixel]
#   4 Y_IMAGE                Object position along y                                    [pixel]
#   5 X_WORLD                Barycenter position along world x axis                     [deg]
#   6 Y_WORLD                Barycenter position along world y axis                     [deg]
#   7 A_WORLD                Profile RMS along major axis (world units)                 [deg]
#   8 B_WORLD                Profile RMS along minor axis (world units)                 [deg]
#   9 THETA_WORLD            Position angle (CCW/world-x)                               [deg]
#  10 FWHM_WORLD             FWHM assuming a gaussian core                              [deg]
#  11 ELONGATION             A_IMAGE/B_IMAGE                                           
#  12 ELLIPTICITY            1 - B_IMAGE/A_IMAGE                                       
         1 -11.7864     58.7089     19.9795   2.9120105860e+02   7.2148847084e+00   0.02138247   0.01323176 -85.25  0.001340547    2.136    0.532
         2 -10.6418     33.6298     12.1255   2.9144689642e+02   7.4507632623e+00   0.01211098  0.009413402  55.33 0.0004542342    1.408    0.290
         3 -11.6935     33.9879     17.7695   2.9147655499e+02   7.3832262516e+00   0.01730731   0.01320532 -68.26  0.001234393    1.343    0.256
         4 -11.8530     42.1571     13.8131   2.9135739399e+02   7.3819890870e+00   0.02412706   0.01386654 -60.75  0.002347986    1.704    0.413
         5 -12.4877     48.9032     10.3987   2.9125810516e+02   7.3826506355e+00   0.03141102   0.01923556  57.57  0.002974639    2.035    0.509
         6 -10.6807     26.2787     15.5714   2.9155344699e+02   7.4531811839e+00   0.01699414  0.007913258 -51.87  0.001493345    2.052    0.513
         7 -11.1358     13.0696     13.7458   2.9169685430e+02   7.5504767604e+00   0.01611905  0.008890605 -55.63 0.0006084571    1.736    0.424
         8 -11.8128     16.9083      7.5355   2.9161476829e+02   7.6004007414e+00   0.01756327   0.01310994  -6.82 0.0007731467    1.572    0.364
         9 -11.7119    177.9478     12.9093   2.8976754541e+02   6.6056845021e+00   0.01923558    0.0101859  33.28  0.001734656    1.837    0.456
        10 -11.5239     78.0399     11.5328   2.9092463304e+02   7.2011139364e+00   0.01504413   0.01208298 -75.32  0.000816348    1.319    0.242
        11 -11.2265     74.4827      9.3606   2.9095312641e+02   7.2468786813e+00   0.02196312  0.007032832 -66.19  0.001493513    3.562    0.719
        12 -11.8888    176.2673      7.3618   2.8975374891e+02   6.6797494093e+00   0.01374104   0.01156806  -7.65 0.0009770003    1.293    0.227
        13 -11.5509    107.6766      7.4481   2.9055414557e+02   7.0769035980e+00   0.01338965   0.01155076  45.94 0.0005745598    1.191    0.161
        14 -11.0394     24.6624      6.9621   2.9152071418e+02   7.5623630560e+00   0.01095273  0.009340554  41.93 0.0004638134    1.193    0.162
        15 -10.3531    191.0205      6.0118   2.8957374714e+02   6.6095795188e+00  0.007975357  0.007823392 -45.89 0.0004268058    1.009    0.009
        16 -10.5241     61.2598      6.2902   2.9108911617e+02   7.3589250263e+00   0.01179158  0.008207588   8.10  0.001036187    1.645    0.392
        17 -11.3900     30.4720      3.8291   2.9143403493e+02   7.5652008145e+00    0.0231254   0.01432136  70.69  0.002098297    2.325    0.570
        18 -11.3858    217.7686      2.9492   2.8924385997e+02   6.4893332528e+00   0.01516735   0.01056828 -48.81 0.0008725169    1.418    0.295
        19 -11.0349    134.6480      4.0637   2.9021912051e+02   6.9597389445e+00    0.0121864  0.009641816  15.77 0.0005577444    1.321    0.243
        20 -11.5562     68.4376      4.0778   2.9099200211e+02   7.3430944302e+00   0.01478853  0.009549218   2.11  0.001019869    1.959    0.490
        21  -9.9803      1.8639      4.1862   2.9177053532e+02   7.7258825456e+00  0.009510454  0.007541284 -30.17 0.0006748847    1.350    0.259
        22 -10.5647    233.3813      2.7845   2.8906118275e+02   6.4002623719e+00  0.009603009  0.005762462 -51.15 0.0004701299    1.624    0.384
        23  -9.8405    118.6779      3.3271   2.9040100144e+02   7.0609148020e+00  0.007008808  0.004971237  62.74 0.0007048293    1.688    0.408
        24 -11.0650     91.3863      2.5379   2.9071478755e+02   7.2281848546e+00   0.01195114  0.009835181  47.21 0.0007556365    1.261    0.207
        25 -11.3256     75.2564      2.6946   2.9090406390e+02   7.3197035490e+00   0.02018443  0.008553215  38.86   0.00168849    2.328    0.570
        26 -11.2832    159.4306      1.8480   2.8991680626e+02   6.8415118796e+00   0.01215246  0.009657344   9.61  0.000880609    1.351    0.260
        27 -10.6880     86.0966      2.0065   2.9077335273e+02   7.2649645638e+00  0.009672421  0.009554788   3.50 0.0002947598    1.015    0.015
        28 -10.9222     37.9051      2.1705   2.9133722928e+02   7.5415574832e+00   0.01012064  0.008562261  56.85 0.0003922766    1.267    0.211
        29 -10.6801    179.9847      1.4728   2.8967499533e+02   6.7263723490e+00  0.009994117  0.006538559  24.98 0.0003364118    1.550    0.355
        30 -10.0357    138.4639      1.4554   2.9015892808e+02   6.9678252058e+00  0.006567112  0.006383818 -29.21 9.712258e-05    1.023    0.023
        31 -10.4705     53.1283      1.5083   2.9115539713e+02   7.4613550165e+00   0.01757727  0.006531364  26.27  0.001360249    2.717    0.632
        32 -12.4884     95.9110    211.4820   2.9191288204e+02   4.7752536010e+00   0.02904657   0.01980674  83.83 -3.278832e-05    1.917    0.478
        33 -10.8732    160.7982    249.3160   2.9138385084e+02   3.9603336805e+00   0.01458931   0.01108939 -69.83  0.001609823    1.361    0.265
        34 -12.1845    150.6149    247.5032   2.9149141242e+02   4.0403194288e+00   0.01820723   0.01354197 -41.90 0.0005764774    1.373    0.272
        35 -11.9931    136.6518    243.2867   2.9162860810e+02   4.1700828218e+00   0.01663458   0.01274602 -69.29  0.001094189    1.344    0.256
        36 -11.4327    138.1763    249.1147   2.9164564050e+02   4.0935385002e+00   0.01510604    0.0110566  49.90 0.0008820294    1.464    0.317
        37 -11.3539    141.5309    247.4861   2.9159692413e+02   4.0930641697e+00   0.01073915   0.01021268 -54.51 4.429551e-05    1.040    0.039
        38 -11.6935    142.1859    243.2272   2.9156390264e+02   4.1387662351e+00   0.02158882   0.01387866  82.31 0.0008434707    2.181    0.541
        39 -12.5418    128.1363    250.2625   2.9176922709e+02   4.1382518313e+00   0.01279423   0.01091893   3.63 0.0006087087    1.245    0.197
        40 -13.0761    120.9387    248.4909   2.9184236559e+02   4.2004458029e+00   0.04343316   0.01903063  19.07  0.003466112    2.710    0.631
        41 -12.7496     94.7303    248.6080   2.9214789105e+02   4.3504906111e+00   0.03156382   0.02085385   6.95   0.00267667    1.803    0.445
        42 -13.6221     68.4216    189.9073   2.9210426500e+02   5.1848080708e+00   0.02800557   0.02537649  57.72  0.003404441    1.157    0.136
        43 -13.1471     75.1812    183.0815   2.9198481910e+02   5.2251433165e+00   0.06552938   0.03699427  85.92  0.005304329    2.969    0.663
        44 -12.6618    103.7344    236.7859   2.9197271231e+02   4.4359097194e+00    0.0401837   0.02478226  89.37  0.003664442    2.281    0.562
        45 -13.1956     83.6777    229.2218   2.9216100496e+02   4.6396707121e+00   0.05060459   0.02245701 -38.30  0.003925144    2.899    0.655
        46 -14.2193     74.6853    203.8734   2.9211460471e+02   4.9862824747e+00    0.1038078   0.04807034  41.21  0.005580671    2.206    0.547
        47 -13.3495     89.0572    244.2234   2.9218777241e+02   4.4342155487e+00   0.02303814   0.01515654  37.41 0.0007306832    1.515    0.340
        48 -14.6331     73.8310    228.2569   2.9226985075e+02   4.7077232190e+00   0.03305829    0.0283369 -84.77  0.002578267    1.254    0.203
        49 -12.0987     78.2663    222.0059   2.9218098990e+02   4.7548002332e+00   0.01580746   0.01102812  27.52 0.0004155378    1.435    0.303
        50 -13.3331     73.7648    215.3592   2.9219378188e+02   4.8580584401e+00   0.08142696   0.02206821  44.00  0.004134964    4.569    0.781
        51 -14.0667     75.0013    240.0836   2.9232665820e+02   4.5634693514e+00   0.02631889   0.01833433  55.79   0.00166012    1.636    0.389
        52 -12.9733     67.7028    234.8418   2.9238038140e+02   4.6665214410e+00   0.02547644   0.01575835 -60.03  0.001908053    1.579    0.367
        53 -12.9804     62.5311    219.7079   2.9235045911e+02   4.8723144332e+00   0.01307653    0.0127343 -59.39 0.0005995852    1.024    0.023
        54 -12.3349     59.3663    215.0330   2.9235945857e+02   4.9449248270e+00   0.03606308   0.02379358 -59.46  0.002146323    1.481    0.325
        55 -13.2522     96.8004    238.8740   2.9206582433e+02   4.4516891682e+00   0.03106983   0.01974723 -28.75  0.003011956    1.917    0.478
        56 -13.5454     88.3677    236.2211   2.9214813088e+02   4.5312239040e+00   0.05318487   0.02682157  11.14  0.003690488    2.705    0.630
        57 -13.7414    113.8805    238.9353   2.9186749583e+02   4.3523003587e+00   0.03010781   0.02696068  -1.70  0.001989688    1.168    0.144
        58 -12.4779    118.8073    233.4249   2.9177732970e+02   4.3878734096e+00   0.01929397   0.01409323 -82.63  0.001126255    1.571    0.364
        59 -10.4444     83.7892    250.6080   2.9228707299e+02   4.3904039031e+00  0.009021305  0.006429474  21.68 0.0009532307    1.444    0.307
        60 -12.0120     52.5110    250.4910   2.9265026662e+02   4.5721734689e+00   0.01257392   0.00746655  38.23 -0.0001718471    1.677    0.404
        61 -14.6374     47.4008    199.2328   2.9240466860e+02   5.1976381710e+00   0.08338511   0.05157471   6.79  0.007937986    2.015    0.504
        62 -13.1306     42.6270    211.0294   2.9253051611e+02   5.0879876660e+00   0.04705331   0.02240038  30.86  0.004211684    2.036    0.509
        63 -14.2791     24.2172    198.8687   2.9267252413e+02   5.3354541679e+00   0.06403375   0.05142987  30.09  0.006157471    1.245    0.197
        64 -13.2137     47.2079    229.7104   2.9258837279e+02   4.8443652079e+00    0.0150239   0.01375458  17.71 0.0007346334    1.106    0.096
        65 -14.8857     33.7246    225.3412   2.9271933386e+02   4.9728608141e+00    0.1006734   0.05155763  31.35    0.0092522    1.900    0.474
        66 -14.5227     33.6311    215.5564   2.9266220939e+02   5.0871812646e+00   0.06352576   0.04553727  65.37  0.005264171    1.683    0.406
        67 -12.2799     46.9485    243.9703   2.9267621595e+02   4.6800514468e+00   0.03747772    0.0171196 -53.38  0.002058928    2.071    0.517
        68 -14.0519      3.7627    200.8274   2.9292243397e+02   5.4303981097e+00   0.05182427   0.02605209 -55.26  0.004640128    1.889    0.471
        69 -15.9045     10.6693    217.3733   2.9294038206e+02   5.1982488338e+00    0.1164805   0.04276099 -54.88  0.009322476    2.494    0.599
        70 -13.5933     17.3745    209.3606   2.9281465172e+02   5.2528419297e+00   0.02770863   0.02163129  49.64  0.002877004    1.353    0.261
        71 -13.5991     43.8321    237.4246   2.9267355384e+02   4.7741210819e+00    0.0417731    0.0247027  -9.71  0.003621913    2.550    0.608
        72 -14.2770     33.9012    248.8332   2.9285694862e+02   4.6986750168e+00   0.02844237   0.01866258  34.85  0.002441029    1.508    0.337
        73 -14.7199      4.3669    235.2061   2.9311971811e+02   5.0271211523e+00   0.03105268   0.02194376   6.65  0.003255459    1.626    0.385
        74 -16.5538     19.9796    247.8165   2.9301290730e+02   4.7906498250e+00    0.1094403   0.05839193  16.60  0.009822974    2.173    0.540
        75 -16.1803      6.1223    245.8625   2.9316256439e+02   4.8930994601e+00   0.08601789   0.04275802 -40.37  0.007436276    2.296    0.565
        76 -11.9220    128.5140    228.3772   2.9163430795e+02   4.3904194088e+00   0.01765526   0.01269964  21.82 0.0003028887    1.428    0.300
        77 -12.4020    104.5109    209.0384   2.9179821019e+02   4.7539678458e+00   0.03910473   0.02605964 -70.75   0.00268353    1.596    0.373
        78 -12.0358     98.0049    205.2898   2.9185157174e+02   4.8351399511e+00   0.02176313   0.01961643  39.36  0.001479522    1.122    0.109
        79 -11.9632    123.4162    224.8019   2.9167227787e+02   4.4614525751e+00   0.02180556   0.01007685  35.67 0.0009879277    2.091    0.522
        80 -12.5565    117.1364    218.9387   2.9171035698e+02   4.5659084203e+00   0.02904394   0.01831584  85.33  0.001552831    2.244    0.554
        81 -11.8134    108.9447    215.7002   2.9178635545e+02   4.6509053753e+00   0.01434614   0.01185791  -3.43 0.0003701665    1.325    0.245
        82 -11.9362    112.3861    214.1704   2.9173718112e+02   4.6487953992e+00   0.02196282   0.01110718 -68.88  0.001932671    2.167    0.539
        83 -10.0143    211.6665    228.1435   2.9066623504e+02   3.9116505380e+00  0.009479205  0.005620835 -52.02 0.0004018177    1.635    0.388
        84  -9.8203    165.2483    228.6665   2.9120883800e+02   4.1744974435e+00   0.00660643  0.005044947  71.62 0.0002157258    1.554    0.356
        85 -10.8835    201.8170    226.5305   2.9077102795e+02   3.9874742636e+00   0.01398691  0.008778197 -50.85  0.001411565    1.556    0.357
        86 -10.0509    139.9955    226.9745   2.9149238980e+02   4.3403107365e+00  0.008165943  0.007151399  24.47 0.0003915308    1.150    0.130
        87 -11.9306    158.2044    224.5640   2.9126623717e+02   4.2629444392e+00   0.01342897   0.01278142  -4.35  0.000429284    1.067    0.063
        88  -9.9616    170.6798    225.3396   2.9112581761e+02   4.1817001252e+00  0.007060326  0.004975702  63.61 0.0007050017    1.715    0.417
        89 -11.7078    162.8307    222.2784   2.9119879060e+02   4.2627174464e+00   0.02384643   0.01391196 -86.96  0.001633033    2.469    0.595
        90 -11.0036    162.4567    217.5311   2.9117477932e+02   4.3200428617e+00   0.01089248  0.009473936  48.14 0.0006500465    1.188    0.158
        91  -9.3385     52.2518    225.2799   2.9250329312e+02   4.8668055813e+00   0.01005688  0.007769636 -54.66 0.0002475307    1.266    0.210
        92 -11.3450     53.2699    220.9501   2.9246566661e+02   4.9112798884e+00   0.01463708    0.0122688  84.96  0.001066915    1.330    0.248
        93  -9.8248    178.3408    224.3064   2.9103058174e+02   4.1493327558e+00  0.007062896  0.004926977 -25.99 0.0007042147    1.684    0.406
        94 -10.0875    250.1644    223.6257   2.9019211750e+02   3.7408369852e+00  0.009827114  0.008309309 -48.96  0.000456069    1.167    0.143
        95 -10.1301    250.4498    220.4591   2.9016985037e+02   3.7759402087e+00  0.006497943  0.006452025  85.61 5.458258e-05    1.026    0.025
        96 -10.0976    149.0420    223.5142   2.9136651893e+02   4.3281766543e+00   0.00944857  0.006556458  24.27 0.0003129602    1.464    0.317
        97 -11.8189    198.4780    219.8223   2.9076972139e+02   4.0847419062e+00   0.02314135   0.01885471  52.44  0.002654386    1.304    0.233
        98 -11.9398    193.2942    214.5387   2.9079837526e+02   4.1761589755e+00   0.01938285   0.01314473  87.16  0.001913896    1.913    0.477
        99  -9.9056    184.1949    222.6340   2.9095253743e+02   4.1348490000e+00  0.009027658  0.006325535  10.08 0.0003707632    1.607    0.378
       100 -10.3780    243.7681    221.0783   2.9025113225e+02   3.8075200764e+00  0.009885027   0.00862656  63.92  0.001160605    1.236    0.191
       101 -10.8997    129.9251    206.7003   2.9148850128e+02   4.6341924695e+00   0.01198252  0.009123043 -61.58 0.0005738852    1.301    0.231
       102 -11.6667    133.5787    218.2851   2.9151516181e+02   4.4784174125e+00   0.02438699    0.0137645  53.40  0.001437033    2.159    0.537
       103 -11.8472    130.0072    212.2826   2.9152087721e+02   4.5688394160e+00   0.02616731   0.01320118 -65.29  0.002349414    2.039    0.510
       104 -10.8430    124.7855    219.9494   2.9162739214e+02   4.5099338971e+00   0.01460481   0.01131022 -72.33 0.0008395142    1.353    0.261
       105 -10.4555    128.2950    217.7016   2.9157314754e+02   4.5157622502e+00   0.01031276  0.008779659  47.53 0.0001884505    1.215    0.177
       106 -10.7272    124.7130    216.3640   2.9160683854e+02   4.5520247380e+00   0.01601399    0.0102671  24.99 0.0006721214    1.582    0.368
       107 -11.4088    140.6017    218.6555   2.9143567611e+02   4.4334812180e+00   0.01613338    0.0121064  57.47 0.0006825147    1.494    0.331
       108 -10.1113    220.8298    219.6169   2.9050878698e+02   3.9575399717e+00  0.009294703  0.005847817  38.54 0.0005466759    1.590    0.371
       109 -11.2920    206.2687    218.9801   2.9067415143e+02   4.0493645703e+00   0.01155051  0.009171964  38.09 0.0003243558    1.267    0.211
       110 -11.7394    176.6247    216.4821   2.9100377264e+02   4.2501728304e+00   0.01651853   0.01290534 -14.65 0.0007286056    1.458    0.314
       111 -11.1912    229.4389    216.8372   2.9039215389e+02   3.9398863817e+00   0.01742502   0.01310032 -15.66  0.001874119    1.554    0.357
       112 -10.7359    230.7250    211.6035   2.9034589427e+02   3.9931951190e+00   0.01438235   0.01177896  77.83  0.001013809    1.392    0.282
       113 -10.8020     89.8917    216.8572   2.9201499424e+02   4.7475347172e+00   0.01077054  0.008584944 -48.28 0.0003153773    1.240    0.194
       114 -11.4471     93.4717    216.5247   2.9197134507e+02   4.7307232922e+00   0.01894188   0.01007502  31.68  0.001737428    1.833    0.455
       115 -10.7623     49.9813    216.1915   2.9247562112e+02   4.9855711262e+00   0.01322298  0.009600331 -38.38  0.001066698    1.446    0.309
       116 -10.1294    145.9769    215.0724   2.9135175668e+02   4.4440142111e+00  0.008346373  0.007044027 -61.91 0.0006640736    1.177    0.151
       117 -11.9508    217.1488    212.7694   2.9051058231e+02   4.0584057138e+00   0.01527294   0.01195378  32.42 0.0007390952    1.275    0.216
       118 -12.1118    211.8159    208.2302   2.9054538633e+02   4.1420486234e+00   0.02651555   0.01728941  31.16   0.00274852    1.517    0.341
       119 -10.6982    206.0958    207.8393   2.9060951894e+02   4.1797586518e+00   0.01190089  0.009352879 -75.65  0.001037874    1.357    0.263
       120 -10.7808    160.8863    212.5096   2.9116303891e+02   4.3874821666e+00   0.01147913  0.009218285  82.74 0.0008223829    1.434    0.302
       121 -10.5546    152.9907    212.6349   2.9125561568e+02   4.4317412734e+00  0.009764856  0.008447837 -61.25 0.0001522564    1.147    0.128
       122 -11.9027    237.9691    210.5733   2.9025559162e+02   3.9631262670e+00   0.01510185    0.0116598 -54.98            0    1.267    0.211
       123  -9.7842    173.2403    211.7330   2.9101473640e+02   4.3249542189e+00  0.006249848  0.004986151  66.84 0.0006757587    1.427    0.299
       124 -10.7307    142.8224    210.8195   2.9136304989e+02   4.5116934120e+00  0.009078314  0.007445564  58.80            0    1.329    0.247
       125 -11.7567    189.4843    207.1472   2.9079845985e+02   4.2841009814e+00   0.02051551   0.01632444 -57.32  0.002340269    1.234    0.190
       126 -11.9657    199.5342    204.8493   2.9066789217e+02   4.2525328897e+00   0.01201652   0.01160326 -87.14 0.0003746077    1.064    0.060
       127 -12.0638    183.3124    204.4977   2.9085436716e+02   4.3506504894e+00    0.0152089   0.01118151 -63.26 0.0001938882    1.357    0.263
       128  -9.9431    136.1324    206.1665   2.9141309079e+02   4.6044824743e+00  0.008871715  0.007510327  56.27 0.0003149154    1.261    0.207
       129 -11.8196    112.2787    205.3039   2.9168551828e+02   4.7524765804e+00    0.0133663   0.01134637  63.30            0    1.284    0.221
       130 -10.7250    145.6464    203.5315   2.9128665960e+02   4.5800424021e+00    0.0214181  0.008023256 -53.54  0.001712763    2.468    0.595
       131  -9.7933    122.3325    203.6963   2.9155891545e+02   4.7130257270e+00   0.01158617  0.008889233  56.50  0.001215988    1.440    0.306
       132 -11.2273    121.5811    198.9365   2.9153923889e+02   4.7726940414e+00   0.01361834    0.0116529  21.80 0.0005774513    1.184    0.155
       133 -10.9753    118.4058    203.2246   2.9160179760e+02   4.7412177296e+00   0.02059811    0.0100362 -55.37  0.001338165    1.945    0.486
       134 -11.2018    115.2991    200.9797   2.9162455116e+02   4.7852755040e+00   0.01665933   0.01265432 -47.10  0.001244492    1.307    0.235
       135 -10.2298    235.2399    203.1660   2.9024294289e+02   4.0649647613e+00   0.01144476  0.009084102  38.40 0.0005609618    1.268    0.212
       136  -9.9065    232.7169    200.6810   2.9025736968e+02   4.1084588821e+00   0.00920098  0.007699012  69.54 0.0004775263    1.333    0.250
       137 -10.9108    208.6975    202.9215   2.9054985784e+02   4.2217874242e+00  0.009297948  0.008560652 -69.12 0.0005753549    1.097    0.089
       138 -10.5406     57.9474    202.7410   2.9230275076e+02   5.0960289907e+00   0.01206592  0.008749222 -88.42   0.00104295    1.650    0.394
       139 -12.7694    241.2721    200.0599   2.9015428184e+02   4.0660170282e+00   0.02002587   0.01616587  76.26 0.0007832441    1.426    0.299
       140 -11.6571    247.1381    199.9403   2.9008544287e+02   4.0333550997e+00   0.01419412  0.009216585  40.68 0.0004123185    1.561    0.359
       141 -10.4741    166.9981    201.6712   2.9102717787e+02   4.4780159497e+00  0.009501542  0.008189037  31.87  0.001114224    1.163    0.140
       142 -10.5379    220.4348    201.2684   2.9040357347e+02   4.1729030793e+00  0.009243369  0.006476888 -80.29 0.0009437037    1.644    0.392
       143 -12.2205    214.3145    196.6625   2.9044712074e+02   4.2618956666e+00   0.02173845   0.01003005 -66.31  0.001842524    2.296    0.564
       144 -12.2046    216.8298    193.2445   2.9039742804e+02   4.2869958390e+00   0.02069926   0.01227955 -44.11 0.0004865584    1.738    0.425
       145 -11.9563    139.4705    197.5224   2.9132261156e+02   4.6856215236e+00   0.02254746   0.01685509  83.38   0.00201773    1.619    0.382
       146 -12.0473    139.9420    194.2424   2.9129752678e+02   4.7210091611e+00    0.0223459  0.009808977 -56.94  0.000293306    2.140    0.533
       147 -11.8969    205.7805    198.0394   2.9055454344e+02   4.2954066763e+00   0.01688582   0.01495041  50.38  0.002023383    1.171    0.146
       148 -11.3382    194.8096    186.6784   2.9061408071e+02   4.4909870128e+00   0.02070126   0.01263515  68.45  0.001857527    2.353    0.575
       149 -10.8915    190.3382    186.9535   2.9066771694e+02   4.5137212984e+00   0.01552007   0.01155461 -17.99 0.0009341179    1.571    0.364
       150 -13.4000    188.4441    196.4673   2.9074666851e+02   4.4141908289e+00   0.02355432   0.01817474  12.60 0.0005657626    1.385    0.278
       151 -11.1468    106.9822    194.8624   2.9168483919e+02   4.9044653558e+00   0.01887899   0.01172001 -23.71  0.001757598    2.115    0.527
       152 -11.6854    100.7802    198.4653   2.9177854271e+02   4.8984335972e+00   0.02491131   0.01285707  36.74  0.001425868    1.900    0.474
       153 -11.2103     94.7462    195.3687   2.9183030912e+02   4.9692978277e+00   0.01574335   0.01085312  -1.06 0.0009943123    1.779    0.438
       154 -13.3139      4.8569    214.4818   2.9299087721e+02   5.2653139777e+00   0.03010848   0.01710409  89.19  0.002500962    2.776    0.640
       155 -10.7274    224.1565    198.1588   2.9034171692e+02   4.1874190982e+00  0.009492869  0.007797026  60.02  0.000594801    1.333    0.250
       156 -10.5409    169.9950    196.6276   2.9096216554e+02   4.5192515141e+00   0.01457013   0.00825768 -52.92 0.0008584553    1.701    0.412
       157 -11.9217    248.8223    183.4940   2.8996735489e+02   4.2144927247e+00   0.03280459    0.0155704 -76.98  0.002240025    3.024    0.669
       158 -12.4664    250.4370    194.6457   2.9001541975e+02   4.0756663312e+00    0.0148069  0.008623758 -60.46 0.0006435234    1.679    0.404
       159 -13.0132    246.1906    190.8580   2.9004204119e+02   4.1442907254e+00    0.0200088   0.01717599  43.00 0.0006894627    1.188    0.158
       160 -11.1950    198.9134    195.0494   2.9061647070e+02   4.3699586209e+00  0.009533716  0.009469114  75.77 0.0003665438    1.026    0.025
       161 -11.7907    112.8353    193.7612   2.9161012936e+02   4.8834251076e+00   0.01787008   0.01536378  75.90  0.002094982    1.285    0.222
       162 -10.9935    233.8048    193.8336   2.9020372784e+02   4.1816469604e+00   0.01098934   0.01050909 -51.85 0.0005841366    1.033    0.032
       163 -11.9671    154.6387    192.1770   2.9111418242e+02   4.6599175666e+00   0.01736308   0.01235886  -7.65 0.0003394172    1.718    0.418
       164 -11.9568    149.3054    191.1505   2.9117009651e+02   4.7027309234e+00   0.01579832   0.01224548  89.85 0.0005036747    1.493    0.330
       165 -10.3538     89.7528    193.9790   2.9188015436e+02   5.0143013761e+00  0.008964323  0.008224376 -65.27 0.0001984101    1.092    0.084
       166 -10.5995     87.5032    190.1102   2.9188326304e+02   5.0722714236e+00   0.01687818  0.008782418 -53.92  0.001564999    1.835    0.455
       167 -10.9586     91.6841    188.0695   2.9182239957e+02   5.0718415373e+00   0.01300991   0.01014675  31.26  0.000471023    1.279    0.218
       168 -11.5337    209.6908    191.7269   2.9047131034e+02   4.3460361222e+00   0.01527799  0.008365593 -68.51  0.001404696    1.960    0.490
       169 -11.9528    164.0800    192.2102   2.9100454883e+02   4.6048440375e+00   0.01758253   0.01254757  -3.86  0.001169045    1.694    0.410
       170 -11.6679    163.3082    189.3013   2.9099613145e+02   4.6431130157e+00   0.01472577   0.01087289 -52.41  0.001316708    1.324    0.245
       171 -11.0630    178.5069    190.3219   2.9082545509e+02   4.5431816450e+00   0.01937417   0.01122598 -75.39  0.001790266    2.045    0.511
       172 -10.7661    124.1295    191.8686   2.9146736401e+02   4.8400995033e+00   0.01243939  0.009726631  39.61 0.0006677595    1.291    0.226
       173 -10.9604    120.5731    188.7718   2.9149026040e+02   4.8966654342e+00   0.01516918   0.00848647 -84.07  0.001279716    2.570    0.611
       174 -12.3521      7.3326    186.5653   2.9279599223e+02   5.5757133650e+00   0.01727533   0.01313023  39.97 0.0009160968    1.330    0.248
       175 -12.7557      2.0175    189.3856   2.9287470265e+02   5.5734932591e+00   0.02026522   0.01423646  59.93 0.0008297149    1.674    0.403
       176 -12.8338      1.5000    182.8103   2.9284160655e+02   5.6529323842e+00   0.02152333  0.008860796 -65.39  0.001039905    2.541    0.607
       177 -12.8414    106.4341    187.4984   2.9164725129e+02   4.9932311366e+00    0.0356893   0.01725152  43.39  0.001114244    2.184    0.542
       178 -11.8168    107.6228    180.1995   2.9158981922e+02   5.0711962664e+00    0.0201067   0.01008641 -59.15  0.001349463    1.916    0.478
       179 -11.4291    103.3568    181.7253   2.9164860474e+02   5.0781254399e+00   0.01602662   0.01044647  45.11   0.00106055    1.608    0.378
       180 -12.4216    103.9837    178.0116   2.9161912327e+02   5.1176673938e+00   0.01798379   0.01313659 -83.41 0.0004799816    1.580    0.367
       181 -11.5961     81.9660    189.2900   2.9194284797e+02   5.1137888708e+00   0.01903599   0.01133209 -43.61 0.0009276363    1.742    0.426
       182 -10.6234     35.8286    178.1398   2.9241378791e+02   5.5095976629e+00   0.01059963   0.00888976 -33.57  0.000423107    1.235    0.191
       183 -10.5429     33.4389    189.7646   2.9251089277e+02   5.3882001566e+00   0.01355242  0.006379354 -60.62 0.0008290815    2.055    0.513
       184 -11.2597     30.7594    177.0332   2.9246625819e+02   5.5516728354e+00   0.01005872  0.009968802  67.31 0.0004959744    1.029    0.028
       185 -13.2493     32.2388    182.6121   2.9248226318e+02   5.4782820655e+00   0.02637375   0.01993046  68.24  0.001285026    1.563    0.360
       186 -11.6219     26.9191    179.4606   2.9252546982e+02   5.5455710169e+00   0.02186755   0.01260151 -65.78  0.001225441    1.777    0.437
       187 -10.9221     47.6589    186.2566   2.9232433824e+02   5.3470286288e+00   0.02259478   0.01048308  45.82  0.001897417    2.406    0.584
       188 -11.2101    234.0480    185.9751   2.9015383244e+02   4.2714760384e+00  0.009894339  0.009625935 -42.97 0.0003284279    1.015    0.015
       189 -11.1998    231.5354    182.4426   2.9016186133e+02   4.3270753919e+00   0.01169347   0.01058568  41.50 0.0005955558    1.121    0.108
       190 -11.8365    229.4795    179.5271   2.9016828195e+02   4.3728605997e+00   0.02419772   0.01160478 -48.59  0.002140647    2.062    0.515
       191 -12.0585    188.7858    191.1676   2.9071098642e+02   4.4737722358e+00   0.01180707  0.009658679  27.06 0.0003883837    1.227    0.185
       192 -11.1387    138.5073    184.8810   2.9125827107e+02   4.8381031844e+00   0.02010555   0.01145754 -10.00  0.001649164    2.833    0.647
       193 -12.2908    124.2900    183.4022   2.9141491235e+02   4.9375686668e+00    0.0304133   0.01720092  47.14  0.002859381    1.938    0.484
       194 -12.4525    118.6834    177.9188   2.9144741390e+02   5.0337339282e+00   0.01768467   0.01407816 -16.89 0.0006983781    1.408    0.290
       195 -10.5587    114.0334    178.5238   2.9150516799e+02   5.0535999575e+00  0.009271737  0.008433396  25.16 0.0003221236    1.106    0.096
       196 -11.2945     60.1926    184.4092   2.9216732261e+02   5.2962169155e+00   0.01947277   0.01668092 -45.92  0.001661109    1.158    0.137
       197 -11.0903     61.8711    179.1971   2.9211668446e+02   5.3471281509e+00   0.02167542    0.0134708 -85.16  0.002026375    2.107    0.525
       198 -12.2533     23.7545    184.6645   2.9259334027e+02   5.5032882608e+00   0.01370995   0.01086561 -47.75  0.001553589    1.249    0.199
       199 -11.1780    175.5206    184.1431   2.9082322008e+02   4.6322715765e+00   0.01696981  0.009376864 -48.30  0.001018144    1.794    0.443
       200 -11.2771    219.0318    180.0509   2.9029282839e+02   4.4274249146e+00   0.01782824   0.01141541  58.84  0.001701965    1.921    0.480
       201  -9.9002    225.4507    183.4893   2.9023883152e+02   4.3502438682e+00  0.006697188  0.006273604 -31.33 6.906902e-05    1.074    0.069
       202 -10.9429    130.3978    182.9513   2.9134112241e+02   4.9074656499e+00   0.01035143  0.009069307  48.22 0.0004027021    1.179    0.152
       203 -10.7530    190.3864    180.7971   2.9063030717e+02   4.5849513920e+00   0.01479076  0.009876802 -89.10  0.001164191    1.922    0.480
       204 -11.9865     92.4362    180.7429   2.9176990497e+02   5.1526628010e+00    0.0165845   0.01176113 -40.98 0.0005234152    1.459    0.315
       205 -10.7542     93.7170    176.6922   2.9173080129e+02   5.1923469335e+00  0.009409263  0.007860433  68.59 0.0003500283    1.333    0.250
       206 -12.5648     94.5188    225.6375   2.9201348793e+02   4.6187387008e+00   0.02922548   0.02317998  78.61  0.002260149    1.467    0.318
       207 -11.4458     42.5761    179.9267   2.9234582069e+02   5.4499307187e+00    0.0187432    0.0155833 -41.82   0.00218008    1.211    0.174
       208 -11.6664     50.1496    179.5448   2.9225531038e+02   5.4107026236e+00   0.02348551   0.01716798  19.97  0.001874861    1.418    0.295
       209 -11.1844     55.1496    175.6586   2.9217388289e+02   5.4270469711e+00   0.02383208   0.01460156  63.35  0.002196625    2.195    0.544
       210 -11.3332     48.5050    174.8092   2.9224623181e+02   5.4752457101e+00   0.01319538   0.01014847 -52.18  0.001005605    1.274    0.215
       211 -12.0925     50.0107    170.1602   2.9220096166e+02   5.5206123633e+00   0.02067981   0.01310079  24.13 0.0009712512    1.611    0.379
       212 -12.7105     18.0690    178.1026   2.9262050522e+02   5.6123258916e+00   0.03428658    0.0187426 -68.87  0.001609605    1.968    0.492
       213 -10.7677     12.3774    179.0198   2.9269229101e+02   5.6344240567e+00   0.01367473   0.01044348 -17.54 0.0006379135    1.505    0.335
       214 -12.2565      5.4156    175.6180   2.9275316365e+02   5.7140412189e+00   0.03455045   0.02185382  53.66  0.001960712    1.834    0.455
       215 -11.5085      3.0935    167.0230   2.9272904791e+02   5.8273401115e+00   0.01654427   0.01225824  52.19   0.00127458    1.466    0.318
       216 -12.0580      7.8923    165.8822   2.9266631880e+02   5.8129952051e+00   0.02218292   0.01295604 -55.90 0.0004454739    1.646    0.392
       217 -10.0406    143.0841    180.4831   2.9117871446e+02   4.8627111818e+00  0.009406692  0.006522506  26.08 0.0002948658    1.452    0.311
       218 -10.8752    216.9825    184.0244   2.9034044381e+02   4.3931783764e+00   0.01090545  0.009182806 -61.52            0    1.179    0.152
       219 -12.0594    136.4330    176.1131   2.9122999658e+02   4.9519999485e+00   0.01396698   0.01108388 -48.38 0.0002863434    1.245    0.197
       220 -10.8281     88.3543    177.6311   2.9179886321e+02   5.2124200214e+00   0.01409035  0.008771408 -25.50 0.0009470454    2.063    0.515
       221 -11.3317    170.1062    176.6873   2.9084158837e+02   4.7502702412e+00  0.009310171  0.008554757  22.29    0.0011271    1.096    0.088
       222 -10.7013    129.5011    175.8934   2.9130937330e+02   4.9946774489e+00   0.01243902  0.008642906  46.98 0.0008891883    1.522    0.343
       223 -11.0356    204.4043    174.6519   2.9043052222e+02   4.5750086687e+00   0.01273909   0.01067585  76.53 0.0007045078    1.340    0.254
       224  -9.9560    125.4957    175.5717   2.9135407769e+02   5.0215965936e+00  0.006542592  0.006398856 -19.77 9.881362e-05    1.020    0.020
       225 -10.6579    194.8037    173.1010   2.9053286372e+02   4.6487194894e+00   0.01572228  0.007953978 -54.56  0.001263485    1.881    0.468
       226 -12.0843    157.1153    172.9902   2.9097061489e+02   4.8685042362e+00   0.01906919    0.0137306  42.76  0.001253785    1.422    0.297
       227 -11.1005     60.3867    172.9167   2.9209651087e+02   5.4287083241e+00    0.0185823   0.01185504  89.29  0.001715809    2.124    0.529
       228 -12.3323     61.0092    167.5355   2.9205714903e+02   5.4876762429e+00   0.01319953   0.01206753 -27.34 0.0004047288    1.117    0.105
       229 -11.4805     25.1987    171.1891   2.9249623120e+02   5.6516556805e+00   0.02574989   0.01233635 -47.42  0.001789262    2.097    0.523
       230 -12.3455    243.2866    172.4065   2.8996520169e+02   4.3753502699e+00   0.01750313    0.0126067  36.65 0.0006196547    1.386    0.279
       231 -12.0922    236.8383    172.9560   2.9004340623e+02   4.4064220308e+00   0.02032246  0.009607157  29.75  0.001242601    2.064    0.515
       232 -12.2079     87.0280    171.3727   2.9177694244e+02   5.2928327366e+00   0.02124553   0.01777746  84.93  0.002051668    1.335    0.251
       233 -12.8026    106.8875    248.0205   2.9200298319e+02   4.2871052678e+00    0.0272037   0.02603182 -13.02  0.001634745    1.057    0.054
       234 -11.0387     34.9784    172.9730   2.9239289790e+02   5.5745716236e+00   0.01653563   0.01066225 -46.94  0.001412297    1.549    0.354
       235 -11.4978     31.5538    169.7398   2.9241353178e+02   5.6318970750e+00   0.01276243    0.0114866  22.68 0.0004516238    1.121    0.108
       236  -9.9254    219.4753    172.5514   2.9024274737e+02   4.5119327339e+00  0.006536935  0.006427243  61.69 0.0002115434    1.040    0.039
       237  -9.7727    183.2881    172.7219   2.9066451886e+02   4.7199130153e+00  0.006608247  0.004987348  61.47 0.0002239569    1.518    0.341
       238 -10.1607    208.7249    170.8314   2.9035740840e+02   4.5943041987e+00    0.0110969  0.006194266 -25.36 0.0009208698    2.600    0.615
       239 -10.9300    108.1473    170.0625   2.9152314816e+02   5.1859842144e+00   0.01900484   0.00942782 -27.85  0.001414321    3.310    0.698
       240 -11.9683    124.4466    169.8342   2.9133199362e+02   5.0943445267e+00   0.01664222   0.01092168   2.03  0.001625323    1.906    0.475
       241 -11.2854     66.1747    169.5877   2.9200921248e+02   5.4340062165e+00   0.01244122   0.01034452 -66.00 0.0009893407    1.211    0.174
       242 -10.7155     19.8659    169.7663   2.9254990324e+02   5.6989106469e+00   0.01415861  0.009350893   7.04  0.001405325    1.801    0.445
       243 -10.5537    217.1419    167.7364   2.9024101957e+02   4.5813886912e+00   0.01814946  0.006996014 -55.43  0.001469479    2.394    0.582
       244 -11.9379    170.6595    168.6554   2.9078708177e+02   4.8403708704e+00    0.0143004   0.01114877  21.61 0.0009303303    1.310    0.237
       245 -11.8814    134.7166    168.9962   2.9120742063e+02   5.0446385329e+00   0.01957575  0.009391496  17.93  0.001329696    2.460    0.593
       246 -11.0861     81.4454    166.5213   2.9181300158e+02   5.3814759247e+00   0.01092072  0.006487255  27.19 5.015742e-05    1.684    0.406
       247 -11.6027     71.9631    168.8098   2.9193713187e+02   5.4096343252e+00   0.02070175   0.01095709  19.04  0.001863451    2.103    0.524
       248 -11.5616     77.1006    166.2854   2.9186220895e+02   5.4093133796e+00   0.01220651   0.01123485 -39.07 0.0002377836    1.085    0.078
       249 -10.1318     13.0266    169.3023   2.9262684908e+02   5.7436799622e+00  0.009441124  0.008793564  22.89  0.001152529    1.081    0.075
       250 -11.9318    192.3362    166.7720   2.9052365669e+02   4.7365422801e+00   0.02516195   0.01424312  84.52  0.001401276    3.010    0.668
       251 -10.9079     37.6753    160.5500   2.9228739436e+02   5.7034627075e+00   0.01453462    0.0118389 -54.76  0.001161051    1.204    0.169
       252 -10.6135     33.7664    157.6117   2.9231542957e+02   5.7601522524e+00   0.01152672  0.006803721  51.20 0.0006815809    1.951    0.488
       253 -12.3033     40.2645    166.0196   2.9228983883e+02   5.6249485292e+00   0.01427365   0.01262956  -5.32 0.0004294435    1.193    0.162
       254 -11.2040     36.4741    165.5481   2.9233120074e+02   5.6522786011e+00   0.01145818  0.009525789 -66.03 0.0001246787    1.211    0.174
       255 -11.9110    186.3288    164.6838   2.9058102134e+02   4.7956441141e+00   0.02590843   0.00861984 -63.72  0.001882633    3.074    0.675
       256 -10.9086    120.2083    164.9637   2.9135222356e+02   5.1754713494e+00   0.01326122  0.008995488  29.05 0.0005275089    1.468    0.319
       257 -11.3656     45.7741    162.8668   2.9220682565e+02   5.6298367570e+00   0.02032984   0.01160628  80.29  0.001637438    2.984    0.665
       258 -10.2237    203.9962    164.4615   2.9037422602e+02   4.6957195538e+00  0.009242777  0.008679007  16.38 0.0004039553    1.075    0.070
       259 -11.3620    203.3976    158.8904   2.9034780661e+02   4.7638901200e+00    0.0244628  0.009481051 -53.19  0.001987319    2.402    0.584
       260 -11.3015    100.6529    163.0603   2.9156858690e+02   5.3107029731e+00   0.02092837   0.01258671  83.54  0.001586203    2.543    0.607
       261 -11.7321     95.7539    157.4942   2.9159238966e+02   5.4037168512e+00    0.0135538   0.01093858  41.35 0.0002346582    1.258    0.205
       262 -10.4250     55.0995    162.8264   2.9209791022e+02   5.5765196508e+00   0.01031051  0.008342003  58.82 0.0004962511    1.354    0.262
       263 -12.0589    223.8140    161.4808   2.9012597804e+02   4.6152817397e+00   0.01259753   0.01174892  30.63 0.0003317963    1.079    0.073
       264  -9.6832    212.7314    162.7064   2.9026215057e+02   4.6653985148e+00  0.006676434  0.004891368 -30.57 0.0003568187    1.512    0.339
       265 -10.6799    132.5708    162.0789   2.9119103026e+02   5.1374412184e+00   0.01345455   0.00833845  42.29  0.001240523    1.656    0.396
       266 -10.0693     87.1888    162.5919   2.9172262571e+02   5.3939699186e+00  0.009386365  0.006407383   7.35 0.0009156485    1.707    0.414
       267 -10.6945     50.3078    162.2099   2.9215007092e+02   5.6113267833e+00   0.01331935   0.00730752  38.16  0.001255713    1.809    0.447
       268 -11.6880     20.6964    160.6561   2.9248592884e+02   5.8000518664e+00   0.02405677   0.01896027  15.88  0.002383351    1.326    0.246
       269 -11.4576     11.4448    156.3249   2.9256796133e+02   5.9036711583e+00    0.0187459   0.01562926  87.62 0.0007101974    1.335    0.251
       270 -11.7336     18.8299    153.8995   2.9246740796e+02   5.8893528458e+00    0.0255989     0.015269   9.07  0.001920162    2.078    0.519
       271 -10.3965     20.3423    150.2928   2.9242827052e+02   5.9225749057e+00   0.01076716  0.008968214 -21.38 0.0007250322    1.297    0.229
       272 -11.7680     11.6696    151.9058   2.9253900023e+02   5.9537547814e+00   0.01160502   0.01042841   9.04 0.0002673127    1.146    0.127
       273 -10.8955      8.0006    150.0078   2.9257046516e+02   5.9969378331e+00   0.01098985  0.009236776  26.32            0    1.196    0.164
       274 -11.0109      3.7043    160.7989   2.9268485529e+02   5.8961956372e+00   0.01489754   0.01005392  86.40  0.001136771    1.932    0.482
       275 -10.7894    196.9201    159.8018   2.9042859525e+02   4.7908972266e+00   0.01120969  0.009519777 -61.45 0.0005902856    1.169    0.145
       276 -10.2706    109.9008    160.1696   2.9144359817e+02   5.2908181929e+00  0.009787656  0.008651674  64.51 0.0004245878    1.214    0.176
       277 -11.2633    128.7035    158.4844   2.9121455726e+02   5.2015984885e+00   0.01207478  0.008980306 -60.80 0.0007283737    1.328    0.247
       278 -10.3205    212.7710    157.4553   2.9023022035e+02   4.7261418717e+00   0.01341588  0.005997681  32.14  0.001152328    2.147    0.534
       279 -10.4441    181.7499    156.8367   2.9058728819e+02   4.9133465973e+00   0.00936267  0.007664463  58.61  0.001057751    1.332    0.249
       280 -10.7300    123.7937    156.2733   2.9125850500e+02   5.2557121748e+00   0.01131681   0.00891003 -84.13  0.001251671    1.418    0.295
       281 -11.2848    140.0733    165.4568   2.9112389305e+02   5.0547506944e+00   0.01174789  0.009844653 -77.85 0.0004421821    1.263    0.208
       282 -10.7329    171.0716    156.4824   2.9070940629e+02   4.9793888539e+00  0.009990586  0.006535224  25.69 0.0004685014    1.544    0.352
       283 -11.1215    145.5906    154.8926   2.9099645661e+02   5.1455388016e+00   0.01611605   0.01083709  76.65  0.001565722    1.991    0.498
       284 -10.7850    139.2350    156.0920   2.9107762448e+02   5.1684173440e+00   0.01316203  0.008688639  20.22 0.0007588048    1.590    0.371
       285 -10.5919     43.4331    155.2822   2.9218885784e+02   5.7315107143e+00   0.01247798  0.008879783 -75.94  0.001311349    1.544    0.352
       286 -11.0257    195.7589    164.4163   2.9046974263e+02   4.7440447689e+00   0.01263288  0.006010942  32.00 0.0007607643    2.030    0.507
       287 -10.2971    176.3204    154.9495   2.9063915318e+02   4.9667571078e+00  0.009163741  0.008202997 -55.29 0.0003468805    1.101    0.092
       288 -10.8227    156.3930    155.2766   2.9087301150e+02   5.0784868007e+00  0.009121681  0.006424905 -76.89 0.0009405784    1.581    0.367
       289 -11.7967    115.0552    154.5229   2.9134980452e+02   5.3266215962e+00   0.02034943   0.01232035  48.15  0.000109946    1.810    0.447
       290 -12.4021    107.2967    154.1861   2.9143815730e+02   5.3754183478e+00   0.02477225   0.01438663 -41.43  0.002364392    1.843    0.457
       291 -10.3990     84.8580    155.0777   2.9170488842e+02   5.4947762936e+00   0.01329129  0.008305013   7.07  0.001261345    1.975    0.494
       292 -11.9052     36.8024    153.3284   2.9225448950e+02   5.7924494736e+00   0.02637644   0.01513881  71.73  0.002179463    2.833    0.647
       293 -10.9927     27.5092    153.8603   2.9236599353e+02   5.8398186712e+00   0.01266321  0.009437995  57.65 0.0006313971    1.510    0.338
       294  -9.6705     66.4582    158.4664   2.9193952273e+02   5.5616522589e+00  0.006516085  0.006450642  76.43 0.0001201668    1.031    0.030
       295 -12.2134    248.0897    150.7421   2.8977949916e+02   4.5989087068e+00    0.0190091     0.015224 -68.29  0.001518545    1.274    0.215
       296 -11.3779    225.7549    152.0407   2.9004682599e+02   4.7136073946e+00   0.01179145  0.009699445  16.52 0.0003393372    1.257    0.205
       297 -11.3770    137.9075    151.8375   2.9106762202e+02   5.2255379127e+00  0.009795792  0.008720441 -22.06 0.0003465317    1.171    0.146
       298  -9.6660      4.6661    152.7666   2.9262578472e+02   5.9840509599e+00  0.006575032  0.004964721 -17.54 0.0001740514    1.533    0.348
       299 -10.4310    104.1365    148.8350   2.9144297440e+02   5.4558831183e+00   0.01035376  0.008981979  62.61 0.0007076788    1.243    0.195
       300  -9.8813     64.5901    149.5117   2.9190782000e+02   5.6765266113e+00   0.00655552  0.006340934 -45.35 9.177907e-05    1.021    0.020
       301 -11.2895    202.2240    147.6559   2.9029412663e+02   4.9011596086e+00   0.02057539  0.009558416  48.54  0.001304153    2.576    0.612
       302 -10.4556     91.7973    147.8685   2.9158095330e+02   5.5384609913e+00   0.01009373  0.008719319 -34.07 0.0003718173    1.187    0.157
       303 -10.5183     51.7954    148.5920   2.9205145795e+02   5.7610523387e+00  0.009067737  0.005901471  39.68  0.000256226    1.548    0.354
       304 -11.9701    161.7040    144.9876   2.9074958634e+02   5.1672249177e+00   0.02522276   0.01184727  49.93  0.002052761    2.639    0.621
       305 -10.7221     36.0218    145.7321   2.9221826496e+02   5.8852555137e+00   0.01438465  0.009767422  71.55  0.001415531    1.920    0.479
       306 -11.4963    237.9064    145.1440   2.8986423974e+02   4.7230662027e+00   0.01032253  0.008939091  56.84 0.0005500129    1.226    0.185
       307 -12.9279    178.2630    142.9099   2.9054442646e+02   5.0953254426e+00   0.02286984   0.01866147 -18.06 0.0009226828    1.351    0.260
       308 -11.6347    219.6876    143.0945   2.9006371251e+02   4.8527098394e+00   0.01436773  0.009787186  35.24 0.0008496058    1.457    0.314
       309  -9.8804     84.8440    143.8362   2.9163787314e+02   5.6255120175e+00  0.008772404  0.007511623  64.45 0.0002485101    1.272    0.214
       310 -10.3609     13.7654    143.4574   2.9246419287e+02   6.0399085680e+00   0.01330355   0.00586237  33.12  0.001136654    2.171    0.539
       311 -11.6662    241.3546    141.5401   2.8980255093e+02   4.7448547320e+00   0.01485715   0.01136035  48.44  0.001271328    1.378    0.274
       312 -11.0221    244.7607    138.4963   2.8974470986e+02   4.7603816256e+00   0.01324403  0.008089048  30.62  0.001319129    1.616    0.381
       313 -11.7447     59.7066    141.2100   2.9191515773e+02   5.8012087346e+00   0.02167679   0.01159408  30.68   0.00204061    1.829    0.453
       314 -12.1032     58.8107    134.8266   2.9188746828e+02   5.8805721877e+00   0.02598886   0.01195087 -44.77  0.001342327    2.298    0.565
       315 -11.8217     23.2817    135.2724   2.9230439596e+02   6.0802540982e+00   0.04103693   0.01448094  37.52  0.003188731    2.707    0.631
       316 -10.8132     21.7650    130.4337   2.9229320861e+02   6.1452347135e+00   0.01260517   0.01200092 -58.84 0.0007240072    1.043    0.041
       317 -11.8725     21.7006    140.8404   2.9235605492e+02   6.0246372528e+00   0.01641828   0.01536542  59.78  0.001435106    1.112    0.101
       318 -11.2805     25.5196    138.5799   2.9229803639e+02   6.0289163025e+00   0.01817085  0.009022945  25.54  0.001008224    2.046    0.511
       319 -10.3408     99.7252    141.7456   2.9145197342e+02   5.5637810762e+00   0.01110322  0.004530666  38.46 0.0008981095    2.400    0.583
       320 -12.3899     47.1710    139.3907   2.9205042820e+02   5.8946818211e+00   0.02592243   0.01227895  38.39  0.002295748    2.085    0.520
       321  -9.9914     96.6211    139.2498   2.9147321657e+02   5.6107343580e+00  0.006968564  0.004767146  53.76 0.0004438607    1.648    0.393
       322 -11.1881    207.1182    138.0921   2.9017987109e+02   4.9837883943e+00  0.009573231   0.00927679  59.75 0.0003180009    1.060    0.057
       323 -12.6983    130.5670    140.5226   2.9108538161e+02   5.3995113598e+00   0.03283202     0.017871  49.72  0.002975476    2.125    0.529
       324 -10.8555    104.7806    137.3591   2.9136683553e+02   5.5855145811e+00   0.01372679   0.01002002  61.76 0.0005988855    1.600    0.375
       325 -12.0950     36.7807    137.5114   2.9216035169e+02   5.9764404332e+00   0.01900283   0.01203191  12.86 0.0007205211    1.805    0.446
       326 -10.5043    248.9951    136.3533   2.8968265152e+02   4.7606341679e+00  0.009237885  0.008382328  29.20 0.0003847106    1.107    0.097
       327 -10.1618    195.8063    135.8156   2.9029779537e+02   5.0759016689e+00  0.009361647  0.007619383  62.08 0.0008778586    1.361    0.265
       328 -10.6415    155.0709    135.2021   2.9076818929e+02   5.3193448907e+00   0.02144883  0.007452315  50.59  0.000864809    5.104    0.804
       329 -10.9397    227.9215    135.1033   2.8992005932e+02   4.8976358092e+00   0.01113512   0.00918235  31.49 0.0003761854    1.213    0.176
       330 -10.3913    213.9511    131.8845   2.9006318071e+02   5.0161692397e+00   0.01818712  0.006655184 -56.56  0.001096423    2.506    0.601
       331 -11.0905     99.0776    132.7863   2.9140593162e+02   5.6716363927e+00   0.01162644   0.00893726  -7.17 0.0003779522    1.499    0.333
       332 -10.1490    199.2585    131.7310   2.9023314464e+02   5.1032834588e+00  0.009040006  0.007310115 -29.17 0.0004515725    1.322    0.244
       333 -11.9651      7.6592    134.8533   2.9248408941e+02   6.1750757648e+00   0.02105322   0.01217195 -37.11 0.0009010317    1.976    0.494
       334 -10.7936     48.5205    131.4980   2.9198755692e+02   5.9786351989e+00   0.01367183  0.009221531  52.48  0.001395153    1.659    0.397
       335 -11.1686     50.6963    128.4361   2.9194389621e+02   6.0016691822e+00   0.01365411    0.0110964 -24.60 0.0007291578    1.334    0.250
       336 -10.9851     77.5686    134.9677   2.9166965142e+02   5.7706154890e+00   0.01325895  0.009201143  53.65 0.0003290765    1.615    0.381
       337 -11.1605    128.4974    130.3159   2.9104838509e+02   5.5300771364e+00   0.01155618   0.01073018  57.02  0.000294791    1.120    0.107
       338 -10.9611    113.0226    130.4261   2.9122932297e+02   5.6183835685e+00   0.01128213  0.009359351 -70.99 0.0003648062    1.240    0.194
       339 -11.0330     34.1509    129.7965   2.9214495761e+02   6.0812732192e+00   0.02045027   0.01326378 -16.84  0.001956133    2.033    0.508
       340 -11.6778    248.0354    129.2057   2.8965090462e+02   4.8491582673e+00   0.01757889  0.009852163  36.10  0.001522814    1.754    0.430
       341 -10.9491     86.4331    129.8772   2.9153589307e+02   5.7785475852e+00      0.01132  0.009474277   7.72 0.0003362918    1.266    0.210
       342 -11.6834    225.2549    143.3605   2.9000058607e+02   4.8172794454e+00   0.01152384   0.01121287 -60.69 0.0002941436    1.026    0.025
       343 -11.4675     61.1134    128.9589   2.9182556111e+02   5.9354756112e+00   0.01154119  0.009638242  17.18 0.0004442652    1.231    0.188
       344 -10.4608     44.9907    127.3487   2.9200393133e+02   6.0472209837e+00  0.009004922   0.00829621  19.16 0.0003301377    1.096    0.088
       345 -10.9690    190.9652    125.6666   2.9029326244e+02   5.2218466314e+00   0.01218727  0.009195217  77.20 0.0008492498    1.602    0.376
       346  -9.8020    152.8440    125.8358   2.9073800328e+02   5.4410455336e+00  0.009180365  0.007642179  64.20 0.0006346743    1.326    0.246
       347 -10.2541     92.9639    126.3113   2.9143844664e+02   5.7822282291e+00  0.009313731  0.008332759  18.80 0.0004099742    1.133    0.118
       348 -12.5149     68.9700    124.0189   2.9170443260e+02   5.9475202166e+00   0.01959672   0.01204676  26.92 0.0003769225    1.631    0.387
       349 -11.1305    124.9560    123.9698   2.9105164059e+02   5.6243088492e+00    0.0100287  0.009348684 -30.91 0.0003390892    1.081    0.075
       350 -10.0143    109.3284    123.2796   2.9122959328e+02   5.7227923602e+00  0.006848229  0.004963621 -24.28 0.0002902566    1.599    0.374
       351 -10.7896    238.5973    122.2037   2.8971855682e+02   4.9852917904e+00  0.009736435  0.005760764 -50.49  0.000710075    1.650    0.394
       352 -11.1116     84.4765    121.0962   2.9150617749e+02   5.8918907667e+00   0.01554489   0.01070724 -85.66  0.000992568    1.767    0.434
       353 -10.3215     58.2703    119.9584   2.9180491565e+02   6.0564835398e+00  0.009628411  0.008237373 -62.29 0.0007176841    1.163    0.140
       354 -10.5943     48.2531    119.2488   2.9191749115e+02   6.1225362335e+00   0.01893289   0.01028434  42.75  0.001765346    1.910    0.476
       355 -10.2413    226.4696    119.4922   2.8984326328e+02   5.0872658138e+00    0.0065178  0.006475473 -54.28 4.183877e-05    1.013    0.013
       356 -11.3462    170.9784    119.0678   2.9048630683e+02   5.4144693001e+00  0.009831676  0.009675117  11.52 0.0003465202    1.021    0.020
       357 -10.4626     92.0845    118.3321   2.9140095448e+02   5.8800232211e+00   0.01148289  0.008616663 -49.49 0.0005596803    1.312    0.238
       358 -10.6959     26.4021    118.1738   2.9216593011e+02   6.2610120874e+00   0.01358964  0.007585115  44.49 0.0009283124    1.897    0.473
       359 -11.7735    182.8128    114.9815   2.9032405124e+02   5.3932342568e+00   0.02273475   0.01614731  59.93  0.001479722    1.648    0.393
       360 -10.6211    146.3091    116.9193   2.9076067602e+02   5.5824896776e+00  0.009619276  0.008621188 -54.99  0.000505997    1.100    0.091
       361 -12.4929     87.5521    114.8301   2.9143283347e+02   5.9469168411e+00   0.01808942   0.01275531  37.90 0.0004420623    1.420    0.296
       362 -10.7580     60.4288    115.5025   2.9175310638e+02   6.0958022467e+00   0.01337554   0.01007367 -88.35  0.001027247    1.551    0.355
       363 -11.2395    106.1309    118.6099   2.9123890186e+02   5.7955463466e+00   0.02172529   0.01224626   9.70  0.001932815    2.274    0.560
       364  -9.7658    154.9734    116.0000   2.9065426193e+02   5.5429317041e+00   0.01109752  0.003768728  26.50 0.0006056792    2.966    0.663
       365 -11.4947    125.9876    114.0956   2.9098048364e+02   5.7330342126e+00   0.01036681  0.009359329 -58.83            0    1.097    0.088
       366 -11.5917     19.4135    118.3150   2.9224829654e+02   6.2996309210e+00   0.02218594   0.01425751  -2.13  0.002118325    2.039    0.510
       367 -12.9056     21.7152    109.5836   2.9216930237e+02   6.3878431082e+00   0.03332199   0.02117431 -36.12  0.003310311    1.755    0.430
       368 -11.1487     26.4124    108.2176   2.9210634100e+02   6.3766549121e+00    0.0109347   0.01049246  50.40  0.001116116    1.067    0.063
       369 -10.0641     95.6113    112.2737   2.9132358429e+02   5.9300141165e+00  0.009266417  0.005827646 -50.77 0.0003843045    1.553    0.356
       370 -10.4004     74.8646    112.1077   2.9156446919e+02   6.0518745392e+00   0.00965333  0.008493802  61.65 0.0002845587    1.215    0.177
       371 -11.1816    239.0244    110.7143   2.8964461431e+02   5.1161293616e+00   0.01144661  0.009207872 -52.28  0.000264647    1.220    0.180
       372 -11.1998    232.7418    110.8064   2.8971820157e+02   5.1515969020e+00   0.01303387    0.0100784  62.86            0    1.474    0.322
       373  -9.8841     85.5826    109.7705   2.9142551642e+02   6.0170854065e+00  0.008499772  0.006420877 -81.13 0.0002223991    1.481    0.325
       374 -11.2856      3.9431    109.6008   2.9237676543e+02   6.4899663214e+00   0.01288098   0.00992211   1.89  0.001411757    1.458    0.314
       375 -10.0652    178.9601    109.5184   2.9033612571e+02   5.4790258968e+00  0.009609668  0.006436842  29.33 0.0004180454    1.485    0.326
       376 -10.5152    115.7311    109.0445   2.9106974251e+02   5.8510986927e+00   0.01053314  0.008809879  24.60  0.000360419    1.205    0.170
       377 -11.1096    112.0173    107.5527   2.9110408905e+02   5.8899258899e+00   0.01252129   0.00968483 -64.25 0.0004488437    1.296    0.228
       378 -10.5269    153.0172    107.2132   2.9062436843e+02   5.6563145719e+00   0.01562268   0.00922218 -85.97  0.001345618    2.374    0.579
       379 -11.2259     36.8192    108.0337   2.9198383357e+02   6.3188052483e+00   0.01113571  0.009493849  26.26 0.0004707385    1.179    0.152
       380 -12.2152    137.6260    103.4186   2.9078090688e+02   5.7896106472e+00   0.02430913   0.01699701  74.92 0.0006369089    1.837    0.456
       381 -10.7180    209.9578    106.9615   2.8996007796e+02   5.3286665132e+00   0.00955477  0.009428877 -89.42            0    1.033    0.032
       382 -13.2519    166.3407    102.8198   2.9044286409e+02   5.6300379567e+00   0.02207743     0.013891 -51.10  0.001432141    1.550    0.355
       383 -10.2707     91.2008    104.7886   2.9133019371e+02   6.0424760463e+00   0.01174158  0.006330917  61.19 0.0009473952    2.781    0.640
       384 -10.3290     33.2667    104.4830   2.9200405821e+02   6.3805451517e+00   0.01499865  0.006837941 -49.54  0.001290577    2.142    0.533
       385 -10.5091     16.6479    104.9741   2.9220089302e+02   6.4705941835e+00  0.009266096  0.008463955 -53.00 0.0004206484    1.079    0.073
       386 -11.1189    233.9020    102.8244   2.8965678299e+02   5.2374672465e+00   0.01362368   0.01096456 -89.05  0.001127194    1.401    0.286
       387 -11.0868    190.1057    102.2466   2.9016276879e+02   5.4987275243e+00    0.0186987  0.009208497 -65.98  0.001644602    2.122    0.529
       388 -11.7952     82.3889    103.8005   2.9142702214e+02   6.1049032490e+00   0.01281121   0.01188771 -58.66 0.0004183359    1.068    0.064
       389 -11.8140     84.9717     99.9737   2.9137399819e+02   6.1344275956e+00   0.01770877   0.01135602  41.83            0    1.593    0.372
       390 -12.2936     66.9462    101.0770   2.9159081526e+02   6.2257732508e+00   0.02115212   0.01375048  52.77 0.0004187593    1.748    0.428
       391 -10.5176     49.4918    103.5525   2.9180921334e+02   6.2977785385e+00   0.01218967  0.008026943  38.68 0.0007243627    1.522    0.343
       392 -11.0529     46.4946    100.3691   2.9182514112e+02   6.3520576781e+00    0.0165281   0.01206388  18.98  0.001457967    1.428    0.300
       393 -10.3227    100.0646    103.3095   2.9121800005e+02   6.0083869730e+00  0.009418336  0.008837789  25.61  0.001153516    1.072    0.067
       394 -11.6858     57.7146    102.9547   2.9170972200e+02   6.2572659899e+00   0.01108514  0.009415179  23.78 0.0002187732    1.188    0.158
       395 -10.5380    208.0291    101.8402   2.8995177256e+02   5.3993127007e+00   0.01012967  0.008532847  57.39 0.0003821979    1.275    0.215
       396 -11.7846     74.9645    101.9095   2.9150228306e+02   6.1697799370e+00   0.01667162   0.01093759   0.61  0.001617125    1.926    0.481
       397 -10.6563      2.2340    102.2832   2.9235302286e+02   6.5848350575e+00   0.01178152  0.008058458  21.67 0.0008488419    1.510    0.338
       398 -11.2445    149.5761    101.1082   2.9062784408e+02   5.7471609769e+00   0.02306297   0.01078785  29.89  0.002035434    2.081    0.519
       399 -11.2094    124.7968     96.7522   2.9089043807e+02   5.9413635119e+00   0.01142672  0.008522554  21.59 0.0005801982    1.375    0.273
       400 -10.7910    109.0234     99.5415   2.9109099797e+02   6.0003086539e+00   0.01575513   0.01056872   0.25  0.001105378    1.856    0.461
       401 -10.1667     32.7927     98.8194   2.9197573607e+02   6.4490828415e+00  0.008830387   0.00754522  72.88 0.0003457709    1.295    0.228
       402 -10.6738     16.4786     99.0321   2.9216737381e+02   6.5406129601e+00   0.01177781  0.009111634  -0.52 0.0005318303    1.460    0.315
       403 -11.3862      9.3014     97.7773   2.9224363560e+02   6.5965178849e+00   0.01569398   0.01079062 -75.43  0.001623512    1.608    0.378
       404 -10.9475    118.8746     96.3530   2.9095706751e+02   5.9803021699e+00   0.01242155  0.009090316 -54.12 0.0006974001    1.333    0.250
       405 -10.4511    173.3974    105.2950   2.9037554914e+02   5.5603492920e+00   0.01088315  0.007461022 -29.38  0.001101791    1.686    0.407
       406 -11.0914     90.4219     95.9719   2.9128648447e+02   6.1493962618e+00   0.01188023    0.0094323  27.34 0.0002700278    1.263    0.208
       407 -11.3338     52.5108     94.9301   2.9172242519e+02   6.3805308400e+00   0.01625554   0.01147114  79.95 0.0007978397    1.809    0.447
       408  -9.4892    102.6347     95.2788   2.9113993812e+02   6.0867929665e+00  0.007032197  0.004852469  56.93 0.0007011548    1.678    0.404
       409 -10.8774     33.9153     94.0604   2.9193418692e+02   6.4979017110e+00   0.01850488   0.01156342 -13.70  0.001466532    2.225    0.551
       410  -9.8793     23.2823     95.7199   2.9206818484e+02   6.5399043880e+00  0.006575573  0.004990071  62.16 0.0001897124    1.512    0.339
       411 -10.1012     18.2998     95.3257   2.9212397424e+02   6.5731876899e+00  0.007000142  0.004873313 -30.04  0.000308075    1.634    0.388
       412 -10.3646    154.7217     94.0247   2.9052542540e+02   5.7995629382e+00  0.009357512  0.008488656 -60.37 0.0004836597    1.094    0.086
       413 -10.4508     83.9813     93.9816   2.9134967114e+02   6.2097562797e+00   0.01097292  0.007801732  64.00  0.001126881    1.695    0.410
       414 -10.8948    225.3368     92.7743   2.8969601562e+02   5.4038885027e+00   0.01067772  0.009684149  67.25 0.0002655683    1.173    0.148
       415 -10.1930    114.5405     92.4931   2.9098445293e+02   6.0502268915e+00    0.0120431  0.006603962 -79.18  0.001027816    2.415    0.586
       416  -9.9376    183.5372     92.4929   2.9018068685e+02   5.6500913391e+00  0.006637245  0.006348833 -31.61 -3.415716e-05    1.044    0.042
       417 -10.9250    143.7964     92.1579   2.9064150216e+02   5.8845985689e+00   0.01750142  0.005187778  23.57   0.00113805    3.873    0.742
       418  -9.7068    106.3451     92.3256   2.9107898705e+02   6.0996177482e+00  0.007190033  0.004885309 -27.09 0.0007050421    1.743    0.426
       419 -10.5993      9.6652     92.0174   2.9220497957e+02   6.6613459569e+00   0.01032153  0.008842833  60.91 0.0003032652    1.260    0.206
       420 -11.4586    203.0288     89.6134   2.8993654105e+02   5.5702658572e+00    0.0198413   0.01146398 -43.01  0.001895592    1.816    0.449
       421 -11.4873     77.9683     88.0721   2.9138441398e+02   6.3131550588e+00   0.01442875   0.00916509 -45.34            0    1.593    0.372
       422 -11.9335     79.8739     84.3317   2.9133978724e+02   6.3455824889e+00   0.02143102  0.009358822  28.24  0.001821469    2.250    0.556
       423 -10.1283    231.3148     89.0133   2.8960390583e+02   5.4127491669e+00  0.009110446  0.008220222 -61.02 0.0002821432    1.101    0.092
       424 -10.5741    111.1729     88.8691   2.9100199148e+02   6.1118105160e+00  0.009694702  0.008688833  73.37 0.0003371878    1.202    0.168
       425 -11.2083     43.9696     88.9672   2.9178640840e+02   6.4990853387e+00  0.009531592  0.009496097   2.34            0    1.014    0.014
       426 -11.0731    191.9134     87.9108   2.9005567822e+02   5.6546155717e+00   0.01085024  0.009552602  89.85  0.001282734    1.224    0.183
       427 -11.0231    123.2501     87.2551   2.9085153379e+02   6.0606075938e+00   0.01166776  0.009733006 -64.70  0.001021055    1.202    0.168
       428 -11.7321     63.3983     87.0521   2.9154826572e+02   6.4091848080e+00   0.01406334   0.01223515 -31.40 0.0003577022    1.184    0.156
       429 -12.0291     69.6184     85.0597   2.9146377605e+02   6.3963954521e+00   0.01589614   0.01057604  33.33  0.001151207    1.487    0.327
       430 -10.7850    180.5696     86.6282   2.9018003168e+02   5.7353953602e+00   0.01131112  0.009739527  44.10 0.0002889137    1.187    0.158
       431 -10.4221    130.9683     86.9875   2.9075997454e+02   6.0189933680e+00   0.01339205  0.009295721   9.52  0.000916262    1.636    0.389
       432 -10.2176    127.5511     85.4994   2.9079087687e+02   6.0560740095e+00   0.01034855  0.007982293  68.52 0.0005962105    1.515    0.340
       433 -10.7551     11.1683     86.2729   2.9215311046e+02   6.7194297947e+00   0.01151358  0.008735081 -47.68 0.0005633247    1.305    0.234
       434 -11.4691     16.4670     85.0457   2.9208392588e+02   6.7031732228e+00   0.02154627   0.01110288 -44.47 0.0006804434    2.026    0.506
       435 -10.5702     27.7051     85.5302   2.9195565498e+02   6.6327962151e+00   0.01224372  0.006698351  20.52 0.0007218478    1.970    0.492
       436  -9.9863      3.6396     84.8412   2.9223243798e+02   6.7793977058e+00  0.008649032  0.006278084 -79.01            0    1.542    0.352
       437 -10.9502    170.0909     84.1635   2.9028725311e+02   5.8248460978e+00   0.01023909  0.008590926 -25.99 0.0002680908    1.268    0.211
       438 -11.7798    118.7597     83.6903   2.9088250417e+02   6.1280115828e+00   0.01220428   0.01086298 -66.70 0.0005644023    1.131    0.116
       439 -12.3866    132.3543     82.0408   2.9071415511e+02   6.0683935787e+00   0.01780709   0.01329839  78.22  0.001123587    1.632    0.387
       440 -11.8532     53.5604     82.6153   2.9163649128e+02   6.5175225941e+00    0.0143338   0.01001496 -50.78  0.001375749    1.402    0.287
       441 -12.0607     51.6001     77.6546   2.9162967384e+02   6.5864542230e+00   0.02079376   0.01505374   3.07  0.001182465    1.600    0.375
       442 -11.0390     49.4996     74.0140   2.9163239357e+02   6.6408589295e+00    0.0138679   0.01136764  67.54 0.0009271869    1.371    0.270
       443 -10.5482    193.9652     82.2651   2.8999789490e+02   5.7082106316e+00  0.008880318  0.008556223  24.44   0.00033522    1.044    0.042
       444 -10.3375     24.3087     82.0344   2.9197439308e+02   6.6929784449e+00  0.008892845  0.008515343 -55.85 0.0004505111    1.035    0.034
       445 -11.3603     95.4355     79.9338   2.9113194056e+02   6.3066580263e+00   0.01626483   0.01193992 -23.61  0.001032539    1.571    0.363
       446 -10.1628     45.9864     81.4363   2.9171781696e+02   6.5749280534e+00   0.01030597  0.006428406  27.38  0.001027678    1.603    0.376
       447 -10.3854    185.8056     79.7781   2.9007794578e+02   5.7844795089e+00   0.01194488  0.006242298 -29.12 0.0009512836    2.796    0.642
       448 -10.4945    149.0600     79.9224   2.9050677713e+02   5.9961183369e+00   0.01029118   0.00882753  69.51 0.0006205374    1.282    0.220
       449 -10.5983    105.3592     84.4810   2.9104347294e+02   6.1964240560e+00   0.01333846  0.006481798  26.95  0.001178904    2.059    0.514
       450 -10.2278    107.8204     77.8377   2.9097495458e+02   6.2593169369e+00  0.008961031  0.007581394  62.17 0.0003675734    1.287    0.223
       451 -10.7760     69.8734     78.2094   2.9141978057e+02   6.4744814387e+00   0.01213048  0.007847554  29.44    0.0012402    1.534    0.348
       452 -11.0033      3.4866     77.8002   2.9219214876e+02   6.8620701139e+00   0.01392481   0.01052961  27.39  0.001541768    1.326    0.246
       453 -12.1679      2.3395     71.8776   2.9217014077e+02   6.9374627100e+00    0.0237773   0.01099381 -52.63  0.002044048    2.055    0.513
       454 -11.3324     62.9116     75.6175   2.9148548509e+02   6.5448007822e+00   0.01475824   0.01299923  89.97  0.001755339    1.223    0.182
       455 -12.2175     57.3055     73.0387   2.9153545990e+02   6.6071230000e+00    0.0366807    0.0189054 -80.70  0.002952775    2.844    0.648
       456 -11.2533     53.1459     69.7269   2.9156417259e+02   6.6695976344e+00   0.01584244  0.009290793 -60.61 0.0005866109    1.668    0.401
       457 -11.0098     92.3018     74.2453   2.9113439772e+02   6.3908417339e+00   0.02170699  0.009703164 -38.58  0.001692204    2.833    0.647
       458 -10.5850     82.1220     75.2299   2.9125903968e+02   6.4382845829e+00  0.009709924  0.008656509 -24.90  0.000495752    1.162    0.140
       459 -10.9383    114.1373     74.0342   2.9087849487e+02   6.2668978437e+00   0.01398251  0.009977659   5.04 0.0008421169    1.621    0.383
       460 -10.6168     68.9698     73.7912   2.9140386071e+02   6.5310106057e+00  0.009671622  0.008429969  52.17 0.0003820408    1.200    0.167
       461  -9.7440     29.4448     74.4538   2.9186910024e+02   6.7514267089e+00  0.006606127  0.006320925 -31.33 0.0002787881    1.043    0.041
       462 -11.5645    231.1967     72.6419   2.8950689998e+02   5.6033327641e+00   0.01150444   0.01079222 -51.28 0.0002724691    1.053    0.050
       463 -11.4238     17.8401     72.2371   2.9199131296e+02   6.8440435421e+00   0.01316686   0.01083876  -7.69 0.0009133189    1.338    0.252
       464 -11.0153    166.8599     70.6655   2.9024385162e+02   6.0002605502e+00   0.01495141  0.008698377 -49.66  0.001452968    1.686    0.407
       465 -10.7861    200.0358     70.9523   2.8985928668e+02   5.8041849013e+00  0.009700669   0.00929009 -35.39            0    1.039    0.038
       466 -11.7146     87.8826     69.3003   2.9115630713e+02   6.4738213311e+00    0.0148424  0.009048142  48.79  0.001440409    1.810    0.448
       467 -11.0740     85.1264     82.7482   2.9126903764e+02   6.3336040258e+00   0.01045731  0.008856926  55.95  0.001211751    1.260    0.206
       468 -11.7556     35.6286     72.0904   2.9178277763e+02   6.7432216948e+00   0.02479214   0.01260817  23.71 0.0007682827    2.044    0.511
       469  -9.9203    153.0340     69.5404   2.9039816575e+02   6.0935669747e+00   0.01026868  0.004608546  47.79 0.0008092216    2.647    0.622
       470 -10.8467    201.6411     66.5210   2.8981397649e+02   5.8462582276e+00    0.0116006  0.009914566 -49.14 0.0003873076    1.155    0.134
       471 -10.9710     93.4561     67.1127   2.9107818009e+02   6.4669766167e+00   0.01249127  0.009103267  19.49 0.0004611046    1.427    0.299
       472 -11.2688     88.6591     63.6200   2.9111319871e+02   6.5352784023e+00   0.01367531   0.01107829 -85.60  0.001493924    1.369    0.270
       473  -9.9356     69.5456     67.5439   2.9135971816e+02   6.6002271667e+00  0.006539592  0.006405605  67.01 4.737663e-05    1.048    0.046
       474  -9.5859    217.2670     66.2807   2.8963069676e+02   5.7581637103e+00  0.006582567  0.004902481 -29.55 0.0001859135    1.487    0.328
       475 -10.8077     14.4466     65.4660   2.9199043457e+02   6.9422259980e+00   0.01612405  0.009989162  -7.58   0.00146635    2.264    0.558
       476 -11.5628     29.0736     64.7977   2.9181565665e+02   6.8657069092e+00   0.01180731    0.0107351  78.19            0    1.177    0.150
       477 -10.5274      6.2490     64.8325   2.9208236837e+02   6.9967826951e+00   0.01272862  0.007485454 -38.89 0.0008685421    1.877    0.467
       478 -10.7702      6.0489     60.7985   2.9206057913e+02   7.0447800577e+00    0.0151755   0.01174977 -40.95  0.001052793    1.316    0.240
       479 -11.1293      2.5522     60.6817   2.9210071574e+02   7.0662614057e+00   0.01921589  0.009442232 -46.34  0.001703203    2.073    0.518
       480 -10.3830    142.1991     64.6673   2.9049517547e+02   6.2129808121e+00  0.009350594  0.006238789  13.62 0.0005411298    1.669    0.401
       481 -10.3073    109.9801     63.9814   2.9086667975e+02   6.4076767766e+00     0.011081  0.007688797  59.94  0.001126803    1.710    0.415
       482 -10.2850    119.9826     62.9401   2.9074379574e+02   6.3618224479e+00   0.01059256  0.007652804  61.15 0.0006293328    1.621    0.383
       483 -11.7256     75.0448     63.2743   2.9126996770e+02   6.6180185632e+00   0.01007481  0.008573646 -31.76 0.0003333429    1.219    0.180
       484 -10.7748     97.9756     62.5089   2.9099785832e+02   6.4942698434e+00  0.009747648  0.006506769  26.68 0.0005294676    1.504    0.335
       485  -9.7667     11.2535     62.5701   2.9201039775e+02   6.9942438856e+00  0.006973627  0.004954009  73.17 0.0004933167    1.775    0.437
       486 -10.9441     38.6870     58.5063   2.9166576115e+02   6.8833244491e+00   0.01376956   0.01131542 -46.76 0.0008178474    1.206    0.171
       487 -11.7125     19.2504     55.0916   2.9187226716e+02   7.0350201130e+00   0.02539565   0.01338726  73.26  0.001796276    3.917    0.745
       488 -10.7587     15.9385     59.4987   2.9193731456e+02   7.0029274246e+00   0.01111893  0.009363326  39.48 0.0006423297    1.201    0.167
       489 -10.5192     20.7122     44.9219   2.9179431801e+02   7.1446635320e+00   0.01473354   0.01135563 -70.26  0.001085495    1.344    0.256
       490 -10.2790     12.6257     45.1761   2.9189029114e+02   7.1882955300e+00  0.009729236   0.00854335 -49.05 0.0006087787    1.123    0.109
       491 -10.5632     19.1475     48.6168   2.9183471315e+02   7.1107862229e+00   0.01399023    0.0102456 -26.59  0.001212834    1.549    0.354
       492 -12.0929     16.1100     46.7657   2.9185910841e+02   7.1497743024e+00   0.02854208   0.01433545 -39.25  0.002458821    2.316    0.568
       493 -11.4763     12.9461     55.5018   2.9194834517e+02   7.0665715300e+00   0.01517281   0.01167678  87.81 0.0003457528    1.522    0.343
       494 -11.5891     10.8443     50.2851   2.9194167481e+02   7.1392427332e+00   0.02355897  0.009980733 -64.86  0.001930785    2.440    0.590
       495 -10.6593    173.7683     58.8563   2.9009245946e+02   6.0971648313e+00  0.009852017   0.00854446 -33.94  0.000499634    1.182    0.154
       496 -11.5966     45.3362     55.5077   2.9157017703e+02   6.8797770652e+00   0.01260779   0.01159317  57.27 0.0005276343    1.135    0.119
       497 -12.2847     41.3907     51.1315   2.9159002928e+02   6.9533481300e+00    0.0125628   0.01161741  47.62 0.0002810741    1.109    0.098
       498 -10.8275     37.7349     48.6669   2.9161795291e+02   7.0030491974e+00   0.01578517  0.009917343 -31.26  0.001252764    1.893    0.472
       499 -11.2298     52.5911     56.0035   2.9148845509e+02   6.8321455823e+00   0.01761393   0.01090948 -57.75  0.001741332    1.565    0.361
       500 -11.0967    106.0373     56.6079   2.9086843264e+02   6.5160970559e+00   0.02799389   0.01075946  28.76  0.002135255    2.522    0.603
       501 -12.1191     93.6286     54.6247   2.9100128583e+02   6.6109467244e+00   0.01608655   0.01450846   3.02 0.0007334828    1.149    0.130
       502 -10.0785    133.1625     55.1512   2.9054338558e+02   6.3758237828e+00  0.008870126  0.007624506  64.48 0.0003700257    1.266    0.210
       503 -11.0454     28.5963     54.4018   2.9175900288e+02   6.9891689750e+00   0.01230309   0.01190569  10.46  0.000641423    1.039    0.038
       504 -10.8611     32.3015     51.3617   2.9169753513e+02   7.0031014538e+00   0.01626811   0.01032565  67.86   0.00136413    2.151    0.535
       505 -10.6545     76.3425     53.7298   2.9119761488e+02   6.7213197137e+00    0.0110766  0.009816548  58.83 0.0005583873    1.196    0.164
       506 -11.9571      3.5762     52.6931   2.9204097451e+02   7.1531265765e+00   0.02643925   0.01587176  12.42  0.002513984    1.959    0.490
       507 -10.3505      1.8681     48.1671   2.9203384683e+02   7.2155042989e+00   0.01292209  0.008612616 -53.07 0.0007251828    1.458    0.314
       508  -9.5470    191.4597     53.5370   2.8985447121e+02   6.0560604363e+00    0.0065578  0.006404921 -32.26 3.889335e-05    1.015    0.015
       509 -11.2255    120.4796     51.5464   2.9066962639e+02   6.4911771238e+00   0.01131382   0.01055214 -21.29 0.0005099163    1.093    0.085
       510 -11.4646     62.7704     48.9433   2.9132732497e+02   6.8553169629e+00   0.01905421  0.008929902 -59.81  0.001678905    2.052    0.513
       511 -12.4810     61.8012     44.5260   2.9131216082e+02   6.9121889053e+00   0.02338757   0.01270042 -63.61 0.0002903597    1.848    0.459
       512 -11.6582    149.7146     50.4847   2.9032242719e+02   6.3339508951e+00   0.01555041   0.01154223  -9.30 0.0007971296    1.597    0.374
       513 -10.4138    115.0551     49.6658   2.9072160103e+02   6.5444329711e+00  0.009279512  0.008334115  14.50 0.0004650898    1.136    0.120
       514 -10.1073    106.1080     48.8585   2.9082111250e+02   6.6056275723e+00  0.008926603  0.007415346 -30.74  0.001019071    1.264    0.209
       515  -9.8214    100.7707     48.9584   2.9088397376e+02   6.6353725375e+00  0.008781345  0.005405596 -61.13  0.000797151    1.599    0.374
       516  -9.7904     89.2677     46.6198   2.9100415064e+02   6.7290896233e+00  0.006900863  0.005018194  70.59 0.0006990088    1.688    0.408
       517 -10.3420    138.0065     45.0280   2.9042612941e+02   6.4651921252e+00  0.007860161  0.007623241 -52.41 0.0003299041    1.022    0.021
       518 -10.1039     49.8013     45.5652   2.9145848229e+02   6.9694254128e+00  0.009388139  0.005937976  38.98 0.0003617274    1.586    0.369
       519 -11.1833     37.5130     40.7593   2.9157317200e+02   7.0961189076e+00   0.01666769   0.01182074 -35.11  0.001762242    1.527    0.345
       520 -10.7968     25.9598     44.4974   2.9173048770e+02   7.1193478223e+00   0.01200543  0.008714191 -44.25 0.0005186865    1.389    0.280
       521 -10.8850    180.6183     44.2274   2.8992476682e+02   6.2270548990e+00   0.01132602  0.008348505  37.64 0.0008274124    1.359    0.264
       522 -10.3100     34.9761     44.9927   2.9162815924e+02   7.0616128336e+00  0.009429463  0.008501557  68.32            0    1.187    0.157
       523 -10.8178    104.6775     42.1855   2.9079775456e+02   6.6913476247e+00   0.01213285  0.008117761 -51.29 0.0004692904    1.460    0.315
       524 -10.5774     87.3434     42.8144   2.9100377848e+02   6.7843857506e+00   0.01419356  0.006548556 -72.70  0.001121096    2.730    0.634
       525 -10.0031     80.4640     43.5579   2.9108851969e+02   6.8155508432e+00   0.00652337  0.006413588 -26.42 0.0001177258    1.009    0.009
       526 -10.1443     93.6513     40.7158   2.9091757994e+02   6.7722372074e+00  0.006954928  0.004952708 -23.58 0.0003206655    1.652    0.395
       527 -10.7307      9.0488     40.3514   2.9190319181e+02   7.2648982323e+00  0.009283986  0.008817689  28.27 0.0005240359    1.060    0.056
       528 -10.2003    175.4333     39.4471   2.8995642973e+02   6.3126268693e+00  0.006495189  0.006410556 -41.96 0.0001035629    1.004    0.004
       529 -10.6516    157.0085     38.9109   2.9016788819e+02   6.4258720786e+00  0.009669038  0.009516891  42.56 0.0003037952    1.032    0.031
       530 -10.3052    137.1654     38.0647   2.9039411213e+02   6.5508531297e+00   0.01220511  0.009262681  87.45  0.001175649    1.562    0.360
       531 -10.2408    102.0995     38.5562   2.9080604733e+02   6.7483886719e+00   0.01519688  0.009386667 -28.53  0.001429459    2.019    0.505
       532  -9.6282     25.6609     38.6980   2.9169924534e+02   7.1883872191e+00   0.01245558  0.007727598 -27.16  0.001165966    2.032    0.508
       533 -10.9816     22.0979     37.8709   2.9173590921e+02   7.2185223750e+00   0.01434627   0.01063293  42.45 0.0008656164    1.380    0.275
       534 -10.5805    193.2205     37.3251   2.8973650630e+02   6.2338282652e+00   0.01103272  0.008460588 -51.09 0.0005070401    1.280    0.219
       535  -9.9254    147.8621     38.1860   2.9027013865e+02   6.4873775032e+00  0.008908372  0.007394748 -30.12 0.0002662166    1.269    0.212
       536 -11.6098    111.5444     36.8953   2.9068589050e+02   6.7129534570e+00   0.01928869   0.01158887 -35.11  0.001649522    1.928    0.481
       537 -11.4697      3.5818     35.4821   2.9193791169e+02   7.3528884669e+00   0.02499758   0.01231448 -73.11  0.002083595    2.483    0.597
       538 -11.4851     40.8372     36.0707   2.9150625664e+02   7.1313570748e+00   0.01537937   0.01222758  68.15  0.001091258    1.442    0.306
       539 -10.3843     13.1847     37.0253   2.9183496288e+02   7.2796880830e+00   0.01066419  0.008340782 -34.85  0.001029903    1.343    0.256
       540 -10.3121    129.4484     36.4916   2.9047464583e+02   6.6138604360e+00  0.006553126   0.00641069 -38.34 0.0001228806    1.010    0.010
       541 -11.9907    106.6816     32.4035   2.9071565233e+02   6.7932360222e+00    0.0198911    0.0126902 -70.31  0.001046116    1.677    0.404
       542 -11.4134     55.6971     34.4799   2.9132319658e+02   7.0640387354e+00   0.01602093   0.01174341  26.86 0.0009637633    1.369    0.269
       543 -12.0102     78.1240     32.4736   2.9104933797e+02   6.9577086876e+00   0.02751966   0.01582551  24.49  0.002605634    1.778    0.437
       544 -11.5787     76.1240     27.0623   2.9104021626e+02   7.0320576632e+00   0.01183811  0.009971463 -54.58 0.0003412744    1.167    0.143
       545 -10.3800    134.9339     32.5539   2.9038702561e+02   6.6277219377e+00  0.009888379  0.008718567 -62.19 0.0003656108    1.130    0.115
       546 -10.0302    117.5602     33.4795   2.9059520687e+02   6.7177227009e+00  0.006578034  0.006367464 -35.89 0.0001288915    1.024    0.024
       547 -12.1901     70.8191     28.9940   2.9111373749e+02   7.0403179662e+00   0.02688084   0.01411299 -59.25  0.001615565    1.839    0.456
       548 -10.6922     35.3473     31.2803   2.9154166557e+02   7.2186212178e+00   0.01693136   0.01157017  -8.81  0.001235758    1.852    0.460
       549 -10.9826     24.2216     31.0230   2.9167008149e+02   7.2857572723e+00   0.01101346  0.009244637  27.54 0.0002627084    1.195    0.163
       550 -11.1929     17.6976     31.3456   2.9174822781e+02   7.3196093006e+00   0.01349109  0.008370754  14.71  0.001140179    1.815    0.449
       551 -10.1674    123.2592     28.4398   2.9049846325e+02   6.7431473083e+00  0.009113467  0.006017019  38.91 0.0004110901    1.519    0.342
       552 -11.4309    187.3726     27.0152   2.8974260699e+02   6.3873693856e+00   0.01203599  0.009599415  28.06 0.0004944378    1.256    0.204
       553 -10.1700    153.5651     26.2303   2.9013181077e+02   6.5929290314e+00  0.009854429  0.005679749 -48.87 0.0009408902    1.712    0.416
       554 -10.8628    100.8588     26.0728   2.9074558289e+02   6.9003996385e+00   0.01063918  0.009117836  63.17  0.001239155    1.267    0.211
       555 -10.3794    134.4628     24.9806   2.9034701577e+02   6.7182915155e+00  0.009781293  0.006479456 -63.11 5.877284e-05    1.507    0.336
       556 -10.6456      4.9268     23.3469   2.9184953266e+02   7.4859743364e+00   0.01510571  0.006206748  27.49  0.001236669    2.406    0.584
       557 -10.1898     90.5331     24.0089   2.9085369497e+02   6.9841207186e+00  0.009790554  0.006476389 -62.93 0.0003040179    1.507    0.336
       558 -11.4768     65.8795     24.1884   2.9114257727e+02   7.1246241582e+00   0.01907189    0.0100288  20.40   0.00118173    2.071    0.517
       559 -11.0976     55.1518     21.7873   2.9125344487e+02   7.2144600726e+00   0.01138573   0.01014019 -48.41 0.0003389667    1.108    0.098
       560  -9.8973    200.5023    249.0412   2.9092083120e+02   3.7336406872e+00    0.0097541  0.006489819 -62.77 0.0004138291    1.496    0.331
       561 -10.6884     50.2319     23.5611   2.9132154153e+02   7.2222915282e+00   0.01201401  0.009212963 -65.79 0.0009676637    1.318    0.241
       562 -10.2496     31.4560     23.8013   2.9154229395e+02   7.3278479387e+00  0.009664442  0.005775661 -49.11 0.0004067996    1.647    0.393
       563 -11.0743     18.2252     23.0074   2.9169210956e+02   7.4133259867e+00   0.02881824   0.01095764  45.69  0.002136667    3.107    0.678
       564 -10.1180     14.1733     23.6437   2.9174326610e+02   7.4292853853e+00   0.01010864  0.009102308 -53.47            0    1.094    0.086
       565 -10.7630    221.2621     23.1316   2.8932469538e+02   6.2351565871e+00   0.01302932   0.00793684  54.70  0.001167597    1.966    0.491
       566 -11.3219    109.6679     22.8778   2.9062360633e+02   6.8864326605e+00   0.01155527    0.0104492  12.05 0.0003251295    1.130    0.115
       567 -10.6086    189.5461    242.3035   2.9100787569e+02   3.8753634409e+00   0.01371666  0.005387007 -54.24  0.001069745    2.361    0.576
       568 -11.8389     38.0028     21.0216   2.9144915209e+02   7.3223358983e+00   0.01438343   0.01335802  -3.17  0.001766637    1.105    0.095
       569 -11.6242    197.0637    235.2051   2.9087811108e+02   3.9142638689e+00   0.02207061   0.01291931 -35.99 0.0009739987    1.978    0.494
       570 -10.9950    101.8911     18.4331   2.9068765743e+02   6.9830339477e+00   0.01220908  0.009328221 -89.34 0.0008601114    1.525    0.344
       571 -10.1068     28.3112     19.8003   2.9155504983e+02   7.3924024128e+00   0.01004935  0.005373224  13.22 0.0008618148    2.316    0.568
       572 -11.4430    131.1271     16.9353   2.9033756791e+02   6.8309394528e+00   0.01268776  0.009629442  15.30 0.0006293966    1.394    0.282
       573  -9.7814    145.7286     16.7128   2.9016595456e+02   6.7487841143e+00  0.006641867  0.004900928 -29.65 0.0001929854    1.505    0.336
       574 -11.0687    179.0522    248.6931   2.9116797851e+02   3.8619094950e+00  0.009949391  0.009360446 -43.69 0.0003649737    1.052    0.050
       575 -11.8134    180.9551    244.2913   2.9111958094e+02   3.9020256744e+00   0.02132827   0.01191556 -44.36 0.0009263772    1.854    0.461
       576 -10.7819    112.2839     14.9933   2.9054571937e+02   6.9627143158e+00  0.009432042  0.008343767 -64.33 0.0004149963    1.132    0.117
       577 -10.2807     92.6937     15.0058   2.9077441724e+02   7.0760399174e+00  0.009374153  0.008263675 -65.74 0.0004004012    1.140    0.123
       578 -12.1767    191.1234    235.1834   2.9094700848e+02   3.9489319150e+00   0.01807878   0.01464122 -45.02 0.0008672982    1.232    0.188
       579 -11.2666    185.3318    240.6974   2.9104725419e+02   3.9184285044e+00   0.01563948  0.009303025  46.77  0.000863402    1.816    0.449
       580 -11.5153    186.9943    238.2587   2.9101336551e+02   3.9371271633e+00   0.01370963   0.01143436  27.26  0.000424649    1.203    0.169
       581 -11.3916    243.2132     12.6044   2.8900595170e+02   6.2292148126e+00    0.0112637  0.008473788  12.53 0.0007518691    1.436    0.303
       582 -10.1742    210.3309     13.3211   2.8939287930e+02   6.4124903595e+00  0.007095149  0.004903577 -27.38 0.0007049106    1.695    0.410
       583  -9.8243    193.5162    248.4756   2.9099861435e+02   3.7806757693e+00  0.006585593  0.006407191  64.98 0.0008093076    1.057    0.054
       584 -12.8938    203.0845    241.0816   2.9084327569e+02   3.8111257393e+00   0.01640964   0.01357093 -73.61 0.0007089942    1.260    0.206
       585 -11.0243    172.2190    240.4174   2.9119798081e+02   3.9976123266e+00   0.02107266   0.01224533 -87.23  0.001417254    2.502    0.600
       586  -9.7869    128.0069     11.7578   2.9034284310e+02   6.9090705753e+00   0.00832783  0.005579785  26.38 0.0003455251    1.500    0.333
       587 -10.4296      2.4088     10.5924   2.9180255387e+02   7.6484410763e+00   0.01155578  0.006014843  32.49 0.0005858587    1.868    0.465
       588 -10.8573    168.5263    238.9992   2.9123243506e+02   4.0354682204e+00   0.01271305  0.009728252  75.81 0.0008163999    1.560    0.359
       589 -12.8179    147.2756    240.9508   2.9149114049e+02   4.1357774398e+00   0.02115952   0.02014139 -77.86  0.001283793    1.073    0.068
       590 -11.2440    128.3761    242.8733   2.9172238023e+02   4.2227414136e+00   0.01323243  0.009595558 -35.27 0.0007093383    1.482    0.325
       591 -10.4430     86.2076     13.8243   2.9084303545e+02   7.1272838829e+00  0.009118374  0.007514185 -25.60 0.0003910661    1.302    0.232
       592 -12.8585    131.2943    236.4464   2.9165010936e+02   4.2805599910e+00   0.02704367   0.01716326 -27.95  0.002609603    1.939    0.484
       593 -10.8723    161.3510    241.3080   2.9132962984e+02   4.0501772072e+00   0.01492738   0.01044902  63.87  0.001525494    1.737    0.424
       594 -10.6200    217.9548    240.7061   2.9066829969e+02   3.7293113080e+00   0.01176124  0.009139778   2.44  0.001133212    1.438    0.305
       595 -10.0031    237.6369    238.2417   2.9042500837e+02   3.6438218148e+00  0.008945559  0.005909772 -52.93 0.0003406981    1.471    0.320
       596 -12.2362    219.0689    233.2990   2.9061107447e+02   3.8088672185e+00   0.01991582   0.01332688 -37.40 0.0005712407    1.617    0.381
       597 -11.6602    176.4422    232.9114   2.9110406318e+02   4.0603604132e+00   0.02338588   0.01296761  15.53   0.00134142    2.103    0.525
       598 -11.7753    160.9369    232.0894   2.9127940648e+02   4.1596852643e+00   0.01220257   0.01101633  89.70 0.0004716991    1.178    0.151
       599 -11.0934    183.6030    232.4633   2.9101815519e+02   4.0240924156e+00   0.01562066   0.01095039   9.59 0.0004615285    1.612    0.380
       600  -9.9858    156.5036    233.4299   2.9133895478e+02   4.1697711840e+00  0.006557457  0.006383365  55.74 5.437967e-05    1.052    0.049
       601 -12.5095    142.7240    231.8783   2.9148992616e+02   4.2675383329e+00   0.01710852   0.01246977  21.60  0.001677613    1.410    0.291
       602 -11.2808     58.5200    230.0410   2.9245867309e+02   4.7753037018e+00   0.01346929  0.009814852  72.34  0.001248225    1.687    0.407
       603 -11.2540    102.5208    228.8459   2.9193950286e+02   4.5352178909e+00   0.01176581   0.01155818  50.59  0.000675078    1.037    0.036
       604 -12.0348    114.2644    223.4762   2.9177084253e+02   4.5297696098e+00   0.02098671   0.01634238  17.03 0.0005793317    1.339    0.253
       605 -12.0546    111.8707    227.9902   2.9182561518e+02   4.4911360047e+00   0.01429866   0.01190081  42.43 0.0002901917    1.224    0.183
       606 -12.9513    107.4933    225.7032   2.9186290755e+02   4.5430178930e+00    0.0258642   0.01799755  70.48  0.001407173    1.824    0.452
       607 -11.4798    101.8847    224.2186   2.9191931484e+02   4.5926824889e+00   0.01476428   0.01035825 -42.03 0.0008690899    1.466    0.318
