#   1 NUMBER                 Running object number                                     
#   2 MAG_AUTO               Kron-like elliptical aperture magnitude                    [mag]
#   3 X_IMAGE                Object position along x                                    [pixel]
#   4 Y_IMAGE                Object position along y                                    [pixel]
#   5 X_WORLD                Barycenter position along world x axis                     [deg]
#   6 Y_WORLD                Barycenter position along world y axis                     [deg]
#   7 A_WORLD                Profile RMS along major axis (world units)                 [deg]
#   8 B_WORLD                Profile RMS along minor axis (world units)                 [deg]
#   9 THETA_WORLD            Position angle (CCW/world-x)                               [deg]
#  10 FWHM_WORLD             FWHM assuming a gaussian core                              [deg]
#  11 ELONGATION             A_IMAGE/B_IMAGE                                           
#  12 ELLIPTICITY            1 - B_IMAGE/A_IMAGE                                       
         1 -13.2911    183.9445     59.4610   1.9095172910e+01   3.1719809958e+01     1.229358    0.9055577 -38.58 0.0006736855    1.429    0.300
         2 -11.5957    197.3073     26.1322   9.1712713927e+00   3.3154746402e+01     1.507713    0.5747006  73.89  0.006241364    2.639    0.621
         3 -12.2641    249.6489     72.0729   1.3084970450e+01   1.5557412969e+01     3.019364      0.26774 -42.00  0.008125626    6.199    0.839
         4 -12.3960    188.3562     44.8500   1.4796832803e+01   3.2812206239e+01     1.041533    0.3313894 -47.42    0.0037694    3.263    0.694
         5 -13.3898    198.0310     35.8256   1.1341345741e+01   3.1773575995e+01     1.475905     1.096947  72.80  0.008704621    1.229    0.186
         6 -13.7685    194.8198     66.4097   1.9075252671e+01   2.8103266497e+01       1.0832     0.781504 -58.53  0.004569473    1.358    0.264
         7 -13.6069    234.3176     47.6374   9.7881625744e+00   2.2203688256e+01     1.747143    0.9276979 -37.13  0.004848487    1.892    0.472
         8 -14.0802    219.3779     56.4240   1.3359903296e+01   2.4120695990e+01     1.979211     1.302133 -72.80  0.003126304    1.560    0.359
         9  99.0000     30.8661     21.2038   5.0275340719e+01   6.8187530052e+01     1.005133    0.9169797  22.76  0.005052925    1.452    0.311
        10 -12.1302     11.2190     24.8577   6.1682569899e+01   6.9538538316e+01    0.5393317    0.3147418   5.48  0.001320372    1.660    0.398
        11 -12.0967     78.7551      9.8733   2.6564963129e+01   6.1888798093e+01    0.3020587    0.1975949  41.11 0.0003600737    1.272    0.214
        12 -14.2480     10.6782     69.0835   7.4682184166e+01   6.1203612785e+01      1.77022     1.238175 -20.12   0.01118505    1.412    0.292
        13 -14.0536     94.7122     71.1592   4.3380277788e+01   4.9987730003e+01     2.064371     1.364487 -64.42   0.00686454    2.246    0.555
        14 -12.1463     50.5167     32.9456   4.6190248127e+01   6.3897949513e+01     1.605043      1.26547 -54.74  0.009825075    1.833    0.455
        15 -12.8942     57.0915      4.3907   3.1516004390e+01   6.6403053325e+01    0.3999474    0.3029718  44.20  0.002213412    1.311    0.237
        16 -12.6181     25.2659     40.7445   6.0355935531e+01   6.5636557206e+01     1.644135    0.4264201 -45.28  0.006701086    3.137    0.681
        17 -12.4822     69.1174      5.3736   2.7748384749e+01   6.4158621253e+01    0.9109919    0.5074555  45.54  0.005204909    1.494    0.330
        18 -14.2008     58.3475     65.3434   5.4326829513e+01   5.7201240559e+01     2.328168    0.9469966 -40.56  0.009659607    2.414    0.586
        19 -14.1541     11.2422     37.2908   6.5957598363e+01   6.7406315003e+01     1.498808     1.132384 -39.49  0.005316976    1.161    0.139
        20 -13.3067     76.5148     22.7126   3.2373759694e+01   6.0927287708e+01     1.622395     0.856231  28.90  0.002856778    2.057    0.514
        21 -12.5281     53.1801     20.5399   4.0065099342e+01   6.5221862263e+01     1.367948     1.017768  71.67  0.006704665    2.916    0.657
        22 -13.0093     47.3258     54.0767   5.5114663309e+01   6.0799874086e+01     1.480671    0.7157319 -20.08  0.005592694    3.606    0.723
        23 -13.4967    203.2238     60.7233   1.6474894511e+01   2.7066091297e+01     2.457327     1.145404 -70.39  0.007791631    4.541    0.780
        24  99.0000    134.1610     40.4355   2.3123120277e+01   4.6320333765e+01     1.060484    0.8610874 -52.12  0.006020533    1.366    0.268
        25 -12.0729    160.9040     38.2821   1.7376246300e+01   4.0232426887e+01     1.112176    0.7526344  29.26  0.005459442    2.073    0.518
        26 -12.1151    173.1740     44.4733   1.7002698193e+01   3.6460943466e+01    0.7163684    0.4853074  31.98   0.00210844    2.088    0.521
        27 -11.5853    177.9853     37.5312   1.4474407295e+01   3.6245885216e+01    0.6960744    0.3819147 -20.60  0.003072852    2.719    0.632
        28 -11.8520    219.9323     29.5803   7.4918537703e+00   2.7665180749e+01     1.375184    0.5777007  82.62  0.005853685    2.826    0.646
        29 -13.0009    226.0822     22.6831   5.4641745973e+00   2.7191643486e+01    0.4663545    0.4329662 -71.77  0.001327289    1.281    0.219
        30 -11.9034    233.0393      4.0778   1.2029126027e+00   2.7856746216e+01    0.5899318    0.2669903 -45.80  0.002845965    1.920    0.479
        31 -14.0677    244.8060      8.3195   1.1690108497e+00   2.5003181164e+01     1.000772    0.4084257 -78.59  0.003976293    2.850    0.649
        32 -10.5930    233.9695     11.0853   2.4877696010e+00   2.6891039609e+01    0.2368297    0.1801025  49.25 0.0008099169    1.856    0.461
        33 -12.8258    221.4756      8.2950   2.9264847732e+00   2.9830152203e+01    0.5870366    0.2230812 -57.64  0.001319252    2.595    0.615
        34 -11.2444    228.6751     10.4775   2.7830346584e+00   2.8062437735e+01    0.5479571    0.2458218 -64.65  0.001657037    2.201    0.546
        35 -11.7222    210.7970     21.2969   6.6306538777e+00   3.0684306891e+01    0.5170644     0.321557  58.61  0.002524904    1.684    0.406
        36 -11.6655    202.4372     21.2682   7.4895295120e+00   3.2562956478e+01    0.4778033    0.2591062 -80.86  0.002365278    2.004    0.501
        37 -11.7072    204.3612     17.7469   6.5016774070e+00   3.2535421325e+01    0.5607731    0.2633083 -80.29  0.001781714    2.666    0.625
        38 -13.2242    176.2595     23.5616   1.1171581724e+01   3.8372848733e+01    0.3118286     0.289783  70.39 0.0006472718    1.176    0.150
        39  99.0000    243.7299     18.0528   3.0735560509e+00   2.4093886255e+01    0.3900469    0.2520126  81.08  0.002511914    1.407    0.289
        40  -9.8812    121.0347      4.7122   1.4521791960e+01   5.3281888604e+01    0.1868909    0.1447213  42.97 0.0004649083    1.232    0.188
        41 -10.6012    111.7395      4.3271   1.6218460743e+01   5.5417538712e+01     0.285598    0.1797255  55.59  0.001583351    1.293    0.227
        42 -12.0717    115.7652     10.1681   1.7354758928e+01   5.3994838746e+01    0.5757583    0.3001177 -10.54  0.002660444    2.743    0.635
        43  -9.0936    120.5210      9.4386   1.6154474559e+01   5.2980622188e+01    0.1640336    0.1195489 -42.01 7.798373e-05    1.608    0.378
        44 -11.3610     94.0585     16.0041   2.4556301425e+01   5.8172371899e+01    0.3257179    0.1721536  42.63  0.000883275    1.652    0.395
        45 -10.7991    125.0118     10.5305   1.5638920553e+01   5.1848400438e+01    0.4063654    0.2755646  -9.32  0.002285545    1.904    0.475
        46 -10.2491    187.3341     13.1456   7.2627208994e+00   3.6934909710e+01    0.2339342    0.1432625 -70.13 0.0006244452    1.648    0.393
        47 -11.2250    149.4452     12.7248   1.2122655004e+01   4.5907830266e+01    0.4314804     0.231257 -89.51  0.001945524    2.383    0.580
        48 -10.2136    146.5231      6.0197   1.0664440475e+01   4.7234995879e+01    0.2361139    0.1864416  28.06  0.001336912    1.554    0.356
        49 -12.9003     64.3763     15.4971   3.3648039927e+01   6.3971179143e+01    0.9577467    0.5694932  42.19  0.005256461    1.479    0.324
        50  -9.6159    192.2063     12.0046   6.4649535246e+00   3.5933626080e+01    0.1594138    0.1298996 -80.03  0.001032184    1.063    0.059
        51 -10.7653    132.9951     11.3086   1.4419208892e+01   4.9921353098e+01    0.3387892    0.2059192  83.97  0.001036882    1.858    0.462
        52  99.0000    130.9887      8.2304   1.3827334078e+01   5.0675526599e+01    0.3304938    0.1622236  62.65   0.00163514    1.674    0.403
        53 -10.3671     87.9247     11.8977   2.4690586401e+01   5.9855622606e+01    0.2395499    0.1857106  56.82  0.001495705    1.259    0.206
        54 -10.2692    108.9160     10.2223   1.8843025223e+01   5.5524910695e+01    0.2531753      0.16681 -36.43  0.001443329    1.776    0.437
        55 -10.0265    165.5705      9.6977   9.0236112796e+00   4.2387608787e+01    0.1940785    0.1416604 -51.81 0.0007078326    1.445    0.308
        56 -10.6672    101.3291      8.4106   1.9944706079e+01   5.7355877672e+01    0.3316552    0.2120545 -12.23  0.001406647    1.896    0.473
        57  -9.8146     45.8305      9.7344   3.8411100715e+01   6.7656022005e+01    0.2938758    0.1250647  33.44  0.001474093    2.139    0.532
        58 -10.7076     26.6436      9.5962   4.7262944912e+01   7.0266146288e+01    0.2569108    0.1579154   3.31  0.001599701    1.569    0.363
        59 -11.8050    193.6740      7.4571   5.2685941625e+00   3.6074607285e+01    0.2618665    0.2021953  78.36  0.000716093    1.124    0.110
        60 -10.4775     12.8397      7.3825   5.3580241817e+01   7.2026516713e+01    0.1482974    0.1133337 -14.92 0.0006583555    1.106    0.096
        61  -9.7580    210.5440      6.2406   3.4239777710e+00   3.2422356901e+01     0.136359    0.1187683 -15.74 0.0007877621    1.658    0.397
        62 -10.1375     90.3650      6.4272   2.1941377062e+01   5.9864207261e+01    0.2247591     0.112629  68.81  0.001018893    2.539    0.606
        63 -10.1673     47.2710      5.3337   3.5797002660e+01   6.7917264382e+01    0.1814329    0.1397026   4.18 0.0003669681    1.140    0.123
        64 -11.2061     47.2987      1.5851   3.4043028243e+01   6.8295751947e+01    0.3472328    0.1578389  36.42  0.001186762    1.860    0.463
        65 -11.1894      2.8009      5.9317   5.8711248581e+01   7.3079580510e+01    0.2241616    0.1323885   8.13 0.0009326561    1.516    0.341
        66  99.0000    184.1922      3.0842   5.2219718003e+00   3.8684271264e+01    0.4946449    0.2421934  67.61  0.002593748    1.706    0.414
        67  -9.8883    135.2544      2.7300   1.1440675157e+01   5.0165472255e+01    0.2692853    0.1480148  21.56  0.001243322    2.930    0.659
        68 -10.6494    217.7091      2.3157   2.0142168138e+00   3.1274806121e+01    0.2958224     0.186319  87.68  0.001228119    1.324    0.245
        69  -9.8345    213.3172      2.3210   2.3689555415e+00   3.2224224120e+01    0.1657715    0.1021428  65.36 0.0006150352    1.569    0.363
        70 -10.1124    207.1823      3.0848   3.0454999938e+00   3.3490513490e+01     0.152407    0.1289653 -72.35  0.001045368    1.141    0.123
        71 -12.2410     85.7556      1.4885   2.1251195963e+01   6.1239704931e+01     0.403668    0.1194513  54.83  0.001221646    2.610    0.617
        72  -9.8965     18.7887      3.0649   4.8274119687e+01   7.1984584599e+01    0.1283391    0.0767694 -31.43 0.0004733027    1.592    0.372
        73  -9.5668    143.5129      2.5620   1.0122780738e+01   4.8248608821e+01    0.1272681    0.1040741  81.27 4.081473e-05    1.098    0.090
        74  -9.6952    250.4292      1.4936   3.5955539371e+02   2.4649024967e+01    0.1135408   0.08223132 -71.72 5.512331e-05    1.018    0.018
        75 -13.0119    173.1361      6.3834   7.2440938191e+00   4.0933145106e+01    0.4148195    0.2787394 -15.38  0.002362369    2.087    0.521
        76  -9.1668    152.7089    124.2861   4.1886515075e+01   2.6793829685e+01    0.1524628      0.12262  89.45 0.0001901489    1.538    0.350
        77 -12.9295    210.1804     59.5283   1.5238507133e+01   2.5683227976e+01     1.097003    0.5276239 -69.95  0.001936798    3.490    0.714
        78 -11.3477    197.5828     50.3644   1.4827662110e+01   2.9889196633e+01     0.394634    0.3070578  70.86  0.001323788    1.213    0.176
        79 -12.6886    207.0575     46.3577   1.2643482400e+01   2.8295687247e+01     1.516101    0.5868714  74.20  0.005718817    3.180    0.686
        80 -11.8744    215.1742     41.9936   1.0689020226e+01   2.7084959679e+01    0.3262899    0.2362016  81.33 0.0007080107    1.278    0.218
        81 -12.8430    220.7931     38.2448   9.2505903272e+00   2.6357806459e+01     0.750913    0.4533626 -76.66  0.001587897    1.697    0.411
        82 -11.8352    222.3008     88.4365   2.0012841005e+01   1.8430027549e+01    0.3643392    0.2134652  62.44  0.001782628    1.838    0.456
        83 -10.7313    225.9415     85.3090   1.8811770961e+01   1.8194761130e+01    0.2202371    0.1876892 -16.10 0.0004706209    1.511    0.338
        84 -11.8444     50.8652     87.9856   6.3492600302e+01   5.3455410647e+01    0.3911363    0.2144005 -33.75  0.001502228    1.996    0.499
        85 -12.0771     48.3483     85.1362   6.3705744476e+01   5.4385413010e+01    0.5509877    0.2642871  15.67  0.002184886    2.773    0.639
        86 -12.0476      4.9778     87.7651   8.0492668900e+01   5.7441588918e+01    0.4020386    0.2696296  17.69  0.002477914    1.741    0.426
        87 -10.2821    212.3141     88.6749   2.1561874455e+01   2.0508052862e+01     0.146183    0.1004151 -71.27 0.0004566122    1.665    0.399
        88 -11.3234    237.8501     86.5078   1.7462118849e+01   1.5587655554e+01    0.3654627    0.2596001  74.46  0.001194481    1.554    0.357
        89 -11.6289    231.6777     84.3073   1.7812315641e+01   1.7182975361e+01    0.4463348    0.2812143 -78.82  0.001331776    2.038    0.509
        90 -11.7995    175.4696     85.8367   2.7279779263e+01   2.9308256294e+01    0.5797793    0.3115503  38.41  0.001438369    2.428    0.588
        91 -11.4425    161.0136     83.7952   2.9689560734e+01   3.3054413321e+01    0.6314847    0.4671064  11.43  0.002836414    2.067    0.516
        92 -12.5045    168.7848     79.7682   2.7034788347e+01   3.1952627452e+01    0.6767412    0.5395191 -22.63  0.001910774    1.512    0.338
        93 -12.8793     72.1998     73.9058   5.1819740027e+01   5.3436088877e+01     1.604106     0.641825  35.90  0.006337109    2.519    0.603
        94  -9.1969    227.3248    121.7233   2.6454689496e+01   1.1600333728e+01    0.1347215    0.1029719 -74.45  0.000291447    1.586    0.369
        95 -10.9720    181.3074    117.9875   3.3997556667e+01   2.1840345474e+01     0.394432    0.2494372 -46.09   0.00077971    1.543    0.352
        96  -9.2548     73.0273    118.9907   6.3172586279e+01   4.3243032167e+01    0.1695741    0.1617585 -52.78            0    1.001    0.001
        97 -10.3136    203.1919    115.7854   2.9262285141e+01   1.7560614367e+01    0.4398929    0.2323663  72.53  0.001477268    3.770    0.735
        98 -11.2034    138.7523    112.3764   4.2401406286e+01   3.2409094009e+01    0.2869808    0.2026227  36.49  0.001207267    1.496    0.331
        99 -11.2528     64.6224    111.9036   6.4336654131e+01   4.6151078864e+01    0.3606174    0.1997698  61.56  0.001356137    3.053    0.672
       100  -9.8856    210.4654    111.6528   2.7050192185e+01   1.6808281270e+01    0.2694244    0.1351584  59.41   0.00110918    2.336    0.572
       101 -14.0419     43.8709     72.9782   6.2211670364e+01   5.7505751166e+01     1.571444      1.05549 -20.94  0.008459307    1.587    0.370
       102 -10.7027     38.4799    110.4893   7.2791469983e+01   4.9604976867e+01    0.2375101    0.1258312 -76.00  0.001029706    2.223    0.550
       103 -10.9143    196.2182    108.2121   2.8792628520e+01   2.0482330149e+01    0.3948394    0.2676659 -64.95  0.001234803    1.740    0.425
       104 -11.3065    191.5333    103.1150   2.8461002378e+01   2.2469122559e+01    0.5686908     0.206288 -51.49  0.001820197    3.335    0.700
       105 -13.1055      4.3407     55.3502   7.4229551254e+01   6.4390685180e+01     0.871023     0.493369 -53.53  0.003033048    1.427    0.299
       106 -10.5733    153.0068    108.2992   3.7861045840e+01   3.0116021846e+01    0.2389147    0.2296048 -64.44 0.0004184077    1.037    0.036
       107 -11.5005    155.8257    105.1647   3.6405115072e+01   3.0123508226e+01    0.2980568    0.2319352 -40.41  0.001442762    1.312    0.238
       108 -11.6362    161.8169    106.6022   3.5404823132e+01   2.8477425675e+01    0.2964433    0.2200991 -41.90  0.001408009    1.358    0.264
       109 -13.1119     79.8831     59.3434   4.4506271653e+01   5.4880626818e+01    0.8272729    0.5229954  26.15  0.004061894    1.682    0.406
       110 -13.1203     38.0103     55.4940   5.9477182637e+01   6.1639246113e+01    0.8820476    0.6494632  41.84  0.003579754    1.691    0.409
       111  -9.9254    210.3423    105.7451   2.5742731210e+01   1.7913502592e+01    0.2338949    0.2066335  55.21  0.001181435    1.213    0.176
       112 -11.9251     75.9595     52.0230   4.3404475603e+01   5.6825931017e+01    0.3123662    0.2371059 -43.94 0.0003324959    1.449    0.310
       113 -10.7827     30.8015     84.9549   7.0273705601e+01   5.6247071101e+01    0.2294921    0.2014654 -53.14 0.0002953054    1.094    0.086
       114 -11.0351    246.7917     83.1627   1.5650467177e+01   1.4383698213e+01    0.2776322    0.2090744 -50.62   0.00168549    1.130    0.115
       115 -11.4293    250.7128     81.6527   1.4879370951e+01   1.3875576931e+01    0.5207767    0.2007896 -36.32   0.00220633    2.574    0.612
       116 -10.2969    183.5328    104.4609   3.0314119234e+01   2.3997022853e+01    0.4855647      0.25256 -63.63  0.001659373    3.170    0.685
       117 -11.7079    147.6706     83.2790   3.2511173677e+01   3.6261251521e+01    0.6444524    0.4075248 -44.68  0.002365595    1.622    0.383
       118 -13.6757     32.6801     66.0640   6.4822090231e+01   6.0108572479e+01     1.187328    0.8469415 -76.29  0.006558098    1.972    0.493
       119 -11.4539     83.2965     83.9746   5.0946577012e+01   4.9539778785e+01    0.2726537    0.2122349  32.27 0.0004773632    1.286    0.222
       120 -11.7895    221.6621     79.7648   1.8196401313e+01   2.0001712847e+01    0.3065361    0.2449343 -88.51  0.001770019    1.267    0.211
       121 -10.2853    233.1136     78.9401   1.6482825787e+01   1.7757995003e+01    0.3113722    0.1658076  89.30  0.001238785    3.242    0.692
       122 -11.8470     90.5288     51.1105   3.8194097067e+01   5.4280078810e+01    0.2334734    0.1996766  34.10 0.0001836329    1.085    0.079
       123 -12.5391     81.7617     49.2754   4.0444170495e+01   5.6234698645e+01    0.6122551    0.4580267  12.51  0.002938373    1.430    0.301
       124  -9.6294    241.0201     78.5229   1.5402907073e+01   1.6239478969e+01    0.1725599      0.12406  67.44 0.0003341021    1.493    0.330
       125 -10.2757    161.9146     77.4306   2.7810856526e+01   3.3981363270e+01    0.2379548    0.1931274 -59.36 0.0006685558    1.275    0.216
       126 -12.5412    114.5580     80.3703   4.0198785083e+01   4.4213779666e+01    0.6412282    0.5121676 -33.00  0.003288504    1.314    0.239
       127 -10.4946    155.8838     76.6115   2.8860123265e+01   3.5546610229e+01    0.3481117    0.2672578  70.62  0.001147743    1.358    0.264
       128 -12.1633    227.1681     73.3365   1.6054088960e+01   1.9874946930e+01    0.4855477    0.3420734   9.76  0.002204499    3.049    0.672
       129 -11.8507    233.3204     72.2327   1.5037898806e+01   1.8774470272e+01    0.4695719    0.3244248  12.49  0.002077177    3.381    0.704
       130 -13.9924    116.3004     62.9021   3.4441278178e+01   4.6996850182e+01     1.432173    0.9146564  51.45  0.002532928    1.502    0.334
       131  -9.9508    145.4627     53.1346   2.4492700368e+01   4.1849615447e+01     1.007165     0.542608  31.41  0.003649595    2.981    0.665
       132 -11.4097    135.2278     72.1847   3.2347982409e+01   4.1143204845e+01    0.5684584    0.4792368  76.21  0.001892879    1.287    0.223
       133 -12.0892    144.6703     67.5930   2.8816712615e+01   3.9738635448e+01    0.9335416    0.6613586  14.04  0.003032465    2.157    0.536
       134 -11.9416    145.3446    103.4458   3.8456089262e+01   3.2835963752e+01    0.6310183    0.3531606  52.63  0.002117152    1.826    0.452
       135 -12.7119    116.8659     92.8101   4.3092533510e+01   4.1244890107e+01    0.5673072    0.4232801  24.84  0.002281639    1.538    0.350
       136 -12.8802    148.9816     40.7348   2.0209938815e+01   4.2766565956e+01    0.5600741    0.3549526 -52.70  0.001810457    1.779    0.438
       137 -11.6892    154.2190     62.3642   2.5293360103e+01   3.8336891286e+01    0.9135606    0.5876327 -53.80  0.004299888    1.719    0.418
       138 -11.3640    127.2386     58.5679   3.0269221547e+01   4.5262083539e+01    0.4977578    0.3325992  28.80  0.002314859    1.830    0.454
       139 -10.6493     99.2741     47.5782   3.4304631998e+01   5.3072437346e+01    0.2790414    0.2120596  -3.36  0.001489291    1.544    0.353
       140 -10.3319    139.8923     61.8434   2.8242087669e+01   4.1807624882e+01     0.986034    0.3328774  46.71  0.003353705    2.927    0.658
       141 -11.5494    100.3721     54.0797   3.6153015624e+01   5.1833217452e+01    0.5611972    0.5136784  51.43  0.001605713    1.138    0.122
       142 -10.3635    166.9947     51.9640   2.0020116409e+01   3.6874558940e+01    0.3328296    0.2101532  27.24  0.001387867    2.597    0.615
       143 -11.1605    162.1821     57.5992   2.2416358074e+01   3.7182044528e+01    0.4417082    0.2946929  37.89  0.001392882    1.798    0.444
       144 -10.5794    159.0254     54.2589   2.2101254555e+01   3.8443931921e+01    0.6254134    0.2307569  50.75  0.002326412    2.569    0.611
       145  -9.7120    160.4758     50.5122   2.0801437900e+01   3.8648783262e+01    0.2160252    0.1921158 -16.70 2.892209e-05    1.353    0.261
       146 -10.0316    161.0183     47.5035   1.9879044243e+01   3.8950010995e+01    0.3714804    0.2134186  66.07  0.001732223    1.665    0.399
       147 -10.6318    174.5385     55.4240   1.9625800207e+01   3.4559667880e+01    0.3563071    0.2057705 -56.92 0.0008008294    1.942    0.485
       148  -9.8624    170.5396     56.5271   2.0605802922e+01   3.5347213613e+01     0.244806    0.1314726  72.96  0.001018895    2.141    0.533
       149  -9.8827    137.4274     52.7721   2.6125687095e+01   4.3800982896e+01    0.2379048    0.2006017  52.43 0.0004022161    1.102    0.092
       150 -10.2696    133.2080     52.6227   2.7038168833e+01   4.4809303070e+01    0.3224673    0.2259176  38.78 0.0008770288    1.484    0.326
       151 -11.6146    247.1897     42.3466   7.4590989009e+00   2.0316717987e+01    0.4667988    0.2560422 -62.29  0.001975824    1.670    0.401
       152 -10.9942    245.4801     50.1602   9.1599274094e+00   1.9581454934e+01    0.2778829     0.198152 -79.33 -0.0001572278    1.293    0.227
       153  -9.9021    250.5703     49.7934   8.5923021956e+00   1.8629684637e+01    0.3565884    0.1521802 -50.80  0.001757938    1.989    0.497
       154  -9.7455    167.7681     42.0403   1.7241259977e+01   3.8086537636e+01    0.2164493    0.1713644 -72.91 0.0005584102    1.292    0.226
       155 -11.4848    140.9138     96.5781   3.7737361637e+01   3.5230135885e+01    0.5853632    0.3426132 -57.18  0.002364229    2.050    0.512
       156 -10.6998    132.0063    101.7219   4.1384815163e+01   3.6146738605e+01    0.2322833    0.2279589 -59.42 0.0002179594    1.031    0.030
       157 -11.1736    181.5074     33.9939   1.3076945640e+01   3.5866444909e+01    0.2316687    0.1699295  72.39 -7.250089e-05    1.219    0.179
       158 -10.7470     41.1538     44.8654   5.4606232277e+01   6.3207075146e+01    0.3010978    0.2297057  27.03  0.001889309    1.350    0.259
       159  -9.8587     39.3477     40.3092   5.3780568358e+01   6.4202036374e+01    0.7576178     0.339074  16.35  0.003232296    3.031    0.670
       160 -10.2002    121.2884     44.8367   2.7456868381e+01   4.8687524828e+01     0.252733    0.2047267 -87.94  0.000817114    1.520    0.342
       161 -10.4769    105.3159     43.4432   3.1173152905e+01   5.2410096076e+01    0.2361079     0.209909  55.58 0.0005013648    1.141    0.124
       162  -9.9830    100.1779     41.4296   3.1941948220e+01   5.3783159831e+01    0.2812256    0.2291088  -9.02  0.001615528    1.343    0.255
       163 -10.7487     94.0383     41.3153   3.3715864640e+01   5.5063748674e+01    0.2738286    0.2206157  32.81 0.0008396373    1.134    0.118
       164  -9.9058    249.8702     37.3850   6.2583701331e+00   2.0449027483e+01    0.3708401   0.09630518 -51.98  0.001402994    3.595    0.722
       165 -10.7033    167.7076     89.9810   2.9897953727e+01   3.0353483238e+01    0.3385011    0.2183145  58.63 0.0006108533    1.567    0.362
       166 -11.9749    144.2198     45.0958   2.2411377715e+01   4.3307001788e+01    0.4658771    0.3030525  30.58   0.00130652    2.010    0.503
       167 -10.7690    134.0826     24.5862   1.8286700275e+01   4.8289633623e+01    0.7535952    0.2224339  66.17  0.002409775    3.910    0.744
       168  -9.9916    128.0470     26.8921   2.0220499406e+01   4.9437397252e+01    0.4285761    0.2028709 -48.69  0.001830691    2.721    0.632
       169 -12.0135    122.5673     33.5445   2.3537509907e+01   4.9902138583e+01    0.3704454    0.2286836 -50.77 0.0005768213    1.992    0.498
       170 -11.2616    123.1968     28.0804   2.1638716103e+01   5.0420258824e+01    0.3462105     0.233431 -33.60 0.0004265957    1.663    0.399
       171 -10.1253     96.5368     36.6426   3.1331187382e+01   5.5201301913e+01    0.2090011    0.1647387  53.83  0.000558085    1.260    0.206
       172 -11.2327     92.2368     33.6957   3.1552479374e+01   5.6474635946e+01    0.3695097     0.251052  26.15  0.001175147    1.536    0.349
       173 -10.1688    111.9257     32.6662   2.5795256457e+01   5.2413117275e+01    0.4780758    0.2220016  56.57  0.001329307    1.975    0.494
       174  -9.5129    105.2184     30.8152   2.6885734730e+01   5.4114398468e+01     0.242628    0.1547685 -62.52 0.0007779205    2.554    0.608
       175  -9.6022    104.2388     27.3695   2.5945181116e+01   5.4743830166e+01    0.1737105     0.115768  61.06 0.0003807444    1.492    0.330
       176 -10.6789     75.0915     33.5917   3.7045013310e+01   5.9791179860e+01    0.2867783    0.1953194  37.00 0.0008714531    1.322    0.244
       177  -9.4117    152.4322     33.5564   1.7528726238e+01   4.2867212201e+01    0.1353999    0.1196807  73.67 0.0002106653    1.010    0.010
       178 -14.0059    131.5300     95.3669   3.9803343297e+01   3.7564639744e+01     2.055002    0.9467539  32.03  0.006520288    3.409    0.707
       179 -13.6704    124.5409     86.2119   3.9120048748e+01   4.0929459807e+01    0.9847718    0.8725032 -35.11  0.005244359    1.170    0.146
       180 -11.0845    131.8021     88.7148   3.7904506722e+01   3.8835962806e+01    0.3569513    0.3209698 -44.40 0.0008075411    1.141    0.124
       181 -12.8485    135.2797     82.8228   3.5370649945e+01   3.9190027197e+01    0.7245253    0.6851892  89.91  0.003994567    1.096    0.087
       182 -10.7959    132.9779     77.6537   3.4480590176e+01   4.0674042825e+01    0.2717303    0.2417833 -62.01 0.0004183858    1.202    0.168
       183 -10.5668    142.9134     79.5976   3.2607309908e+01   3.8040978072e+01     0.241655    0.2059008 -13.73   0.00124092    1.391    0.281
       184 -11.9340     75.5528    103.1836   5.8671549167e+01   4.6592086908e+01    0.3411906    0.2420931  84.41   0.00101529    2.187    0.543
       185 -11.8314    225.8185     99.2052   2.1846365008e+01   1.5870544849e+01    0.5536368    0.3770756 -50.97  0.002178271    1.339    0.253
       186  -9.7038    215.2709    102.6407   2.4235994654e+01   1.7438141963e+01    0.1458738    0.1005253 -66.51 0.0006804857    1.648    0.393
       187 -10.3409    165.1625    102.1374   3.3540166747e+01   2.8608332594e+01     0.229381    0.2130891   1.76 0.0007014302    1.233    0.189
       188  -8.9503     80.7180     30.3773   3.3935911830e+01   5.9175373081e+01    0.2090059    0.1724062  19.26    0.0011813    1.109    0.099
       189 -11.5159     86.2807     28.7405   3.1551442128e+01   5.8304773621e+01    0.3857557     0.231161  40.98 0.0009992999    1.476    0.323
       190  -9.6168     90.4175     26.8276   2.9590757283e+01   5.7711359103e+01    0.1640261    0.1275312 -23.91 0.0009719459    1.401    0.286
       191  -9.6663    114.6993     28.1217   2.3596274614e+01   5.2346870401e+01    0.1817906    0.1298378  36.81 0.0005921614    1.376    0.273
       192  -9.8150    168.7928     26.8343   1.3060718190e+01   3.9765372759e+01    0.1896767    0.1408317 -73.54  0.001067652    1.376    0.273
       193 -12.7040     87.2911     98.5230   5.3637183374e+01   4.5714845320e+01    0.6421307    0.4423579  19.78  0.002988038    1.713    0.416
       194 -10.5761    147.2516     25.0908   1.6015872420e+01   4.5114202976e+01    0.4206599    0.2188195  40.16  0.001884699    2.312    0.567
       195 -11.2808    234.3238     24.0513   5.0086271295e+00   2.5291538668e+01    0.4203694    0.2825018  57.53  0.002578456    1.753    0.430
       196 -10.9076    158.7271     99.2914   3.4238283425e+01   3.0639763787e+01     0.279575     0.226249  82.27 0.0001941986    1.416    0.294
       197 -11.2153    247.1161     22.8100   3.7110111169e+00   2.2844330810e+01    0.2372607    0.1917065  89.30 0.0009723968    1.192    0.161
       198 -11.8161    242.4934     22.6945   4.0580708276e+00   2.3784259918e+01    0.4149277    0.2136999  77.53  0.002036478    1.832    0.454
       199 -10.8750    113.5101     23.6940   2.2392359541e+01   5.3122705373e+01    0.3395403     0.236805  39.16  0.001441735    1.367    0.268
       200  -9.3175    103.2738     19.3102   2.3358855040e+01   5.5860002270e+01    0.2376682    0.1527947  -5.85 0.0005236513    2.003    0.501
       201 -10.2774    102.6764     23.2890   2.4917995584e+01   5.5553312795e+01     0.180005    0.1587967 -20.55 0.0006353156    1.269    0.212
       202 -10.7859     99.0063     21.9339   2.5397027886e+01   5.6491765874e+01    0.3050732    0.2151771  51.38  0.000785011    1.243    0.195
       203 -13.6608     80.8118     41.5051   3.8011549192e+01   5.7608276792e+01      1.63176     0.594869  49.31  0.005917342    2.884    0.653
       204  -9.9586    119.4908     21.9856   2.0471786839e+01   5.1958477500e+01     0.192279    0.1597356  58.47 0.0004823335    1.062    0.059
       205  -9.8621    123.8721     20.8355   1.9163915269e+01   5.1078216250e+01    0.1699963    0.1450887 -82.68  0.001030649    1.320    0.242
       206 -10.0048    121.5961     16.8659   1.8353364728e+01   5.2016227526e+01    0.2665164    0.1717721 -52.40  0.001212304    1.938    0.484
       207  -9.3143    151.2627     20.2997   1.3976136934e+01   4.4690232518e+01      0.12513   0.09267273  39.49            0    1.514    0.339
       208 -10.7192    129.8717     19.2680   1.7460417697e+01   4.9853761816e+01    0.2884889    0.1873956  64.86 0.0008231964    1.361    0.265
       209  -9.7123     14.8793     18.8195   5.7400852707e+01   7.0187828902e+01    0.2436222    0.1497881 -58.98   0.00137654    2.663    0.625
       210  -9.2989    170.3136     19.3312   1.0892560272e+01   4.0258848081e+01    0.1292126   0.09175652  41.75 0.0004796506    1.678    0.404
       211 -10.0373    154.0532     17.1096   1.2643677783e+01   4.4365814010e+01    0.2616459    0.1658023 -44.42  0.001421483    1.717    0.418
       212 -10.2608    138.7164     18.0282   1.5438613204e+01   4.7908403254e+01    0.2765624    0.1809186  49.02  0.001007146    1.425    0.298
       213 -12.2427    156.7673     95.8243   3.3781584077e+01   3.1769378161e+01     1.060784    0.5819205  46.68  0.003639315    1.821    0.451
       214 -10.4176     96.4150    100.7624   5.1341215942e+01   4.3583868521e+01    0.2161348    0.1371142 -38.55 0.0009515819    1.646    0.393
       215 -11.0415     33.9846     99.8987   7.2282537534e+01   5.2546109306e+01    0.2436946    0.1735643 -58.97 0.0008194485    1.247    0.198
       216 -10.7498    170.4488     97.7689   3.1310667492e+01   2.8248838836e+01    0.3739778    0.2765065 -59.70  0.001644304    1.444    0.308
       217 -11.8055    102.2820     96.3986   4.8365707786e+01   4.3429252479e+01    0.3220716    0.3130515 -57.48 0.0005876898    1.068    0.064
       218 -12.3179    106.8142     96.4686   4.7021061532e+01   4.2527472091e+01    0.4435939    0.3053091 -28.25  0.001535775    1.709    0.415
       219 -12.3202    107.8054     92.5259   4.5638950572e+01   4.3163607342e+01    0.5237007    0.2587067  39.83  0.001852315    2.036    0.509
       220  -9.4963    159.9840     14.0024   1.0920115873e+01   4.3277689269e+01     0.147365     0.126808  79.69  0.000326883    1.026    0.025
       221 -11.9923     11.8855     97.4561   7.9633077113e+01   5.4837399553e+01    0.3208602    0.2283942 -52.43  0.001418796    1.172    0.147
       222 -13.3591     56.1697     94.5768   6.3206011106e+01   5.1314637007e+01    0.7444626    0.3874559  48.68  0.003155751    2.522    0.603
       223 -12.8642     62.1243     89.7029   5.9859919010e+01   5.1610982723e+01    0.8125215    0.3418326 -61.17  0.002525062    2.993    0.666
       224  -9.3549    167.2531     13.3835   9.7619361265e+00   4.1617801984e+01    0.1221908   0.09179839  36.60 0.0006960356    1.665    0.399
       225  -9.5449    141.4971     13.0353   1.3481100167e+01   4.7757541402e+01     0.170457    0.1323066 -15.03  0.001014188    1.615    0.381
       226 -12.3880     58.0303     88.8566   6.1107452446e+01   5.2353252660e+01    0.4725803     0.273483 -41.87  0.001534602    1.645    0.392
       227 -10.7604     70.9812     87.7403   5.6214526761e+01   5.0747490274e+01    0.3052119    0.2632355  17.13 0.0008592959    1.179    0.152
       228 -12.8269     67.0278     82.8218   5.6253792403e+01   5.2397061927e+01    0.6341342    0.5265579  58.02  0.003513673    1.487    0.328
       229 -10.6667    200.0233     96.1759   2.5300779760e+01   2.1868579209e+01    0.3540835    0.2018985 -61.71  0.001392307    2.185    0.542
       230  -9.1873    212.3198     11.6658   4.4158381176e+00   3.1446993533e+01    0.1320995   0.07392152 -68.25 0.0004672877    1.700    0.412
       231 -10.7435    249.6470     93.3742   1.7365431985e+01   1.2208889052e+01    0.3393479    0.1795703 -54.52  0.001675677    1.815    0.449
       232 -10.3772    206.1423     94.6484   2.3913317479e+01   2.0802916938e+01     0.259341    0.1779084 -52.07  0.001298331    1.390    0.281
       233 -12.3318     47.9602     94.6361   6.6152869796e+01   5.2301780409e+01    0.5544741    0.2383761  42.51  0.002256166    2.780    0.640
       234 -10.9390    182.3906     93.8072   2.7936354309e+01   2.6259538322e+01    0.2963399     0.210988 -46.16  0.001444206    1.373    0.272
       235 -11.5567    185.6910     92.6831   2.7037232947e+01   2.5713561946e+01    0.3461482    0.2438793 -75.24  0.001603671    1.760    0.432
       236 -11.6152     96.0820     90.8135   4.8739388936e+01   4.5801100879e+01    0.5021665    0.4295711  50.11  0.001408511    1.229    0.186
       237  -9.5973    244.5370     97.9809   1.8960675985e+01   1.2413275696e+01    0.2046658    0.1136336 -41.06 0.0008823799    1.583    0.368
       238 -10.1263    173.1732     91.0561   2.9056437757e+01   2.8887111193e+01    0.2795491    0.1980504 -61.63  0.001054396    1.557    0.358
       239  -9.9120     79.4302     91.0254   5.4216271172e+01   4.8692549999e+01    0.2239628    0.1628916 -32.65 0.0006415132    1.421    0.296
       240 -13.7974    193.1509     82.9246   2.3333205870e+01   2.5748761482e+01     1.733955     1.032672 -47.46  0.008095444    1.623    0.384
       241 -13.8989    201.5805     76.8351   2.0500689114e+01   2.4872214010e+01     1.982661    0.9939551  73.96   0.00778985    2.723    0.633
       242 -12.0342    165.7505     65.8020   2.3945244678e+01   3.5035695520e+01    0.8376778    0.5049551  47.13  0.003851564    1.708    0.414
       243 -12.5293    176.2857     69.7080   2.3008385914e+01   3.1898539067e+01     1.282286    0.4651646 -52.79  0.004026592    3.844    0.740
       244 -10.9415     36.2728    248.4879   8.8920563106e+01   1.7671939735e+01    0.2287637    0.1196506 -62.10  0.001298809    2.160    0.537
       245 -11.3627    113.9493    246.2645   7.2923405918e+01   7.5085133194e+00    0.2905963    0.2589315  14.51  0.001155705    1.293    0.227
       246 -10.3838    180.7765    243.5986   5.8615124674e+01  -2.3400863702e+00    0.1848195    0.1035651  41.78 0.0009516854    1.704    0.413
       247 -10.7468     88.1784    238.8209   7.7558271528e+01   1.2792435658e+01    0.1641886    0.1503766  20.77 0.0004444743    1.321    0.243
       248  -9.8754     15.7321    238.6158   9.2222302528e+01   2.1897577884e+01    0.1037694   0.07965732 -58.28 0.0006988646    1.698    0.411
       249  -9.5900    236.7224    146.0146   2.9976290675e+01   5.5440756739e+00    0.1874205    0.1534145 -35.87 0.0003313559    1.079    0.074
       250 -12.7107    241.9083     60.4586   1.1598972892e+01   1.8816265345e+01    0.8041201    0.4259956 -41.98 0.0005195327    1.691    0.409
       251  -9.5299    184.6743    134.7106   3.7169700555e+01   1.7738554901e+01    0.1487382    0.1187283   3.60 0.0003609013    1.613    0.380
