#   1 NUMBER                 Running object number                                     
#   2 MAG_AUTO               Kron-like elliptical aperture magnitude                    [mag]
#   3 X_IMAGE                Object position along x                                    [pixel]
#   4 Y_IMAGE                Object position along y                                    [pixel]
#   5 X_WORLD                Barycenter position along world x axis                     [deg]
#   6 Y_WORLD                Barycenter position along world y axis                     [deg]
#   7 A_WORLD                Profile RMS along major axis (world units)                 [deg]
#   8 B_WORLD                Profile RMS along minor axis (world units)                 [deg]
#   9 THETA_WORLD            Position angle (CCW/world-x)                               [deg]
#  10 FWHM_WORLD             FWHM assuming a gaussian core                              [deg]
#  11 ELONGATION             A_IMAGE/B_IMAGE                                           
#  12 ELLIPTICITY            1 - B_IMAGE/A_IMAGE                                       
         1 -15.9172    212.8833     70.1346   7.2789732893e+01   2.3153615532e+01     6.026903     3.387112  79.52   0.01686578    2.235    0.553
         2 -14.8713    220.0157     28.1762   6.2208839986e+01   2.7578020750e+01     1.964821    0.9680005 -28.21  0.009113901    2.587    0.613
         3 -14.9072    249.9709     68.3114   6.7473182201e+01   1.5232896202e+01     2.943727    0.6726586 -33.23  0.006285887    9.869    0.899
         4 -17.8938    243.2773     39.3338   6.2158712041e+01   2.0939467297e+01     5.885376      5.10265 -53.58   0.02179193    1.230    0.187
         5  -9.9739    163.1763     14.7764   6.6078683190e+01   4.2495453699e+01     0.209029    0.1990902  32.14 0.0004706575    1.222    0.182
         6 -10.3666    156.0564     12.2653   6.6450460447e+01   4.4424257304e+01    0.4012443    0.2595839  -1.67  0.001816121    2.239    0.553
         7  -8.7935    204.3082      7.7347   5.9308238333e+01   3.3545071021e+01     0.160843    0.1413251  13.02 0.0007163761    1.648    0.393
         8  -7.9878    207.5218      5.5128   5.8495827009e+01   3.3039406694e+01    0.1670122   0.09781457  64.23 0.0009293152    1.551    0.355
         9  -9.3592    248.7294      4.2644   5.4778647058e+01   2.4161001091e+01    0.1457089    0.0848596  76.24 0.0006786915    1.529    0.346
        10 -10.2314    214.0393    180.0212   9.7740963749e+01   2.2011049411e+00    0.2498918    0.2178169  59.43  0.000547943    1.354    0.261
        11 -10.5257    221.0352    176.9208   9.5749150781e+01   1.4714568076e+00    0.4761112     0.333218 -74.37  0.002093871    2.533    0.605
        12 -11.7642    223.2306    171.2678   9.4151934407e+01   2.1138808549e+00    0.9464939    0.4965169  57.51  0.003764195    2.789    0.641
        13  -9.4272    216.7790    168.8507   9.4868957955e+01   3.7980671075e+00    0.2636394     0.209317  59.59 0.0006533955    1.507    0.336
        14 -12.9553     26.5015    169.0492   1.3900348132e+02   3.6765684560e+01    0.8306559    0.6738992 -88.29  0.003936587    1.042    0.040
        15 -12.6954     10.0955    162.9922   1.4207872173e+02   3.9665393331e+01      1.01736    0.6029028  74.66  0.005858879    1.688    0.408
        16 -10.4406    230.1468    166.6593   9.1897779206e+01   1.6777192531e+00    0.2518602    0.1828154 -47.66 0.0007853051    1.389    0.280
        17 -10.0423    204.8380    162.5448   9.5854961201e+01   7.3900157026e+00    0.3491252    0.2093541 -50.76  0.001117009    1.756    0.430
        18 -11.7172    248.5323    235.2962   1.0186152944e+02  -1.2484645306e+01    0.2276877    0.1960706  10.98 0.0002441017    1.174    0.148
        19 -13.1766     63.9528    148.3612   1.2683082272e+02   3.7415585091e+01     1.543154     1.115157 -19.57   0.00468853    2.047    0.512
        20  -9.3321    209.1873    145.3618   9.1186040843e+01   9.9276427971e+00    0.2036207    0.1422562  58.67 0.0005219483    1.643    0.391
        21  -8.9578    184.7219    142.0004   9.5377142065e+01   1.5879927894e+01    0.2223116    0.1926207 -46.58 0.0003757593    1.122    0.109
        22 -11.2989    188.0379    138.0363   9.3750512301e+01   1.5985221351e+01    0.5035942    0.3825296  40.80   0.00151072    1.391    0.281
        23  -8.1426    107.8315    141.6432   1.1383304927e+02   3.2061379618e+01    0.1900134    0.1399978  52.36 0.0001783348    1.430    0.301
        24  -8.0078    132.2995    136.6532   1.0635152490e+02   2.8452099289e+01    0.1620145    0.1234622 -88.61   0.00070369    1.682    0.405
        25 -10.1133    135.6889    125.7428   1.0285680539e+02   3.0246649372e+01      1.09891     0.253626 -51.21  0.002553701    5.366    0.814
        26 -10.1358    160.4919    128.2133   9.7452582824e+01   2.4253579167e+01    0.3707564    0.2674409 -45.42  0.001679548    1.362    0.266
        27 -11.9319    185.2062    121.7719   9.0437544823e+01   2.0007127248e+01    0.6790675    0.5088855 -21.34  0.003093218    1.639    0.390
        28 -10.8735    194.6519    118.3619   8.7697425453e+01   1.8545910683e+01    0.3908876    0.2706403  76.62  0.001266054    1.900    0.474
        29 -10.7053    159.1611    115.7996   9.4643098737e+01   2.7235835380e+01    0.4791725    0.3308304 -77.86 0.0008308605    2.101    0.524
        30 -11.0556    167.6921    114.1454   9.2287450061e+01   2.5622626291e+01     0.459345    0.4187261 -47.85  0.001228249    1.079    0.073
        31  -9.8189    175.1522    114.9463   9.0861793268e+01   2.3729632059e+01    0.2504148    0.2124119 -78.63 0.0009175005    1.298    0.229
        32 -10.3596    134.8045    111.0775   9.9333244086e+01   3.3693845579e+01    0.6322999    0.1850296 -43.28  0.001842718    3.418    0.707
        33 -10.5198    132.6078     99.4204   9.6756697121e+01   3.6644841993e+01    0.3696056    0.2738194 -56.00 0.0005869514    1.441    0.306
        34  -9.9896    136.4658     97.5401   9.5258280333e+01   3.6183175658e+01    0.2691683    0.2349901 -34.59 0.0007003309    1.164    0.141
        35 -10.1554    138.2880     93.9267   9.3799350557e+01   3.6507117004e+01    0.3466173    0.3020413 -79.96 0.0008681468    1.300    0.231
        36 -10.8260    197.7525    112.3142   8.5624205411e+01   1.9039754980e+01    0.3720398    0.2629891  70.00  0.001697389    1.647    0.393
        37 -11.4572    124.0344    108.4288   1.0143600108e+02   3.6557940402e+01    0.6135766     0.496663   6.39  0.002663074    1.552    0.356
        38 -11.0550    123.3145    103.6269   1.0033844428e+02   3.7743730959e+01    0.4754511    0.3319558 -81.24  0.001956645    2.245    0.555
        39  -8.7780    140.3861    106.7779   9.6786317438e+01   3.3391767085e+01    0.2204402    0.1459063 -33.16 0.0003555724    1.660    0.398
        40  -8.7058    170.4476    105.2362   8.9391459981e+01   2.6808011563e+01    0.2181838    0.1438919 -53.42 0.0007315825    1.579    0.367
        41  -9.1795    144.7948    103.7936   9.4900775303e+01   3.3031372612e+01    0.2760736    0.2054033  36.94 0.0009749234    1.444    0.307
        42 -10.9945    153.8436     98.7034   9.1376618734e+01   3.2000724276e+01    0.5413436    0.3996668  41.11  0.002528025    1.418    0.295
        43 -11.7189    166.8289     92.1202   8.6711418325e+01   3.0239338667e+01    0.7938556    0.6491606 -20.99  0.002876285    1.427    0.299
        44  -9.8343    173.3506     88.0034   8.4252954298e+01   2.9459122158e+01    0.2653033    0.2185116  57.50 0.0002779206    1.205    0.170
        45 -10.7029    150.9268     90.2567   8.9742807356e+01   3.4340575342e+01    0.3226189    0.2642412 -41.74 0.0004207224    1.228    0.186
        46  -8.9862    215.4604    154.4702   9.2011826517e+01   6.8397479601e+00    0.1462347    0.1373059 -41.75 1.177168e-05    1.046    0.044
        47  -9.3955    123.5315     89.4896   9.6334971846e+01   4.0614489689e+01    0.1482535    0.1451654  -8.91 0.0001416365    1.009    0.009
        48  -9.5570     14.9155    234.0371   1.4683208480e+02   2.3670380493e+01    0.1734252    0.1280782  81.02 0.0005163372    1.057    0.054
        49  -8.4041     61.3575     81.1744   1.1267810233e+02   5.3199011068e+01    0.1893509    0.1178142 -56.94 0.0009408775    1.711    0.416
        50 -10.7792    109.8321     77.8213   9.6641954459e+01   4.5698589058e+01      0.32248    0.2182955  42.97  0.001397466    1.480    0.324
        51 -11.1358    172.4105    228.0555   1.1520665944e+02   9.5471050378e-01    0.4660324    0.2296264  24.85  0.001785113    3.014    0.668
        52 -10.5098    123.0615     57.8499   8.6914218068e+01   4.6357084645e+01    0.3084331    0.2178998 -53.31 0.0005581599    1.692    0.409
        53  -9.4959    126.3038     56.3271   8.5631057587e+01   4.5880046986e+01    0.1452336    0.1068113  17.43 0.0005067877    1.646    0.393
        54 -10.1053    121.1231     49.3871   8.4709380446e+01   4.8055189049e+01    0.2313093    0.1888731 -10.36 0.0007325141    1.335    0.251
        55  -8.3696    109.5040    156.9397   1.1659778388e+02   2.8067303750e+01     0.206736    0.1438521 -55.52 0.0002934003    1.384    0.277
        56 -11.2345    205.7079    224.4684   1.0792776160e+02  -4.2046941959e+00    0.3889816    0.2265037  15.69  0.001757578    2.328    0.570
        57  -9.7233    171.1373     35.2378   7.0397189924e+01   3.8269019859e+01    0.3314185    0.2243678  81.41   0.00112854    1.527    0.345
        58  -9.8206    164.2719     32.9860   7.0903175409e+01   4.0202694215e+01    0.3441202    0.2134154  87.48  0.001151966    1.958    0.489
        59  -8.4316    164.0197     28.4827   6.9700568983e+01   4.0802485136e+01    0.2726142     0.187026 -17.85 0.0008183598    1.845    0.458
        60  -8.2745    178.6960    151.3052   9.8817004227e+01   1.5205121793e+01    0.1547504     0.123233 -86.29 0.0003390427    1.600    0.375
        61 -11.3267    124.1774     31.7964   7.8306015702e+01   4.9696943744e+01    0.3629577    0.2387445  20.66  0.001826418    1.878    0.468
        62 -11.1733     52.6227    155.3830   1.3090188419e+02   3.7157037744e+01    0.3596694    0.3298227 -36.68 0.0009979191    1.310    0.236
        63 -10.4524    159.5449     29.4881   7.0718277846e+01   4.1755666854e+01    0.2638173    0.2311644  15.23 0.0008476914    1.366    0.268
        64  -9.1326     92.1410     28.9318   8.5409496163e+01   5.6703468219e+01    0.3187936   0.09002522 -27.81  0.001112832    4.122    0.757
        65  -8.9975    175.0397    150.9951   9.9549162381e+01   1.6060779692e+01     0.233049    0.2262537 -56.77 0.0004739074    1.016    0.016
        66  -8.7496     78.7814     17.0003   8.4831445168e+01   6.0517269969e+01    0.1487467   0.09353618 -21.81 0.0004105171    1.637    0.389
        67 -11.1958    248.2418    212.5414   9.7774486335e+01  -9.1397323135e+00    0.6601903    0.4201763  -4.20  0.003523177    1.812    0.448
        68 -11.3614    241.7435    212.9884   9.9022073733e+01  -8.2164262534e+00    0.7363805    0.4034021   6.89  0.003096087    3.039    0.671
        69  -9.6489    161.4783    214.0046   1.1511958739e+02   5.5551202526e+00    0.2378773    0.1896564  40.81 0.0003669851    1.159    0.137
        70  -9.1744    191.9993    192.9838   1.0480630648e+02   3.9080612000e+00    0.3679906    0.1868803 -63.33  0.001150639    4.403    0.773
