#   1 NUMBER                 Running object number                                     
#   2 MAG_AUTO               Kron-like elliptical aperture magnitude                    [mag]
#   3 X_IMAGE                Object position along x                                    [pixel]
#   4 Y_IMAGE                Object position along y                                    [pixel]
#   5 X_WORLD                Barycenter position along world x axis                     [deg]
#   6 Y_WORLD                Barycenter position along world y axis                     [deg]
#   7 A_WORLD                Profile RMS along major axis (world units)                 [deg]
#   8 B_WORLD                Profile RMS along minor axis (world units)                 [deg]
#   9 THETA_WORLD            Position angle (CCW/world-x)                               [deg]
#  10 FWHM_WORLD             FWHM assuming a gaussian core                              [deg]
#  11 ELONGATION             A_IMAGE/B_IMAGE                                           
#  12 ELLIPTICITY            1 - B_IMAGE/A_IMAGE                                       
         1 -13.5218    168.6512     61.5710   5.4440481553e+01   3.5480576258e+01     2.146429     1.382985  21.97  0.006287885    2.404    0.584
         2 -14.2598    207.7354     15.8239   3.6675258475e+01   3.2034771101e+01     1.366147     1.181943  50.65  0.005532589    1.366    0.268
         3  -9.6186     60.3339     21.0015   6.9150918472e+01   6.4912746530e+01    0.1768441    0.1440295  -4.28 0.0004567252    1.089    0.082
         4 -14.1750    244.6534    234.0441   7.9045527348e+01  -8.7102488117e+00     2.548359    0.9027479 -32.47   0.01203438    2.736    0.635
         5  -9.9324     75.8349    210.0160   1.1021783113e+02   2.1261464127e+01    0.1984827    0.1235168 -77.93  0.000665487    1.689    0.408
         6 -12.4266     65.4632    205.3613   1.1201548801e+02   2.3658773195e+01    0.4335543    0.2096882 -81.64    0.0019441    2.437    0.590
         7 -16.5528    119.2017    237.3473   1.0412897192e+02   9.4770659836e+00     13.70074     7.457763 -84.70   0.05552964    3.946    0.747
         8 -11.3217     57.4120    201.1664   1.1337747410e+02   2.5609418250e+01    0.2498743    0.1822165 -42.83  0.001150892    1.799    0.444
         9 -11.3584     75.4953    248.0575   1.1400978416e+02   1.3722077816e+01    0.3087558    0.1087838 -61.36  0.001452424    3.072    0.675
        10 -10.2047     70.4312    196.0647   1.0984749920e+02   2.5073862874e+01    0.3622751    0.1622893 -64.13  0.001628663    2.171    0.539
        11 -10.3807    192.0799    193.4536   8.1708579454e+01   5.4499465029e+00    0.6892521    0.3705668 -63.65  0.002099456    5.650    0.823
        12 -10.0473     82.3100    194.5152   1.0687693428e+02   2.3773164934e+01    0.4282027    0.2110659  46.99  0.001946449    1.919    0.479
        13  -9.7846     77.1105    191.9361   1.0777443971e+02   2.5096420838e+01    0.1990543    0.1527003  71.64 0.0004664231    1.277    0.217
        14  -9.7639    163.1231    192.6125   8.7753559855e+01   1.0728615181e+01    0.2431625    0.1967927 -55.91  0.001200159    1.424    0.298
        15 -10.9690      1.1953    193.3172   1.2487413231e+02   3.3062986264e+01    0.1050368    0.0690587 -68.36  0.000667471    1.471    0.320
        16  -9.1641    202.4943    189.4961   7.8825906721e+01   4.3511368445e+00    0.1394843    0.1222991   0.87 -0.0001673863    1.006    0.006
        17 -11.1995     66.8146    187.3209   1.0965176258e+02   2.7558948688e+01    0.3976555    0.2295664 -40.47   0.00154593    2.421    0.587
        18 -10.0980     82.6544    185.8813   1.0563887361e+02   2.5699551324e+01     0.239472    0.1879811  69.10 0.0004890912    1.262    0.207
        19 -11.2411      1.4301    177.2207   1.2385429533e+02   3.6620677335e+01    0.1463381   0.09240125 -83.64 0.0003491241    1.263    0.208
        20 -13.1717    242.4315    170.0951   6.7476626520e+01   9.3686058574e-01    0.8754835     0.550926  12.84  0.004406637    1.956    0.489
        21 -11.8305    246.3336    168.4370   6.6478165616e+01   5.7931456348e-01    0.3269965    0.2411251 -18.83  0.001908677    1.197    0.165
        22 -10.3876    179.6562    174.1480   8.0514502343e+01   1.1321088774e+01     0.291202    0.2416131 -72.63  0.000726032    1.629    0.386
        23 -12.7121     68.6897    241.6259   1.1478180240e+02   1.5809806106e+01    0.2181844    0.1915671 -82.62 0.0007559867    1.262    0.208
        24 -12.4236    230.8328    166.8537   6.8836922840e+01   3.3900746145e+00    0.6028545    0.3883926  -0.58  0.002889027    1.993    0.498
        25 -11.1518    145.4514    170.4600   8.7583107623e+01   1.8575833152e+01    0.2699326    0.2310859  28.54 0.0008784821    1.161    0.139
        26 -10.4694    186.4382    166.0374   7.7358530983e+01   1.1622048108e+01    0.4897145    0.2442523 -35.07  0.001979382    2.091    0.522
        27 -10.4308    191.6013    166.0699   7.6276277730e+01   1.0630877468e+01    0.3247888     0.264797 -48.46 0.0009382516    1.334    0.250
        28  -9.4193    126.4353    156.7357   8.9515400375e+01   2.5250034433e+01    0.2085186    0.1416107 -40.03 0.0003940379    1.560    0.359
        29 -10.9739     62.6968    240.6254   1.1586742018e+02   1.6765001168e+01    0.1864232   0.09913622 -69.64  0.000940333    1.975    0.494
        30 -15.8220     48.2179    228.8575   1.1777760858e+02   2.0845353734e+01     3.124735     1.724716  48.67   0.01829768    1.515    0.340
        31 -11.6117    133.8485    145.5399   8.5200576484e+01   2.6413769038e+01     1.289896    0.3449242 -54.94  0.002999107    5.757    0.826
        32 -10.1623    113.5013    151.5970   9.1843986361e+01   2.8834848229e+01    0.3987516     0.253994  84.36  0.001476379    2.814    0.645
        33  -9.7215    174.6391    148.9570   7.6167910883e+01   1.7394598870e+01     0.271286    0.2406408 -75.35 0.0008600013    1.362    0.266
        34  -9.7599    154.7246    141.1023   7.8970344792e+01   2.3175934424e+01    0.2450946    0.2109234  55.10 0.0002890767    1.245    0.197
        35 -11.3214    109.7961    134.9947   8.9286596096e+01   3.3483388950e+01    0.5152879    0.2962591 -35.86  0.002047729    2.063    0.515
        36 -11.4108    105.7954    130.6830   8.9436038160e+01   3.5246161391e+01    0.4503448    0.3596616 -61.18  0.001174655    1.269    0.212
        37 -10.7378     90.5740    228.0760   1.0902774776e+02   1.5464117246e+01    0.2472124    0.1598036  38.16 6.975952e-05    1.405    0.288
        38 -19.0995     28.5956     99.6990   1.0741488814e+02   5.3169493292e+01     16.95551     1.437541 -65.06   0.03286311   10.541    0.905
        39 -10.3562     59.4711    217.8742   1.1455031387e+02   2.1736183762e+01    0.1929186    0.1286187  68.70 0.0006448489    1.390    0.280
        40  -9.9463    116.3047    127.2290   8.5651930919e+01   3.4107764948e+01    0.3073609    0.2423989 -11.94 0.0007125726    1.579    0.367
        41 -10.6885    135.0000    121.4240   7.9126179182e+01   3.1677357191e+01    0.5297128   0.08852389 -46.00  0.001151131    5.883    0.830
        42 -10.5898    104.4132    122.5285   8.7914642918e+01   3.7449524952e+01    0.2924789    0.2440033 -19.68 0.0005243264    1.351    0.260
        43  -9.5990    111.0863    117.0263   8.4610011898e+01   3.7500113105e+01    0.2293876    0.2192027 -25.32 0.0003814779    1.041    0.039
        44 -10.4653    167.4580    115.0399   6.9527517614e+01   2.5956249223e+01    0.5162184    0.2340499 -43.69  0.001426117    2.156    0.536
        45 -10.7144    134.5751    106.2905   7.5228735388e+01   3.5099375728e+01    0.4220886    0.1508685 -45.97  0.001342002    2.796    0.642
        46 -11.5696    119.0265    110.7808   8.0708188021e+01   3.7370702816e+01    0.5104667     0.380207  70.50   0.00163951    1.799    0.444
        47  -9.9413    205.4967    110.3899   6.0635385850e+01   1.8418548998e+01    0.2510091    0.2408949 -32.98 0.0006078057    1.032    0.031
        48 -10.0679     78.9439    104.3147   9.1270239711e+01   4.6101144153e+01    0.2030751    0.1908042  11.82 0.0005866041    1.123    0.109
        49  -9.7667    130.6895     97.3031   7.3743011740e+01   3.7854635238e+01    0.1545942    0.1258035 -85.96 0.0001937163    1.609    0.378
        50 -10.0311    114.0002     94.9934   7.7758583483e+01   4.1875360873e+01    0.2419244    0.1963764 -89.49  0.001132496    1.664    0.399
        51 -12.1787     58.8751    246.7997   1.1708461161e+02   1.6076076246e+01    0.1940159     0.172799  23.90  0.001052005    1.495    0.331
        52 -13.3199    183.8711     47.0203   4.7713197914e+01   3.3903410291e+01    0.8046029    0.7956222 -30.53  0.002880061    1.123    0.110
        53 -12.4963    189.5057     40.4699   4.5104522454e+01   3.3418214314e+01    0.4633267    0.4570612  13.86 0.0009599188    1.173    0.147
        54 -10.2915     86.7877     63.8410   7.6474604077e+01   5.3468395609e+01    0.2673181    0.2171167  46.46 0.0007302569    1.362    0.266
        55  -8.7806     95.6394     63.2744   7.3344759190e+01   5.1894256385e+01    0.1386995    0.1176093  82.84  0.000700469    1.658    0.397
        56  -9.3765     85.1171    245.1891   1.1187429245e+02   1.2959035699e+01    0.2215013   0.06395386 -59.18 0.0009162708    3.704    0.730
