#   1 NUMBER                 Running object number                                     
#   2 MAG_AUTO               Kron-like elliptical aperture magnitude                    [mag]
#   3 X_IMAGE                Object position along x                                    [pixel]
#   4 Y_IMAGE                Object position along y                                    [pixel]
#   5 X_WORLD                Barycenter position along world x axis                     [deg]
#   6 Y_WORLD                Barycenter position along world y axis                     [deg]
#   7 A_WORLD                Profile RMS along major axis (world units)                 [deg]
#   8 B_WORLD                Profile RMS along minor axis (world units)                 [deg]
#   9 THETA_WORLD            Position angle (CCW/world-x)                               [deg]
#  10 FWHM_WORLD             FWHM assuming a gaussian core                              [deg]
#  11 ELONGATION             A_IMAGE/B_IMAGE                                           
#  12 ELLIPTICITY            1 - B_IMAGE/A_IMAGE                                       
         1 -13.1743    193.3728     31.4024   9.4191903431e+01   3.9272269973e+01  0.003009419  0.002383129 -51.42  0.006534604    1.208    0.172
         2 -14.0480    206.1518     14.9290   9.4203614347e+01   3.9260852212e+01   0.00503473  0.002299952 -49.20  0.008381446    2.066    0.516
         3 -12.2580      2.2856     13.3736   9.4024573677e+01   3.9260714845e+01  0.002751498 0.0008191617 -88.92  0.003645648    3.328    0.700
         4 -12.2760      2.5195      3.6406   9.4025081793e+01   3.9254007709e+01  0.002062949  0.001381031  52.65  0.004085792    1.558    0.358
         5 -12.7249     12.5936      5.3934   9.4033876234e+01   3.9255175633e+01  0.002571231   0.00154638 -36.03  0.004877233    1.603    0.376
         6 -11.6069    122.2304    232.9520   9.4123324270e+01   3.9411497272e+01  0.001551633  0.001029221 -44.21  0.003085258    1.444    0.307
         7  -9.9268    204.9612    250.4947   9.4195639000e+01   3.9423177718e+01 0.0005303992   0.00034414  -2.36 0.0005087613    1.559    0.358
         8 -10.3875    184.1063    250.2245   9.4177284373e+01   3.9423098500e+01 0.0006058343 0.0005044749 -14.41  0.001333205    1.197    0.164
         9 -10.9635    169.7613    248.5431   9.4164703759e+01   3.9422011768e+01  0.001042822 0.0005562353 -44.51 0.0007680365    1.786    0.440
        10 -11.9134    149.9141    248.3313   9.4147234964e+01   3.9421963018e+01  0.002101784  0.001037479  53.24  0.003551006    2.135    0.532
        11 -11.2625    143.0430    248.9683   9.4141165921e+01   3.9422434965e+01  0.001520378 0.0006935165  75.06 0.0004737164    2.254    0.556
        12 -11.5581    127.3324    233.8239   9.4127789575e+01   3.9412074213e+01   0.00146811  0.001007409  35.21  0.002289542    1.523    0.343
        13 -11.8640    135.7991    241.1599   9.4135022677e+01   3.9417089169e+01  0.001340178  0.000921264 -41.89  0.001588048    1.396    0.284
        14 -11.8380    135.3892    236.5199   9.4134801338e+01   3.9413893964e+01  0.001692184 0.0007946069 -39.55  0.001599677    2.031    0.508
        15 -11.5545    133.9964    232.5257   9.4133695325e+01   3.9411148375e+01  0.001511326 0.0006530499 -63.78  0.002441149    2.179    0.541
        16 -11.2557    133.8501    249.0287   9.4133069865e+01   3.9422520336e+01  0.001467813 0.0009467456  12.24  0.002859908    1.595    0.373
        17 -11.2950     98.4347    247.8379   9.4101923068e+01   3.9421862999e+01  0.001909488 0.0009479502  27.73  0.003250357    2.107    0.525
        18 -12.6705    125.2299    242.0383   9.4125690841e+01   3.9417744145e+01  0.003119554  0.001352693 -27.50   0.00503807    2.235    0.553
        19 -11.5973    109.6896    247.7274   9.4111836243e+01   3.9421735902e+01  0.001499072  0.001084156 -80.30  0.002407946    1.349    0.259
        20 -10.8664     81.2272    246.3380   9.4086818054e+01   3.9420905787e+01  0.001536745 0.0009595483  57.77  0.002933138    1.668    0.400
        21 -10.0468     89.2046    250.6689   9.4093709856e+01   3.9423854778e+01   0.00114146  0.000391391 -16.20  0.001505278    2.873    0.652
        22 -10.7314     88.4123    247.3598   9.4093113162e+01   3.9421578216e+01  0.001210556 0.0006497756 -25.77   0.00137811    1.818    0.450
        23  -8.7354     74.8150    250.5831   9.4081042327e+01   3.9423858710e+01 0.0006947078 0.0003285687  -8.28  0.001149244    2.118    0.528
        24 -14.4212     11.6719    155.0061   9.4028419824e+01   3.9358265033e+01  0.009580192  0.003372092  75.71   0.01360824    2.965    0.663
        25 -11.2030     22.8669    202.0185   9.4036809389e+01   3.9390612974e+01  0.001146814 0.0008222292  65.23  0.001157607    1.437    0.304
        26 -14.0105      2.9614    192.7512   9.4019579943e+01   3.9384305953e+01   0.01029674  0.001715823 -82.43   0.01052184    5.562    0.820
        27 -14.1838      9.6217    210.1025   9.4024900556e+01   3.9396235324e+01  0.007773971  0.003432205 -82.37   0.01262335    2.203    0.546
        28 -10.0474    103.0426    247.1943   9.4105999870e+01   3.9421398780e+01 0.0006880488 0.0005405977  44.50  0.000972972    1.328    0.247
        29 -11.0795    124.8518    249.3339   9.4125137718e+01   3.9422772857e+01  0.001800591  0.000713258  -9.85   0.00276129    2.520    0.603
        30 -11.6159     97.4026    239.9319   9.4101254785e+01   3.9416420094e+01  0.001158248 0.0008310947 -17.98  0.001932324    1.379    0.275
        31 -11.3478    249.1967    241.0038   9.4234864054e+01   3.9416401526e+01 0.0009875835 0.0005995835  44.99  0.001852139    1.727    0.421
        32 -12.0403    244.9795    241.2742   9.4231143380e+01   3.9416610945e+01  0.001512483 0.0006119291  84.53  0.002321748    2.491    0.598
        33 -11.5018     89.8113    238.5563   9.4094613262e+01   3.9415506092e+01  0.001683542  0.000869585  46.72  0.002555006    2.040    0.510
        34 -10.7644     77.4502    220.9277   9.4084269566e+01   3.9403413793e+01 0.0008750837 0.0005850635  44.23  0.001267691    1.565    0.361
        35 -10.2941     80.0013    227.5032   9.4086314268e+01   3.9407933356e+01  0.001177028 0.0004802745 -44.60 0.0006747273    2.309    0.567
        36 -10.0136     78.6868    224.7009   9.4085242775e+01   3.9406008288e+01 0.0007779645 0.0004987301 -41.63 0.0008598741    1.496    0.332
        37  -9.2641     84.0721    242.1340   9.4089451176e+01   3.9417996587e+01 0.0005645678 0.0004386138 -43.43 0.0009986835    1.236    0.191
        38 -11.3119    172.9303    239.7326   9.4167756186e+01   3.9415925116e+01  0.001137399 0.0005884211  76.59  0.001970516    1.972    0.493
        39 -10.5014    114.9111    250.4810   9.4116350334e+01   3.9423609316e+01   0.00134015 0.0005971738   0.73  0.002169768    2.277    0.561
        40 -10.6203    116.3960    238.8491   9.4118009666e+01   3.9415587654e+01  0.001380323 0.0005563298 -55.26  0.001725844    2.320    0.569
        41  -9.3042     82.5886    238.4548   9.4088257426e+01   3.9415468053e+01 0.0007718283 0.0003411613  -3.18  0.001235417    2.283    0.562
        42  -9.4843    156.1536    236.8397   9.4153072390e+01   3.9414014468e+01 0.0005435332 0.0004625409  46.69 0.0005475703    1.225    0.184
        43 -11.3695    164.6231    241.6117   9.4160386381e+01   3.9417261128e+01  0.001197841 0.0006182862  40.24  0.002003452    2.040    0.510
        44 -10.7562    165.4168    235.1968   9.4161276521e+01   3.9412836987e+01  0.000810285 0.0005398023  37.99  0.001442759    1.570    0.363
        45 -10.7686     84.6546    229.6239   9.4090345902e+01   3.9409374203e+01  0.001064025 0.0008019423 -16.42  0.002244333    1.317    0.240
        46  -9.6542     55.7844    235.7592   9.4064741915e+01   3.9413725937e+01  0.001225077 0.0004896801  44.20  0.001445118    2.671    0.626
        47  -9.2842     51.2988    234.2974   9.4060837904e+01   3.9412737530e+01 0.0005199357 0.0004453828 -76.74 0.0003920228    1.137    0.121
        48 -11.3146     99.3373    223.4490   9.4103459114e+01   3.9405054094e+01   0.00120113 0.0008160514  36.27 3.379085e-05    1.539    0.350
        49 -10.6130    112.7446    230.1137   9.4115059437e+01   3.9409585373e+01 0.0008210185 0.0006327985 -19.85 0.0005046254    1.281    0.220
        50 -12.0157    105.6757    229.0007   9.4108870170e+01   3.9408850786e+01  0.002010094  0.001002053  28.75  0.003428607    2.100    0.524
        51  -9.3971     77.9128    233.3323   9.4084297472e+01   3.9411958943e+01 0.0006527303 0.0004567934  78.55  0.001312366    1.445    0.308
        52 -10.8943    156.7694    231.5678   9.4153772118e+01   3.9410378886e+01 0.0007056984 0.0005681912 -76.27 0.0002913559    1.207    0.172
        53  -8.9746     62.5436    233.4188   9.4070764462e+01   3.9412084735e+01 0.0003447778 0.0003340135 -47.68 4.374962e-05    1.013    0.013
        54  -8.7513     92.4363    232.4996   9.4097108761e+01   3.9411321210e+01 0.0003537424  0.000328068 -52.75 7.152839e-05    1.033    0.032
        55 -10.6497    141.9447    229.9810   9.4140769031e+01   3.9409357151e+01  0.001076807 0.0005046783 -61.14  0.001466444    2.014    0.503
        56  -8.9575     57.4859    230.9035   9.4066389217e+01   3.9410373017e+01  0.000506846 0.0003392726 -85.69 0.0008667139    1.470    0.320
        57  -9.2143     54.0029    230.1941   9.4063344839e+01   3.9409898883e+01 0.0006904632 0.0003938303 -24.19 0.0007823269    1.716    0.417
        58  -9.3274    179.9651    228.4536   9.4174284514e+01   3.9408118049e+01 0.0008041303  0.000252644  50.55  0.001046717    3.486    0.713
        59 -11.3741    245.1621    226.8937   9.4231723000e+01   3.9406700791e+01 0.0009514012  0.000435997  58.48  0.001535633    2.300    0.565
        60  -9.8620    197.7133    226.7041   9.4189959998e+01   3.9406822110e+01 0.0007771373 0.0004928156  46.39   0.00128083    1.651    0.394
        61 -10.2150    165.8751    226.8141   9.4161929855e+01   3.9407058671e+01 0.0006504216 0.0005016171  66.36 0.0008473975    1.333    0.250
        62 -10.6133     92.6804    226.0359   9.4097520431e+01   3.9406866384e+01 0.0007464666 0.0005862731   9.08 0.0008099345    1.307    0.235
        63 -10.2237    132.3143    224.5784   9.4132453801e+01   3.9405680238e+01 0.0008209546 0.0005199536 -67.96  0.001585559    1.513    0.339
        64 -10.2431    129.1209    221.0730   9.4129748283e+01   3.9403279926e+01 0.0007199871 0.0005236497  67.72 0.0008031281    1.412    0.292
        65 -10.1986    147.0355    225.3111   9.4145390571e+01   3.9406114893e+01 0.0005508637 0.0004299686 -46.49 0.0002515073    1.228    0.186
        66 -11.4487    142.0948    221.7889   9.4141147035e+01   3.9403711669e+01  0.001091088 0.0007934115 -14.54 0.0004003617    1.368    0.269
        67 -11.0209    137.9596    214.5416   9.4137724808e+01   3.9398737717e+01  0.001282495  0.001230052 -54.27   0.00231678    1.002    0.002
        68 -10.7052    117.3297    224.3080   9.4119271308e+01   3.9405563913e+01 0.0006491123 0.0005850081 -52.88 0.0002700223    1.063    0.059
        69 -10.8954    160.1573    223.8371   9.4156985473e+01   3.9405035513e+01  0.001030429 0.0005172918 -23.52   0.00121733    1.948    0.487
        70 -10.3970    110.4941    221.2047   9.4113348052e+01   3.9403457044e+01 0.0009869739 0.0007185777 -47.19  0.001584764    1.315    0.239
        71 -10.7310     70.7132    219.6817   9.4078377454e+01   3.9402584451e+01  0.001120205 0.0008395657 -87.20  0.001499431    1.317    0.241
        72 -10.1165     67.8491    214.7832   9.4076006578e+01   3.9399221618e+01 0.0008130001 0.0005506029  58.24  0.001144746    1.534    0.348
        73 -10.0537    246.3002    218.6647   9.4232964355e+01   3.9401024226e+01 0.0005140995 0.0003118924 -19.72 0.0007625554    1.625    0.385
        74  -9.4824    104.8560    218.8116   9.4108457699e+01   3.9401833835e+01  0.000518216 0.0004394828 -48.15 0.0003070244    1.130    0.115
        75  -9.1139     99.5377    217.7345   9.4103809145e+01   3.9401115716e+01 0.0006775074 0.0004377603 -53.18 0.0008337871    1.475    0.322
        76  -9.6281     23.4708    217.5559   9.4036858705e+01   3.9401316075e+01 0.0006455434 0.0003291583 -79.61 0.0005587334    1.901    0.474
        77 -10.3284     20.7993    215.1089   9.4034583147e+01   3.9399640723e+01  0.001229271 0.0004809115 -13.77  0.001295776    2.535    0.606
        78 -11.0681     73.0391    209.9841   9.4080721642e+01   3.9395892513e+01  0.001433913 0.0006508515 -23.90  0.002071066    2.151    0.535
        79 -11.1250     98.4023    231.8397   9.4102381002e+01   3.9410839797e+01  0.001148234 0.0007767252  76.68 0.0007265749    1.500    0.333
        80  -9.6571     88.1606    212.8858   9.4093942483e+01   3.9397825592e+01  0.000673222 0.0004387755  70.08 0.0007444388    1.574    0.365
        81  -9.9524    102.2661    212.1026   9.4106381637e+01   3.9397222818e+01  0.001018909 0.0004915838  31.74  0.001699109    2.177    0.541
        82  -8.9390     24.6661    212.6789   9.4038062156e+01   3.9397950938e+01 0.0003984386  0.000223183 -44.75 0.0003365072    1.703    0.413
        83 -10.1402    107.5299    208.9806   9.4111109359e+01   3.9395047766e+01  0.001313727 0.0004935151 -53.14  0.001702839    2.478    0.596
        84 -10.1955    112.7917    208.3450   9.4115759770e+01   3.9394585710e+01 0.0007533279 0.0006025659 -37.68  0.001088054    1.207    0.172
        85  -9.3495    134.6626    208.3112   9.4135010174e+01   3.9394460312e+01 0.0007825185 0.0003655917 -45.45  0.001229179    2.028    0.507
        86 -14.4470     30.6590    246.1290   9.4042300482e+01   3.9420974582e+01     0.009819  0.003572046  -9.19   0.01446549    2.746    0.636
        87 -10.0182    174.7987    206.0973   9.4170401132e+01   3.9392739310e+01 0.0009193184 0.0004207607 -56.13  0.001519794    2.058    0.514
        88  -9.7830    102.7691    202.6257   9.4107111989e+01   3.9390690626e+01  0.001082174 0.0005944752  28.88  0.001605963    1.902    0.474
        89 -12.1688     93.4206    202.4502   9.4098889797e+01   3.9390611726e+01  0.001467029  0.001140575 -68.32  0.003150071    1.238    0.192
        90  -9.6363     98.8359    197.0122   9.4103820901e+01   3.9386840493e+01  0.001286295 0.0005586581  35.91   0.00179512    2.434    0.589
        91  -9.6446    102.6932    195.7150   9.4107254853e+01   3.9385929210e+01 0.0005294948 0.0004220559 -77.96 0.0003780162    1.222    0.182
        92 -13.0416     13.7860    238.7511   9.4027673999e+01   3.9415958282e+01  0.002209209  0.001508725  27.07  0.004428939    1.525    0.344
        93 -11.2098    246.7391    205.9772   9.4233719922e+01   3.9392279280e+01  0.001261143  0.000548413 -26.60   0.00203154    2.231    0.552
        94  -9.3193    125.5103    205.5190   9.4127039062e+01   3.9392579507e+01 0.0005989607 0.0003040749  73.81 0.0007639845    2.022    0.505
        95  -8.9318    149.2663    204.3376   9.4147982396e+01   3.9391652436e+01 0.0008388893 0.0001775134 -53.53 0.0009730066    4.092    0.756
        96  -8.5318    178.2633    204.6489   9.4173493333e+01   3.9391723898e+01 0.0003720057 0.0002405724  51.99 0.0003015708    1.615    0.381
        97  -9.2293    166.9622    203.2412   9.4163589189e+01   3.9390810289e+01 0.0004700745 0.0004399831 -14.46  0.001090488    1.073    0.068
        98  -9.1051    133.1322    202.8787   9.4133826655e+01   3.9390724358e+01 0.0005124634 0.0003693028 -55.08  0.000418482    1.325    0.246
        99  -9.7787     64.0683    202.1360   9.4073066785e+01   3.9390523515e+01 0.0007505171 0.0004438825 -17.01 0.0006046625    1.674    0.403
       100 -11.0736     32.7337    201.8148   9.4045499382e+01   3.9390432808e+01 0.0006049982  0.000549487 -45.11 0.0002828736    1.058    0.055
       101 -10.1720    115.1063    200.2394   9.4118041947e+01   3.9388989993e+01 0.0005870575 0.0004890244  85.49 0.0002378638    1.201    0.167
       102  -9.7826    196.9673    200.5048   9.4190077102e+01   3.9388773134e+01 0.0005333716 0.0003428578  -4.90 0.0007569815    1.568    0.362
       103  -9.0824    183.0329    200.2993   9.4177820008e+01   3.9388702708e+01  0.000470496 0.0004457123  -2.69 0.0003677605    1.078    0.072
       104  -8.5586    169.4975    200.4514   9.4165903484e+01   3.9388875446e+01  0.000345948 0.0003370644 -53.88 9.439741e-05    1.017    0.017
       105  -9.9925    120.2433    199.5020   9.4122585178e+01   3.9388458118e+01 0.0007911783 0.0005372583  44.92  0.001246209    1.540    0.351
       106  -9.7083     44.1413    199.4291   9.4055612719e+01   3.9388742195e+01  0.001014994 0.0006246267  -9.10  0.001588267    1.628    0.386
       107  -9.3927     86.0550    197.0275   9.4092572724e+01   3.9386908048e+01  0.001184518 0.0004736628  86.69  0.001445207    2.507    0.601
       108  -9.2850     84.7086    192.1313   9.4091537150e+01   3.9383540339e+01 0.0005098594 0.0004567123  51.33 0.0004662435    1.161    0.139
       109  -9.9042     52.9925    197.8992   9.4063449450e+01   3.9387651150e+01  0.001034633 0.0005650415  14.85  0.001630462    1.889    0.471
       110  -9.4014     57.7048    199.3034   9.4067553354e+01   3.9388598808e+01 0.0005664656 0.0004829533  60.50 0.0004495899    1.212    0.175
       111 -10.8665     57.7898    193.6016   9.4067803382e+01   3.9384669792e+01  0.001105744 0.0007980089 -43.51  0.001218894    1.329    0.248
       112  -9.2927    134.1217    197.8596   9.4134848385e+01   3.9387261272e+01 0.0005352364 0.0004538837  51.86  0.000373984    1.226    0.185
       113 -12.8022     39.0794    228.7631   9.4050251347e+01   3.9408974824e+01  0.001382397  0.001153396 -78.67  0.001173149    1.170    0.145
       114 -10.4833     76.6156    187.6836   9.4084551238e+01   3.9380511222e+01  0.001192556 0.0006052352  65.45  0.001500846    2.051    0.512
       115 -11.6895     70.1145    187.5110   9.4078835771e+01   3.9380420492e+01 0.0009837311 0.0006410723 -41.43 0.0005483545    1.472    0.321
       116 -12.5524     38.1066    194.4068   9.4050456961e+01   3.9385306590e+01  0.000941848 0.0006341295 -72.19 0.0004099621    1.432    0.301
       117  -9.6654     41.0041    188.0389   9.4053203405e+01   3.9380907062e+01 0.0007271933 0.0006407402  60.25  0.001360705    1.173    0.148
       118  -9.3219    113.0000    191.9920   9.4116437793e+01   3.9383316892e+01 0.0006690912 0.0003924823 -66.06 0.0003578503    1.628    0.386
       119  -8.8487     31.4748    195.4736   9.4044587758e+01   3.9386068752e+01  0.001036364 0.0005209841   2.45  0.001778184    2.023    0.506
       120 -10.7079    249.3357    194.6789   9.4236333612e+01   3.9384479658e+01 0.0007642639 0.0006342173  22.81  0.001681989    1.252    0.201
       121  -9.7209     20.1720    191.3422   9.4034769226e+01   3.9383267579e+01 0.0008174349  0.000486832  72.35  0.001444853    1.720    0.419
       122  -9.7930    159.8579    194.0524   9.4157611016e+01   3.9384513797e+01 0.0006061245 0.0005090687  30.25 0.0004915696    1.241    0.194
       123  -9.2274    133.4423    194.2727   9.4134358315e+01   3.9384793003e+01 0.0006189477 0.0003875513 -21.95 0.0007436539    1.570    0.363
       124 -10.0882    120.7224    191.6792   9.4123242934e+01   3.9383065632e+01  0.001329929 0.0006149253 -66.00   0.00201723    2.048    0.512
       125  -9.2430    118.0046    189.9795   9.4120902619e+01   3.9381907057e+01 0.0005118143 0.0004601277  51.74            0    1.157    0.136
       126 -11.5490     64.6199    195.0275   9.4073770252e+01   3.9385623187e+01  0.001147416  0.000660804 -55.12  0.001478332    1.650    0.394
       127  -9.6501     72.9205    193.0148   9.4081136561e+01   3.9384200616e+01 0.0005124918 0.0004803577 -49.32 0.0003096479    1.023    0.023
       128  -8.8636     25.8350    192.5793   9.4039714325e+01   3.9384097250e+01 0.0005987533 0.0004522913  64.00 0.0009310861    1.365    0.267
       129 -10.0144    191.5521    191.3736   9.4185581376e+01   3.9382508987e+01 0.0006534004 0.0005647995 -47.63 0.0006758051    1.109    0.099
       130  -9.4025    113.0536    195.5393   9.4116377665e+01   3.9385760871e+01 0.0007669692 0.0004240394  33.33  0.001366489    1.895    0.472
       131  -9.2244    135.1558    189.9868   9.4135995055e+01   3.9381831657e+01 0.0005278569 0.0004440589  53.49 0.0003725926    1.235    0.190
       132  -9.9503     32.1854    189.9350   9.4045384600e+01   3.9382249592e+01  0.001049948 0.0004884177   6.50  0.001730748    2.198    0.545
       133 -11.4477    249.7650    187.6772   9.4236914885e+01   3.9379652605e+01  0.001029719 0.0006729477 -64.72  0.002026016    1.464    0.317
       134 -10.0085     29.7501    183.8069   9.4043431296e+01   3.9378037109e+01 0.0009099777 0.0007915851 -66.55   0.00160152    1.107    0.097
       135  -9.7101     24.4349    184.2092   9.4038741784e+01   3.9378335743e+01 0.0006201653 0.0004860851  -0.96 0.0005290238    1.294    0.227
       136  -8.7989    154.7413    184.6449   9.4153389466e+01   3.9378056622e+01 0.0003846166 0.0002267135 -50.60 0.0004352107    1.615    0.381
       137 -10.0564    140.0561    183.0797   9.4140514504e+01   3.9377048996e+01  0.001334032 0.0004526436 -32.21  0.001205791    2.805    0.644
       138  -9.1516     36.8757    184.0922   9.4049692534e+01   3.9378204649e+01 0.0007144669 0.0004448507   4.98 0.0007630591    1.639    0.390
       139 -14.6221     46.6823    217.0237   9.4057306439e+01   3.9400854779e+01  0.006635245  0.003246957 -28.42  0.008953735    1.983    0.496
       140  -8.9328     53.2522    182.1776   9.4064161698e+01   3.9376817489e+01 0.0007999212 0.0002204647 -10.97  0.001004829    3.601    0.722
       141  -9.4193    126.1609    180.1184   9.4128377117e+01   3.9375074375e+01 0.0006850446 0.0004359772  64.16  0.001219536    1.625    0.385
       142  -9.5565    115.1868    177.3745   9.4118803979e+01   3.9373234786e+01 0.0009082512 0.0005045953  80.66  0.001630597    1.819    0.450
       143  -9.0816     47.7817    179.6642   9.4059425500e+01   3.9375108625e+01 0.0004846789 0.0003134026  13.50 0.0006561135    1.593    0.372
       144 -10.1593     19.7490    179.1436   9.4034775793e+01   3.9374864198e+01 0.0006752344 0.0004817781 -20.74 0.0007864935    1.381    0.276
       145  -9.7914     64.5208    175.5251   9.4074281061e+01   3.9372185903e+01 0.0007601122 0.0005393974  55.93  0.001129903    1.465    0.317
       146 -11.1481     67.2456    172.4974   9.4076771224e+01   3.9370088019e+01  0.001103567 0.0007560034  79.15  0.001370877    1.475    0.322
       147  -9.6953    121.9480    175.5524   9.4124807895e+01   3.9371947859e+01 0.0005864218 0.0004508055  65.87 0.0002833808    1.338    0.253
       148 -11.3353     79.0344    175.3748   9.4087055611e+01   3.9372019512e+01 0.0009182061 0.0006897607 -10.17  0.001470045    1.333    0.250
       149 -12.7215    248.2589    101.3483   9.4238097305e+01   3.9320174153e+01  0.002279165  0.001629865 -88.99  0.004689137    1.384    0.277
       150 -12.1346    248.6093    171.8564   9.4236357778e+01   3.9368757385e+01  0.001599862 0.0009940971 -24.31  0.003075748    1.576    0.365
       151 -13.5008    245.0682    158.4589   9.4233631969e+01   3.9359544952e+01  0.005117569  0.002089694  72.34  0.007858128    2.545    0.607
       152 -13.4270    247.6506    115.7738   9.4237143693e+01   3.9330117751e+01  0.004837115  0.001968577 -70.67  0.007596581    2.328    0.570
       153 -11.8441    247.9001    142.5036   9.4236586739e+01   3.9348535107e+01  0.001748019  0.001334705 -40.69   0.00348311    1.260    0.206
       154 -12.2070    248.4545    134.2532   9.4237313971e+01   3.9342846899e+01  0.002485284  0.001272923 -74.00   0.00435106    1.875    0.467
       155 -10.7478     29.0426    171.2275   9.4043198323e+01   3.9369372563e+01  0.001012209 0.0008839975 -61.94  0.002297944    1.099    0.090
       156  -8.7839     52.6100    171.1087   9.4063937093e+01   3.9369193450e+01 0.0004805925 0.0003007309 -67.07 0.0003125785    1.530    0.346
       157 -10.8787     44.3567    168.7845   9.4056747365e+01   3.9367626452e+01  0.001420384 0.0008670827 -21.85  0.002704206    1.610    0.379
       158 -12.3467     87.0548    166.9488   9.4094369005e+01   3.9366178393e+01  0.001588997  0.001362065  -3.14  0.003578138    1.182    0.154
       159 -10.9294     89.5702    159.7993   9.4096799634e+01   3.9361240918e+01  0.001238114 0.0005580269  73.83  0.001551281    2.289    0.563
       160  -9.4821    126.3883    167.6442   9.4128952893e+01   3.9366478023e+01 0.0005484433 0.0003634135  48.16 0.0009160254    1.578    0.366
       161 -10.0947     68.8040    166.8327   9.4078315844e+01   3.9366178187e+01 0.0005534002 0.0005268034 -65.39 0.0004440404    1.020    0.020
       162  -9.0969     58.5022    167.5079   9.4069231733e+01   3.9366687509e+01  0.000347012 0.0003375856 -58.47 0.0002733466    1.017    0.016
       163  -8.8463     53.8407    164.8565   9.4065212175e+01   3.9364880315e+01 0.0004813132 0.0003875745  56.98 0.0004167807    1.288    0.223
       164  -9.1921     32.7814    165.0214   9.4046679777e+01   3.9365081247e+01 0.0004633092 0.0002809879 -87.58 0.0003771778    1.627    0.385
       165  -8.4742    177.6929    163.6938   9.4174206975e+01   3.9363506450e+01 0.0003857262 0.0002289895 -45.35 0.0002901177    1.608    0.378
       166 -10.5910     39.7861    162.0936   9.4052932647e+01   3.9363035175e+01  0.001120719 0.0004711678  -9.51  0.001276308    2.377    0.579
       167  -9.8232     73.7470    159.4510   9.4082890288e+01   3.9361070542e+01 0.0006072725 0.0004642165 -45.45 0.0006269356    1.254    0.203
       168 -10.1476     72.7299    156.3354   9.4082090768e+01   3.9358928255e+01  0.000797926 0.0006959322 -21.38  0.001307099    1.133    0.117
       169 -10.5963     95.6422    157.7942   9.4102202204e+01   3.9359832205e+01  0.001053948 0.0003259609  89.96  0.001409815    3.217    0.689
       170  -8.9309     78.8220    158.8541   9.4087373060e+01   3.9360637162e+01 0.0004804243 0.0003911919  53.35 0.0005180701    1.277    0.217
       171  -8.7297    112.3665    157.8022   9.4116914340e+01   3.9359761618e+01 0.0004598849 0.0003096829 -70.64 0.0002470834    1.429    0.300
       172  -8.8419     52.4660    158.4539   9.4064199652e+01   3.9360474562e+01 0.0003529225 0.0003294276 -49.18 0.0003500663    1.028    0.027
       173 -11.8023     32.1024    155.3693   9.4046380962e+01   3.9358433458e+01  0.001598275 0.0008308709 -43.38  0.001721623    1.833    0.454
       174 -12.1871     23.7839    156.0545   9.4039042027e+01   3.9358939215e+01  0.001532743  0.001078208 -33.90  0.003134822    1.376    0.273
       175 -11.6781     23.5370    149.4800   9.4039028673e+01   3.9354410257e+01  0.001368836  0.000591635 -51.40  0.001815178    2.174    0.540
       176  -8.7621    128.4135    156.4461   9.4131071727e+01   3.9358752487e+01 0.0003437791 0.0003334323  68.83            0    1.065    0.061
       177  -9.3206     81.8043    156.3219   9.4090073874e+01   3.9358879281e+01 0.0005118266 0.0002992467 -16.78 0.0003506728    1.693    0.409
       178  -9.0845    228.2111    155.2591   9.4218896508e+01   3.9357431550e+01 0.0004904525 0.0003812121  55.92 0.0005101592    1.335    0.251
       179 -10.7813     99.2212    151.3772   9.4105545393e+01   3.9355394541e+01    0.0010157 0.0006729514 -61.13  0.001279826    1.441    0.306
       180  -9.4818    102.4460    146.0767   9.4108542781e+01   3.9351727660e+01 0.0009651922 0.0003695705 -58.54  0.000768859    2.434    0.589
       181 -10.1181    113.9103    150.6528   9.4118488432e+01   3.9354828276e+01 0.0007756896 0.0005878495  82.30 0.0005119708    1.326    0.246
       182 -10.9830    104.2627    238.1201   9.4107349548e+01   3.9415140801e+01 0.0007928329 0.0005820659 -31.24  0.000692902    1.324    0.245
       183 -10.0545     60.0113    150.7612   9.4071073340e+01   3.9355142163e+01 0.0008853918 0.0004113465  41.45  0.001440373    2.276    0.561
       184 -10.9033     56.0371    150.1403   9.4067596574e+01   3.9354731200e+01  0.001531053  0.001228229  59.75  0.003326186    1.290    0.225
       185  -9.0684     87.2386    151.2318   9.4095009344e+01   3.9355347978e+01  0.000498706 0.0003881735  50.88 0.0005369463    1.338    0.253
       186 -12.6746     67.8618    144.3628   9.4078174901e+01   3.9350699844e+01  0.002041563  0.001383643  63.41  0.002887827    1.525    0.344
       187 -11.9743     73.5943    139.5765   9.4083363444e+01   3.9347377067e+01  0.001746175  0.001147282  64.70  0.002720977    1.572    0.364
       188 -11.4794     38.7921    146.2255   9.4052548029e+01   3.9352105798e+01  0.001201974 0.0007122579  30.07  0.001900792    1.763    0.433
       189 -10.9031    133.3861    142.1020   9.4135876986e+01   3.9348845301e+01  0.001655413 0.0005846988  87.24   0.00237599    2.839    0.648
       190 -11.2288     31.7414    146.0222   9.4046352411e+01   3.9351994583e+01 0.0006806828 0.0005228803  -4.34  0.001440263    1.314    0.239
       191 -11.8343     32.4137    140.6270   9.4047110606e+01   3.9348274471e+01  0.001163392 0.0006576739  75.12  0.001225456    1.806    0.446
       192  -8.5023     92.6847    145.2889   9.4099980613e+01   3.9351228869e+01 0.0003696324 0.0002432534  44.53 0.0005205784    1.590    0.371
       193  -9.3431     56.1200    138.8095   9.4068017526e+01   3.9346923615e+01 0.0004960878 0.0003710944 -42.85 0.0002959173    1.284    0.221
       194 -10.9743     60.1740    136.5719   9.4071651794e+01   3.9345364620e+01   0.00111752 0.0005823516  70.01  0.001579299    1.982    0.495
       195 -10.1917    110.5624    136.1483   9.4115982132e+01   3.9344849545e+01 0.0009025645 0.0005001211 -49.78  0.001199111    1.715    0.417
       196 -10.6829    236.1969    145.9868   9.4226191616e+01   3.9350999234e+01 0.0007729693 0.0005160991  -4.97 0.0007727004    1.509    0.337
       197 -11.4837     45.2725    131.3410   9.4058706709e+01   3.9341823179e+01   0.00122336 0.0008501885  49.67  0.002329868    1.502    0.334
       198  -9.4774     79.3257    131.7268   9.4088643882e+01   3.9341943310e+01 0.0008261486 0.0002158948  36.35 0.0009770415    4.211    0.763
       199 -10.9464     33.0258    131.8145   9.4047921354e+01   3.9342199924e+01 0.0009449459 0.0003986082 -20.15  0.001284705    2.327    0.570
       200 -11.6422     33.4172    127.7250   9.4048391987e+01   3.9339380561e+01 0.0009927751 0.0005335885  77.60  0.001752134    1.894    0.472
       201 -10.3817     29.9990    126.9804   9.4045408856e+01   3.9338881451e+01  0.000542457 0.0004815981  43.97 0.0005053023    1.175    0.149
       202 -12.7567     12.3556    127.2807   9.4029883212e+01   3.9339159104e+01  0.001533097  0.001200851 -41.99  0.002867948    1.227    0.185
       203 -11.2130     67.0756    128.5638   9.4077967008e+01   3.9339817194e+01   0.00106885 0.0008612015 -87.68  0.001864406    1.227    0.185
       204 -12.8103     21.1038    121.6088   9.4037752653e+01   3.9335216232e+01  0.002063209 0.0008321331 -17.49  0.003201445    2.444    0.591
       205  -9.8529    116.8070    128.7875   9.4121696530e+01   3.9339748804e+01 0.0006969389 0.0002237079 -44.62 0.0009639071    2.887    0.654
       206  -9.9070    109.8249    129.0734   9.4115547450e+01   3.9339978061e+01 0.0006125527 0.0004372279 -33.54  0.000370865    1.357    0.263
       207 -10.5033    209.8102    125.8066   9.4203575166e+01   3.9337234634e+01 0.0007241017 0.0005824079 -74.90 0.0005002471    1.206    0.171
       208  -8.4489     85.3112    126.6793   9.4094061742e+01   3.9338439005e+01 0.0003782969 0.0002402432  46.83 0.0005853694    1.648    0.393
       209 -11.1244    249.6014    150.8954   9.4237839441e+01   3.9354308284e+01  0.001289103  0.000865239  79.36  0.002558545    1.504    0.335
       210 -11.3061     37.6697    122.6361   9.4052288849e+01   3.9335856816e+01  0.001270999 0.0004464755 -73.41  0.001678531    2.687    0.628
       211  -9.4382     85.0815    173.8878   9.4092421458e+01   3.9370968291e+01 0.0005381723 0.0004569819  41.36 0.0004334733    1.229    0.186
       212 -10.5552     54.9372    120.7268   9.4067532557e+01   3.9334469119e+01 0.0008281039 0.0005415683 -13.49  0.001365569    1.522    0.343
       213 -11.6451     41.0040    204.9164   9.4052682215e+01   3.9392536029e+01  0.002421093 0.0009507255  25.89  0.003111908    2.673    0.626
       214  -9.5637     48.0428    118.6862   9.4061532514e+01   3.9333092128e+01 0.0008233195 0.0002797327 -55.84  0.001178825    2.715    0.632
       215 -12.5311     14.6993    115.0490   9.4032324270e+01   3.9330721949e+01  0.001239203 0.0009512391 -31.21  0.002642901    1.267    0.210
       216 -10.9370    168.0791    113.3061   9.4167247784e+01   3.9328834672e+01  0.000896901 0.0006235317  47.47  0.000963779    1.503    0.334
       217  -8.7781     50.2783    112.7022   9.4063682376e+01   3.9328959608e+01 0.0003611414 0.0002456144  48.01 0.0002169531    1.536    0.349
       218  -9.3810    203.7571    111.4507   9.4198674318e+01   3.9327374223e+01 0.0005111506 0.0003021578 -23.35 0.0009405821    1.658    0.397
       219 -10.6218     31.6248    110.9032   9.4047335603e+01   3.9327797292e+01  0.000649014  0.000500988  11.06 0.0005489567    1.332    0.249
       220  -9.0569     86.5519    116.7105   9.4095456254e+01   3.9331564694e+01 0.0005301767 0.0003095244  72.49 0.0007718987    1.755    0.430
       221  -9.6824    231.9947    116.5195   9.4223355340e+01   3.9330716990e+01 0.0005194593 0.0003440212  -2.00 0.0004148568    1.528    0.345
       222  -9.0355     62.6388    107.3107   9.4074716285e+01   3.9325192245e+01 0.0003894478 0.0002339504  43.90 0.0007041151    1.746    0.427
       223  -9.8997    107.3877    172.9764   9.4112075023e+01   3.9370240093e+01 0.0004971374 0.0004326997  87.24 0.0007535064    1.148    0.129
       224  -9.3483     24.2608     87.9767   9.4041570262e+01   3.9312030383e+01 0.0004945455 0.0004472419 -68.88 0.0003824265    1.069    0.065
       225 -10.3459    250.0193     86.7040   9.4240069737e+01   3.9310073451e+01 0.0004975047  0.000456814 -17.44 0.0005702886    1.087    0.080
       226 -11.0171    200.9279    246.2778   9.4192212177e+01   3.9420292958e+01 0.0009922994 0.0004796913  30.38 0.0008759406    2.171    0.539
       227 -13.9198      5.9630    245.3337   9.4020581104e+01   3.9420524339e+01   0.00377566   0.00258043  63.30  0.007566929    1.513    0.339
       228 -10.7878    193.6095    245.1663   9.4185801467e+01   3.9419564718e+01 0.0006802696 0.0006066453  18.50 0.0002353261    1.163    0.140
       229 -10.5476    222.4782    244.9934   9.4211223964e+01   3.9419294947e+01 0.0007049985 0.0004414177 -29.35 0.0009550594    1.553    0.356
       230 -10.9814    189.7808     15.6082   9.4189213146e+01   3.9261405396e+01 0.0006781659 0.0005557007  64.43 0.0006921248    1.256    0.204
