#   1 NUMBER                 Running object number                                     
#   2 MAG_AUTO               Kron-like elliptical aperture magnitude                    [mag]
#   3 X_IMAGE                Object position along x                                    [pixel]
#   4 Y_IMAGE                Object position along y                                    [pixel]
#   5 X_WORLD                Barycenter position along world x axis                     [deg]
#   6 Y_WORLD                Barycenter position along world y axis                     [deg]
#   7 A_WORLD                Profile RMS along major axis (world units)                 [deg]
#   8 B_WORLD                Profile RMS along minor axis (world units)                 [deg]
#   9 THETA_WORLD            Position angle (CCW/world-x)                               [deg]
#  10 FWHM_WORLD             FWHM assuming a gaussian core                              [deg]
#  11 ELONGATION             A_IMAGE/B_IMAGE                                           
#  12 ELLIPTICITY            1 - B_IMAGE/A_IMAGE                                       
         1  99.0000    138.1904    132.2482   3.4857927855e+01   2.7732335087e+01     8.101804     4.202223 -34.30   0.03101668    2.326    0.570
         2 -16.3679    244.7926     37.8256   3.5584968592e+02   2.1722146447e+01     4.565383     2.507702 -66.18   0.02290431    1.815    0.449
         3 -13.1904    247.2783     16.1923   3.5115808907e+02   2.3707430150e+01    0.3892507    0.3797657  43.08  0.002192846    1.501    0.334
         4 -16.0693    238.1307     84.6283   6.4765589430e+00   1.6818364079e+01      2.92694    0.9016585 -30.12   0.01099974    3.358    0.702
         5 -12.2499    148.1474     34.7308   4.7627899521e+00   4.3520140599e+01    0.3472148    0.2257161  -9.46  0.001522117    2.212    0.548
         6 -17.6345    240.7338    106.8076   1.0856037036e+01   1.3243902173e+01     4.462129     4.107083  22.58   0.01829524    1.321    0.243
         7  -9.7093    164.1526    203.2465   4.2438468271e+01   9.5845090564e+00    0.1568495    0.1444566  38.27 0.0005148011    1.337    0.252
         8 -11.9084    241.2869    250.1493   3.5706355154e+01  -5.4535752989e+00    0.3353588    0.1088606  31.30   0.00153768    2.914    0.657
         9 -12.1854    249.0069    247.6515   3.4201877636e+01  -5.8829306421e+00    0.4324756    0.2127288 -17.90  0.002995253    1.698    0.411
        10 -12.2717    192.3302    194.7537   3.5505121934e+01   7.0419491230e+00    0.8271498     0.449751 -60.08  0.002979811    5.606    0.822
        11 -10.7789    198.6144    228.8052   3.9708984945e+01   1.3990437601e+00    0.2112317    0.1550594  21.68  0.001108674    1.258    0.205
        12 -14.7771    178.3521     97.7224   1.7830990307e+01   2.6250962430e+01      1.93158     1.013982 -21.43  0.001247122    3.014    0.668
        13 -15.7421    223.4570    175.2820   2.6692787442e+01   5.7639681070e+00     5.356992     2.452266 -16.34   0.02157914    3.644    0.726
        14 -15.5675    194.4500    104.1683   1.6682372033e+01   2.1861415363e+01     2.677576     1.117888  49.11   0.00959714    2.657    0.624
        15 -10.2848    237.3222    219.0109   3.1787868473e+01  -1.6080788717e+00    0.1499073    0.1073515 -11.35 0.0003801001    1.073    0.068
        16 -10.6122    239.7626    190.6149   2.6839524686e+01   1.6594623915e+00    0.1990666    0.1228793 -27.69 0.0005727678    1.327    0.247
        17 -12.1555    235.3049    184.8620   2.6532693677e+01   2.9418532567e+00    0.4382921    0.2326383 -36.19  0.001878526    1.685    0.407
        18 -13.3301    193.4713    166.7932   3.0269718604e+01   1.1348464706e+01    0.7400474    0.5607904 -39.67  0.001856268    1.332    0.249
        19 -11.4359    184.5511    169.2297   3.2417258446e+01   1.2317467798e+01    0.4513023    0.2376313 -52.04  0.002030654    2.480    0.597
        20 -11.7076    186.7034    163.9472   3.0993554006e+01   1.2882154408e+01    0.5139414    0.2209895 -32.42  0.001644577    2.476    0.596
        21 -12.8846    200.9645    165.9307   2.8749216761e+01   1.0353431111e+01    0.3580841    0.3064933  25.39 0.0007622552    1.245    0.197
        22 -12.0254    201.5482    162.4816   2.7986023918e+01   1.0821210020e+01     0.260064    0.2290729  15.03   0.00057647    1.168    0.144
        23 -11.9538    177.8554    169.2468   3.3735729161e+01   1.3367287963e+01    0.5187019    0.3217328 -19.11  0.002075758    1.883    0.469
        24  -9.5687    141.4242    163.4563   4.0583039366e+01   2.0528923571e+01    0.1405775    0.1331245  10.26 0.0001140491    1.019    0.018
        25 -11.9937    191.9079    153.7385   2.8003713902e+01   1.3790792539e+01    0.5781683    0.3816766  34.98  0.002546167    1.588    0.370
        26 -11.1428    189.5166    149.0037   2.7484400990e+01   1.5000896060e+01    0.2862735    0.2074189 -62.52  0.001190587    1.977    0.494
        27 -11.0211    182.3962    151.4489   2.9336074994e+01   1.5771895227e+01    0.2896363    0.2252929 -21.24 0.0009165669    1.239    0.193
        28 -10.5915     60.5026    150.3215   6.1053783009e+01   3.6756342487e+01    0.2789583    0.2185448  75.10 0.0007100395    1.303    0.232
        29 -11.3231    215.2359    148.7073   2.2983399146e+01   1.0925511086e+01    0.3614688    0.2223642 -58.03  0.001539699    2.644    0.622
        30 -13.1298     67.5281    143.6121   5.7772071038e+01   3.7527384197e+01    0.8662742     0.617388  77.57  0.003183834    1.586    0.370
        31 -11.5457    157.5952    142.2152   3.2530369227e+01   2.1934947509e+01     0.370818    0.2978516  -0.41  0.001930226    1.417    0.295
        32 -14.4646    233.6761    100.2271   1.0318224700e+01   1.5343826457e+01    0.5570666    0.4657126 -50.51  0.002069833    1.183    0.154
        33 -12.9575      2.0695    128.5312   7.8740570272e+01   4.8323044650e+01    0.8326021     0.231567 -81.51  0.002359584    3.183    0.686
        34 -13.9999     10.6071    126.1257   7.5499142397e+01   4.8442065928e+01     1.320299    0.4897649 -87.17  0.004910083    2.662    0.624
        35 -14.7698     46.3261    124.7325   6.2092468057e+01   4.5444921186e+01     2.441253     1.359789  15.60  0.002341946    2.183    0.542
        36 -14.2344     38.5244    123.2826   6.4777849685e+01   4.6749061150e+01     1.012787    0.7749122 -58.53  0.002880268    1.295    0.228
        37 -13.7902     30.4570    124.3463   6.7948665708e+01   4.7294391032e+01     0.592044     0.447292  11.01   0.00156588    1.518    0.341
        38 -12.3533    149.4436    110.7956   2.6990227416e+01   2.9932670183e+01    0.4805476    0.3885825   9.35  0.001032493    1.556    0.357
        39 -10.7241    157.3078     90.3345   1.9887012798e+01   3.2205948615e+01    0.5977182    0.1665596 -36.32  0.001701482    3.916    0.745
        40 -12.9857    159.9781    102.1302   2.2477685112e+01   2.9375686652e+01    0.3803337    0.2993296 -35.72 0.0007250183    1.245    0.197
        41 -11.4721    156.6068     97.7254   2.2022708895e+01   3.0960838733e+01    0.4420008    0.1841296 -42.00  0.001128485    2.272    0.560
        42 -13.6979    162.6861    108.8159   2.3623840927e+01   2.7510716140e+01     1.008683    0.5584415  50.87  0.004359563    1.923    0.480
        43 -10.4092    107.7858    108.0887   3.7245142510e+01   3.9410669430e+01     0.369551    0.2068084 -41.71  0.001445888    1.907    0.476
        44 -11.7571    120.8856    103.1326   3.2129761718e+01   3.7762796354e+01    0.3142965    0.2669725 -81.82  0.001090077    1.324    0.245
        45 -12.0352    126.4330    106.2223   3.1458471747e+01   3.5872798130e+01    0.5032049    0.3312839 -66.47  0.002073778    1.942    0.485
        46 -11.7503    143.8341    101.8577   2.5949712386e+01   3.2974617072e+01    0.3525481    0.3064158  86.56  0.001060962    1.283    0.221
        47 -10.7314    131.2490     98.5974   2.8128928155e+01   3.6458016082e+01    0.3293838    0.2691896 -59.66  0.001138077    1.261    0.207
        48 -10.8592    189.9930    213.0744   3.8911269820e+01   4.6109990961e+00    0.1802524    0.1466452   4.55 0.0005097477    1.054    0.051
        49  -9.7504    113.1980     95.1753   3.2084078049e+01   4.1225703111e+01    0.2100369    0.1828002 -86.72 0.0003285266    1.258    0.205
        50 -10.5694    215.7297    208.3511   3.3599063003e+01   2.1239453291e+00     0.186026    0.1762855  27.46 0.0007387988    1.662    0.398
        51 -10.9269    199.9642     88.7700   1.2157620995e+01   2.3302590803e+01    0.2501019    0.1787437 -40.00 0.0008078785    1.218    0.179
        52 -12.2325    204.4702     73.2235   7.7720399052e+00   2.4801641631e+01    0.4411423    0.2175434 -30.55  0.001612669    1.980    0.495
        53 -12.3523    219.7189     73.3024   5.9708039981e+00   2.1765766357e+01    0.4681145    0.2288418 -49.62  0.002262259    1.875    0.467
        54 -11.2559    205.6184     65.2100   5.6710373662e+00   2.5747986402e+01    0.3437708    0.2455249 -13.20  0.001822291    1.823    0.451
        55 -11.0519    209.9331     57.9033   3.4010700572e+00   2.5893375839e+01    0.2511286    0.1722737  42.09 0.0009070529    1.970    0.492
        56 -10.8122    203.1329     40.9854   3.5991090077e+02   2.9600758470e+01    0.2066861    0.1605336 -40.81 0.0003720521    1.169    0.145
        57 -10.6285    198.6765     57.9360   4.6758457704e+00   2.8263621736e+01    0.2338349    0.1419982 -43.82 0.0003837188    1.404    0.288
        58 -12.0329    200.9996     46.8415   1.6030839184e+00   2.9294713794e+01    0.3387598    0.2962193 -42.20 0.0007798027    1.144    0.126
        59 -10.5880    131.0868     55.5300   1.4870448055e+01   4.4770630478e+01    0.2357898    0.2166934  13.18 0.0006057822    1.299    0.230
        60 -10.0181    141.1700     50.8720   1.1257062040e+01   4.2971189452e+01    0.1952265    0.1797136  14.47 0.0004764564    1.316    0.240
        61 -11.6760    186.4072     48.2074   3.5922799670e+00   3.2363556981e+01    0.2970692     0.272019 -44.35 0.0008335471    1.144    0.126
        62 -13.0528    152.6066     45.9288   7.6520526912e+00   4.0830684517e+01    0.5342889    0.4297427 -30.14  0.002840253    1.333    0.250
        63 -11.1145    180.0466     41.9181   2.6317357667e+00   3.4699136128e+01    0.3922594    0.2062473 -55.62  0.001177929    1.865    0.464
        64 -11.7298    142.9917     39.4732   7.1573109022e+00   4.4195048549e+01    0.2856942    0.1421718  73.48 0.0008703515    2.134    0.531
        65 -10.1279    209.1219     38.6738   3.5878306665e+02   2.8612075322e+01     0.219544    0.1401758 -46.16 0.0004029599    1.284    0.221
        66 -10.2932    240.4938    204.9826   2.9096283916e+01  -2.4142813676e-01    0.1432828    0.1274152 -79.36  0.000901454    2.810    0.644
        67 -10.4202    194.9293     29.6775   3.5777753583e+02   3.2826354542e+01    0.2973605    0.1735359  -7.46  0.001301825    2.946    0.661
