#   1 NUMBER                 Running object number                                     
#   2 MAG_AUTO               Kron-like elliptical aperture magnitude                    [mag]
#   3 X_IMAGE                Object position along x                                    [pixel]
#   4 Y_IMAGE                Object position along y                                    [pixel]
#   5 X_WORLD                Barycenter position along world x axis                     [deg]
#   6 Y_WORLD                Barycenter position along world y axis                     [deg]
#   7 A_WORLD                Profile RMS along major axis (world units)                 [deg]
#   8 B_WORLD                Profile RMS along minor axis (world units)                 [deg]
#   9 THETA_WORLD            Position angle (CCW/world-x)                               [deg]
#  10 FWHM_WORLD             FWHM assuming a gaussian core                              [deg]
#  11 ELONGATION             A_IMAGE/B_IMAGE                                           
#  12 ELLIPTICITY            1 - B_IMAGE/A_IMAGE                                       
         1 -13.9636    244.6070    152.9400   9.1563644038e+01   2.2816290950e+00     3.446199    0.5198783 -38.60  0.009032843    5.997    0.833
         2 -13.4335    248.3906    125.6446   8.4958842846e+01   5.7716619885e+00     3.417013    0.0872414 -36.75  0.006219449   11.260    0.911
         3 -16.3511    243.6469     55.2722   6.9044729827e+01   1.7475241571e+01     7.621449     2.211392 -31.62   0.02628965    3.261    0.693
         4 -13.7712    244.6875    188.8927   9.8836008150e+01  -2.9192623031e+00      2.52641    0.8269619 -46.50  0.007075636    7.459    0.866
         5  -9.6463    239.4692      1.4640   5.6807249625e+01   2.5018489807e+01    0.1252381    0.1067623 -75.23 0.0002616874    1.060    0.056
         6 -12.0032    236.4179    229.7515   1.0751806998e+02  -6.7887690021e+00    0.4164948    0.3736945  75.95  0.002103013    2.035    0.509
         7 -10.5941    224.5670    249.8074   1.1266820824e+02  -7.3097243090e+00    0.1885045    0.1702256  22.04  0.001020251    1.359    0.264
         8 -11.0253    209.5031    249.3572   1.1519436784e+02  -5.0149013292e+00    0.2599591    0.2163363  15.46  0.001922751    1.141    0.124
         9 -11.0275    191.4842    248.6008   1.1825854742e+02  -2.1424251238e+00    0.3159098    0.2710509  81.33  0.002192833    1.811    0.448
        10 -10.2356    243.4885    236.5139   1.0742097534e+02  -8.5905143843e+00    0.1700914    0.1297775  44.09 0.0007124742    1.649    0.393
        11 -10.8826    250.1836    245.7545   1.0777747473e+02  -1.0505617503e+01    0.2199269    0.1652624 -20.91  0.001073871    1.481    0.325
        12 -11.4341    246.5966    241.0935   1.0763456728e+02  -9.5249804564e+00    0.2916223     0.243854 -41.38  0.001757269    1.899    0.473
        13  -9.7348    163.3966    247.1840   1.2313280892e+02   2.5141559820e+00    0.1424564    0.1146861 -72.42 0.0009508348    1.752    0.429
        14 -11.2592    225.1670    243.0706   1.1155327393e+02  -6.6441861908e+00    0.2640147    0.2329309   8.29  0.001380542    1.259    0.206
        15 -10.5485    201.8678    242.3835   1.1552544982e+02  -2.9935105893e+00    0.2143786    0.1726389 -57.43  0.001429562    1.923    0.480
        16 -10.7299    240.0452    240.6885   1.0866046040e+02  -8.5531718618e+00     0.201185    0.1926909 -57.74  0.001072578    1.834    0.455
        17 -10.2632    219.8093    240.2566   1.1204868604e+02  -5.5121937795e+00     0.170411    0.1527884 -21.46 0.0008724529    1.417    0.294
        18 -10.2104    214.1797    240.9562   1.1313801504e+02  -4.7340253187e+00      0.16495    0.1449547  34.27 0.0009531471    1.301    0.231
        19 -10.5524    183.4696    239.9071   1.1848774325e+02   2.7034933645e-01    0.2570271    0.2155335  87.83  0.001690736    1.824    0.452
        20 -10.5202    158.9945    239.0057   1.2288728189e+02   4.4039234185e+00    0.2581114    0.1717785 -70.40  0.001458317    2.359    0.576
        21 -11.7776    230.7355    236.5244   1.0958073489e+02  -6.7245705702e+00    0.3342956    0.3038146  69.32  0.001600472    1.876    0.467
        22 -11.3172    190.9862    235.6262   1.1649566952e+02  -3.7481409267e-01    0.4300416    0.3149483 -69.72  0.002482331    2.467    0.595
        23 -11.3722    205.0735    235.4953   1.1392425051e+02  -2.6307445814e+00    0.3427606    0.3033078 -85.68   0.00218868    1.848    0.459
        24 -10.7480    176.5030    235.5916   1.1916025811e+02   2.0097086274e+00    0.3218455    0.1239407 -44.38  0.001483203    3.220    0.689
        25 -13.2923    236.2123    217.0313   1.0541605729e+02  -5.2250956738e+00     1.924799     1.233021 -64.32   0.00668331    7.398    0.865
        26 -12.1966    234.4325    148.8144   9.2392202608e+01   4.8389359998e+00      1.53889    0.4750147 -28.21  0.004432878    4.811    0.792
        27 -12.2591    227.9570    222.7524   1.0782286121e+02  -4.6471595918e+00    0.8192716    0.3377832 -42.93  0.003780426    3.247    0.692
        28 -14.3817    227.1352    192.8038   1.0264874652e+02  -5.0141217514e-01     2.540412     1.438918 -28.90   0.01315423    1.824    0.452
        29 -12.1143    238.6747    160.6520   9.4196485863e+01   2.2002231402e+00     1.011756    0.3732537 -45.95  0.003572366    3.678    0.728
        30 -12.3840    247.5788    226.4140   1.0508081739e+02  -8.0527066232e+00    0.5796633    0.3690999 -42.37  0.003500771    2.233    0.552
        31 -12.5244    248.7435    181.1640   9.6653166937e+01  -2.5335251202e+00     1.053474    0.2659674 -40.04  0.003580103    4.390    0.772
        32 -11.0402    242.4238    248.0152   1.0940191624e+02  -9.6680556579e+00    0.2235053    0.1880421  -1.93 0.0008712065    1.298    0.229
        33 -11.2315    233.1212    246.9822   1.1079663444e+02  -8.2417448775e+00    0.2759032     0.226413  22.03  0.001231198    1.193    0.162
        34 -10.5338    175.9646    246.9958   1.2082565225e+02   5.2499517633e-01    0.2359061    0.1806501 -56.31   0.00157441    1.817    0.450
        35 -10.2296    179.2993    217.0159   1.1585455482e+02   4.2786021405e+00    0.1732734    0.1609671  23.69 0.0008260296    1.123    0.109
        36  -9.8983    165.2254    215.9730   1.1843365846e+02   6.9100189036e+00    0.1545468    0.1097542 -46.77 0.0008804154    1.676    0.403
        37 -10.1791    185.5002    215.0333   1.1434594626e+02   3.4982968352e+00    0.1733275    0.1289962 -40.02 0.0008098327    1.572    0.364
        38 -10.4067    154.3734    213.8084   1.2025847164e+02   9.1775767611e+00     0.164566    0.1234827 -34.73 0.0009447758    1.658    0.397
        39 -10.5667    209.8634    212.2988   1.0930544190e+02  -3.0703479698e-01    0.2275804    0.1795894 -12.29 0.0009251713    1.321    0.243
        40 -10.7818    176.9530    210.9431   1.1534162372e+02   5.6420730948e+00    0.2757108    0.1987049 -54.89  0.001557746    1.771    0.435
        41 -10.8737    200.1397    210.6620   1.1083777691e+02   1.5978357042e+00    0.1994155    0.1739439 -39.09 0.0007839054    1.380    0.276
        42 -10.6326    192.9540    210.0004   1.1208913633e+02   2.9530196582e+00     0.268168    0.1937324 -48.67  0.001087039    1.733    0.423
        43 -10.1333    186.0460    210.7059   1.1353405111e+02   4.0646431583e+00     0.190186     0.150525  33.92 0.0005996011    1.075    0.069
        44 -10.4137    160.8376    210.6921   1.1849304702e+02   8.5573267306e+00    0.2114439    0.1822685 -26.48  0.001209182    1.384    0.277
        45 -11.1842    206.0077    207.6970   1.0922791888e+02   1.0121069800e+00    0.3011408    0.2090349 -28.00  0.001133938    1.575    0.365
        46  -9.7387    182.6478    207.1897   1.1361030872e+02   5.2207372062e+00    0.1697841    0.1217227 -27.79 0.0009419717    1.635    0.388
        47  -9.5910    171.3027    207.6583   1.1592469467e+02   7.1858421761e+00    0.1288592    0.1004426  71.89   0.00038035    1.677    0.404
        48 -13.4577    236.2826    191.8051   1.0084025536e+02  -1.9195440730e+00     2.390618    0.4283195 -39.49  0.006948917    6.132    0.837
        49 -10.5460    124.1801    206.1246   1.2531196550e+02   1.5812824078e+01    0.1817841    0.1355325  65.91            0    1.331    0.248
        50 -11.0560    197.7335    203.9236   1.1013434477e+02   3.0291113040e+00     0.323281    0.2312559 -29.82  0.001365366    1.544    0.352
        51 -10.6645    139.4939    205.0180   1.2197652310e+02   1.3353025837e+01    0.1855775    0.1335655 -53.92  0.001010724    1.596    0.374
        52 -10.5951    186.9237    203.4217   1.1213632557e+02   5.0486874490e+00    0.2318374    0.1901779 -63.84  0.001260191    1.651    0.394
        53 -10.2523    178.7131    203.9647   1.1384370274e+02   6.4502395575e+00    0.1779157    0.1713303   8.99  0.001031725    1.139    0.122
        54 -11.6527    210.3131    201.0901   1.0725657908e+02   1.2275929274e+00    0.3584046     0.267279 -56.73  0.001470665    1.969    0.492
        55 -10.6816    192.6931    202.1391   1.1079217694e+02   4.2084847792e+00    0.2277636    0.1186677 -48.69 0.0008955641    2.429    0.588
        56 -10.7882    202.0114    197.1172   1.0810586316e+02   3.3058672901e+00      0.30661    0.2037857 -37.75  0.001282326    1.654    0.395
        57 -10.6081    164.4926    202.0142   1.1637225591e+02   9.3737286512e+00    0.1885067     0.135456 -44.56  0.001034804    1.598    0.374
        58 -10.2842    176.3041    197.4640   1.1321434831e+02   7.9719381497e+00    0.2209237    0.1251114 -43.95 0.0009749457    2.000    0.500
        59 -10.7655    184.2011    196.4326   1.1145430168e+02   6.6793701065e+00    0.2360132    0.1936087 -34.09  0.001041566    1.353    0.261
        60 -10.5640    209.1439    194.3806   1.0625207325e+02   2.4391822627e+00    0.2398066    0.1909572 -36.25  0.000884072    1.394    0.283
        61 -10.9072    194.1281    194.2446   1.0910638271e+02   5.1988823019e+00    0.2207467    0.2064506 -60.40  0.001102429    1.338    0.253
        62 -10.4136    198.9373    190.9442   1.0756436713e+02   4.8387207475e+00    0.2536207    0.1895802 -34.67  0.001037117    1.445    0.308
        63 -10.0708    161.5379    192.0278   1.1530074681e+02   1.1686268194e+01    0.1954225    0.1384516 -46.77 0.0008484971    1.588    0.370
        64 -10.0617    205.0262    190.8298   1.0637202228e+02   3.7345172711e+00    0.2270164     0.184904 -27.78 0.0006867833    1.296    0.229
        65 -10.4418    178.6391    189.9553   1.1141211619e+02   8.8159889933e+00    0.2855619    0.1323889 -43.45  0.001224535    2.398    0.583
        66 -10.1383    172.1327    190.7068   1.1287587001e+02   9.9192249012e+00     0.225471    0.1928586 -57.81   0.00101544    1.378    0.274
        67 -10.2533    193.1292    187.8902   1.0813036790e+02   6.4211714252e+00    0.2001783    0.1878327  51.66 0.0009428199    1.200    0.167
        68 -10.0853    166.4759    185.9825   1.1320268297e+02   1.1844467030e+01    0.2030024    0.1400038 -43.68  0.001036454    1.608    0.378
        69 -10.9779    203.2731    183.4342   1.0530306973e+02   5.2375269232e+00    0.3488884    0.2099173 -40.83  0.001206471    1.801    0.445
        70 -10.4537    197.7942    182.8772   1.0626137991e+02   6.3661573932e+00     0.399162    0.1815354 -52.81  0.001477905    3.472    0.712
        71 -11.1657    210.8239    182.0191   1.0358543056e+02   4.0493749004e+00    0.4005955    0.2274218 -33.18  0.001332655    1.850    0.459
        72 -10.9759    183.5196    182.7554   1.0908740125e+02   9.1289954882e+00    0.3063826    0.1385796 -44.40  0.001272136    2.439    0.590
        73 -10.5571    210.2100    189.0092   1.0504570586e+02   3.0694746405e+00    0.2668466    0.1751177 -42.74 0.0008273641    1.730    0.422
        74 -10.0761    176.5307    181.0460   1.1019716765e+02   1.0789199863e+01    0.2057547    0.1402338 -41.29  0.001034115    1.601    0.375
        75 -10.7291    190.9334    178.9896   1.0686834786e+02   8.3420152866e+00    0.2783695    0.1952701 -38.31  0.001443027    1.527    0.345
        76 -10.6512    204.9763    176.9566   1.0370556495e+02   5.9706908407e+00    0.2680173    0.1910066 -35.00 0.0008245587    1.465    0.317
        77 -10.3420    215.5038    173.0080   1.0091159184e+02   4.6039524143e+00    0.2449267    0.1300712 -40.62 0.0007385261    1.984    0.496
        78 -10.4280    197.5137    176.4886   1.0506883063e+02   7.4890157305e+00    0.2705176    0.1370799 -39.46  0.001189086    2.091    0.522
        79 -10.5232    210.4635    175.2982   1.0232370853e+02   5.1930159699e+00     0.299544    0.1319389 -39.71 0.0009502263    2.369    0.578
        80 -10.2442    182.4715    175.5110   1.0790659999e+02   1.0612839334e+01    0.2439137    0.1340711 -29.89  0.001031233    2.274    0.560
        81  -9.9996    101.0038    176.0016   1.2604075218e+02   2.5865477366e+01    0.1963233    0.1729843  70.14            0    1.003    0.003
        82  -9.8395    192.5156    172.9884   1.0536576859e+02   9.0696283452e+00    0.2087242     0.139025 -36.45  0.001001739    1.588    0.370
        83  -9.4673    187.4763    172.4741   1.0628141145e+02   1.0160141568e+01     0.142017    0.1308751  27.79 4.440638e-05    1.009    0.009
        84 -10.5965    205.1975    169.1798   1.0209179085e+02   7.2210271651e+00    0.3529859     0.200489 -41.93  0.001403856    1.868    0.465
        85 -11.1729    218.6850    167.9723   9.9288750909e+01   4.8058872361e+00     0.412811    0.2604693 -31.61  0.001432186    1.594    0.372
        86 -10.0657    211.9052    169.2948   1.0083098234e+02   5.8947933800e+00    0.2310891    0.1822591 -40.83 0.0007377645    1.371    0.271
        87 -10.3652    178.6805    168.5295   1.0730533819e+02   1.2641911903e+01    0.2498613    0.1339424 -42.49   0.00107874    1.988    0.497
        88 -10.6674    229.1065    165.6758   9.6919005962e+01   3.1997578373e+00    0.3098651    0.2342895 -17.11 0.0009423053    1.297    0.229
        89  -9.4981    225.6761    164.3236   9.7252402201e+01   4.0568519590e+00    0.2332425    0.1620286 -40.49  0.001190909    1.518    0.341
        90 -10.5500    191.5422    165.1739   1.0396843760e+02   1.0642326519e+01    0.3335024    0.1412221 -37.97  0.001281046    2.521    0.603
        91 -10.1472    199.5014    164.4695   1.0222995983e+02   9.1582949365e+00    0.2829691    0.1395162 -38.54  0.001192184    2.100    0.524
        92  -9.7566    184.4995    165.0420   1.0538224519e+02   1.2099672510e+01    0.2143443    0.1432121 -38.86  0.001027332    1.577    0.366
        93 -11.1116    212.9075    162.4496   9.9215579362e+01   6.8302130579e+00    0.4365692    0.2097607 -37.83  0.001859947    2.103    0.524
        94 -10.6092    221.0848    161.5556   9.7505468714e+01   5.3789654360e+00    0.2753588     0.200992 -31.56 0.0008989843    1.352    0.260
        95 -10.8566    226.4911    156.9930   9.5555066319e+01   5.0684492395e+00    0.3887458    0.2102029 -35.46  0.001191424    1.806    0.446
        96 -10.7014    228.5155    151.0117   9.3903108416e+01   5.6372538326e+00    0.5144274    0.1953333 -31.41   0.00190382    2.790    0.642
        97  -9.6372    176.5916    159.2081   1.0582413255e+02   1.4820268276e+01      0.20908     0.140115 -30.04 0.0009592574    1.703    0.413
        98 -10.3017    222.0000    156.0368   9.6160989227e+01   6.0983178978e+00     0.326578    0.1223837 -39.15  0.001110791    2.640    0.621
        99 -10.3844    221.3752    152.2065   9.5444820342e+01   6.8511668186e+00    0.2503769    0.1921723 -17.78 0.0008683846    1.315    0.240
       100 -10.4199    216.1395    156.2307   9.7282325373e+01   7.2260823131e+00    0.3054043    0.1923277 -39.64  0.001172815    1.612    0.380
       101 -10.2631    197.0576    156.6560   1.0105621466e+02   1.1033602622e+01    0.2880881    0.2088772 -27.74   0.00143472    1.455    0.313
       102  -9.6708    187.5807    155.2338   1.0267170400e+02   1.3266931404e+01    0.2080209    0.1393835 -27.13 0.0009537722    1.689    0.408
       103  -9.7919    205.6483    154.1365   9.8820590862e+01   9.7070280444e+00     0.204795     0.131052 -26.58  0.000943684    1.692    0.409
       104 -10.2452    215.2236    148.8556   9.5841295634e+01   8.6530934929e+00    0.2960418    0.1860726 -46.12  0.001384133    1.734    0.423
       105 -10.7742    223.3979    146.5031   9.3824431391e+01   7.3897613320e+00     0.322237    0.2356408 -30.46  0.001665984    1.321    0.243
       106  -9.8509    207.6606    144.8172   9.6367001495e+01   1.0918785122e+01    0.2095029    0.1294851 -44.73 0.0009464031    1.700    0.412
       107  -9.4681    218.4966    144.4711   9.4260494321e+01   8.7260456021e+00    0.1422549    0.1330188  -2.11 0.0001512874    1.010    0.010
       108 -10.9531    229.9914    140.6311   9.1350742166e+01   7.0303593527e+00    0.3982976    0.1894703 -39.44  0.001499004    2.030    0.507
       109 -10.5837    205.2218    161.3732   1.0045859687e+02   8.5426187088e+00    0.3420407     0.208559 -39.88  0.001587648    1.689    0.408
       110 -10.6074    238.4766    140.5665   8.9892323813e+01   5.3623172822e+00    0.2646397    0.2072866 -40.23 0.0008231059    1.290    0.225
       111 -10.1195    224.3065    140.0170   9.2210390188e+01   8.2833762718e+00    0.2107185    0.1670777 -32.19 0.0008838205    1.211    0.174
       112 -10.2425    218.5969    138.0242   9.2783351233e+01   9.7999612487e+00    0.3176486    0.1340982 -36.79  0.001223341    2.295    0.564
       113 -12.8928    247.8559    216.6844   1.0337420921e+02  -6.9608232733e+00    0.6511188    0.4915091 -44.44   0.00416846    1.946    0.486
       114 -11.2785    234.4460    135.3936   8.9410838376e+01   6.9879165648e+00    0.4553707    0.2389954 -41.25  0.001493424    1.866    0.464
       115 -10.4890    233.1169    129.6058   8.8316922618e+01   8.1983404147e+00    0.3816017    0.1886579 -35.41  0.001237915    1.892    0.472
       116 -12.7261    244.2522    202.7589   1.0150318286e+02  -4.6822137909e+00    0.8572484    0.5430589 -49.03  0.004409768    2.474    0.596
       117 -10.1884    225.5441    133.4542   9.0497414164e+01   9.1239374933e+00    0.2868733    0.1339335 -35.51  0.001171829    2.046    0.511
       118  -9.7548    179.4951    132.9978   9.9320569505e+01   1.9259057754e+01    0.2198918    0.1305746 -62.70 0.0008105486    2.562    0.610
       119 -10.2841    221.0600    129.0114   9.0257585227e+01   1.0815996113e+01    0.3091474    0.1766336 -49.45  0.001325001    1.995    0.499
       120 -10.6450    228.0260    125.2495   8.8168430379e+01   9.9741710034e+00    0.3210304    0.1904019 -40.15    0.0011864    1.615    0.381
       121  -9.3866    156.6424    248.3188   1.2450578563e+02   3.4368898109e+00    0.1216835   0.07952902  60.96 0.0007044764    1.758    0.431
       122  -9.8702    179.8370    124.9640   9.7303264144e+01   2.0746309938e+01    0.2589037    0.1758106 -64.72  0.001080796    1.980    0.495
       123 -10.7213    235.0069    123.2877   8.6546534862e+01   8.8400724532e+00    0.3146478    0.1746184 -42.03  0.001024289    1.744    0.427
       124  -9.6415    188.3010    123.6591   9.5216520153e+01   1.9056088520e+01    0.1554293    0.1214583 -75.43 0.0003942907    1.671    0.402
       125  -9.3994    203.3013    121.6650   9.1764769596e+01   1.6006852961e+01    0.1518249    0.1182907 -71.26 0.0005158134    1.658    0.397
       126  -9.6287    194.3001    121.6374   9.3508830402e+01   1.8060776091e+01    0.1568125    0.1197397 -72.02 0.0004582292    1.722    0.419
       127 -11.8779    230.6749    115.7398   8.5486229868e+01   1.0989697064e+01    0.6123591    0.1633438 -41.23  0.001904185    3.530    0.717
       128  -9.3788    157.3246    120.6570   1.0124805399e+02   2.6773689480e+01    0.1624365    0.1245053 -85.02 0.0007050784    1.734    0.423
       129  -9.9900    170.4829    235.0005   1.2019898936e+02   3.0921456166e+00    0.1599379    0.1246677 -43.39  0.001033819    1.594    0.373
       130 -12.2366    224.8882    177.6200   1.0011054347e+02   2.1390053134e+00     1.229015    0.3832596 -33.58  0.004390277    3.462    0.711
       131 -11.6581    234.7016    112.0535   8.3961670400e+01   1.0734980312e+01    0.2919401    0.2133045  69.42  0.001465889    1.698    0.411
       132  -9.8852    195.0000    113.9882   9.1461921404e+01   1.9315113709e+01    0.2517284   0.08577777 -37.71  0.000795843    2.897    0.655
       133 -10.6812    211.7293    227.4623   1.1147434930e+02  -2.6635131016e+00    0.2332483    0.1858042 -24.75  0.001090007    1.408    0.290
       134  -9.3067    196.3110    107.6754   8.9599992254e+01   2.0164163526e+01     0.156535    0.1197297 -72.39 0.0005229143    1.657    0.396
       135 -10.4882    222.4733    105.0164   8.4248768809e+01   1.4577316663e+01    0.3259959    0.1250841 -40.80  0.001144849    2.441    0.590
       136 -10.6681    198.9565    226.9800   1.1371977247e+02  -5.1217322327e-01     0.246057    0.1832433 -46.26  0.001100871    1.744    0.427
       137 -10.0666    184.5042    227.9447   1.1654966310e+02   1.7652387436e+00     0.163651    0.1252038 -40.10  0.001028045    1.584    0.369
       138 -10.5078    223.1115    226.6561   1.0931867709e+02  -4.3732339263e+00    0.2112412    0.1896605 -15.28  0.001002996    1.324    0.245
       139 -11.5258    216.1908    233.6361   1.1165719907e+02  -4.1543336885e+00     0.318669    0.3147241  27.32  0.001865601    1.460    0.315
       140  -9.9548    195.4837     97.9117   8.7216036449e+01   2.2125696193e+01    0.2362984    0.1476544 -38.38 0.0009633816    1.563    0.360
       141 -10.8612    205.8983    225.3081   1.1218475389e+02  -1.4306019704e+00    0.2767566    0.1792394 -39.63  0.001244962    1.850    0.459
       142 -10.4964    190.3866    226.0546   1.1516221313e+02   1.0456114951e+00    0.2626588    0.1497178 -40.58  0.001305206    2.094    0.522
       143  -9.9144    162.8056    227.5801   1.2060876832e+02   5.4930509042e+00    0.1842806   0.09946758  48.94 0.0009147404    1.666    0.400
       144  -9.4236    207.2615     94.6405   8.4219444547e+01   1.9871173846e+01    0.1558249    0.1116576 -61.81 0.0004223734    1.629    0.386
       145 -11.2189    216.9191    223.3719   1.0987996893e+02  -2.9696240562e+00    0.3387762    0.2518941 -52.32  0.001496618    2.042    0.510
       146  -9.8240    188.4964     92.9835   8.7235011310e+01   2.4712223421e+01    0.2384159    0.1497843 -38.37 0.0009734255    1.566    0.361
       147  -9.7355    177.4765     93.5084   8.9582613263e+01   2.7327894328e+01    0.1556877    0.1509822 -75.31  2.67015e-05    1.037    0.036
       148  -9.7400    210.1631     91.1834   8.2822858540e+01   1.9769025347e+01    0.2127207    0.1713647 -63.09 0.0007524697    1.346    0.257
       149  -9.4189    196.6969     91.6868   8.5337531693e+01   2.2934429380e+01    0.1535407    0.1204642  15.19 0.0006343767    1.614    0.381
       150 -10.6309    180.4173    223.1787   1.1659685190e+02   3.1539449462e+00    0.2572417    0.1258292 -46.47  0.001263881    2.520    0.603
       151 -10.0078    163.7606     86.9675   9.0662108082e+01   3.1933685972e+01    0.2125586    0.1323911 -37.07 0.0008846129    1.623    0.384
       152 -10.4463    147.7451    223.3593   1.2293595308e+02   8.7318047766e+00    0.2120759    0.1589441 -70.91  0.001262943    1.722    0.419
       153  -9.8617    174.5794    222.7830   1.1765062825e+02   4.2150392310e+00    0.1551148    0.1243013 -62.86 0.0009474098    1.679    0.405
       154 -10.0147    205.9121     85.0712   8.1945378772e+01   2.1823962512e+01    0.2362238     0.194834 -60.14 0.0007292287    1.259    0.206
       155  -9.9737    171.0000     83.9481   8.8239883524e+01   3.0690335115e+01    0.2547512   0.08883625 -36.54 0.0007935806    2.881    0.653
       156 -10.2421    185.6712    221.5874   1.1535427538e+02   2.4897498561e+00    0.2187695    0.1556917 -42.74  0.001239845    1.691    0.409
       157  -9.8378    193.4357     82.9923   8.3584022018e+01   2.5247910670e+01    0.2376735    0.1471253 -36.41  0.001023348    1.589    0.371
       158  -9.8495    185.5168     82.9778   8.5058726252e+01   2.7227010004e+01    0.2382389    0.1502527 -37.14 0.0007947285    1.570    0.363
       159 -10.3480    159.1363     82.1394   9.0281159113e+01   3.3975816106e+01    0.2250692    0.1854419 -63.50 0.0009263187    1.337    0.252
       160 -11.6523    219.8743     80.1856   7.8415077933e+01   1.9268068036e+01    0.4313386    0.1068458 -30.11  0.001091379    5.147    0.806
       161 -10.2036    142.5142     81.4978   9.3990434821e+01   3.8145266365e+01    0.1535716    0.1525544  41.04 0.0008105154    1.005    0.005
       162 -10.4905    150.6207     79.2188   9.1356704427e+01   3.6614684569e+01    0.2214696     0.150351 -26.63  0.000950265    1.654    0.396
       163 -10.1485    201.1195     77.8859   8.0838478764e+01   2.4199434254e+01    0.2392122    0.1974051 -62.36 0.0006522909    1.260    0.206
       164  -9.8176    189.0000     77.9696   8.3006690255e+01   2.7215582614e+01    0.2509945   0.08649655 -34.63 0.0007946017    2.888    0.654
       165 -10.2192    174.5946     77.7622   8.5718610553e+01   3.0889362764e+01    0.2251413    0.1405155 -46.45  0.000947807    1.641    0.391
       166 -10.2450    166.9613     77.4970   8.7212620416e+01   3.2862652803e+01    0.2548617    0.2077945 -36.71  0.001223717    1.240    0.193
       167 -10.2136    211.3582     76.3788   7.8752299013e+01   2.1927245904e+01    0.3293231    0.1900458 -36.61   0.00076668    1.653    0.395
       168 -10.1600    210.6223     71.7994   7.7656288012e+01   2.2837851893e+01    0.2197961    0.1261737 -43.98 0.0009467369    1.675    0.403
       169  -9.9672    157.3803     75.7612   8.8769828297e+01   3.5575432737e+01    0.2190874    0.1507562 -24.88 0.0009391837    1.645    0.392
       170 -11.4870    214.9618     80.2813   7.9203792739e+01   2.0425478763e+01    0.2862192    0.2149363 -28.54 0.0007237206    1.356    0.262
       171 -10.0662    206.4471     73.9894   7.8903677850e+01   2.3516524097e+01    0.2280483    0.1423377 -35.39 0.0006384987    1.558    0.358
       172  -9.6129    195.3050     72.6760   8.0408628565e+01   2.6510103009e+01    0.1587222    0.1136256 -67.47 0.0004380213    1.642    0.391
       173 -10.3697    163.4612     71.4956   8.6162192056e+01   3.4799292975e+01     0.321736    0.1528528 -35.29  0.001198842    2.135    0.532
       174 -11.0926    212.4698     66.0136   7.5839224218e+01   2.3285886291e+01    0.2814703    0.1328751 -37.75 0.0007229304    1.980    0.495
       175 -10.4474    203.2267     66.4448   7.7380309865e+01   2.5515691779e+01    0.2865957    0.2034638 -35.63   0.00104751    1.385    0.278
       176 -10.5501    145.8649     66.5655   8.8544763806e+01   4.0061859799e+01     0.269963    0.1819844 -40.73  0.001209579    1.503    0.335
       177  -9.7493    208.4318     64.0125   7.5912870627e+01   2.4592213964e+01    0.2271346    0.1396029 -34.94  0.001020787    1.585    0.369
       178 -11.1812    202.0907    218.5444   1.1178863362e+02   1.3186414491e-01    0.4159002    0.2491197 -46.26  0.002254928    2.138    0.532
       179 -10.1784    171.2290     63.9457   8.2306780288e+01   3.4084618899e+01    0.2075358     0.126447 -35.40  0.000879314    1.657    0.396
       180  -9.5654    170.4970     70.4789   8.4406076871e+01   3.3185626577e+01    0.1538452    0.1492904 -89.90 0.0001234348    1.017    0.017
       181 -10.2420    157.6804     61.5067   8.4312621384e+01   3.7951949345e+01    0.2732312    0.1417729 -33.92  0.001074717    1.973    0.493
       182 -10.3496    206.7752     58.5317   7.4682357485e+01   2.5835130124e+01    0.2774144      0.19793 -33.97 0.0009590008    1.395    0.283
       183 -11.1987    193.4045    219.0259   1.1348872594e+02   1.5399475854e+00    0.3105162    0.2661467 -62.46  0.001598987    1.635    0.388
       184  -9.3405    169.3219     55.3292   8.0055507180e+01   3.5941320723e+01    0.1579591    0.1161011  25.92 0.0007048959    1.693    0.409
       185 -10.9191    221.9459     71.0145   7.5752392247e+01   2.0216855535e+01    0.2210757     0.205793 -41.76 0.0006205383    1.061    0.057
       186 -10.8549    210.6889    218.3831   1.1018062192e+02  -1.2867025066e+00    0.2771979    0.2056976 -33.60  0.001150158    1.537    0.349
       187  -9.7610    163.3111     52.6720   8.0389044604e+01   3.7902753221e+01    0.1580643    0.1148377 -69.05 0.0004770054    1.665    0.399
       188  -9.8424    158.5115    219.4996   1.2027862250e+02   7.5109206891e+00    0.1303266    0.1085622  42.54 0.0008105745    1.008    0.007
       189 -12.0172    217.6718    213.2809   1.0804823407e+02  -1.7535008248e+00    0.5508849    0.3463041 -49.48  0.002960815    2.302    0.566
       190 -11.1110    217.3283    204.6894   1.0660638435e+02  -5.0622777686e-01    0.3079551    0.2204137 -32.62  0.001128154    1.515    0.340
       191 -10.7840    170.5471    216.7548   1.1751125767e+02   5.8507220088e+00    0.2716846    0.1304357 -47.92  0.001287687    2.521    0.603
