#   1 NUMBER                 Running object number                                     
#   2 MAG_AUTO               Kron-like elliptical aperture magnitude                    [mag]
#   3 X_IMAGE                Object position along x                                    [pixel]
#   4 Y_IMAGE                Object position along y                                    [pixel]
#   5 X_WORLD                Barycenter position along world x axis                     [deg]
#   6 Y_WORLD                Barycenter position along world y axis                     [deg]
#   7 A_WORLD                Profile RMS along major axis (world units)                 [deg]
#   8 B_WORLD                Profile RMS along minor axis (world units)                 [deg]
#   9 THETA_WORLD            Position angle (CCW/world-x)                               [deg]
#  10 FWHM_WORLD             FWHM assuming a gaussian core                              [deg]
#  11 ELONGATION             A_IMAGE/B_IMAGE                                           
#  12 ELLIPTICITY            1 - B_IMAGE/A_IMAGE                                       
         1 -13.0068     48.2696     99.0712   1.1073724124e+02   4.9679983982e+01     3.190696      1.00195 -46.65   0.01211063    3.507    0.715
         2 -12.4990     53.4554      5.5405   7.9695525432e+01   6.6883952236e+01     1.219617     0.764747  26.73  0.004469515    1.628    0.386
         3 -12.9369     54.7996     67.9591   1.0194388527e+02   5.5695567521e+01     1.996502      1.52781  43.84  0.007999242    1.583    0.368
         4 -13.1391    145.9660     53.3911   7.1300422657e+01   4.2016082741e+01     2.023803     1.197515  74.29  0.001028895    2.642    0.621
         5 -11.5276     94.0226     21.7976   7.3181507444e+01   5.8025203043e+01    0.9991415    0.4843218  44.93  0.001451442    2.071    0.517
         6 -12.5878     28.0309     23.2968   9.7769272255e+01   6.7007507424e+01      1.91447    0.6262104 -43.88  0.007351715    2.290    0.563
         7 -11.8950     25.0707      5.3137   9.1618294106e+01   7.0223861925e+01    0.7736934    0.5383961  31.76  0.005423595    1.825    0.452
         8 -13.5491     94.4477     53.9819   8.5217412995e+01   5.2726199149e+01     3.975428     1.298329  42.48   0.01432134    3.322    0.699
         9 -11.8425     74.2891     47.0257   8.9182510927e+01   5.7284210514e+01     1.228326    0.5631117 -27.13    0.0046715    3.190    0.686
        10 -12.9096     54.7366     37.2305   9.2491520506e+01   6.1722370930e+01     1.792094    0.7311864  27.55  0.007864992    3.227    0.690
        11 -12.1995     49.9646     24.9142   8.9602246762e+01   6.4436318204e+01     0.705803     0.425315 -13.47  0.000889235    1.969    0.492
        12 -12.7805      8.6432     25.7687   1.0673920147e+02   6.7984640241e+01    0.7513885    0.5175001 -29.93  0.003858161    1.315    0.239
        13 -12.5985     19.4513     13.4586   9.7669775724e+01   6.9409612687e+01    0.7873678     0.666811  47.57  0.005425873    1.869    0.465
        14 -12.4194      3.2512     17.4402   1.0639715842e+02   6.9802739940e+01    0.2971916    0.1920402 -37.07 0.0003068144    1.199    0.166
        15 -13.5868      3.6894      9.6700   1.0345022899e+02   7.1135566347e+01    0.8983402    0.4352334 -38.91 0.0006558777    1.512    0.339
        16 -13.4273    142.6771     70.3596   7.7545559680e+01   3.9832614645e+01      4.60131     1.974782  53.06   0.01292962    2.452    0.592
        17 -13.0202     70.7869     30.5391   8.4256789457e+01   6.0676126348e+01     2.503778     1.085464  42.89   0.01144452    2.623    0.619
        18 -12.3126     14.8213     38.1067   1.0787316908e+02   6.5270609698e+01     1.080528    0.5086911 -48.90  0.002740509    1.534    0.348
        19 -11.3884     68.4018     18.1008   7.9923458000e+01   6.2956638474e+01    0.8897939    0.5897157 -16.58  0.003536003    1.417    0.294
        20 -11.5643     77.6009     62.4455   9.3139146518e+01   5.3832260434e+01      1.62668    0.4403585 -38.55  0.004563559    5.146    0.806
        21 -13.0863     17.0278     56.3818   1.1162472579e+02   6.1483239712e+01     1.489947     1.046908 -11.98  0.001040284    1.799    0.444
        22 -10.9305    129.6982     20.1003   6.3152897924e+01   5.0650861421e+01      2.74914    0.4487436  49.56  0.007624346    4.625    0.784
        23 -10.6578     94.7182     14.3098   6.9812488016e+01   5.8869881175e+01    0.2843017    0.2400511  36.99 0.0002768982    1.207    0.172
        24 -10.3547    131.4034     13.3771   6.0196216951e+01   5.1027082946e+01    0.5139391    0.2424568  52.54  0.001502378    1.924    0.480
        25 -12.5519     99.4859      7.5679   6.5556026961e+01   5.8709077211e+01     0.790335    0.6266189  46.49  0.002493359    1.285    0.222
        26 -11.0288    110.4384     17.2283   6.6710921586e+01   5.5306524173e+01    0.3805431    0.2909305  36.22 0.0003616343    1.238    0.192
        27 -10.3915    223.6784     10.2752   4.5096252953e+01   2.7647887961e+01    0.6117253    0.4485859  34.74  0.002894227    1.636    0.389
        28 -10.2425    214.2144     12.1649   4.6653990132e+01   2.9877094412e+01    0.6716482    0.3084882  79.36  0.002515608    2.425    0.588
        29 -11.1441    215.4695     24.0187   4.9841703585e+01   2.8201958856e+01    0.7321599    0.5772606 -19.81  0.001878742    1.362    0.266
        30 -10.4983    212.4570     17.0039   4.8226105303e+01   2.9798931377e+01    0.5201745    0.3632627  66.83  0.002271362    1.372    0.271
        31 -12.0525     41.6434     18.0409   9.0070272449e+01   6.6529383908e+01     1.393853    0.5638193 -38.95  0.005299473    2.015    0.504
        32  -9.8007    185.0083     14.0224   5.0947162437e+01   3.7342958543e+01    0.6323298    0.2456552  59.54  0.001943129    2.260    0.557
        33 -11.0392    181.1382     38.2080   5.9210503646e+01   3.5405274028e+01      1.27558    0.5749123 -42.20  0.004802001    2.309    0.567
        34  -9.6987    176.3327     14.8590   5.2503090747e+01   3.9536273584e+01    0.3091735    0.2345943  41.27 0.0006393935    1.324    0.245
        35 -10.4698    176.7530     21.4300   5.4569043445e+01   3.8685653004e+01     0.656301    0.4274917  -3.19  0.002958195    1.900    0.474
        36 -11.2989    178.1523     27.0967   5.6171189136e+01   3.7636451218e+01    0.6048843    0.4006247  35.89  0.002108301    1.657    0.396
        37 -10.4510    231.8583     19.1000   4.6587402795e+01   2.4591815907e+01    0.7571305    0.5911731  12.47  0.003728439    1.629    0.386
        38 -10.8077    243.5244     11.0064   4.3327106704e+01   2.2617358745e+01     1.076988    0.5404331 -12.31  0.004445944    2.787    0.641
        39 -10.7615    236.4133     32.1673   4.9538067932e+01   2.1875309462e+01    0.5947295    0.4164785  43.32  0.002981873    1.621    0.383
        40 -10.7762    239.7292     22.7742   4.6710353643e+01   2.2202088240e+01    0.8920428    0.4751115  -5.05  0.003444447    3.100    0.677
        41 -10.2248    233.1489     10.8448   4.4280595748e+01   2.5195195051e+01    0.3234321    0.2080112  88.79 0.0004096417    1.610    0.379
        42 -10.9411    199.4183      5.3942   4.6434745001e+01   3.4440813602e+01    0.6370392     0.414914 -38.85  0.002123344    1.552    0.356
        43  -8.8384    189.2173      8.3163   4.8594375921e+01   3.6829764173e+01    0.6496997    0.2840958  48.90  0.002270076    2.252    0.556
        44 -10.7621    173.4493      8.3866   5.0829624401e+01   4.0967128706e+01    0.4174924    0.2589294 -10.43  0.001935251    1.867    0.464
        45 -10.3374    181.2511      4.8658   4.8585458174e+01   3.9266997541e+01    0.6799676    0.3569746  73.23  0.001510393    1.885    0.470
        46  -9.5716    150.4485     10.1761   5.5229119844e+01   4.6706472014e+01    0.3034662    0.2138062  53.84   0.00103189    1.304    0.233
        47 -12.0264    166.4595     24.4270   5.7301878115e+01   4.1015190230e+01     1.086317     0.456024  57.92 0.0002674828    2.170    0.539
        48 -11.0224    157.3475     16.3835   5.6178680024e+01   4.4294476109e+01     1.411378    0.4582318 -33.17  0.004981108    2.939    0.660
        49 -10.3373    170.0225     13.9629   5.3199998930e+01   4.1284455870e+01    0.5817876     0.387486 -78.86  0.002497592    1.931    0.482
        50 -11.3502    164.0136      4.5474   5.0984263442e+01   4.3795079181e+01     1.136998    0.6680883 -15.05  0.004065494    1.886    0.470
        51  -9.9868    148.2105     23.8387   6.0559370985e+01   4.5726684477e+01    0.8256111    0.6076896  40.69  0.003224629    1.316    0.240
        52 -10.7877    150.3207     16.0376   5.7354086196e+01   4.6112552364e+01    0.8352312    0.4414541  41.09  0.002758631    1.909    0.476
        53 -10.6353    202.5981     18.1382   4.9792526005e+01   3.2249663429e+01    0.6887997    0.3515691  40.29  0.002484798    2.345    0.573
        54 -10.2867    233.9181      7.2870   4.3280724783e+01   2.5385855106e+01    0.2582458    0.2404923  40.12 0.0003132984    1.230    0.187
        55  -9.5394    141.7674     11.2641   5.7263281910e+01   4.8753330519e+01    0.2287245    0.1915274   1.16 0.0005635528    1.219    0.179
        56  99.0000    138.5936      8.2155   5.6747316558e+01   4.9842866869e+01    0.3500446     0.229862 -11.34 0.0006208445    1.626    0.385
        57 -10.7989    132.3454      4.4190   5.6541676132e+01   5.1722278442e+01    0.6756603    0.2986064  50.88   0.00222181    1.974    0.494
        58 -11.6925    112.2706      7.5272   6.2247398875e+01   5.6014382134e+01     1.193694    0.8614393  82.96  0.006107691    2.033    0.508
        59 -10.5938     77.5057      9.2263   7.2858670367e+01   6.2659247538e+01    0.2711801    0.2186483  -1.07 0.0006504382    1.055    0.052
        60  -9.1323    250.0562      7.8238   4.1953661849e+01   2.1390264918e+01    0.2920049    0.1785026 -57.44  0.001492109    1.575    0.365
        61 -10.2664    249.1159      1.7671   4.0557251654e+01   2.2257144024e+01    0.2614299    0.2138555 -63.43 0.0007255088    1.095    0.087
        62  -8.7016     78.6649      3.9614   7.0048721847e+01   6.3079607725e+01    0.5518593    0.1912112  34.05  0.002051482    3.639    0.725
        63 -11.6611    213.7004      4.9281   4.4688619082e+01   3.0767509154e+01    0.9001678    0.3395407  73.64   0.00244057    2.635    0.621
        64  -9.7343    222.8688      2.0503   4.2967363501e+01   2.8707076700e+01    0.3996696    0.1846423  60.44  0.001751106    2.020    0.505
        65 -10.0381     70.2607      3.2932   7.2495777412e+01   6.4599510392e+01     0.428074     0.326852  17.07  0.001885434    1.181    0.153
        66  -9.0466    230.0139      2.9500   4.2522668166e+01   2.6812775937e+01    0.2163016    0.1528257  38.92  0.001122634    1.699    0.411
        67  -9.6851    138.2764      4.3070   5.5335152520e+01   5.0301210421e+01    0.2143941     0.169287   8.61 0.0001911564    1.301    0.232
        68 -11.4915    113.0324     22.6279   6.8209177815e+01   5.4068910167e+01    0.6788399    0.5521749  74.54  0.002161808    1.606    0.377
        69 -10.7134    139.1984      1.3791   5.4057620266e+01   5.0345828869e+01    0.3199354    0.1855786  73.78 0.0003820535    1.943    0.485
        70  -9.6302    107.6619    248.4776   1.1721580763e+02   1.2616209820e+01    0.1875815     0.129687  82.61  0.001375968    1.457    0.314
        71  -9.7103    212.9400    249.6601   1.0054617082e+02  -3.9820441096e+00     0.158571    0.1110078  38.18 0.0005643585    1.062    0.059
        72  -9.0287    184.1876    250.4078   1.0523176398e+02   5.0719959744e-01    0.1662945   0.08162638  50.74  0.000952261    1.717    0.418
        73  -8.8378    161.7534    250.2365   1.0880823009e+02   4.1071063839e+00    0.1832367   0.07015111  38.53 0.0008878728    2.434    0.589
        74  -8.8239    217.4623    247.4898   9.9533159364e+01  -4.4699867584e+00     0.113628   0.08251145  32.44 0.0008089052    1.049    0.047
        75  -8.7688      3.5181    246.0042   1.3222128898e+02   2.5527616921e+01    0.1264358   0.06589191 -85.29 0.0009017853    1.593    0.372
        76 -12.7242     26.6470     79.8817   1.1335473015e+02   5.5851435891e+01     1.722256    0.8897934 -36.57   0.00920915    2.323    0.570
        77  -9.4688    206.1460    244.8200   1.0098053109e+02  -2.3884109431e+00    0.1600727    0.1055023  29.82 0.0006149949    1.326    0.246
        78 -12.5267     11.1684    111.4574   1.2215133786e+02   5.0189283840e+01    0.9606807    0.6154976 -23.97  0.005993206    2.558    0.609
        79 -12.1831     19.2105     99.8682   1.1866762006e+02   5.2101749458e+01      1.27118    0.6269588 -58.24  0.007419251    1.616    0.381
        80 -12.4217     42.7880     50.1524   1.0101638487e+02   6.0608313456e+01     1.551288    0.7253301  24.77  0.007830729    2.722    0.633
        81 -10.2900    189.8776    244.1472   1.0352518378e+02   3.1747615741e-01    0.2410236    0.1306605 -51.57  0.001406537    2.740    0.635
        82  -9.9343    142.3374    243.5607   1.1120552613e+02   8.0583876584e+00    0.2887691    0.1599766  34.30   0.00157905    2.043    0.511
        83  -9.3499    168.3959    242.1947   1.0679047472e+02   4.0555877014e+00    0.1330152    0.1074401 -73.46 0.0007902734    1.667    0.400
        84  -8.3017    210.9775    240.2145   9.9565678042e+01  -2.6636837030e+00    0.1357362    0.1236485  79.69  0.001022132    1.593    0.372
        85 -10.0950     14.7516    235.9981   1.3028723172e+02   2.6007580712e+01    0.3683612    0.1169958 -87.22  0.001058273    2.993    0.666
        86  -9.3761     12.9418    232.1895   1.3037545014e+02   2.6800683074e+01    0.1954509    0.1038272  65.89  0.001070542    1.300    0.231
        87  -8.7959     50.5043    235.5267   1.2504455520e+02   2.2188756263e+01    0.1030702   0.07134891  69.83 0.0002606202    1.010    0.010
        88  -8.6566    180.4872    234.5302   1.0381720655e+02   3.0380850659e+00    0.1182285    0.0909657  40.56  3.48057e-05    1.057    0.054
        89  -9.3092    227.2997    231.4289   9.5629449126e+01  -4.3567618538e+00    0.2097963     0.133265  34.29 0.0006175309    1.222    0.182
        90  -8.3567     83.7994    144.9606   1.0967090098e+02   3.5071623891e+01    0.1703539   0.09265174 -62.17 0.0006038224    1.699    0.412
        91 -10.6648     29.4648    143.7914   1.2148894467e+02   4.1800663494e+01     0.491285    0.2510957 -47.57  0.002654376    2.608    0.617
        92  -9.9761     27.8984    137.1943   1.2113770980e+02   4.3342437334e+01    0.2929102    0.1760689 -89.44 0.0003665162    1.434    0.303
        93 -10.3262     22.3175    137.2464   1.2235668930e+02   4.3827798828e+01    0.3004659    0.2250762 -48.11  0.002115023    1.680    0.405
        94  -9.2257     23.3091    133.3110   1.2173485429e+02   4.4575895389e+01    0.1764302    0.1313754 -68.67 0.0007363285    1.221    0.181
        95  -8.9901     98.0720    140.8329   1.0574623232e+02   3.3779818166e+01    0.2061939    0.1621715  83.41 0.0004873034    1.272    0.214
        96  -8.7201     80.4494    140.7562   1.0977435868e+02   3.6463025854e+01    0.1738527    0.1098588 -54.35 0.0006285891    1.566    0.361
        97  -9.6018     50.3994    138.8123   1.1633083926e+02   4.0708012894e+01      0.43711    0.1444424  50.56  0.001834529    3.370    0.703
        98 -10.4907     55.0332    137.9724   1.1517197975e+02   4.0359492668e+01    0.2906905    0.2098765 -43.52  0.001569906    1.764    0.433
        99  -9.6757     63.1549    138.6422   1.1341432797e+02   3.9233282122e+01    0.2414441   0.09371345  46.23  0.001010495    2.625    0.619
       100  -9.1255     33.4667    136.4919   1.1983422958e+02   4.2970507833e+01    0.1953389   0.08018755 -61.18 0.0001868314    2.036    0.509
       101  -9.3935    237.0226    135.5022   7.5734217244e+01   6.4514781778e+00    0.2134025    0.1350601  47.10  0.001027735    1.580    0.367
       102  -9.5215     86.4582    134.1900   1.0729789304e+02   3.7018901967e+01    0.2653089    0.2376848   0.95  0.001106683    1.554    0.357
       103 -11.5613     47.1526    128.7475   1.1573734228e+02   4.3254265206e+01    0.6931027    0.3154167 -64.19  0.003191119    1.805    0.446
       104  -9.2839     63.9946    113.9279   1.0926478075e+02   4.4577989765e+01    0.2957616    0.1772399  48.58  0.001371735    1.835    0.455
       105  -9.8716     65.8390    130.6049   1.1159028506e+02   4.0653874166e+01    0.2491452    0.1639893 -61.25 0.0004932539    1.353    0.261
       106 -11.6395     67.5248    122.0321   1.0978702781e+02   4.2331901008e+01    0.9158113     0.427677 -45.59  0.004106784    2.492    0.599
       107 -11.2879     59.2618    121.3245   1.1171040548e+02   4.3514014378e+01      0.68164    0.2616707 -52.37  0.003013681    2.429    0.588
       108 -10.0577     35.1356    129.9297   1.1868508015e+02   4.4221808193e+01    0.2648565    0.1309731 -81.07  0.001106426    1.868    0.465
       109  -9.8439     72.8146    129.2363   1.0970589715e+02   4.0042576298e+01    0.2402609    0.1876099 -84.40 0.0004071043    1.176    0.150
       110  -8.7995    218.7814    230.3828   9.6865340986e+01  -2.8500697358e+00    0.1725321   0.08488445  36.46 0.0009459569    1.649    0.394
       111  -9.3109     22.2073    128.5819   1.2147484896e+02   4.5677573543e+01    0.2179669     0.156896 -71.49 0.0007383527    1.155    0.135
       112 -10.0389     25.8506    127.0507   1.2047509364e+02   4.5693412103e+01    0.4090988    0.2166332 -64.16  0.002196409    1.537    0.349
       113 -12.6714     10.7999    130.4604   1.2419714069e+02   4.6188810909e+01     1.448746    0.6246703 -57.21  0.004284548    2.152    0.535
       114 -11.2921     40.1467    126.0839   1.1702857709e+02   4.4564506074e+01    0.3868955    0.2417914 -74.78  0.002122208    1.311    0.237
       115  -8.5512     80.1973    125.1913   1.0722251764e+02   3.9912143142e+01    0.1752882    0.1385739  79.01 0.0002678611    1.285    0.222
       116  -9.0396     75.3622    124.8909   1.0835185862e+02   4.0655939676e+01    0.2431301    0.1617413  61.60 0.0008271085    1.642    0.391
       117 -10.0935     97.3669    114.0442   1.0075360525e+02   3.9745176538e+01    0.4082842    0.2789203   0.23  0.001736499    2.979    0.664
       118  -9.8380     91.7166    113.7276   1.0212327670e+02   4.0721574146e+01    0.6450746     0.334339 -55.41   0.00297688    1.765    0.433
       119  -8.9958    132.0226    119.6418   9.3488433616e+01   3.2219493179e+01    0.2024771    0.1878624  50.96 0.0005649151    1.099    0.090
       120  -8.3357     77.5073    120.4172   1.0702266755e+02   4.1349556254e+01    0.1297129    0.1153211 -69.20 5.955379e-05    1.070    0.065
       121  -9.8884    104.4301    117.2904   9.9674369529e+01   3.7850233928e+01    0.4823727    0.3206243  89.06  0.002196338    2.131    0.531
       122  -9.4671     50.4503    117.6577   1.1331351498e+02   4.5334792261e+01    0.3111435     0.129206 -54.24  0.001475661    2.132    0.531
       123 -10.0206     82.8809    114.4987   1.0453613077e+02   4.1892733779e+01    0.3732912    0.2458336  24.99  0.001028239    2.080    0.519
       124  -9.0601    202.2239    229.0188   9.9413132497e+01   6.9557097829e-02    0.1999239    0.1342494  41.56 0.0003437268    1.171    0.146
       125  -9.6954     58.9186    112.9215   1.1038928980e+02   4.5418395628e+01    0.4084332    0.1847813 -45.22  0.001827829    2.530    0.605
       126  -9.6752    132.5113    111.7111   9.1498630180e+01   3.3786448156e+01    0.3852517    0.3549484 -89.73  0.002130648    1.112    0.101
       127  -9.9398    107.8908    109.8926   9.7162777552e+01   3.8859936196e+01    0.3817552    0.2077578 -45.17  0.001693838    1.818    0.450
       128  -8.4597    104.3992    109.1977   9.7892754817e+01   3.9622198087e+01    0.1985676    0.1268963 -63.26 0.0005356181    1.622    0.383
       129  -9.1845     81.3748     97.0788   1.0121891191e+02   4.5963035511e+01    0.2470649    0.1836255  32.18 0.0008945976    1.582    0.368
       130 -10.1328     88.9820     98.1266   9.9387459539e+01   4.4582030074e+01    0.5994747    0.4131157 -35.64  0.003071679    1.634    0.388
       131 -10.7401     67.9075    106.9616   1.0694687137e+02   4.5630693988e+01    0.6332054     0.389664 -31.25  0.003049757    2.417    0.586
       132  -9.9849     74.4317    107.2470   1.0527844376e+02   4.4699993700e+01    0.3865607    0.2603931  36.34  0.001643927    1.713    0.416
       133 -10.8791     77.5925    102.0725   1.0335623216e+02   4.5406977809e+01    0.6527929    0.3402054  37.74  0.002511891    2.168    0.539
       134 -11.0264     88.5036     89.9167   9.7525971932e+01   4.6440384313e+01    0.6720349    0.3309367 -48.57  0.002321483    1.827    0.453
       135  -9.5564     92.9717     88.9693   9.6040484975e+01   4.5928474988e+01    0.2938563    0.2357738  76.85 0.0009176327    1.529    0.346
       136  -9.4846    149.1398    106.8066   8.6336210584e+01   3.1282858504e+01    0.5057833    0.1859469 -37.06  0.001613165    3.149    0.682
       137  -9.4514    113.8560    107.3898   9.5065214509e+01   3.8322947777e+01    0.2491843    0.1917073 -62.17 0.0005906983    1.296    0.228
       138  -9.9114    133.9791    103.4495   8.9081666838e+01   3.5208202477e+01    0.4843047     0.222685 -45.58  0.001559829    2.124    0.529
       139  -9.9054    141.5382    102.9182   8.7120868631e+01   3.3721785274e+01    0.3534422    0.2751706 -34.26  0.001023495    1.340    0.254
       140 -10.0945    171.4431    102.5287   8.0218227812e+01   2.7042672892e+01    0.4271677    0.2733781  30.67  0.001771504    1.931    0.482
       141 -10.6932    116.7973     99.9789   9.2492760492e+01   3.9356868173e+01    0.5810876    0.3776425   4.22  0.002145462    3.391    0.705
       142  -9.6610     50.1815    227.6527   1.2458842195e+02   2.3519581542e+01    0.1796433    0.1163541  89.58 0.0008244961    1.315    0.239
       143 -10.6573      4.5252     99.6746   1.2243522985e+02   5.3133388029e+01     0.397551    0.1811943 -61.11  0.002364051    1.664    0.399
       144  -8.2508    178.3451    100.2913   7.8154142071e+01   2.5828884621e+01    0.1597237    0.1204636  17.74 0.0006369771    1.659    0.397
       145  -9.0313    111.1124    225.2138   1.1445350227e+02   1.5649989572e+01    0.2329179    0.1240762  58.74  0.001360803    1.620    0.383
       146  -9.6310    160.1147     97.1698   8.1274521124e+01   3.0713768297e+01    0.4785942    0.2873631  36.51  0.001480728    1.900    0.474
       147  -9.8008    156.5596     94.6740   8.1397778122e+01   3.2018719751e+01    0.3691551    0.3353442 -81.54  0.001553299    1.208    0.172
       148  -8.9505    147.4962     97.7987   8.4351468463e+01   3.3454139645e+01    0.3273389    0.2141354 -59.28  0.001201036    1.815    0.449
       149  -9.2417     63.2411     98.0665   1.0642825726e+02   4.8191256876e+01    0.2822392    0.1853414  46.44  0.001574793    1.732    0.423
       150  -8.5977    105.4792    102.9782   9.6158460181e+01   4.0785076295e+01    0.2137182    0.1312882 -48.88 0.0006418196    1.527    0.345
       151 -10.0600    114.0952     95.1732   9.1956108532e+01   4.0886765315e+01    0.4523899     0.201695  48.35  0.001765243    2.431    0.589
       152 -11.1607    124.5853     92.6889   8.8587815940e+01   3.9359708737e+01    0.5935335    0.5025035 -80.96  0.003101689    1.360    0.265
       153 -10.8269    119.7153     86.6938   8.8195857333e+01   4.1567650320e+01    0.6806049    0.2697927  45.93  0.002494263    2.652    0.623
       154 -10.4334    124.6071     82.9403   8.5857375446e+01   4.1343263314e+01    0.8334669    0.3599876 -55.27  0.002756282    3.202    0.688
       155 -11.0352    100.0782     69.5239   8.8561910640e+01   4.8745756637e+01    0.6745662    0.5984866  18.25  0.003365133    1.225    0.184
       156  -9.7704    111.9433     81.2882   8.8732700975e+01   4.4184091365e+01    0.4231117    0.2555793 -58.27 0.0003374133    1.904    0.475
       157 -11.3009    104.3778     79.4314   9.0274187930e+01   4.5969616391e+01    0.9410776    0.4888269 -32.23  0.003772726    2.368    0.578
       158 -10.5060     98.6607     77.3506   9.1282323566e+01   4.7412291768e+01    0.3927021    0.3535566  -8.85  0.001340964    1.208    0.172
       159 -10.2053    103.5372     92.3702   9.4027255410e+01   4.3407826742e+01    0.3800869     0.271451  44.36  0.001096477    1.506    0.336
       160 -11.1726    107.0821     87.2580   9.1713996553e+01   4.3853732231e+01     0.746862     0.558799  -3.40  0.003600913    1.918    0.479
       161  -8.8167     77.9134     93.2640   1.0129656514e+02   4.7299064539e+01    0.3439543    0.2104489 -24.92  0.001326419    2.648    0.622
       162  -9.5127     74.0256     89.3894   1.0148450379e+02   4.8689651555e+01    0.6430651    0.1704672  41.16  0.002237964    4.122    0.757
       163 -10.1331     82.1658     89.0958   9.9102488703e+01   4.7586932766e+01    0.4589341    0.2489651 -58.19  0.001714226    1.755    0.430
       164  -8.3609    200.5103     90.5112   7.1094188108e+01   2.2190704226e+01    0.1524088    0.1500137 -36.01  0.000810296    1.031    0.031
       165  -9.5481    187.2203     89.7312   7.3457074763e+01   2.5596160433e+01    0.2584735    0.2350392 -27.15 0.0002697924    1.099    0.090
       166  -8.7671      9.6686     78.3564   1.1811021311e+02   5.7352758788e+01    0.2449721   0.09603049 -66.91 0.0009427101    1.858    0.462
       167 -10.2866      6.4958     84.9750   1.2000968990e+02   5.6138149914e+01    0.5494987    0.3157754 -57.24  0.003192561    1.387    0.279
       168 -10.3622      4.2801     76.5022   1.1939942222e+02   5.8053499821e+01    0.4041134    0.2335827  78.41  0.001661291    2.119    0.528
       169 -10.2352      5.9949     71.0747   1.1802666659e+02   5.9098376175e+01    0.2304955    0.2038892 -23.06 0.0009555814    1.426    0.299
       170  -8.5286    153.2380     87.5871   8.0176930384e+01   3.4154630754e+01    0.2229428    0.1424902  39.41 0.0009508192    1.678    0.404
       171  -8.8034    164.3145     85.9061   7.7192242907e+01   3.1865295825e+01     0.220891     0.195735 -23.09 0.0007098562    1.159    0.137
       172 -10.2980    160.6736     81.6837   7.6779986065e+01   3.3519774167e+01    0.5428452    0.3918083  44.37  0.002183394    1.404    0.288
       173 -10.2290     82.5619     82.1954   9.7236206637e+01   4.9009547597e+01    0.5553232    0.2598493 -58.26  0.002332663    2.224    0.550
       174 -10.4280    216.5981     80.7194   6.5556508846e+01   1.9845949512e+01    0.5414122    0.3080651 -34.60  0.002133187    1.689    0.408
       175  -8.9915    188.3109     79.6644   7.0409588932e+01   2.7083301637e+01    0.3744651    0.2945727 -78.46  0.001733841    1.600    0.375
       176  -8.5440    192.8682     75.2866   6.8281547142e+01   2.6677884562e+01    0.4624315    0.2367774  28.52  0.001447462    3.496    0.714
       177  -9.5370    179.1405     80.5470   7.2495895644e+01   2.9217521250e+01    0.3550881    0.2803515  62.60  0.001350742    1.335    0.251
       178  -9.3127    247.7030     75.6769   5.9417017157e+01   1.3158080985e+01    0.2991927    0.1893224 -60.72 0.0009126434    2.023    0.506
       179  -9.5424    163.6614     75.1280   7.4179269515e+01   3.3992429233e+01    0.2761455    0.2297657 -77.59 0.0005940196    1.447    0.309
       180  -9.7970      1.8436     84.0998   1.2118244886e+02   5.6585520395e+01    0.2366943    0.1292296 -77.86  0.001489046    1.459    0.315
       181  -8.7055    219.4346     74.7405   6.3460370302e+01   2.0090829347e+01     0.291253    0.1347027 -36.86 0.0009572975    2.040    0.510
       182  -8.9015    213.5134     74.5172   6.4381539374e+01   2.1600407708e+01    0.3061106    0.1405503 -35.26  0.001141907    2.070    0.517
       183  -8.3771    215.6429     71.6661   6.3239833868e+01   2.1516011100e+01     0.215409    0.1560443  -9.13 0.0006646631    1.632    0.387
       184  -8.6353    204.0158     75.5118   6.6303203757e+01   2.3825835084e+01    0.2381131    0.1519224  56.90  0.001032673    1.590    0.371
       185  -8.2519    136.6782    224.3117   1.0998413863e+02   1.1756391203e+01    0.1202987   0.07696241  68.25 0.0007038108    1.652    0.395
       186  -9.1855    178.7324     69.1708   6.9235673020e+01   3.1280624031e+01    0.3277851     0.236927  28.97 0.0009670774    1.610    0.379
       187  -8.9860     41.0138    221.0211   1.2558943945e+02   2.5701468116e+01     0.137637    0.1176836 -65.29  0.001133382    1.752    0.429
       188 -10.1191    163.6239     67.8155   7.1967804240e+01   3.5288426859e+01    0.4413279    0.3242075 -67.48   0.00196341    1.759    0.431
       189  -8.9040    159.1518     58.0874   6.9882779037e+01   3.8036366734e+01     0.306332    0.2308627  16.06  0.001004748    1.606    0.377
       190 -10.7272    159.2758     41.8137   6.4522511263e+01   4.0534215994e+01    0.8874288    0.6009607  11.32  0.003587954    1.946    0.486
       191  -9.5783    152.8090     44.0615   6.6638184950e+01   4.1817533781e+01    0.3901117    0.2492235 -26.63  0.001314291    1.600    0.375
       192 -10.2973    160.0282     51.0228   6.7410700866e+01   3.8953736980e+01    0.5356693    0.4280697 -43.80  0.001846293    1.293    0.227
       193 -10.1735    165.5935     62.3964   6.9866763717e+01   3.5720546782e+01    0.4656816     0.393631 -31.01  0.001291738    1.180    0.153
       194 -10.0361    165.9236     55.0843   6.7489959816e+01   3.6830932227e+01     0.689162    0.3460041 -37.32  0.002714384    1.959    0.489
       195  -9.5873     84.3719     68.1932   9.2790238723e+01   5.1644781057e+01    0.2753405    0.2149415 -30.99  0.000898792    1.256    0.204
       196  -9.9104    250.4966     65.0301   5.6325351832e+01   1.4044396579e+01    0.5668967    0.1372157 -29.26  0.001651597    4.006    0.750
       197 -10.2798     92.0056     77.7317   9.3293174506e+01   4.8460571898e+01    0.5601388    0.3431146  27.96  0.002215516    2.070    0.517
       198 -11.2231     67.0729     62.5961   9.6519933471e+01   5.5282926600e+01    0.2457382     0.199877 -44.08 0.0003486346    1.050    0.048
       199 -11.4894      5.0690    143.9772   1.2655307998e+02   4.3819614420e+01    0.5195052     0.286823 -74.54  0.001428558    1.381    0.276
       200  -9.4197    200.9125     59.7290   6.2328342400e+01   2.7114676559e+01    0.3383235    0.3095751  29.05  0.001665613    1.143    0.125
       201 -10.5542    174.1158     56.5566   6.6299032476e+01   3.4516388114e+01    0.8812485    0.7134162   6.06  0.002678533    1.425    0.298
       202  -9.4264    174.9690     48.9869   6.3752636806e+01   3.5464671615e+01    0.4152115    0.3024083 -74.69  0.001497389    1.791    0.442
       203  -9.9865    170.9774     47.2147   6.3956944455e+01   3.6757356668e+01    0.5295078    0.2441917 -37.78  0.002014615    2.137    0.532
       204 -10.4143    185.1346     55.1603   6.3764850983e+01   3.1898091108e+01    0.5510984    0.3420687 -13.61  0.001786263    2.021    0.505
       205 -10.8032    182.0095     51.9616   6.3359271972e+01   3.3195440524e+01    0.9230185    0.4002129 -27.05  0.002853227    2.477    0.596
       206 -10.3168    222.5411     56.8066   5.8052991158e+01   2.2020863479e+01    0.4560966    0.3688487  56.81  0.002348749    1.260    0.206
       207  -8.9251    212.3680     59.1559   6.0273585102e+01   2.4258780660e+01    0.2938748    0.1966143  -4.97  0.001250277    1.964    0.491
       208  -8.8041    137.3127     59.3934   7.5346757879e+01   4.3023384172e+01    0.2757446    0.1389641  46.69 0.0007315592    2.001    0.500
       209  -9.3383    243.6295     55.0822   5.4664099081e+01   1.7065768850e+01    0.3126568    0.2846457 -53.63  0.001784169    1.061    0.057
       210  -8.9602    234.9096     54.7861   5.5745723982e+01   1.9227065071e+01    0.2817957    0.2049469 -85.22  0.001356201    1.650    0.394
       211  -8.7220    197.6668     54.7539   6.1422170499e+01   2.8708376580e+01     0.222616    0.2073108  36.91 0.0001603246    1.099    0.090
       212  -9.6240    193.8562     54.0944   6.1881981089e+01   2.9797023782e+01    0.3511215    0.2766013  64.78  0.000988222    1.291    0.226
       213  -9.4181    211.7853     50.7107   5.7962972409e+01   2.5644527168e+01    0.3890489    0.2948664   5.19   0.00184288    1.633    0.388
       214  -8.4171     65.8126     50.9916   9.3338145493e+01   5.7739603537e+01    0.1934709    0.1417655 -28.60  0.000490598    1.292    0.226
       215  -9.3871    224.9020     49.3720   5.5663491958e+01   2.2483066818e+01    0.2788963    0.2091745 -31.50  0.001391165    1.299    0.230
       216  -8.5245    195.9249     50.0000   6.0303615964e+01   2.9865196029e+01    0.2552505   0.08592705  60.87 0.0008050626    2.961    0.662
       217 -10.6501     96.4407     44.2288   8.1192653737e+01   5.4103356266e+01    0.6893572    0.4523145 -11.81  0.002591829    1.883    0.469
       218  -8.2791    234.0476    219.0156   9.2573135193e+01  -4.1074144161e+00    0.1461852     0.108605  31.01 0.0003555587    1.062    0.059
       219 -11.1650    104.6902     36.0128   7.5714988989e+01   5.3873582257e+01     1.191321    0.5446541  39.22  0.002309364    2.348    0.574
       220  -8.0900     95.5120    214.5318   1.1604154944e+02   1.9753620504e+01     0.117265   0.08866089  67.38 5.325291e-05    1.036    0.035
       221 -10.0241    125.5159     15.2516   6.2233964258e+01   5.2192205154e+01    0.3554358    0.2175422  35.92 0.0009793137    1.622    0.384
       222  -8.9786      3.3500    213.7489   1.3095315606e+02   3.0785207677e+01    0.1283407   0.06650524 -78.60 0.0008328354    1.635    0.389
       223  -8.5878    225.6222    211.8390   9.2798528084e+01  -1.8581408631e+00    0.1463212     0.113041 -41.15 0.0006041605    1.680    0.405
       224  -9.1534     26.3822    212.2126   1.2734958765e+02   2.8814514966e+01    0.1442076   0.07147349  87.68 0.0009504004    1.672    0.402
       225 -11.3292    113.4461     32.3962   7.1909888202e+01   5.2627685943e+01    0.2549261    0.2251913 -12.65 0.0003471122    1.062    0.058
       226 -10.6794    110.0397     30.0034   7.1909483132e+01   5.3687883845e+01    0.2916839    0.2136588  51.36 0.0007086141    1.453    0.312
       227  -9.2418    229.6451     45.6373   5.3994130752e+01   2.1803258223e+01    0.4121575    0.2723152  88.63  0.001806231    1.838    0.456
       228  -9.7818    244.5363    204.0275   8.8302078913e+01  -4.1698027376e+00    0.2305789     0.138366  27.13  0.001063771    1.488    0.328
       229 -10.1860    214.4120     41.6556   5.4990718932e+01   2.6227444390e+01    0.5334406    0.3247061  -0.11  0.002124709    2.476    0.596
       230 -10.3306    207.3839     46.0023   5.7282068435e+01   2.7451248365e+01    0.4104136    0.3620431  78.17 0.0005980566    1.156    0.135
       231 -10.4567    217.9367     35.2622   5.2692527636e+01   2.6163529948e+01    0.7524002    0.3647018  59.56  0.003109731    1.986    0.496
       232 -10.5371    211.2017     32.4495   5.2806349009e+01   2.8270825470e+01    0.5717131     0.497253  61.56   0.00206174    1.139    0.122
       233  -9.4123    203.9246     41.9296   5.6622713409e+01   2.8917527448e+01     0.281285    0.2498112 -78.69 0.0003067568    1.172    0.146
       234 -10.0705    202.2775     38.1569   5.5760491639e+01   2.9859402629e+01    0.4406406    0.3306295  19.22 0.0002715169    1.630    0.387
       235  -9.3275    234.4512    200.0793   8.9288860935e+01  -1.9704918127e+00    0.1972718      0.16635  43.57  0.001300021    1.292    0.226
       236  -8.1486    169.4899    200.4773   1.0088281656e+02   9.7707030583e+00    0.1287332    0.1081674  51.38 0.0008096479    1.051    0.048
       237  -9.2889     27.6565    193.8090   1.2598803436e+02   3.2009389973e+01    0.2071953   0.06856834 -67.71  0.001106608    2.623    0.619
       238  -9.0888    220.9968     46.5024   5.5419170699e+01   2.3873161373e+01    0.2435309    0.2091255  10.68 0.0007201636    1.333    0.250
       239  -9.2181    219.6357     42.9449   5.4616813499e+01   2.4708177165e+01     0.264715    0.2447457  48.20  0.000770025    1.126    0.112
       240 -10.3136     66.8567     43.4696   9.0437556808e+01   5.9005142407e+01     0.433511    0.2050705 -42.53  0.001085465    1.820    0.450
       241  -9.1696     11.1628    192.1033   1.2864014608e+02   3.3922309411e+01    0.1869454    0.1151823  65.33  0.001418431    1.269    0.212
       242  -8.9543    179.8454     44.6458   6.1472718750e+01   3.4839008896e+01    0.2467672     0.207069  -3.24 0.0005862637    1.309    0.236
       243  -9.7005    154.9541     34.0361   6.2766280622e+01   4.2718306040e+01    0.3470109    0.2496496 -13.42  0.001658199    1.513    0.339
       244 -10.5217    136.6430     42.1524   6.9636793925e+01   4.6000231959e+01    0.5004213    0.4026913 -36.83  0.001412899    1.256    0.204
       245 -10.6377    143.7478     42.4734   6.8099312612e+01   4.4266600403e+01    0.7903489    0.3085023  51.06  0.002873596    2.441    0.590
       246  -9.4278    142.6493     38.8037   6.7067288833e+01   4.5075014843e+01    0.2598359    0.2295284  16.06 0.0004038012    1.134    0.119
       247 -10.1379    148.3045     34.5803   6.4342421545e+01   4.4298488042e+01    0.5137371    0.3048314  67.86  0.002136134    1.966    0.491
       248 -10.4715    143.0733     33.9377   6.5252141193e+01   4.5665744833e+01    0.3034171    0.2510118 -44.51 0.0003716981    1.303    0.233
       249  -9.1035    106.4692     44.9976   7.8536901624e+01   5.2068852737e+01    0.2670797    0.1980797  34.68   0.00140101    1.397    0.284
       250  -9.3920    172.4446     31.6925   5.8645713028e+01   3.8546324988e+01    0.3942714    0.2254712  41.14  0.001660408    1.854    0.461
       251  -9.1206     14.6581    189.7942   1.2792399514e+02   3.4027569678e+01    0.1396978    0.1029823  71.57  0.001047018    1.144    0.126
       252  -9.3789    174.2538     38.7949   6.0627070503e+01   3.7121320418e+01    0.3839847    0.2041919  55.54  0.001583452    1.787    0.440
       253  -9.2111    214.1882    188.8493   9.0788693208e+01   3.1654584043e+00    0.3392695    0.1552653  57.97  0.001289067    3.403    0.706
       254  -9.7915      1.4177    187.5314   1.2999297022e+02   3.5622327204e+01    0.3175479   0.08985157 -76.84  0.001691003    2.707    0.631
       255  -8.9336    188.6133     20.0880   5.2318364381e+01   3.5715451544e+01    0.4011118    0.1893713  44.77 0.0009026569    2.254    0.556
       256  -8.8235    185.1894     18.1252   5.2209556193e+01   3.6842937355e+01    0.2969526    0.2304566  75.57 0.0008954246    1.284    0.221
       257 -10.0669      1.9231    178.5954   1.2942448558e+02   3.7249401268e+01    0.3666843    0.1074007 -77.89  0.001930913    2.619    0.618
       258  -9.6331    186.1971     25.4563   5.4357743206e+01   3.5719047943e+01    0.3489371    0.2469137 -48.68  0.001078047    1.499    0.333
       259 -10.1548    245.1349    187.2569   8.5142223991e+01  -2.2757169517e+00     0.240331    0.2014023   3.43 0.0004754531    1.101    0.092
       260  -9.8836    182.9796     27.2628   5.5435182975e+01   3.6346181292e+01     0.294661    0.2431358 -82.60 0.0007081378    1.330    0.248
       261  -9.7655    198.4775     32.5601   5.4664206711e+01   3.1591596723e+01    0.5553108    0.2288236 -20.51  0.001918828    2.939    0.660
       262 -10.4285    192.8164     32.3447   5.5462355576e+01   3.3110969442e+01    0.4452461    0.3702525  36.15 0.0009967644    1.270    0.213
       263  -9.4940    196.9953     28.7723   5.3744410261e+01   3.2461274113e+01    0.3408491    0.2154196  66.71 0.0007655843    1.552    0.356
       264  -9.7300    190.7630     40.0185   5.8142225033e+01   3.2631520323e+01    0.3982348    0.2428253 -21.18  0.001471419    1.790    0.441
       265  -9.6341    192.4987     36.5175   5.6788447013e+01   3.2648266939e+01    0.3369082    0.2861371  84.65  0.001043099    1.233    0.189
       266  -9.2423    188.9730     49.5061   6.1349476625e+01   3.1751069814e+01       0.4496    0.2649729  43.08  0.001883091    1.799    0.444
       267  -8.7949    225.4587     41.4859   5.3418213860e+01   2.3419604928e+01    0.2708881    0.1152545  52.24  0.001027732    2.366    0.577
       268  -8.2002    197.2867     41.6904   5.7590084866e+01   3.0688752707e+01    0.1541961    0.1119088 -62.48 0.0002256337    1.574    0.365
       269  -8.8114    235.5087     38.9730   5.1451625335e+01   2.1227811909e+01    0.2191322    0.1363683 -29.57  0.001023473    1.562    0.360
       270  -9.7797    125.9812     32.8236   6.8841969394e+01   4.9827083703e+01    0.6108653    0.3492677  24.72  0.002300581    2.321    0.569
       271  -9.8502    136.0574     25.7295   6.3833891543e+01   4.8448732867e+01    0.5145258    0.2354425 -21.32  0.002004046    2.416    0.586
       272 -10.9340    134.7518     33.9301   6.7140572824e+01   4.7651224520e+01    0.3800092    0.2731927  32.21 0.0002982953    1.436    0.303
       273  -8.8849    138.4606     31.5080   6.5409751207e+01   4.7109865111e+01    0.3032503    0.2036514 -41.74 0.0009383248    1.591    0.371
       274  -9.7855      7.5387    185.5474   1.2886881031e+02   3.5464037132e+01    0.1775792   0.08597994  62.85 0.0005236588    1.683    0.406
       275  -9.6301      6.0555    182.0398   1.2891769203e+02   3.6251101755e+01    0.2405717    0.1005262 -68.02  0.001146256    2.108    0.526
       276 -10.2238    246.2631     33.0489   4.8651928297e+01   1.9350751009e+01    0.7593374    0.2772715  53.84   0.00288365    2.811    0.644
       277 -10.8011    245.8366     19.0347   4.5130354067e+01   2.1148070833e+01    0.6607366      0.26252  71.33  0.002233195    2.579    0.612
       278  -9.1377     35.5360    185.4652   1.2401450629e+02   3.2764394883e+01    0.1080169    0.0823071  84.12 6.843044e-06    1.076    0.071
       279 -10.2615     18.4005    183.9343   1.2691751442e+02   3.4778813838e+01     0.229545    0.1681371  65.53 0.0007445827    1.212    0.175
       280  -9.2952     23.6557    183.6669   1.2598342499e+02   3.4324067712e+01     0.159375    0.1299268 -83.38  0.001282789    1.309    0.236
       281  -9.5141    228.1701     30.9241   5.0185767636e+01   2.4099185777e+01    0.3582155     0.271389 -70.72  0.001054326    1.393    0.282
       282  -9.4669    226.7577     27.4232   4.9404251709e+01   2.4890862094e+01    0.4172015      0.26667  75.18  0.001991396    1.608    0.378
       283  -9.7804    203.5078     27.1559   5.2328926330e+01   3.0946586231e+01    0.4707923    0.4321077  34.10  0.002626663    1.159    0.137
       284 -10.0011     11.8525    184.3759   1.2807030403e+02   3.5300004009e+01    0.1930137    0.1149247 -77.60  0.001017209    1.401    0.286
       285  -8.7562     37.2007    179.4079   1.2322939698e+02   3.3760737886e+01    0.1523196   0.08121762  54.39 0.0008763013    1.661    0.398
       286  -8.6878     80.0195    176.7924   1.1479284044e+02   2.8996038698e+01    0.1685931    0.1232237 -53.66 0.0008297418    1.642    0.391
       287  -8.5703     28.4781    177.4777   1.2466929216e+02   3.5041957867e+01     0.159984    0.1156228  84.87 0.0009717272    1.024    0.023
       288  -8.2335     25.4525    176.5014   1.2514492817e+02   3.5532503267e+01    0.1702209   0.09609483  41.75 0.0009860249    1.878    0.468
       289  -9.0826      7.2295    174.9839   1.2829406527e+02   3.7492706677e+01    0.1820247    0.1063943 -81.72  0.001254331    1.315    0.239
       290  -9.4125     33.7733    170.0983   1.2308640015e+02   3.5962807510e+01    0.1821053    0.1467485 -31.57  0.001261439    2.181    0.542
       291  -8.3005    201.0305    169.0152   8.9448149510e+01   8.6690246821e+00    0.1683844    0.1464165  35.55 0.0006747965    1.035    0.034
       292 -10.1945      2.7289    160.4823   1.2818201461e+02   4.0684581580e+01    0.4718097    0.2195302  88.00  0.002932852    1.724    0.420
       293 -10.6626     18.5084    165.0160   1.2555946612e+02   3.8454554620e+01    0.3313633    0.1645657  58.52  0.001436951    1.826    0.452
       294 -10.1012      7.9918    162.5045   1.2734269905e+02   3.9862377356e+01    0.2210261    0.1582045  42.60  0.001706474    1.651    0.394
       295  -9.7127    248.6582     25.9634   4.6595955780e+01   1.9646555796e+01    0.3435861    0.2594539  40.65  0.001849636    1.570    0.363
       296  -9.4696      9.3971    158.4320   1.2679139479e+02   4.0556839620e+01    0.2918017    0.1214599 -60.98  0.001284191    2.291    0.563
       297  -9.3157    197.8430     16.8387   5.0034671900e+01   3.3647415686e+01    0.2749053    0.2630801 -22.61  0.001063216    1.108    0.098
       298  -8.2521     86.9647     16.0503   7.2888561381e+01   6.0109901207e+01    0.1553217    0.1336114   2.12 0.0009637262    1.017    0.017
       299 -10.9548     12.3605    164.8659   1.2669710298e+02   3.9027022602e+01    0.2780332    0.2331592  51.50  0.002291822    1.465    0.317
       300 -10.6818     26.3745    151.7050   1.2290119028e+02   4.0437394696e+01    0.2981488     0.245353 -43.53  0.002192528    1.741    0.426
       301 -11.9010     20.6176    147.5337   1.2369489126e+02   4.1823232486e+01    0.4793785    0.3943788 -76.57  0.002483008    1.239    0.193
       302  -9.8029     14.5948    143.0814   1.2453767013e+02   4.3257117423e+01    0.3683847     0.205524 -60.16  0.002372008    1.718    0.418
       303 -11.9370     38.2747    146.5376   1.1990425751e+02   4.0354965149e+01    0.7002783    0.4753686 -50.58  0.004484821    1.769    0.435
       304 -10.0888     45.9818    150.0238   1.1865180992e+02   3.8800057333e+01    0.1955387    0.1359929 -78.10  0.001272501    1.181    0.153
       305 -10.2441     46.0370    144.9954   1.1805918006e+02   3.9862249170e+01    0.3429916    0.2619188 -48.59  0.001867999    1.626    0.385
       306 -10.1329     12.9295    150.7151   1.2551650521e+02   4.1824367714e+01    0.3901972    0.2022583 -60.02  0.002454109    1.890    0.471
       307  -8.7316      8.2039    151.1550   1.2648205696e+02   4.2117944208e+01    0.1600754     0.112604 -78.50 0.0005769042    1.174    0.148
       308  -9.2529     87.1271    149.3325   1.0960132837e+02   3.3645282472e+01    0.2160778    0.1647039 -60.03 0.0006286606    1.302    0.232
       309 -10.1643     66.4775    147.9590   1.1396392796e+02   3.6799972781e+01    0.2661736    0.2099078 -59.70  0.001710061    1.326    0.246
       310  -9.6036    236.0575    249.3142   9.6859525688e+01  -7.5237448407e+00    0.2935984     0.130233  49.29  0.001589532    2.287    0.563
       311 -11.7095     38.9654     86.6895   1.1102627367e+02   5.3320148019e+01     1.696782    0.5868024 -48.84  0.007498135    2.559    0.609
       312  -8.4780    125.1703    249.6103   1.1457058802e+02   9.8695680553e+00      0.15883    0.0828384  40.25 0.0009528231    1.784    0.440
       313 -12.0174     29.6288     63.3716   1.0898963200e+02   5.9111406084e+01     1.392593    0.5181775 -32.23  0.004715542    5.699    0.825
