#   1 NUMBER                 Running object number                                     
#   2 MAG_AUTO               Kron-like elliptical aperture magnitude                    [mag]
#   3 X_IMAGE                Object position along x                                    [pixel]
#   4 Y_IMAGE                Object position along y                                    [pixel]
#   5 X_WORLD                Barycenter position along world x axis                     [deg]
#   6 Y_WORLD                Barycenter position along world y axis                     [deg]
#   7 A_WORLD                Profile RMS along major axis (world units)                 [deg]
#   8 B_WORLD                Profile RMS along minor axis (world units)                 [deg]
#   9 THETA_WORLD            Position angle (CCW/world-x)                               [deg]
#  10 FWHM_WORLD             FWHM assuming a gaussian core                              [deg]
#  11 ELONGATION             A_IMAGE/B_IMAGE                                           
#  12 ELLIPTICITY            1 - B_IMAGE/A_IMAGE                                       
         1 -16.8483     17.6336     20.2152   8.9596909758e+01   7.0104679392e+01     3.566567     1.919112 -23.53   0.02045547    1.660    0.398
         2 -13.1169    210.7536      8.2789   3.5147920523e+01   3.1965464855e+01    0.8863064    0.8131517 -81.57  0.004098053    1.108    0.097
         3 -13.2789    187.4093     40.4585   4.6061975566e+01   3.3768810590e+01     1.255608    0.9533396  32.44  0.004411943    1.597    0.374
         4  -8.8635    167.9099    232.1438   9.4304232163e+01   2.9095351788e+00    0.1781998    0.1563724  40.47 0.0004009863    1.211    0.175
         5 -14.6238    214.6795    242.9507   8.6900671810e+01  -5.6386657928e+00     3.996829     1.134227  34.86   0.01638024    3.070    0.674
         6 -14.4962     57.5992    148.7961   1.0743244989e+02   3.7659307052e+01     7.349792     3.571798  33.22   0.03305034    2.183    0.542
         7 -10.1659    199.2393    209.8315   8.4249428135e+01   1.5681322663e+00     0.248041    0.1913628  49.90  0.001065718    1.652    0.395
         8 -10.7424    200.0803    205.1724   8.3233225590e+01   2.1960414687e+00    0.3366327    0.1945184  12.58 0.0002988565    2.209    0.547
         9  -9.4021     68.5443    208.5585   1.1238217684e+02   2.2363397761e+01    0.1843725    0.1358923  48.74 0.0001682311    1.234    0.190
        10  -9.1138     71.4997    207.4813   1.1162184583e+02   2.2208034091e+01    0.3743293    0.2168816  25.24   0.00174472    2.097    0.523
        11  -9.6927     48.8841    207.0794   1.1645995355e+02   2.5089212352e+01    0.1541483    0.1277134 -58.08 0.0002811488    1.397    0.284
        12 -10.7667    124.0104    205.9658   9.9703108637e+01   1.4755589756e+01    0.2091793    0.1879295  46.52  0.000307803    1.037    0.036
        13 -10.1909     60.8577    204.6680   1.1365075885e+02   2.4175661565e+01    0.2011276    0.1652774  80.81 0.0006079543    1.087    0.080
        14  -9.5457    107.9354    204.4805   1.0310954021e+02   1.7610180768e+01     0.202424    0.1237021  37.62  0.000563664    1.524    0.344
        15 -10.2828     22.7315    201.6589   1.2148384825e+02   2.9019997087e+01    0.2482992     0.152319  81.80  0.001190137    1.428    0.300
        16 -10.6379    193.2852    196.6914   8.3026330651e+01   4.7652418838e+00      0.80321    0.4322044 -61.57  0.002653759    4.951    0.798
        17  -9.0508     97.6240    201.3883   1.0502474487e+02   1.9838337808e+01    0.3344272    0.2186713 -12.50    0.0012312    3.028    0.670
        18 -10.3394    167.5392    199.9322   8.9057263907e+01   8.5969598440e+00    0.2434094    0.2304253 -10.82    0.0004552    1.106    0.096
        19 -11.2742    113.6403    208.3748   1.0237671772e+02   1.5915422234e+01    0.3871541    0.2596719  73.51  0.001912827    1.983    0.496
        20 -13.1838    117.4160    191.5929   9.8984864358e+01   1.8840530451e+01    0.9221273    0.6974592  72.63  0.004783554    1.589    0.371
        21 -12.2627    110.4119    191.1967   1.0057158041e+02   2.0063794582e+01    0.6487448    0.5878502  63.44  0.003837468    1.081    0.075
        22  -9.7757    210.4153    220.2130   8.3903740506e+01  -1.7986131592e+00    0.2104249    0.2002329 -88.84 0.0008541424    1.694    0.410
        23  -8.6184     78.8061    194.7719   1.0848420272e+02   2.4002412311e+01    0.1749305    0.1333992  69.34 0.0004038595    1.299    0.230
        24  -9.4770     97.0267    192.5170   1.0392457999e+02   2.1862885673e+01    0.2405672    0.1809338 -44.24 0.0006297581    1.499    0.333
        25  -9.5022     92.1451    217.8782   1.0832257047e+02   1.7197011831e+01    0.1839543    0.1589939  67.83 0.0005623853    1.076    0.071
        26 -11.2085     72.9375    184.0359   1.0848912412e+02   2.7239637809e+01    0.7427347    0.5589014 -65.35  0.004219524    1.290    0.225
        27 -10.0601     77.5074    178.0023   1.0655737285e+02   2.8017936000e+01    0.2418547    0.1971924 -82.47  0.000778109    1.192    0.161
        28  -8.5276    189.2974    184.9651   8.1580220425e+01   7.5536279460e+00    0.1883609    0.1648001 -14.65 0.0002094032    1.081    0.075
        29  -8.8878     29.2670    185.5823   1.1881562473e+02   3.1943170830e+01    0.1256978    0.1198951  21.61 0.0002335645    1.364    0.267
        30 -10.5932     62.8565    197.2617   1.1242249010e+02   2.5552070654e+01    0.2964197    0.2022996 -45.76   0.00123969    1.792    0.442
        31  -9.4228    188.7000    178.5807   8.0422648097e+01   8.8419696587e+00    0.3070246    0.2350373 -56.27 0.0009271344    1.654    0.395
        32  -9.2976    188.3112    174.6388   7.9695549285e+01   9.6532399419e+00    0.2814232    0.2004202 -66.53  0.001268356    2.242    0.554
        33 -10.4562     62.0257    250.0462   1.1742173235e+02   1.5010326532e+01    0.1628378     0.126356  66.89 0.0004433656    1.081    0.075
        34 -15.2716    125.3605    242.5437   1.0436928916e+02   7.6856212941e+00     3.590031     2.382563  29.55   0.02101911    1.423    0.297
        35  -9.0546     51.1288    226.9649   1.1769622296e+02   2.0706214046e+01    0.1602135    0.1036942  73.22  0.000444947    1.428    0.300
        36 -10.9656    116.8891    174.7560   9.6267231201e+01   2.2654755834e+01    0.3022798     0.246908  50.88 0.0006715565    1.228    0.185
        37  -9.9504     44.8097    214.8900   1.1798166322e+02   2.3900504048e+01    0.1786399    0.1188877  72.14   0.00058554    1.355    0.262
        38 -10.6217    230.0702    213.3943   7.8990294215e+01  -3.7136028411e+00    0.2261958    0.1899103   4.58 0.0001461872    1.117    0.105
        39 -10.1547     92.5352    158.8224   9.9656857302e+01   3.0371227570e+01    0.2489531    0.2405231  70.24 0.0004050574    1.040    0.038
        40 -10.8934     97.8268    152.4516   9.7067908157e+01   3.1064450520e+01    0.5741869    0.3986032 -30.81  0.002655677    1.771    0.435
        41 -10.2862    133.8967    147.3228   8.6484895448e+01   2.5831589967e+01     1.039355    0.2427134 -53.07  0.002393534    5.861    0.829
        42  -8.9946    198.1556    214.1810   8.5241185535e+01   1.0385814336e+00    0.1926828    0.1546965   5.38 0.0003295262    1.110    0.099
        43 -18.4552     21.4282    236.8021   1.2393823452e+02   2.2012870254e+01     3.262083     1.701012  47.64   0.02089425    1.568    0.362
        44 -10.1240    108.6732    138.7630   9.1296919403e+01   3.2513791120e+01    0.4784086    0.2687288 -32.26  0.001828272    2.353    0.575
        45 -11.2268     97.3060    138.1118   9.4328509149e+01   3.4620212474e+01    0.3034746    0.2806945 -66.12 0.0004200632    1.067    0.062
        46  -8.6221     38.7805    213.5625   1.1910144262e+02   2.4846631442e+01    0.1713334   0.08203042  50.49 0.0009086919    1.833    0.455
        47  -9.5492    193.7865    131.0259   6.8754522344e+01   1.6994968269e+01    0.2301043    0.2105782  28.59 0.0003794022    1.130    0.115
        48  -9.1948    136.8212    131.1553   8.1969922313e+01   2.8919257226e+01    0.2264251    0.2140923 -73.91 0.0004388734    1.154    0.133
        49  -9.0674    115.4772    129.8768   8.7387614511e+01   3.3380810616e+01    0.2453276    0.2096383  -8.00 0.0006211069    1.320    0.243
        50  -9.8454    103.4043    125.4328   8.9751509563e+01   3.6628171969e+01    0.2882432    0.2405835 -21.08 0.0005626027    1.316    0.240
        51  -8.7062    110.6894    118.9749   8.6080843229e+01   3.6826716159e+01    0.2106236    0.1892094 -44.87 0.0003980167    1.073    0.068
        52  -9.0592     43.8091    221.9874   1.1874983461e+02   2.2551409748e+01    0.1376531    0.1121593 -67.58 0.0003339042    1.370    0.270
        53  -8.6266    167.4632    112.9780   6.9856626482e+01   2.6259645445e+01    0.2193506    0.1317395 -61.21 0.0007876988    2.418    0.586
        54  -9.3991    119.9902    111.5012   8.1502806021e+01   3.6742282629e+01    0.2387968    0.1544936  42.15  0.001031744    1.594    0.373
        55 -10.3273    100.9721     84.0894   7.9290097645e+01   4.6425762068e+01    0.2260536    0.2023753 -28.04            0    1.056    0.053
        56  -8.4671    197.3667     83.8112   5.6117211727e+01   2.4874315602e+01    0.2094882    0.1360839 -25.95 0.0009441553    1.659    0.397
        57  -9.2228     71.7625    246.2397   1.1529198352e+02   1.4483724632e+01    0.2118884    0.1408187 -71.76   0.00136248    1.626    0.385
        58 -12.1785    191.9337     33.9471   4.3677370376e+01   3.3505694980e+01     0.617009    0.4771396  66.31  0.001465279    1.243    0.195
        59  -8.8307    129.6981     38.2981   5.5940979488e+01   4.8043022686e+01     0.136928    0.1107224 -72.20 0.0001730281    1.581    0.368
        60  -8.1817    160.5807     30.5087   4.7353278610e+01   4.1539136051e+01    0.1356357    0.1281199  79.12 9.313667e-05    1.032    0.031
        61  -9.2690    128.6500     25.8897   5.1853260525e+01   4.9800531125e+01    0.1814169    0.1742921  -0.71 0.0005080347    1.107    0.096
        62 -10.2575     59.9808    232.8670   1.1644096121e+02   1.8480212883e+01    0.1705135    0.1296056  60.42 0.0003333515    1.086    0.079
        63  -8.4400    234.1992     15.6625   3.4825707202e+01   2.6027198140e+01    0.1565691   0.09988099  66.46 0.0002961713    1.588    0.370
        64 -11.9693    172.3719     54.3351   5.2401774580e+01   3.5499947226e+01     0.498852    0.4746065  39.99 0.0009428795    1.087    0.080
        65 -10.4319    189.7651     15.9661   3.9183919125e+01   3.6060391895e+01    0.2364431    0.1773034  77.71  0.001022466    1.223    0.183
