#   1 NUMBER                 Running object number                                     
#   2 MAG_AUTO               Kron-like elliptical aperture magnitude                    [mag]
#   3 X_IMAGE                Object position along x                                    [pixel]
#   4 Y_IMAGE                Object position along y                                    [pixel]
#   5 X_WORLD                Barycenter position along world x axis                     [deg]
#   6 Y_WORLD                Barycenter position along world y axis                     [deg]
#   7 A_WORLD                Profile RMS along major axis (world units)                 [deg]
#   8 B_WORLD                Profile RMS along minor axis (world units)                 [deg]
#   9 THETA_WORLD            Position angle (CCW/world-x)                               [deg]
#  10 FWHM_WORLD             FWHM assuming a gaussian core                              [deg]
#  11 ELONGATION             A_IMAGE/B_IMAGE                                           
#  12 ELLIPTICITY            1 - B_IMAGE/A_IMAGE                                       
         1 -13.0384    208.2910     44.2604   7.1059299154e+01   2.7514626295e+01     4.494933     1.014974 -30.95   0.01001927    3.540    0.717
         2 -14.4199    248.0872     27.9953   6.1693624182e+01   1.9785314030e+01     1.061201    0.6652205  38.60  0.004563991    1.828    0.453
         3 -16.7917    243.4411     10.3745   5.7424678601e+01   2.2593175316e+01     5.082709     2.601197 -19.30   0.02372206    1.870    0.465
         4 -13.3217    230.8114     38.6171   6.6456314252e+01   2.2666623829e+01     1.604479    0.8421479 -79.31  0.005707669    3.642    0.725
         5 -10.5695    151.9170     30.4669   7.6064510266e+01   4.3760884802e+01    0.5504401    0.4164807 -52.14  0.001468923    1.543    0.352
         6 -11.2783    113.3015     29.1320   8.4657496530e+01   5.3290495917e+01     1.031511    0.6482397 -36.52  0.003956288    1.575    0.365
         7 -10.0263     96.9959     29.5420   8.9616706201e+01   5.6714436327e+01    0.6884036    0.4175495 -59.76  0.002714793    2.985    0.665
         8  -9.8648     20.7367     15.6328   1.1510186312e+02   7.0252679749e+01      0.55445    0.2775374  47.26  0.002590442    3.704    0.730
         9  -8.3759    152.1081     10.0941   6.8299162217e+01   4.6042701641e+01    0.2648885     0.246832 -49.74  0.001470256    1.183    0.155
        10  -9.2506    167.9556      8.4347   6.5163935805e+01   4.2012403009e+01    0.6081117    0.3519246 -47.48  0.002061018    1.967    0.491
        11  -7.7754     80.4029     11.2003   8.6558770922e+01   6.2711183906e+01    0.1873993    0.1159173 -35.73 0.0006055629    1.600    0.375
        12  -7.7824     28.9852     10.7395   1.0862729848e+02   7.0426198918e+01    0.1657206    0.1295249 -30.85 0.0003030054    1.018    0.017
        13  -8.7191    179.7688      9.2603   6.3800466943e+01   3.8794003655e+01    0.2357386    0.2093724 -58.85 0.0005764306    1.208    0.172
        14  -8.4172    141.3766      8.3375   6.9526741862e+01   4.9007631708e+01    0.2787879    0.2612868 -49.39   0.00156524    1.199    0.166
        15  -8.5212    134.6720      8.0410   7.0694754842e+01   5.0752677872e+01    0.2136318    0.1815025  -3.99  0.001064023    1.144    0.126
        16  -9.0479    160.4214      4.4690   6.4829262197e+01   4.4376898375e+01    0.3343223    0.2574963 -24.23 0.0009927627    1.315    0.240
        17  -9.5146    176.1368      3.2861   6.2217470230e+01   4.0298609668e+01    0.3998212    0.2295321 -27.67  0.001721164    1.716    0.417
        18  -7.4797     72.3149      5.6933   8.6578403929e+01   6.4973489343e+01    0.1238432    0.1036376 -51.06 0.0005998274    1.626    0.385
        19  -9.0714    108.3541      3.5053   7.4515225009e+01   5.7641118362e+01    0.3200657    0.2619726 -77.53  0.001217053    1.695    0.410
        20  -8.3916    101.6980      3.5968   7.6269907008e+01   5.9160376645e+01    0.2900906    0.1774394 -51.57 0.0008875172    2.367    0.578
        21  -8.1202     92.9453      3.9675   7.8898765320e+01   6.1051280387e+01     0.209217    0.1636789 -50.37  0.001090215    1.670    0.401
        22  -7.9751    181.7545      2.3829   6.1205614712e+01   3.8882363925e+01     0.311916    0.1432821 -32.26  0.001269861    2.098    0.523
        23  -8.2638    126.4837      2.3537   6.9912390429e+01   5.3363851697e+01      0.32739    0.1965839 -64.59  0.001326242    2.678    0.627
        24  -7.7771    189.5170      2.5280   6.0341794016e+01   3.6815055203e+01    0.1416402    0.1353933  39.12 0.0008095523    1.033    0.032
        25  -7.6675    148.2913      2.3191   6.5909349656e+01   4.7768089560e+01    0.1560316   0.09921018  31.27 0.0003818086    1.603    0.376
        26  -7.6878     79.3820      2.2145   8.2235977240e+01   6.4056455536e+01    0.1888191    0.1118612 -32.17 0.0005862851    1.656    0.396
        27  -7.9380    135.0306      1.4848   6.7881081661e+01   5.1279655426e+01    0.2188903    0.1387999  63.61 0.0005704999    1.563    0.360
        28  -9.7132    233.0549    127.4531   8.9278602613e+01   1.0723815582e+01    0.2905472    0.2649029 -20.26 0.0009967131    1.254    0.203
        29  -7.8293     53.6542    250.6853   1.3902036803e+02   2.0721555813e+01   0.07630686   0.06900166  27.75 0.0003899809    1.716    0.417
        30  -7.7652    225.5048    130.5096   9.1252704113e+01   1.1794070744e+01    0.1395567    0.1185827   7.89 0.0008106019    1.001    0.001
        31  -7.8186    196.6546    126.3192   9.5532555579e+01   1.8230642333e+01    0.1359147    0.1162172 -80.26 0.0007049251    1.727    0.421
        32  -7.7765    127.6504    125.2664   1.1020665334e+02   3.2196946132e+01     0.138898    0.1068524  73.47  0.000369926    1.618    0.382
        33  -9.1568    166.5980    119.2656   9.9985603691e+01   2.5659190677e+01    0.7329088    0.2406646 -34.47  0.002351727    3.539    0.717
        34  -7.8759    135.4177    120.9322   1.0742315220e+02   3.1600192500e+01    0.2116004    0.1367599 -48.19  0.001012705    1.592    0.372
        35  -8.9645    151.9979    118.8635   1.0311356665e+02   2.8731871766e+01    0.4333757    0.1828937 -53.37  0.001458817    3.433    0.709
        36  -9.4417    248.0964    117.3057   8.4522960239e+01   9.1044101169e+00    0.2526811    0.2101317 -58.53  0.001432348    1.799    0.444
        37  -9.5837    242.4530    116.4481   8.5197521397e+01   1.0309394313e+01    0.3146103    0.1658651 -36.80 0.0009182363    1.971    0.493
        38  -9.4386    227.4988    116.6148   8.7667820214e+01   1.3281640632e+01    0.2581909    0.1915771 -22.01 0.0006958217    1.265    0.209
        39  -9.3975    216.5205    115.8402   8.9371159405e+01   1.5656508299e+01    0.3055827    0.2070645  18.03  0.001494497    1.575    0.365
        40  -9.7608    220.4389    112.1676   8.7791916114e+01   1.5358364490e+01    0.3068236    0.2344334  55.34  0.001231227    1.525    0.344
        41  -8.9586    200.5008    110.6750   9.1017021626e+01   1.9833505655e+01     0.290767     0.205526 -24.15  0.001443016    1.386    0.279
        42  -8.1060    238.0000    110.9169   8.4580823734e+01   1.1910379628e+01    0.2284064   0.07248219 -28.03 0.0007517939    2.931    0.659
        43  -8.7924    233.0183    110.2458   8.5217324207e+01   1.3012528590e+01    0.3462146    0.1635587 -42.06  0.001411048    2.510    0.602
        44  -9.1305    213.8087    110.1906   8.8463243500e+01   1.7043916561e+01    0.2068003    0.1562841  15.85  0.001063541    1.322    0.243
        45 -10.5312    244.7499    108.2800   8.2893768025e+01   1.0895881792e+01    0.4622172    0.3414339  26.58  0.001708087    1.305    0.234
        46  -7.7979    177.5552    108.5564   9.5023755539e+01   2.5174637860e+01    0.1487475    0.1359071   9.98 0.0001783106    1.028    0.027
        47  -8.8292    146.6490    105.2636   1.0102525666e+02   3.2386203829e+01    0.2914128    0.2674731 -44.67  0.001609803    1.127    0.113
        48  -9.4426    234.7897    105.2115   8.3698597186e+01   1.3318405585e+01    0.4408296    0.2073349  54.22  0.001859011    2.387    0.581
        49  -8.9426    235.9342    100.8661   8.2439520917e+01   1.3656380203e+01    0.3779623    0.1897199 -22.27  0.001321074    1.905    0.475
        50  -8.2997    217.8066    105.1781   8.6507632539e+01   1.6909746179e+01    0.2083424     0.195365 -22.82 0.0005493564    1.183    0.155
        51  -8.9799    197.4113    104.8608   9.0124981319e+01   2.1409774300e+01     0.330826    0.2069603  18.58  0.001229423    2.008    0.502
        52 -10.1434    140.4299    101.7766   1.0161326555e+02   3.4341403504e+01    0.4752208    0.3281301 -16.90  0.002144861    1.870    0.465
        53  -7.6661     23.2884    103.3246   1.3391960008e+02   5.0828148242e+01    0.1172163   0.07437032 -50.97 0.0006565474    1.608    0.378
        54  -7.7826    162.4559    102.5276   9.6705626896e+01   2.9521996757e+01    0.1489277    0.1404957   6.04 0.0002990381    1.006    0.006
        55  -8.8803    167.4464    100.9640   9.5198674164e+01   2.8704974555e+01     0.332675    0.1453662 -35.78 0.0006753263    2.296    0.564
        56  -8.9962     41.0124    250.0000   1.4086301112e+02   2.2119167424e+01    0.1459994   0.03877617  38.04 0.0008060756    2.968    0.663
        57 -10.2585     36.5148    243.3470   1.4124203445e+02   2.3502977437e+01    0.1731546    0.1418612 -79.74   0.00164969    1.552    0.356
        58  -8.5360    102.9938    231.7070   1.2992690316e+02   1.7574402071e+01    0.1496764    0.1030372  48.99 0.0004965001    1.094    0.086
        59  -9.0126     40.2473     98.7865   1.2847809438e+02   5.0398738587e+01    0.3068719    0.1772074 -68.59  0.001140078    1.459    0.315
        60 -10.0641    228.2287     96.6364   8.2594973896e+01   1.5858010913e+01    0.4936626    0.3734683  10.18  0.001230007    1.319    0.242
        61  -9.5252    227.5824     89.9153   8.0961293804e+01   1.6913477666e+01    0.4799308     0.379423  60.99  0.002034845    1.506    0.336
        62 -10.6125    219.4370     90.7656   8.2506971076e+01   1.8598132892e+01    0.9150773    0.3823431 -24.15  0.002986297    2.430    0.588
        63  -8.9955    143.8918     95.7114   9.9174456394e+01   3.4783144738e+01    0.5333392    0.2445395  59.43  0.001746013    3.431    0.709
        64  -9.1233    210.0353     92.8656   8.4668986035e+01   2.0405411555e+01    0.2799517    0.1957022 -17.22 0.0007604005    1.402    0.287
        65  -9.1303    188.2953     96.8068   8.9770235708e+01   2.4727822311e+01    0.2405529    0.1888874 -45.34 0.0009710043    1.414    0.293
        66  -8.7748    185.2257     89.3970   8.8350082627e+01   2.6627003845e+01    0.2023551    0.1475554  61.35 0.0005815794    1.593    0.372
        67  -8.1268    106.9536     87.3690   1.0651124862e+02   4.3778836573e+01    0.2858443    0.1965196 -62.85  0.001353231    1.686    0.407
        68  -7.8326    188.9265     87.1111   8.6987127649e+01   2.6132513944e+01    0.2118015    0.1687781  16.24 0.0004990494    1.302    0.232
        69  -8.4019    148.4825     87.4625   9.5783395158e+01   3.5339589755e+01    0.1508724    0.1437328  -1.34  1.62198e-05    1.005    0.005
        70  -8.9056    207.0702     82.5601   8.2387634665e+01   2.2592123586e+01    0.4171912    0.2008481 -30.90  0.001678364    1.955    0.489
        71  -8.0128    227.1973     82.4177   7.9044035302e+01   1.8013324309e+01    0.2194909    0.1949188 -51.33 0.0003721727    1.332    0.249
        72  -8.7835    224.0196     79.5041   7.8757079717e+01   1.9122789663e+01    0.3039924    0.2435544  54.02 0.0007376382    1.364    0.267
        73 -11.7305    218.7179     73.3184   7.7895013394e+01   2.1182240030e+01     0.701786     0.356916 -34.89  0.002958903    1.856    0.461
        74  -7.6342    182.3043     81.3212   8.6638232806e+01   2.8611299024e+01    0.1594981    0.1140686  14.29 0.0007030005    1.634    0.388
        75  -9.4726    168.9282     75.4519   8.7645539621e+01   3.2747487665e+01    0.3761684    0.2921232 -54.09  0.001792591    1.518    0.341
        76 -10.1773    157.3520     79.3513   9.1352794003e+01   3.4799129381e+01    0.5001972    0.2646387 -38.93  0.002024934    1.861    0.463
        77 -10.2668    160.6615     73.6344   8.8879429049e+01   3.5013729603e+01    0.5384836    0.3354084  42.43  0.001695939    1.620    0.383
        78  -9.5103    163.6850     70.4204   8.7225830190e+01   3.4834468563e+01    0.5308854    0.3271647  65.79  0.002172715    2.084    0.520
        79  -7.5103    163.9671     79.7640   9.0003916253e+01   3.3190555156e+01    0.1948998    0.1271196  48.59 0.0004744914    1.543    0.352
        80  -8.1270     61.8381     79.1702   1.1803015962e+02   5.2495998928e+01    0.2012323    0.1702926 -76.03 0.0008110717    1.193    0.162
        81 -10.7649    233.5743     74.5291   7.5980691872e+01   1.7627704007e+01    0.4759018     0.275441  41.04 0.0009691141    1.802    0.445
        82  -7.5871    179.6865     78.6873   8.6393269975e+01   2.9655793683e+01    0.1601725     0.114411  15.80 0.0004966279    1.636    0.389
        83  -8.5331     82.3101     78.0387   1.1125977103e+02   4.9907811816e+01    0.2505594    0.1949612  58.29 0.0009370922    1.528    0.345
        84  -8.8133    148.0324     77.0238   9.2810928487e+01   3.7348297226e+01    0.1878439    0.1773669  21.49 0.0006947452    1.050    0.047
        85  -9.5928    202.9179     71.9815   8.0116008588e+01   2.5106692633e+01    0.5920215    0.2407592 -33.42  0.001812623    2.282    0.562
        86  -8.5402    190.9192     75.7001   8.3345645447e+01   2.7436364994e+01    0.2143104    0.1885635  38.02  0.001118435    1.136    0.120
        87  -8.3816    185.1105     77.7015   8.5035297110e+01   2.8518182911e+01    0.2727028    0.2012801 -39.02  0.001298188    1.382    0.276
        88  -8.4819    212.0264     73.6352   7.9058109018e+01   2.2706177074e+01    0.2536523     0.190831  -9.41  0.000491682    1.319    0.242
        89  -7.7135    212.3026     70.2644   7.8060869973e+01   2.3109344949e+01    0.2301428     0.143157 -20.17 0.0001505094    1.570    0.363
        90 -10.1124    188.5829     65.9320   8.0875672494e+01   2.9474286417e+01    0.5550272    0.4091106 -32.55  0.002205335    1.320    0.242
        91  -8.7744    175.2204     72.2245   8.5365793509e+01   3.1764181219e+01    0.2090744    0.1842514 -61.42  0.000817954    1.341    0.254
        92  -8.2863    104.9814     72.0606   1.0267744152e+02   4.7309301388e+01    0.2170698    0.2046319 -30.65 0.0003515307    1.014    0.014
        93  -8.2450     85.1704     72.4067   1.0879782144e+02   5.0674854584e+01    0.1919074    0.1313036  51.49 0.0009510365    1.728    0.421
        94  -8.4250    195.7943     70.8221   8.1027280964e+01   2.6992089647e+01    0.2511284    0.2102754  47.72 0.0006010705    1.223    0.182
        95  -8.5436    111.4012     69.6791   1.0008215300e+02   4.6557033647e+01    0.2761518    0.2341392 -27.27 0.0007204899    1.142    0.124
        96  -8.6241    232.2476     68.6894   7.4599135244e+01   1.8678789498e+01    0.2806966    0.2036218  -6.50 0.0008276948    1.370    0.270
        97  -9.9713    170.2224     67.9526   8.5076620366e+01   3.3659323706e+01    0.4414967    0.3447158 -66.56  0.001907894    1.689    0.408
        98  -8.5191    225.2471     67.7381   7.5353367627e+01   2.0409555421e+01    0.2247583    0.1820028 -10.27 0.0001987009    1.159    0.137
        99  -8.6914    150.2499     67.0476   8.9170175080e+01   3.8593527355e+01    0.2240216    0.2009183 -23.73  0.001013528    1.078    0.072
       100 -11.0918     45.3191    221.9355   1.3881744396e+02   2.5808434465e+01    0.7436342    0.3296183  54.10  0.004988314    1.701    0.412
       101  -8.4490    158.4171     65.7216   8.6894872389e+01   3.6877059447e+01    0.2645613      0.20105  69.57 0.0008258895    1.613    0.380
       102 -10.3672    174.4018     61.2301   8.2119849541e+01   3.3685390087e+01    0.5369807    0.4720237  -1.01  0.002616612    1.115    0.103
       103  -9.9719    200.0288     61.9799   7.7674888763e+01   2.7228274822e+01    0.4951484    0.3118841  19.33            0    1.995    0.499
       104  -8.2330    201.3173     58.2930   7.6358579777e+01   2.7420689884e+01      0.24794    0.1942421  33.14 0.0001858129    1.301    0.232
       105  -9.3241    165.7381     62.9868   8.4443385768e+01   3.5545901573e+01     0.340032    0.2602858 -15.81 0.0006270145    1.327    0.246
       106  -9.2721    161.3055     60.0606   8.4436530521e+01   3.7096329332e+01    0.3781577    0.3178512  19.06  0.001656735    1.217    0.178
       107  -9.3381    164.7249     52.6408   8.1270360386e+01   3.7398082303e+01    0.4423993    0.3150563  86.38  0.001901859    2.035    0.509
       108 -10.0368    173.4409     52.9263   7.9635428753e+01   3.5166326002e+01    0.7646296    0.4528285  72.41  0.003021528    2.278    0.561
       109  -9.2286    186.4576     59.4754   7.9285160595e+01   3.0947233294e+01    0.5329012    0.2906966  28.89  0.001806644    2.398    0.583
       110  -9.5793    182.5191     55.4814   7.8751511671e+01   3.2509802084e+01    0.4441967    0.3435077 -54.25  0.001241839    1.509    0.337
       111  -7.6720     24.4864     61.4726   1.2691337650e+02   6.0183957861e+01    0.1236355   0.09795789 -61.38 0.0001327184    1.005    0.005
       112  -8.6185    181.6702     71.8658   8.3975094063e+01   3.0259740124e+01    0.2775182    0.1940393  41.62 0.0006919833    1.431    0.301
       113  -7.5490    196.2939     58.3636   7.7217620459e+01   2.8655781233e+01    0.1623553    0.1113913  16.99 0.0007029802    1.709    0.415
       114  -8.5405    149.9497     57.7168   8.6171961074e+01   4.0231008958e+01    0.2864998    0.1925452 -45.60  0.001116024    1.609    0.378
       115  -7.8077     90.7671     58.0147   1.0252452040e+02   5.2725076554e+01    0.1957748    0.1104641 -43.54 0.0008014836    1.622    0.384
       116  -7.4181     85.7064     55.6646   1.0337600802e+02   5.4067859536e+01    0.1451216    0.1045172 -15.61 0.0004324488    1.642    0.391
       117  -8.3474    191.7167     52.3143   7.6132699006e+01   3.0636534743e+01    0.3412864    0.2575792 -32.73 0.0009329098    1.291    0.225
       118  -7.9009    102.7855     53.6337   9.7248966932e+01   5.1352052971e+01    0.1938842    0.1398438  54.28 0.0005216904    1.635    0.388
       119  -7.9665    143.3594     51.2221   8.5468745139e+01   4.2866749172e+01    0.2250628    0.1335567 -39.61 0.0009117842    1.692    0.409
       120  -9.4529    105.5676     45.7013   9.3498035585e+01   5.2249387775e+01       0.5764    0.3194291 -64.30  0.001698805    5.074    0.803
       121  -8.0409     63.0336     49.0000   1.0905199341e+02   5.8901008111e+01     0.199066   0.07782973  34.99 0.0008001187    2.926    0.658
       122  -8.5382    193.3719     45.7308   7.3795489998e+01   3.1096764328e+01    0.3802854    0.1689903 -27.78 0.0008657693    2.118    0.528
       123  -8.6002     85.4950     43.0663   9.8892403319e+01   5.6552411255e+01    0.3067591    0.2359713 -84.18  0.001480825    2.196    0.545
       124  -8.9600    195.8088     40.8030   7.1858959382e+01   3.1104661560e+01    0.2400482    0.2143525  24.29 0.0004257878    1.115    0.103
       125  -8.0872     68.6889     41.3119   1.0419977435e+02   5.9638557825e+01    0.1277527    0.1073993 -76.29 0.0004333885    1.629    0.386
       126 -10.9478    123.3656     36.2961   8.4869019822e+01   4.9925053538e+01    0.6326007    0.4091184 -30.78   0.00166615    1.480    0.324
       127  -8.5475    189.0970     38.6163   7.2215292745e+01   3.3103051451e+01    0.3104284    0.2206871 -16.74  0.001463841    1.402    0.287
       128  -9.3925    172.5927     37.7735   7.4730526210e+01   3.7481480387e+01    0.4548901    0.3146627  87.81  0.001595047    1.968    0.492
       129  -9.1476     90.0567     37.1858   9.5043978238e+01   5.6789400625e+01    0.5877211    0.3609323  74.85  0.001941734    4.837    0.793
       130  -7.2643     86.4934    213.5038   1.3120504942e+02   2.2397604077e+01    0.1082518   0.08195898  58.40 0.0008102813    1.042    0.041
       131 -10.0371    193.0956     31.3088   6.9246450843e+01   3.2953259755e+01    0.7435499    0.4400971 -73.35  0.002229227    2.626    0.619
       132  -7.9719    186.0376     28.2912   6.9316500011e+01   3.5142312613e+01    0.2320161    0.1920214  31.25 0.0007003344    1.221    0.181
       133 -10.7459     28.1736    207.9538   1.4093039984e+02   2.9764455994e+01    0.4672025    0.3291183  67.37   0.00226188    1.031    0.030
       134  -8.5047    161.4799     33.8287   7.5411480630e+01   4.0868324041e+01    0.2893856    0.2362047 -67.06   0.00113244    1.497    0.332
       135  -9.2175    139.8827     33.8526   7.9912550783e+01   4.6330712359e+01    0.4663956    0.2915264 -20.28 0.0004229428    1.613    0.380
       136  -8.6529    135.8750     31.1403   7.9782985498e+01   4.7692962535e+01    0.2980609    0.2121902 -38.67 0.0007710222    1.457    0.313
       137 -10.9143     58.4962    198.8830   1.3505201943e+02   2.8156108384e+01    0.3873225    0.1983133  67.10  0.002372409    1.899    0.473
       138  -8.3840     73.0452     37.0703   1.0094132195e+02   5.9773569186e+01    0.2030439    0.1706112 -75.68 0.0007592766    1.699    0.411
       139  -8.4070    201.4395     28.0964   6.7052563133e+01   3.1163575596e+01    0.2044446    0.2010346 -51.21 0.0007826508    1.062    0.058
       140  -8.1882    163.1046     27.1942   7.2731793835e+01   4.1278975700e+01      0.24105    0.1938702  31.90   0.00114855    1.235    0.190
       141  -8.9063    155.8233     25.3315   7.3395200290e+01   4.3397487753e+01    0.4200929    0.2876794  82.64  0.001861858    1.881    0.468
       142  -8.0135     84.4953     24.9840   9.1710148398e+01   5.9883963831e+01     0.194496    0.1110228 -52.02 0.0007973646    2.482    0.597
       143  -8.9678    175.0491     23.6074   6.9438881880e+01   3.8562941868e+01    0.2653282    0.2363822 -26.39 0.0004193829    1.123    0.109
       144  -8.3969    194.4882     23.2990   6.6471874722e+01   3.3492430987e+01    0.2402584    0.1993793  68.70 0.0009206746    1.248    0.199
       145  -8.7234    186.1306     21.3565   6.7002423148e+01   3.5891368327e+01    0.3853416    0.2049861 -22.75  0.001618181    1.836    0.455
       146  -8.4102    180.9839     21.3394   6.7747445469e+01   3.7248956098e+01    0.2107325    0.1836505  61.21 0.0005663377    1.158    0.136
       147  -7.6627    174.5289     19.4545   6.8078051950e+01   3.9157455063e+01    0.1486428    0.1408851  23.69 7.931545e-05    1.015    0.015
       148  -8.4379    164.4560     19.0101   6.9538534857e+01   4.1865681831e+01    0.2752458    0.2142696 -83.78  0.001196831    1.562    0.360
       149  -8.0828    103.2251     18.9603   8.3074120769e+01   5.6961295781e+01    0.2085222     0.179609  -4.28  0.001160791    1.048    0.046
       150  -8.5365    155.9538     18.0569   7.0655404890e+01   4.4202943402e+01    0.3541644     0.219315  80.20  0.001496511    2.042    0.510
       151  -8.2352    170.1809    196.3852   1.1392075521e+02   1.2678581376e+01    0.1774167   0.09550297  48.04 0.0009499392    1.719    0.418
       152  -8.8882    191.0887     16.4457   6.4704298270e+01   3.5100439307e+01     0.378851    0.2730265 -78.11  0.001813518    1.662    0.398
       153  -8.2675     68.5191     15.5057   9.3063231458e+01   6.4234753880e+01     0.242106    0.1102948 -43.12  0.001029017    2.325    0.570
       154  -8.5801    177.1274     15.0216   6.6150612367e+01   3.8932520582e+01    0.2709812    0.2149016  83.72 0.0008348746    1.391    0.281
       155  -7.7439    166.9383     14.7179   6.7583180713e+01   4.1664665189e+01    0.2099252      0.18839  53.63  0.001131424    1.096    0.087
       156  -7.6618    139.3106     15.3131   7.2748460786e+01   4.8805579271e+01    0.1594218    0.1035759  27.27 0.0003298453    1.630    0.387
       157 -12.1435     47.7882    181.6102   1.3574953385e+02   3.2395480882e+01     1.002392    0.6003071 -87.16  0.006683989    1.559    0.359
       158  -8.1223    108.5478    187.5105   1.2443986556e+02   2.3676522401e+01    0.2010191   0.08817668  49.03  0.001001514    2.039    0.510
       159  -7.0903    125.3209    184.3077   1.2073349423e+02   2.1706251345e+01    0.1139137    0.0919997   8.54 0.0003546774    1.641    0.391
       160  -7.8645     66.2911    187.6400   1.3267990808e+02   2.9223606024e+01     0.117073   0.06744862  68.20 0.0006281444    1.694    0.410
       161  -8.9949    248.7221    168.8721   9.5456692111e+01   2.9149173134e+00    0.2832971    0.1742681 -28.64  0.001421962    1.704    0.413
       162  -8.3154     61.1665    167.1760   1.3179862772e+02   3.3631634454e+01    0.1600852    0.1106564  65.21 0.0005383984    1.291    0.226
       163  -8.4000    203.1863    163.2039   1.0214885753e+02   1.1555490518e+01    0.1634705    0.1596116  57.62  0.000548569    1.372    0.271
       164  -7.8213    144.5034    156.0067   1.1239185718e+02   2.3391445275e+01     0.170822    0.1165159 -78.38 0.0004866878    2.385    0.581
       165  -7.1977     57.6885    156.7075   1.3147508351e+02   3.6091835027e+01     0.103763   0.08781934 -40.28 0.0003019612    1.589    0.371
       166 -10.3561    178.4043    150.6815   1.0440827315e+02   1.8029830628e+01    0.5174898    0.4492026 -82.73  0.002135972    1.623    0.384
       167  -7.4114      6.5201    151.5071   1.4197503669e+02   4.1897176638e+01    0.1062414   0.07847794  79.91 0.0001523182    1.017    0.016
       168  -7.5280     52.3314    150.6709   1.3202442128e+02   3.7909922911e+01    0.1251344   0.07352377  68.41 0.0007051733    1.716    0.417
       169  -8.1768     80.0580    148.5403   1.2548926213e+02   3.4981469101e+01    0.1823392    0.1115518  42.61 0.0004783241    1.575    0.365
       170  -8.3216     66.4158    145.2211   1.2819461621e+02   3.7405132005e+01    0.1699846     0.104819 -82.51 0.0007831573    1.654    0.396
       171  -8.9129    248.5489    132.6975   8.7960675546e+01   7.1271645745e+00    0.3113529     0.249545  43.44  0.001570334    1.417    0.294
       172 -10.9118    242.4752    138.5695   9.0221694277e+01   7.5271994251e+00    0.6300667    0.4615955 -14.23   0.00303514    1.237    0.191
       173  -9.5060    239.4731    134.5245   8.9817711520e+01   8.5879094482e+00    0.2748005    0.2443434  17.65  0.001101799    1.173    0.147
       174  -8.7421    232.7859    131.9177   9.0337862395e+01   1.0192193812e+01    0.2208976    0.1860211  85.83  0.001154778    2.003    0.501
