#   1 NUMBER                 Running object number                                     
#   2 MAG_AUTO               Kron-like elliptical aperture magnitude                    [mag]
#   3 X_IMAGE                Object position along x                                    [pixel]
#   4 Y_IMAGE                Object position along y                                    [pixel]
#   5 X_WORLD                Barycenter position along world x axis                     [deg]
#   6 Y_WORLD                Barycenter position along world y axis                     [deg]
#   7 A_WORLD                Profile RMS along major axis (world units)                 [deg]
#   8 B_WORLD                Profile RMS along minor axis (world units)                 [deg]
#   9 THETA_WORLD            Position angle (CCW/world-x)                               [deg]
#  10 FWHM_WORLD             FWHM assuming a gaussian core                              [deg]
#  11 ELONGATION             A_IMAGE/B_IMAGE                                           
#  12 ELLIPTICITY            1 - B_IMAGE/A_IMAGE                                       
         1 -12.9179     84.2189     24.1870   3.4899948162e+01   5.8874266064e+01    0.2421888    0.2241908   4.33  0.000387446    1.194    0.163
         2 -11.9474     66.8713     16.1016   3.7228392435e+01   6.2925530674e+01    0.3487933     0.143842 -30.09  0.001714233    2.629    0.620
         3 -10.9634    117.1854     10.7978   2.2213778899e+01   5.3212378628e+01    0.1713796    0.1215172  39.55 0.0002705833    1.324    0.245
         4 -11.5403     55.8666     10.9106   3.8911068129e+01   6.5311273247e+01    0.2054493    0.1583965  21.14  0.001028161    1.005    0.005
         5 -12.1803     81.5017      8.8998   2.9936600692e+01   6.0855986497e+01    0.2632402    0.1478038  47.79 0.0003790755    1.431    0.301
         6 -13.4274     90.5288      5.0780   2.6157184269e+01   5.9359770695e+01    0.3954465    0.2939078  80.31  0.002436411    1.763    0.433
         7 -10.8517     48.3069      7.9394   4.0451130602e+01   6.6807376201e+01    0.1611134    0.1203212  14.87 0.0005413677    1.054    0.051
         8 -10.6603    103.5543      7.5089   2.3979579741e+01   5.6450030152e+01    0.1232856    0.1003644  48.53 0.0001254335    1.013    0.013
         9 -11.1426    106.7893      4.1090   2.2149355043e+01   5.6019325076e+01    0.1712789    0.1479288  67.41 0.0004297969    1.182    0.154
        10 -12.0884      5.3306      3.4802   5.8432662082e+01   7.2606315577e+01    0.1873059    0.1308863  -9.78 0.0005013307    1.060    0.056
        11 -11.3927    100.8586      2.0274   2.2701636237e+01   5.7439288382e+01    0.2183173     0.145233  57.29 0.0009139006    1.229    0.187
        12 -11.5585     49.9133      1.9797   3.7208134651e+01   6.7087242087e+01     0.171047    0.1290459  20.61 0.0003861554    1.022    0.021
        13 -10.7079    158.6118    240.8019   6.9251082576e+01   4.3534272981e-01    0.1707099    0.1329141 -62.82 0.0006768348    1.627    0.386
        14 -11.9589    237.0549    249.2756   5.4725342475e+01  -1.2639011568e+01    0.2829109    0.2155249   3.35  0.001127461    1.058    0.055
        15 -11.5328    124.9760    249.5479   7.7816104974e+01   4.2717597415e+00    0.2231865    0.1834432 -30.10 0.0006005302    1.503    0.335
        16 -13.8856    102.8040    235.0519   8.0753841867e+01   1.0754675711e+01    0.6855929    0.3420445  52.80  0.002261106    2.048    0.512
        17 -11.0482     97.5214    236.5982   8.2120156950e+01   1.1257363128e+01    0.2946392    0.1707187 -75.60  0.001166781    2.105    0.525
        18 -12.4277    115.0006    249.9024   8.0002414362e+01   5.7930590439e+00    0.2858382    0.2598493  82.40  0.001162976    1.175    0.149
        19 -12.5411    115.1733    244.8399   7.9312447053e+01   6.7651877685e+00    0.3026047    0.1924319 -53.09  0.001150578    1.772    0.436
        20 -14.3083    117.9706    236.8054   7.7615621676e+01   7.9430731849e+00    0.5849311    0.5138339 -12.94  0.002743141    1.404    0.287
        21 -13.5388    111.6626    234.7721   7.8742503069e+01   9.3927771023e+00    0.4545539    0.3920615  26.30  0.002669473    1.233    0.189
        22 -12.8346     97.0036    248.8499   8.3709501068e+01   8.8043460732e+00     0.550244    0.3381609  39.67  0.001599882    1.436    0.304
        23 -11.0046     80.6707    246.4171   8.6881685410e+01   1.1742299923e+01     0.191003    0.1128851  41.19 0.0007079206    1.497    0.332
        24 -12.1111     85.0256    250.5771   8.6416989175e+01   1.0253217832e+01    0.2476165    0.1249757  40.53 0.0004161117    1.711    0.416
        25 -12.7123     85.6062    246.3660   8.5838525761e+01   1.1026914408e+01    0.3029332    0.2355078 -88.22 0.0005054119    1.323    0.244
        26 -12.1346     60.4842    241.9164   9.0624847267e+01   1.5524416241e+01    0.3818737     0.266849   5.45  0.001934119    2.651    0.623
        27 -13.7876     67.3019    245.9054   8.9605430501e+01   1.3751529273e+01    0.6594403    0.4057454 -53.89  0.003602291    1.934    0.483
        28 -12.4387     51.0415    250.6446   9.3300980081e+01   1.4946212727e+01    0.3601229     0.252636   0.77  0.001570511    3.015    0.668
        29 -12.8504     21.0780    198.5334   9.5049424238e+01   3.0068221811e+01    0.7485916    0.4310155  70.24  0.003984577    1.701    0.412
        30 -14.6144     38.6112    225.5933   9.3670677754e+01   2.1882978966e+01     1.292182     1.052583 -13.42  0.007805637    1.995    0.499
        31 -13.5787     34.5301    242.4116   9.5869739410e+01   1.8705977037e+01    0.4844176    0.2761859 -63.18  0.002773314    1.841    0.457
        32 -13.6077     32.2597    235.2622   9.5765538362e+01   2.0499878977e+01    0.5535854    0.2928935 -59.53  0.002989059    2.040    0.510
        33 -14.5832      3.8406    208.3509   9.9497747881e+01   2.9413851391e+01     1.753579    0.4082083 -60.92  0.006841284    3.686    0.729
        34 -14.1149     28.7480    248.0796   9.7387562184e+01   1.8198054116e+01    0.4427429    0.2723291  88.01  0.002726673    1.434    0.302
        35 -13.3104     21.9905    248.5449   9.8676437663e+01   1.8866506470e+01    0.2999801    0.2132445  43.80  0.001462233    1.414    0.293
        36 -13.8250     26.7081    234.9761   9.6839100211e+01   2.1194486144e+01    0.6657225    0.2399852 -81.24  0.002890053    2.844    0.648
        37 -14.9147     18.4282    214.4800   9.6951100461e+01   2.6629278164e+01     1.284437    0.7806416  85.78  0.007436756    1.430    0.301
        38 -17.1950     11.5834    238.1759   9.9945244206e+01   2.2134481875e+01     2.041304     1.220497  84.51    0.0127535    1.382    0.277
        39 -14.7737     13.4973    225.6919   9.8765331521e+01   2.4623719718e+01    0.5525633    0.4490251  26.29  0.003782394    1.647    0.393
        40 -11.5903    134.7492    241.4291   7.4561499924e+01   4.2562011799e+00    0.1886277    0.1213838  27.16 0.0004545696    1.578    0.366
        41 -12.8456     90.6053    238.2177   8.3833476886e+01   1.1979493637e+01     0.547253    0.2867498 -50.35  0.002153842    2.239    0.553
        42 -10.5996     82.4454    241.5367   8.5975403073e+01   1.2500691789e+01    0.1286937     0.115348  60.37  0.000126426    1.085    0.078
        43 -10.6916    240.0084    239.5285   5.2492475491e+01  -1.1595834225e+01    0.1691295    0.1079855  26.55 0.0004143939    1.497    0.332
        44 -11.5127    149.0201    238.8233   7.1035945515e+01   2.3960727961e+00    0.3626371    0.2068699  20.34  0.001094334    2.196    0.545
        45 -10.9809     52.6583    237.3539   9.1811839832e+01   1.7538940031e+01      0.24718    0.1526116 -57.05  0.001122775    1.829    0.453
        46 -10.5499     78.7781    237.5710   8.6321330599e+01   1.3882809105e+01    0.1902834    0.1038187  48.94 0.0009348322    1.625    0.385
        47 -11.3271     59.5817    222.5540   8.8869315136e+01   1.9912828527e+01    0.3442717    0.1267191  54.76 0.0004676824    3.061    0.673
        48  -9.1563     61.6499    220.4386   8.8182022689e+01   2.0117344033e+01    0.7221281   0.04514989  40.77  0.001913446    5.932    0.831
        49 -10.7452     68.4378    225.8744   8.7276232785e+01   1.7941946369e+01    0.7288263    0.4243294  79.04  0.003464585    2.020    0.505
        50 -12.8999     71.4613    234.2906   8.7538487877e+01   1.5647577913e+01    0.3043999    0.2373729  46.94  0.000439919    1.191    0.160
        51 -12.4487     74.0516    229.0234   8.6391465615e+01   1.6437512836e+01    0.4268991    0.3266237 -23.17  0.002275307    2.059    0.514
        52 -12.5558     62.2123    231.8808   8.9272200020e+01   1.7463970077e+01    0.5881873    0.4983568 -77.30  0.003417437    1.206    0.171
        53 -12.4826     58.9974    230.0088   8.9770379992e+01   1.8313007974e+01    0.5551679     0.199868  45.31  0.001677061    2.412    0.585
        54 -10.2872     43.6572    235.2367   9.3469367498e+01   1.9139779231e+01    0.1297784   0.07501704  60.77 0.0004162824    1.554    0.357
        55 -12.6248    131.0488    231.4511   7.3910483103e+01   6.8754069946e+00     0.396319    0.1756258  47.67  0.001370041    2.274    0.560
        56 -10.5706    190.4322    237.4133   6.1907427855e+01  -4.0992576422e+00    0.1328634    0.1147778  12.45 0.0001151981    1.018    0.018
        57 -12.9295    220.2074    230.2758   5.4621534765e+01  -7.4219877488e+00    0.3517134    0.2122775  33.73  0.001191739    1.627    0.385
        58 -12.2669    127.2308    227.4973   7.4178716417e+01   8.3432823428e+00     0.237907    0.1839478 -81.68  0.001244542    1.581    0.368
        59 -14.2310    109.7219    214.5375   7.6284097576e+01   1.4138958500e+01    0.5891756    0.4061788 -29.09  0.002732735    2.043    0.511
        60 -13.5679    113.6700    218.8632   7.6007293301e+01   1.2503784445e+01    0.4218112    0.3406625 -71.88 0.0009286914    1.332    0.249
        61 -14.6685    114.3350    227.0381   7.7055983975e+01   1.0600960175e+01    0.8809266    0.4571397  41.90  0.003354446    1.737    0.424
        62 -13.8253    105.9102    227.1444   7.8994601201e+01   1.1958296362e+01    0.5642405    0.2995864  40.86  0.001297013    1.700    0.412
        63 -11.3058    194.1251    229.6680   5.9792597592e+01  -3.3287054568e+00    0.2273566    0.1854465 -44.34  0.001318871    1.395    0.283
        64 -11.1013     83.7513    229.6387   8.4315409145e+01   1.4873957821e+01    0.1930347    0.1617521  32.87 0.0007971426    1.295    0.228
        65 -11.1917    178.0091    228.4657   6.3003691362e+01  -4.8241616349e-01    0.1945981     0.175502 -10.81 0.0002355511    1.095    0.087
        66 -11.6681    149.7808    229.6245   6.9413319573e+01   4.0660293838e+00    0.2053674    0.1184482  44.68 0.0005292568    1.663    0.399
        67 -10.3281     49.6701    229.7634   9.1729160042e+01   1.9587596594e+01    0.1080535    0.1005884 -18.88 0.0002918721    1.530    0.347
        68 -12.2714    231.7191    226.9003   5.1794481550e+01  -8.5226279354e+00    0.3288521    0.2220843 -30.10  0.001910065    1.347    0.258
        69 -11.8240    248.5369    226.5454   4.8625426094e+01  -1.0741915345e+01     0.200286    0.1073331 -45.57 0.0006508204    2.149    0.535
        70 -11.8395     91.5568    225.9031   8.2095446935e+01   1.4510977577e+01    0.2789107    0.2056841 -87.64 0.0008639177    1.461    0.316
        71 -12.8181     95.9977    225.4448   8.1025177100e+01   1.3918154731e+01    0.2605613    0.1874162  86.39  0.001044529    1.575    0.365
        72 -12.9118     27.5186    224.7033   9.5887580595e+01   2.3357712130e+01    0.3371155    0.2204866  59.07  0.001823352    1.336    0.251
        73 -10.7766    222.4469    225.5032   5.3321948293e+01  -6.9627192737e+00    0.1313145    0.1105204  -5.25  0.000106087    1.017    0.017
        74 -15.5424     74.5919    167.6282   7.7693501376e+01   3.1247264455e+01      2.48306     0.848441 -68.02  0.006439167    3.878    0.742
        75 -13.0967     58.9250    213.0777   8.7977334279e+01   2.2194124353e+01    0.5093532    0.4726135  36.53  0.002363386    1.274    0.215
        76 -13.0126     62.0900    204.7980   8.6270807207e+01   2.3735364738e+01    0.5956696     0.353149 -79.25  0.002877247    1.716    0.417
        77 -13.4139     87.6479    214.0197   8.1427293273e+01   1.7822615743e+01    0.5749242    0.5043555 -69.42  0.002709819    1.168    0.144
        78 -13.3842     69.4582    207.2111   8.4828277016e+01   2.2133376055e+01    0.5586232    0.4428532   2.25  0.001787293    1.820    0.451
        79 -13.6307     77.4058    202.2232   8.2264623132e+01   2.2178317008e+01    0.5467137    0.3746952 -51.07  0.002755839    1.566    0.362
        80 -13.8786     77.3453    218.8616   8.4447946472e+01   1.8257722219e+01    0.5846515    0.3613627  71.13    0.0028012    1.834    0.455
        81 -13.8137     78.7814    212.4605   8.3304062182e+01   1.9533506893e+01    0.8124547    0.3150743  35.38  0.003187017    2.517    0.603
        82 -13.3037     90.1291    201.9917   7.9125721490e+01   2.0280579304e+01    0.6066589    0.3377508 -44.84  0.001521653    2.115    0.527
        83 -14.6267     94.9739    194.5513   7.6780091726e+01   2.1304547063e+01     1.217558    0.6166738  47.59  0.005017464    1.986    0.497
        84 -14.6083     68.7344    186.5311   8.2210603122e+01   2.7302172507e+01    0.9593148    0.7977357  37.30  0.004006834    1.282    0.220
        85 -14.0203     65.3343    181.1499   8.2301374306e+01   2.9129158842e+01    0.8414412    0.4465267 -52.06  0.003140107    1.871    0.466
        86 -11.3403    212.3298    223.8224   5.5014418901e+01  -5.1600118946e+00    0.2340259    0.1797578 -10.40 0.0009560814    1.225    0.183
        87 -12.4603    159.6111    222.2501   6.5979035113e+01   3.8488971262e+00     0.362773    0.2441825  36.23 0.0006180316    1.377    0.274
        88 -13.7362    125.5467    221.1051   7.3583438209e+01   9.9958709361e+00    0.5742201    0.4106111  19.22 0.0009081146    1.648    0.393
        89 -13.6897    125.9174    213.2124   7.2238885958e+01   1.1665858030e+01    0.5630602    0.2872906  44.75  0.001218468    1.870    0.465
        90 -11.8283    237.9620    221.0081   4.9547873364e+01  -8.4466584577e+00    0.2043022    0.1676304  -8.51  0.001304191    1.014    0.013
        91 -11.3995    223.1736    220.5090   5.2265157789e+01  -6.2339411731e+00     0.222451    0.1659456 -28.77 0.0005041664    1.235    0.190
        92 -11.7967    189.5179    220.3316   5.9090899597e+01  -8.8176826717e-01     0.293049    0.1971073  -7.69 0.0007560271    1.838    0.456
        93 -11.2313    194.5849    220.0921   5.7975914748e+01  -1.6751724509e+00    0.2556312    0.1851048  46.59 0.0009359478    1.581    0.367
        94 -12.0097    173.0949    219.1409   6.2433580707e+01   2.1312298223e+00    0.2853663    0.2094061 -50.60  0.001122848    1.518    0.341
        95 -12.0874    145.6796    215.4458   6.7985158947e+01   7.6984500658e+00    0.5841341    0.3353075 -34.78  0.002492784    2.158    0.537
        96 -13.4712    141.1699    210.8438   6.8243260082e+01   9.4915272867e+00     0.701633    0.3738387 -67.30  0.001535421    2.884    0.653
        97 -11.2590    231.2410    218.4293   5.0332048601e+01  -7.0695795512e+00    0.1685753     0.119519  39.44 0.0007177679    1.624    0.384
        98 -11.9148     64.5070    215.6698   8.7000952635e+01   2.0829499934e+01    0.3260565    0.2343387 -69.66  0.001806335    1.349    0.259
        99 -11.0706    225.1766    216.5016   5.1133352990e+01  -5.8527458240e+00    0.1921825    0.1226969  30.70  0.001024458    1.565    0.361
       100 -12.1008    155.9408    214.5027   6.5460782380e+01   6.0759129436e+00    0.2718299    0.1982951 -26.50 0.0006680874    1.586    0.369
       101 -13.0075    120.1665    214.8376   7.3859330478e+01   1.2298633951e+01    0.3560176    0.2058253  55.84  0.001527618    1.967    0.492
       102 -13.0364    123.4899    206.3152   7.1678992176e+01   1.3647723579e+01    0.4583011     0.192202 -49.89  0.001295096    2.471    0.595
       103 -13.0547    118.1274    206.8562   7.3062450478e+01   1.4462015038e+01    0.3021644    0.2136695 -84.97 0.0006845277    1.821    0.451
       104 -13.9480     39.8621    245.5226   9.5071870358e+01   1.7411632189e+01    0.9168903    0.3903866 -71.47  0.004582214    2.246    0.555
       105 -12.7301    247.5441    212.8257   4.6288470810e+01  -8.4460652951e+00    0.2662517    0.2120396  15.78 0.0008086942    1.252    0.202
       106 -12.7325    108.0054    206.9843   7.5530866276e+01   1.6166819139e+01    0.3393219    0.2292932  -8.78  0.001382284    2.679    0.627
       107 -12.9248     97.5703    212.4518   7.8860032327e+01   1.6617685523e+01     0.539555    0.3093449 -58.79  0.001989098    1.785    0.440
       108 -12.2915    102.5023    206.5162   7.6791440344e+01   1.7196979267e+01    0.3860154    0.2938539  11.88  0.001653065    1.719    0.418
       109 -11.7377     27.3519    209.0228   9.4605043138e+01   2.6952774550e+01    0.4876834    0.2429814  61.27  0.002398642    2.006    0.502
       110 -11.0913     32.9952    206.6541   9.3150010946e+01   2.6889927752e+01    0.2819622    0.1704908 -75.12  0.001074024    1.458    0.314
       111 -11.5512     30.9394    202.3879   9.3201907814e+01   2.8125742913e+01    0.2528479    0.1573663  72.74 0.0008640584    1.550    0.355
       112 -12.2941     36.4372    203.1122   9.2032132105e+01   2.7341587949e+01    0.2690741    0.1994253 -46.32  0.001177146    1.657    0.397
       113 -11.5542     35.7628    199.0677   9.1775779182e+01   2.8385791807e+01    0.1980269    0.1685225  67.01 0.0004258869    1.120    0.107
       114 -10.8561    210.2942    211.6636   5.3163924320e+01  -2.6926516457e+00     0.124698    0.1122438 -84.22 0.0004265364    1.646    0.392
       115 -12.4737    229.3511    208.1588   4.8761249276e+01  -5.0459506690e+00    0.4482069    0.2563615 -37.01  0.002276776    1.598    0.374
       116 -11.3687     46.9711    210.0494   9.0360333881e+01   2.4445255207e+01    0.2259801    0.1617182 -80.94 0.0003263438    1.263    0.208
       117 -12.7237     42.9714    205.8320   9.0825911274e+01   2.5931147620e+01    0.2759403    0.2253662  61.24  0.000670411    1.147    0.128
       118 -12.2853     54.8484    206.4346   8.8160761033e+01   2.4305098033e+01    0.3317739    0.1615892 -62.46 0.0008867341    1.922    0.480
       119 -11.3749    160.3470    206.6824   6.3039116246e+01   6.9260659198e+00    0.2565697    0.1830855 -63.12  0.001211296    1.729    0.422
       120 -10.3177     85.3117    207.6565   8.1108010412e+01   1.9679158068e+01    0.1521814    0.1010015  70.50 0.0007046133    1.703    0.413
       121 -10.6687    205.0492    206.0591   5.3162829492e+01  -8.0127162800e-01    0.1648345    0.1459344  -3.62 0.0003209541    1.014    0.014
       122 -11.1783     81.9298    205.5582   8.1630034632e+01   2.0696592801e+01    0.2355885    0.1880386 -21.69  0.001024983    1.747    0.428
       123 -12.5989    145.5820    202.6802   6.5751259969e+01   1.0487026723e+01    0.4792706    0.2390641 -52.53  0.001924865    2.125    0.529
       124 -11.2249     49.1500    202.5336   8.9045020883e+01   2.5965809773e+01    0.2194545     0.191696 -30.75 0.0008787182    1.516    0.340
       125 -10.8353    189.0710    202.2993   5.5799327710e+01   2.6670673467e+00    0.1928306    0.1713258  22.88 0.0001847411    1.097    0.088
       126 -10.8994      1.3524    202.5248   9.9602701574e+01   3.0957195507e+01    0.1205132   0.09042273 -87.71 7.697054e-06    1.060    0.056
       127 -10.4510    180.5074    201.5131   5.7514918885e+01   4.3510373923e+00    0.1476546    0.1341419  -0.30 0.0005009796    1.047    0.045
       128 -11.3036    212.2058    199.8987   5.0513108961e+01  -8.3907059530e-01    0.2022278    0.1889666 -46.13 0.0008272424    1.266    0.210
       129 -14.3869    123.2979    197.1960   7.0159424593e+01   1.5793786490e+01    0.5924064    0.4635936  30.48  0.002957892    1.310    0.237
       130 -13.6445    139.9496    196.6138   6.5985261217e+01   1.2887463867e+01     0.452814    0.4148995  49.51  0.001982244    1.084    0.077
       131 -12.0032    225.4281    198.7249   4.7691320344e+01  -2.7700581536e+00    0.2562172    0.1221644 -43.81  0.001129094    2.020    0.505
       132 -11.6909     41.0545    198.1610   9.0453114565e+01   2.7998334311e+01    0.2069502    0.1660984 -80.41 0.0003983575    1.101    0.092
       133 -10.9768     30.1222    197.6426   9.2926048659e+01   2.9346556058e+01     0.167049    0.1510556  79.30 0.0006784301    1.137    0.121
       134 -12.5775    113.9940    197.0384   7.2434493492e+01   1.7481057205e+01    0.2263821     0.213047  71.24 0.0004563158    1.037    0.035
       135 -10.8860     61.2877    196.8168   8.5465583836e+01   2.5781355003e+01    0.1843388    0.1122967 -62.43 0.0004055359    1.550    0.355
       136 -11.6107    167.7892    195.7766   5.9259503395e+01   7.8795745739e+00    0.2637458     0.202268  39.28 0.0003676397    1.286    0.222
       137 -10.3120     72.2769    196.2926   8.2702273655e+01   2.4375168636e+01    0.1331529    0.1083039 -35.68 0.0002055067    1.524    0.344
       138 -13.5293     56.0702    176.5100   8.4041706718e+01   3.1534068658e+01    0.5639578    0.4096412 -66.04  0.002130306    1.252    0.201
       139 -14.2834     58.5274    157.8669   8.0514748128e+01   3.5970648122e+01     1.143597     0.301843  44.84  0.003261759    4.554    0.780
       140 -14.6291     61.5200    169.2377   8.1512633427e+01   3.2670749011e+01     1.023164    0.6868135 -37.78  0.004894875    1.785    0.440
       141 -12.7492     56.9571    161.9784   8.1619511502e+01   3.5120570516e+01    0.3707861    0.2905731 -77.15   0.00108501    1.204    0.169
       142 -11.7358     49.5510    195.4966   8.8139269753e+01   2.7623694809e+01    0.3257014    0.2193641 -87.24 0.0007329212    1.427    0.299
       143 -12.6852     48.4317    184.1731   8.7026225280e+01   3.0559815890e+01    0.5109283    0.3377518  73.30  0.002586825    1.610    0.379
       144 -12.7768     52.1124    189.3376   8.6764007191e+01   2.8820793694e+01    0.5356972    0.3518785 -16.45   0.00238859    2.743    0.635
       145 -12.3959     53.0185    184.6920   8.5941165223e+01   2.9863241844e+01    0.2534589    0.2215512 -84.04 0.0006443302    1.019    0.018
       146 -12.4709     63.0266    156.7614   7.9057289768e+01   3.5661081740e+01    0.2818647    0.2223984  50.68 0.0003018542    1.346    0.257
       147 -14.1004     65.7097    154.0636   7.7821057789e+01   3.5987228330e+01    0.5664476    0.3957168 -64.16 0.0005403156    1.328    0.247
       148 -11.7486    152.8492    195.6308   6.2712013493e+01   1.0704546998e+01     0.217693    0.1346627  47.39 0.0005008051    1.670    0.401
       149 -11.8736    217.4738    193.5712   4.8219340361e+01  -5.3069590151e-01    0.2371498    0.2225318 -29.65  0.001432449    1.167    0.143
       150 -11.7367     17.1436    179.1080   9.4127602763e+01   3.5114028446e+01    0.3863408    0.2117586  60.46  0.001592938    1.924    0.480
       151 -12.3659     31.6164    188.3633   9.1626722151e+01   3.1434450186e+01    0.2651751    0.2289022  89.93 0.0004799267    1.043    0.041
       152 -11.9786     35.7703    188.2252   9.0617490019e+01   3.1019624227e+01     0.435024    0.1826256 -65.37  0.001402634    2.040    0.510
       153 -12.1209     18.9674    188.0670   9.4565726445e+01   3.2775100180e+01    0.4177673    0.2742717  58.05  0.002407721    1.492    0.330
       154 -12.6532     26.3695    192.3526   9.3267770205e+01   3.1012343016e+01    0.5698914    0.2038429 -76.21  0.001834907    2.637    0.621
       155 -12.8092     28.3916    183.7085   9.1901956259e+01   3.2909788935e+01    0.9441655    0.3281415 -50.12  0.003243581    3.272    0.694
       156 -12.2684     23.6802    181.1017   9.2761860758e+01   3.4016674162e+01    0.5744554    0.2654023  54.80  0.002619525    2.359    0.576
       157 -12.0755     11.7990    180.2384   9.5500621375e+01   3.5309643579e+01    0.3371691    0.2437298 -53.60 0.0009271434    1.462    0.316
       158 -12.7957     11.6737    188.6495   9.6285345351e+01   3.3303161985e+01    0.3783852     0.200192 -50.24  0.001204641    2.128    0.530
       159 -13.8051      7.8803    187.6025   9.7049899406e+01   3.3881247949e+01    0.7301171    0.3209767 -51.11  0.003444952    2.535    0.605
       160 -12.4748    243.7627    192.1498   4.3029278675e+01  -4.4291687748e+00    0.3457057    0.2447681  10.92  0.001143988    1.579    0.367
       161 -12.1066    248.3419    185.3841   4.0912215111e+01  -3.9347040164e+00    0.3221734    0.2243869 -13.76  0.001268833    1.514    0.339
       162 -11.2532    212.5429    193.0437   4.9091359443e+01   3.9724928709e-01    0.2112791    0.1294828 -40.89 0.0003794889    1.541    0.351
       163 -11.5862    179.1869    191.5243   5.5841816362e+01   6.6589526279e+00    0.4126902    0.2668559 -80.96  0.001432199    3.682    0.728
       164 -13.6972    135.0634    187.3644   6.5439492319e+01   1.5939393533e+01    0.7994472    0.3091414 -38.38  0.002362523    3.807    0.737
       165 -13.2540    110.9155    188.6176   7.1747352896e+01   2.0046941384e+01    0.3903089    0.2767321 -56.15  0.001847253    1.417    0.295
       166 -11.8442    245.5674    188.5096   4.2003177244e+01  -4.0647239193e+00    0.2296372     0.170502 -35.73  0.000447683    1.181    0.153
       167 -13.6709    121.6296    187.1727   6.8768106482e+01   1.8476041139e+01    0.5060833    0.3901224  10.20  0.001376942    1.644    0.392
       168 -14.0448    119.0614    180.7853   6.8226678034e+01   2.0491913086e+01    0.7110516    0.4114169  60.96  0.002696867    2.367    0.578
       169 -11.5112    162.3875    193.0174   5.9966226190e+01   9.4880591657e+00    0.3684662    0.1448118  39.26 0.0007593255    2.493    0.599
       170 -10.9003    209.0083    186.0096   4.8384855393e+01   2.3637104328e+00    0.1714622    0.1536916 -19.54 0.0009701859    1.011    0.011
       171 -11.5074      2.4626    186.1783   9.8142711360e+01   3.4665178338e+01     0.168887    0.1548136 -66.67 0.0003377694    1.291    0.226
       172 -11.6340    151.0605    183.0518   6.0670272549e+01   1.3883701796e+01    0.2298806    0.2224163  15.52 0.0003193968    1.021    0.021
       173 -11.1829    166.7256    181.6711   5.6674195047e+01   1.1153673171e+01    0.2255701    0.1988473  33.89 0.0004775587    1.130    0.115
       174 -11.9154    167.0309    178.0305   5.5847565184e+01   1.1900998753e+01     0.248599    0.2160103 -40.81            0    1.139    0.122
       175 -11.5984      4.8880    181.4164   9.7204042014e+01   3.5600132705e+01    0.2212911    0.1584747 -44.31 0.0005942954    1.690    0.408
       176 -12.2829    198.6921    179.8718   4.9240281620e+01   5.4477032848e+00    0.2576486    0.2400425 -31.15 0.0003415622    1.066    0.062
       177 -11.8223    192.4729    178.6186   5.0292554433e+01   6.8659113448e+00    0.3695257    0.2416085 -74.16  0.001213409    2.936    0.659
       178 -13.7267    106.7129    176.8431   7.0699420080e+01   2.3685630745e+01    0.5285266    0.3274585 -66.36  0.001409805    1.769    0.435
       179 -12.7989    136.9485    176.2919   6.2783744938e+01   1.8198435593e+01    0.3447494    0.2483955  88.88  0.001442661    2.025    0.506
       180 -10.9980    250.6693    176.2290   3.8722825539e+01  -2.6800445333e+00    0.1844105    0.1032723 -33.31 0.0002896681    1.577    0.366
       181 -12.0286     12.8175    174.7860   9.4739424282e+01   3.6543683399e+01    0.3961251    0.1700179 -54.26  0.001847197    2.215    0.549
       182 -11.4453      6.0243    176.1964   9.6485173865e+01   3.6759035693e+01    0.2400447    0.1373213  58.89 0.0009433301    1.794    0.443
       183 -11.3694      2.7463    172.2173   9.6901021349e+01   3.7967059164e+01    0.3293306    0.1498846 -75.51  0.001150728    1.758    0.431
       184 -12.7302    126.8307    173.7614   6.4850627068e+01   2.0750169664e+01    0.3993772    0.2269967 -59.67   0.00158455    1.920    0.479
       185 -13.9489    124.5963    167.5136   6.4157362865e+01   2.2700431487e+01    0.6267639    0.4132937  43.36  0.002739391    1.520    0.342
       186 -13.0709    100.2267    184.4434   7.3759800351e+01   2.2918233372e+01    0.4091079    0.3491388 -45.39  0.001068065    1.240    0.194
       187 -13.4002    100.9066    172.2043   7.1374941659e+01   2.5859107530e+01    0.4238003    0.2752705 -49.80   0.00167023    1.531    0.347
       188 -10.8425     22.0340    174.4839   9.2461482786e+01   3.5798578616e+01    0.1762814    0.1291809  31.58  0.001030931    1.585    0.369
       189 -12.0181     24.4955    169.0258   9.1236034866e+01   3.6918233954e+01    0.3053331     0.218348  31.84  0.001715748    1.609    0.378
       190 -12.4621     33.9184    172.0390   8.9187910648e+01   3.5233681709e+01    0.4618765    0.3005618  19.42  0.002413883    1.956    0.489
       191 -11.2053     27.1831    172.8235   9.0992679406e+01   3.5717980086e+01    0.2307801    0.1517128 -70.43 0.0003871788    1.288    0.224
       192 -11.5981    244.0373    172.0118   3.9008413614e+01  -8.9246983906e-01    0.2029648    0.1739549 -32.11            0    1.043    0.041
       193 -11.0674    235.3237    171.7230   4.0469943692e+01   5.7925494047e-01    0.2365074    0.1631229  14.91  0.001191272    1.843    0.457
       194 -10.6607    221.5239    180.4736   4.4798415017e+01   1.2612171067e+00    0.1419475    0.1247095 -21.05 0.0001263705    1.017    0.017
       195 -13.3336    152.4009    166.9690   5.6985641626e+01   1.7333635097e+01    0.6423843    0.2548082 -48.34  0.002171998    2.505    0.601
       196 -11.5018     40.5488    174.1964   8.7755367771e+01   3.3977354293e+01    0.3397942    0.1730272 -48.40  0.001526014    2.091    0.522
       197 -12.8726     47.0289    162.7483   8.4465608110e+01   3.6135302927e+01    0.5681814     0.313841 -72.47  0.002343335    1.717    0.418
       198 -13.3888     40.8549    159.4512   8.5674462292e+01   3.7668115859e+01    0.5482311    0.3110996  60.26  0.002494097    2.144    0.533
       199 -12.3014     40.7877    167.3991   8.6799100325e+01   3.5663622041e+01    0.3922279    0.2113333 -81.79  0.001752317    1.959    0.490
       200 -12.5749     37.2819    163.2226   8.7168557964e+01   3.7097338698e+01    0.3235846    0.2273606  57.40  0.001170451    1.525    0.344
       201 -12.2526     33.0208    162.0031   8.8146160891e+01   3.7844685628e+01    0.2150465     0.206736  71.90  0.000375726    1.166    0.142
       202 -11.0728     54.4972    167.0209   8.3072281661e+01   3.4144301541e+01    0.2126202    0.1284528 -66.59 0.0003289392    1.500    0.334
       203 -10.1932     15.7018    167.6520   9.3303174594e+01   3.8043278365e+01    0.1331284   0.08223665 -49.15 0.0005711807    1.682    0.405
       204 -11.6895     10.7877    166.8634   9.4445041218e+01   3.8641331120e+01    0.2340809    0.2105147 -55.25 0.0008766539    1.252    0.201
       205 -12.5760    110.7849    164.3242   6.7178818156e+01   2.6078541768e+01    0.2828156    0.2678357 -54.46 0.0002971606    1.047    0.045
       206 -12.8467     26.4216    134.4049   8.6067641507e+01   4.5370531622e+01    0.3935709    0.2377408 -76.39 0.0007225983    1.595    0.373
       207 -13.8634      6.6535    119.1122   8.9773836347e+01   5.0529576551e+01    0.8258597    0.5488491 -10.45  0.004816478    1.869    0.465
       208 -14.6181     18.2006    150.0695   9.0612414104e+01   4.2178297944e+01     1.013906    0.8654168 -68.85  0.006497301    1.054    0.052
       209 -13.4113      8.8366    146.8045   9.2761157990e+01   4.3695436090e+01    0.5783631    0.3616379 -31.34  0.003160113    1.982    0.495
       210 -13.9831     31.6026    139.1233   8.5262830265e+01   4.3729940448e+01    0.8215118    0.3752145   8.43  0.001421786    3.629    0.724
       211 -15.1892     33.5704    130.4800   8.3258523965e+01   4.5692272272e+01     1.476172    0.7164428  59.95  0.005546558    3.571    0.720
       212 -14.5532     13.5553    137.3274   9.0260435683e+01   4.5675767076e+01     0.872634    0.5464026 -73.12  0.004077616    1.352    0.261
       213 -14.0769      4.7654    130.5960   9.1911629608e+01   4.7898230065e+01    0.8284835    0.4388409 -58.38  0.004467538    1.483    0.326
       214 -14.7342     17.9786    126.1198   8.7341337205e+01   4.8083267528e+01      0.96986    0.6597266  45.10  0.004826387    1.748    0.428
       215 -15.0878     37.5645    149.1088   8.5069154591e+01   4.0634563125e+01     0.870915    0.7430156  16.49  0.005179774    1.397    0.284
       216 -14.0019     36.9811    143.7477   8.4409728337e+01   4.2045592010e+01    0.7815514    0.3796837   9.50   0.00311033    3.301    0.697
       217 -13.1255     21.4869    161.2938   9.1107151560e+01   3.9113216229e+01    0.5475708    0.3587061 -72.35  0.001331369    1.273    0.214
       218 -12.7337     16.6894    160.4312   9.2255788349e+01   3.9739181291e+01     0.372582    0.2239536  69.17  0.001003444    1.847    0.459
       219 -13.4837     26.3056    154.7649   8.9006185976e+01   4.0307263530e+01    0.6299939    0.3504032  88.12  0.001579918    2.063    0.515
       220 -13.1424     27.4902    149.8806   8.8022921309e+01   4.1420918301e+01     0.428533    0.2646949  51.71  0.001969801    1.837    0.456
       221 -11.1958    205.9109    164.1732   4.4443959622e+01   7.2917948611e+00    0.2124762    0.2013293 -66.81 0.0004933975    1.182    0.154
       222 -13.6703     87.8534    163.5570   7.3311469044e+01   3.0235988786e+01    0.6780918    0.2577085 -50.23  0.002362822    2.529    0.605
       223 -13.5713     90.9808    161.7594   7.2103425953e+01   3.0182142553e+01    0.4031267    0.3433301 -58.61  0.002046789    1.127    0.113
       224 -11.7075      6.9821    160.4753   9.4744348529e+01   4.0492051082e+01    0.2401023    0.1836947 -62.91 0.0006143639    1.182    0.154
       225 -11.5161    242.8621    162.3519   3.7261980965e+01   1.0590043342e+00    0.2207323    0.1631291 -46.06 0.0003504386    1.254    0.203
       226 -12.8686    190.4366    193.6871   5.3810307232e+01   4.1498679817e+00    0.4972044    0.3699718  47.61  0.001383079    1.490    0.329
       227 -13.6613     81.4801    195.3286   8.0280028313e+01   2.3245347108e+01     1.446767    0.7368566  80.73  0.004526177    4.214    0.763
       228 -15.6562     92.2847    183.2181   7.5612188650e+01   2.4543694026e+01     1.605054    0.9740709 -68.85  0.005377296    1.753    0.430
       229 -12.5622    169.8336    160.0950   5.1324150576e+01   1.5343891396e+01     0.339851    0.2203913 -57.60  0.001433725    1.734    0.423
       230 -13.8802     81.6698    157.5384   7.3910659021e+01   3.2754998505e+01    0.5756103    0.2851644 -57.88  0.002037582    1.896    0.473
       231 -11.8864    159.0042    160.1136   5.3880155898e+01   1.7569916896e+01    0.2323736    0.2269312  -8.50 0.0003478015    1.025    0.024
       232 -11.2797    120.3521    160.2945   6.3768342965e+01   2.5287809725e+01    0.1613134    0.1259411  -9.30 0.0003381852    1.683    0.406
       233 -11.1252    105.0449    158.4924   6.7554062993e+01   2.8581256554e+01    0.2364427    0.1531266  39.80 0.0006006951    1.569    0.363
       234 -12.3624      4.0623    163.0308   9.5728714121e+01   4.0085271616e+01    0.3580152    0.2127131  58.37  0.001925428    1.802    0.445
       235 -11.0780    204.9262    156.1434   4.2902697417e+01   9.1185556604e+00    0.2110771    0.1940235 -73.27 0.0002614433    1.227    0.185
       236 -12.2957    121.9307    156.0149   6.2424129669e+01   2.6037542942e+01    0.2342653    0.2282386 -77.13  0.000289805    1.026    0.025
       237 -12.0633    112.2273    156.2089   6.5099647423e+01   2.7837235220e+01    0.2235946    0.1875331  75.73  0.001070095    1.357    0.263
       238 -11.9784      2.1350    153.5591   9.5269102907e+01   4.2513234496e+01    0.4353904    0.1843289 -84.60  0.001936941    2.323    0.569
       239 -11.7745    141.3601    154.2702   5.6940726173e+01   2.2571616344e+01     0.298082    0.2072766 -58.82  0.001089935    1.543    0.352
       240 -14.0569     49.2622    151.6308   8.2122361194e+01   3.8705307582e+01    0.5590236     0.396455  34.39 0.0009529764    1.548    0.354
       241 -11.8798     79.6044    151.2365   7.3290679353e+01   3.4684272395e+01    0.2418134    0.1444038 -59.94 0.0005800871    1.594    0.372
       242 -14.2055     84.7561    148.1768   7.1187173396e+01   3.4652402348e+01    0.7498621    0.3661184 -59.79   0.00206572    2.025    0.506
       243 -12.6441     80.0591    147.0219   7.2323136150e+01   3.5686896314e+01    0.3170874    0.2431713 -36.49 0.0003349018    1.394    0.283
       244 -11.5417    232.3462    151.8721   3.6896806073e+01   4.8265814513e+00    0.1981994    0.1909715 -79.39 0.0003339555    1.193    0.162
       245 -10.4091    249.5297    151.4966   3.3975023647e+01   1.9355166256e+00     0.135968    0.1137178 -33.91 0.0001645732    1.049    0.047
       246 -12.4488    170.5394    150.0344   4.8886619638e+01   1.7443416381e+01    0.3693906    0.2708609  85.20   0.00155044    2.043    0.510
       247 -12.6747    130.5514    150.7362   5.8950635043e+01   2.5618803823e+01    0.3784081    0.2547692  24.75  0.001076789    1.794    0.443
       248 -12.2500    147.5390    149.3546   5.4254283894e+01   2.2449526641e+01    0.3631212    0.2936229 -69.20  0.001104005    1.403    0.287
       249 -12.7925    108.5720    148.6551   6.4477898112e+01   3.0398873976e+01    0.4477485    0.2995397 -56.76 0.0009991247    1.490    0.329
       250 -13.1130    101.5863    142.2615   6.5043093777e+01   3.3268722602e+01    0.6726927    0.4026263  65.18  0.001787723    2.649    0.623
       251 -13.2703     98.0512    148.6418   6.7452058520e+01   3.2301442595e+01      0.43639    0.3585118  89.02  0.002115824    1.410    0.291
       252 -12.2210     88.1315    152.8794   7.1165114947e+01   3.2910526472e+01    0.2381629    0.2077666  81.88 0.0006178942    1.233    0.189
       253 -11.8143    121.1849    146.8046   6.0573440482e+01   2.8441100490e+01    0.2193524    0.1898199 -13.94 0.0005230511    1.320    0.243
       254 -12.9888      3.9444    142.4905   9.3588673864e+01   4.5076543362e+01    0.5675716    0.1920592 -59.98  0.002042411    2.175    0.540
       255 -10.8998    207.2652    146.5409   4.0333849285e+01   1.0614616640e+01    0.1960662    0.1424846  30.37 0.0009375876    1.612    0.380
       256 -13.0353     56.4232    141.7754   7.8318730505e+01   4.0341121909e+01    0.2524032    0.2125089  31.24  0.001298695    1.313    0.238
       257 -11.7735    139.9632    140.9667   5.4215099791e+01   2.6007531296e+01    0.2413004    0.2302447 -52.52 0.0004378371    1.037    0.036
       258 -12.4443     94.9957    140.3861   6.6537893200e+01   3.4903017236e+01    0.3231267    0.2261562 -51.28 0.0009532892    1.365    0.268
       259 -12.1042    223.0303    139.7044   3.5931134433e+01   8.8905889542e+00    0.2595662    0.1901788 -42.55 0.0002899792    1.221    0.181
       260 -10.7901    189.2493    139.8270   4.2432195748e+01   1.5701137375e+01     0.261362    0.1711286 -82.15 0.0009586163    2.824    0.646
       261 -11.1827    230.1158    139.3190   3.4628120877e+01   7.6235691271e+00    0.1825243    0.1726311 -64.04 0.0004257302    1.120    0.107
       262 -12.4058    179.5445    135.4356   4.3470349307e+01   1.8710651262e+01    0.3545634    0.2823267  -3.48 1.272245e-05    1.632    0.387
       263 -13.0737    118.0090    134.8217   5.8644912990e+01   3.1973739574e+01    0.5513883    0.3775328  72.95  0.001875956    2.191    0.544
       264 -12.6248    103.3629    134.3027   6.2701897811e+01   3.4907080697e+01    0.3652526    0.2631933 -41.31 0.0008991837    1.391    0.281
       265 -12.7246    104.8163    130.8097   6.1447682777e+01   3.5486441870e+01    0.3058592    0.2923903 -28.94 0.0005966036    1.043    0.041
       266 -14.3808     62.7573    133.9595   7.4884544553e+01   4.1490400408e+01    0.5910882    0.4143577  27.13  0.002271433    1.579    0.366
       267 -12.8437     64.9886    127.9738   7.2944251357e+01   4.2678481696e+01    0.3614815    0.2065817 -69.30  0.001517896    2.015    0.504
       268 -13.5218     44.8402    134.5448   8.0509758088e+01   4.3526570725e+01    0.5366793    0.2648734  48.09  0.002258537    2.517    0.603
       269 -13.0105     81.3225    129.3278   6.8155937541e+01   3.9923890018e+01      0.42782    0.2471057 -29.84  0.001671031    2.314    0.568
       270 -13.6882     84.0000    127.0116   6.6798276035e+01   4.0060936042e+01    0.9022035    0.2811141 -58.60  0.002576189    3.856    0.741
       271 -11.7827    127.1150    132.4117   5.5550276559e+01   3.0702745220e+01    0.3448605    0.2488138  89.70 0.0009954125    2.086    0.521
       272 -11.8062    236.8511    130.9540   3.1754333002e+01   7.9436811649e+00    0.2018068    0.1920319 -59.14 0.0002940242    1.106    0.096
       273 -11.5486    201.7150    130.9857   3.7904878676e+01   1.4902520011e+01    0.2129666    0.1819208 -45.32 0.0003697035    1.091    0.083
       274 -14.1461     47.7606    129.5796   7.8685034968e+01   4.4438068901e+01    0.8087243    0.3196757  42.92  0.003082295    3.000    0.667
       275 -12.1915     51.7160    116.4138   7.4728697396e+01   4.7201370474e+01    0.8848221    0.2445268  36.76  0.002975117    3.761    0.734
       276 -14.1290     45.0583    120.4269   7.7750105574e+01   4.6990099061e+01    0.6328817     0.482286  -1.25  0.002435434    1.544    0.352
       277 -11.7859     36.0501    119.7761   8.0545889861e+01   4.8077825391e+01    0.2612554    0.2390856 -73.07 0.0005623234    1.134    0.118
       278 -12.8157    206.5823    129.3150   3.6604720021e+01   1.4222576266e+01     0.290797    0.2484781 -51.55 0.0004693796    1.095    0.087
       279 -10.8032    224.9655    128.6883   3.3211975456e+01   1.0635511051e+01    0.1855276    0.1761516 -61.00 0.0003778852    1.078    0.072
       280 -11.7213    121.8751    128.3417   5.5982854010e+01   3.2735366088e+01    0.2760942    0.2150685 -58.99 0.0006633035    1.349    0.259
       281 -10.1827    130.6692    128.2945   5.3571561385e+01   3.0923757243e+01    0.1610013     0.127456  82.75 0.0002673462    1.634    0.388
       282 -14.0328     59.9451    125.7197   7.4059345434e+01   4.3909147189e+01    0.5143532     0.417008  86.14  0.002072719    1.482    0.325
       283 -10.8923    162.4308    127.5007   4.5404771965e+01   2.4186449145e+01    0.1565835    0.1518979 -34.56  7.52896e-05    1.041    0.040
       284 -13.3191    104.2712    121.7411   5.9375506957e+01   3.7754483931e+01    0.5295247    0.3778783  30.25  0.002420841    1.496    0.332
       285 -12.7517     99.2020    118.3142   6.0023709296e+01   3.9504560371e+01    0.2817947    0.2597911 -84.75 0.0006379859    1.217    0.178
       286 -11.3484    188.9411    121.6327   3.8231146528e+01   1.9545621407e+01    0.2427575    0.2033891 -34.75 0.0002175255    1.215    0.177
       287 -10.6944    165.4903    122.0012   4.3340202725e+01   2.4691232270e+01    0.2156386    0.1340604 -67.02  0.000491779    2.294    0.564
       288 -11.9493    198.2075    121.2468   3.6327863243e+01   1.7605422216e+01    0.3624907    0.2035727  61.29 0.0009248207    2.162    0.537
       289 -12.6126     78.9746    120.5270   6.6837874527e+01   4.2438156625e+01    0.2418918    0.2131967 -85.49   0.00110181    1.309    0.236
       290 -10.5578    224.4506    120.4540   3.1505839482e+01   1.2297903242e+01    0.1425711    0.1259844 -53.64 8.772453e-05    1.016    0.015
       291 -12.9901     73.2132    120.0377   6.8553919674e+01   4.3440049329e+01    0.2646431    0.2179935  28.87  0.001196731    1.291    0.226
       292 -11.3035    229.1740    119.4059   3.0516182864e+01   1.1558870200e+01    0.1915666    0.1334869  70.68 0.0009562112    1.770    0.435
       293 -13.3599      8.6470     97.5021   8.5589937631e+01   5.5433597291e+01    0.6963292    0.3159051 -85.28  0.002581051    4.122    0.757
       294 -12.7495      2.1453    106.3937   8.9287113408e+01   5.3759598746e+01    0.2594985    0.2420689  34.44  0.001859027    1.344    0.256
       295 -10.8319     15.0242    103.4329   8.4479173492e+01   5.3675858960e+01    0.3287505    0.1944978   8.38  0.001539034    2.035    0.509
       296 -12.5936     15.2114    108.8228   8.5383426361e+01   5.2410025923e+01     0.527096    0.2784451 -56.39  0.002759293    1.483    0.326
       297 -13.8310      9.8521    107.2102   8.6883974360e+01   5.3133689134e+01    0.5115879    0.2799937 -76.10  0.002170964    1.853    0.460
       298 -12.8375     22.7195    116.6466   8.4292704421e+01   5.0004357067e+01    0.5286086    0.3273487 -30.66   0.00216557    1.747    0.428
       299 -12.6449     19.5900    113.3367   8.4731100698e+01   5.1033447950e+01    0.4556738    0.3174701 -47.17  0.001177144    1.229    0.186
       300 -12.8875     68.0729    122.2276   7.0702051794e+01   4.3658439521e+01    0.2846396    0.2393729 -21.05  0.001459256    1.260    0.206
       301 -12.7266    124.4698    114.4803   5.1710500726e+01   3.5372317525e+01    0.2795709    0.2743798 -58.27  0.001482634    1.039    0.037
       302 -11.6496    104.8253    114.4039   5.7326154795e+01   3.9353067968e+01    0.2905973     0.217891 -46.96 0.0008676739    1.307    0.235
       303 -11.7231     82.3309    112.6959   6.3842205731e+01   4.3755200447e+01    0.2441939      0.15043 -55.25  0.000281569    1.630    0.387
       304 -12.0101     57.6746    112.7585   7.1933159381e+01   4.7339684459e+01    0.3542606     0.169311 -47.67  0.001501533    1.863    0.463
       305 -13.4354     64.1391    113.8654   7.0048047589e+01   4.6219246930e+01    0.4057796    0.2941596  11.06  0.001228127    1.604    0.377
       306 -12.8972     61.9063    110.2962   6.9940848621e+01   4.7365707894e+01    0.3854733    0.2333828 -39.96  0.001599553    1.588    0.370
       307 -11.8548    109.7997    111.5128   5.5092436744e+01   3.9039051161e+01    0.3161157    0.2358248 -30.46 0.0008125701    1.438    0.304
       308 -12.0010     89.6922    110.6971   6.0991917743e+01   4.2974431983e+01    0.2905088    0.2175754 -18.84 0.0006051721    1.554    0.356
       309 -11.2347     92.0000    107.9875   5.9552687484e+01   4.3185518476e+01    0.2178989    0.1739157 -19.67 0.0004656364    1.364    0.267
       310 -11.8757     53.1413    110.7105   7.2981598352e+01   4.8390058140e+01    0.2862226    0.2385702  27.94 0.0008498674    1.316    0.240
       311 -12.1550    219.5130    109.5746   2.9917165513e+01   1.5335889048e+01    0.3110828    0.2387261  46.83  0.000110099    1.482    0.325
       312 -11.8281    210.4191    107.8318   3.1032665363e+01   1.7576126587e+01     0.281501    0.2132578 -78.75 0.0008506675    1.516    0.340
       313 -12.9088    121.0623    106.9621   5.0641940120e+01   3.7740628527e+01    0.3130843    0.3063106  30.47 0.0006359769    1.024    0.023
       314 -10.6094    140.3465    107.6816   4.5696999314e+01   3.3393537924e+01    0.1619284     0.125157 -89.67 0.0007048821    1.727    0.421
       315 -10.4019    153.6912    106.3505   4.2079493454e+01   3.0650610691e+01    0.1617809    0.1227157 -80.76 0.0007043972    1.714    0.416
       316 -10.5748    116.2809    104.3356   5.1272860858e+01   3.9304377540e+01     0.156323    0.1210031  -7.76 0.0007006556    1.616    0.381
       317 -11.3049    171.6458    113.1713   3.9772191826e+01   2.5148448688e+01    0.2177059    0.1433279 -34.59 0.0009381045    1.625    0.385
       318 -11.3272    229.9939    103.0622   2.6872207043e+01   1.4375407258e+01    0.2043457    0.1788687 -58.87 0.0003052006    1.009    0.009
       319 -12.1821     78.9125    101.3918   6.1996979155e+01   4.6887896844e+01    0.3044669    0.2399626  63.95 0.0007474704    1.686    0.407
       320 -11.0452     55.4457    100.8812   6.9841038993e+01   5.0383066118e+01    0.2663993    0.1674514 -25.99  0.001253832    1.788    0.441
       321 -11.6773     58.9748     96.7446   6.7551275167e+01   5.0855833101e+01    0.4332421    0.2307911 -53.02  0.001957839    1.776    0.437
       322 -12.4825    208.2223     99.5797   2.9514256871e+01   1.9579434615e+01    0.2649568    0.2287004 -61.29 0.0002614544    1.065    0.061
       323 -13.2906     94.0995     99.6926   5.6632100213e+01   4.4642347883e+01    0.5330265    0.4219135 -86.98  0.002535787    1.822    0.451
       324 -11.6482     31.6370     98.9395   7.7775265149e+01   5.3401298970e+01    0.3818539    0.1546177 -41.12   0.00161092    2.301    0.565
       325 -12.2214     24.1805     97.6708   8.0151274148e+01   5.4323887931e+01    0.5200059    0.2664148  35.95  0.002565498    2.329    0.571
       326 -12.2546    161.8969     99.1467   3.8320052880e+01   3.0203132050e+01    0.2448909    0.2095686 -79.15  0.001233103    1.276    0.216
       327 -11.4925    178.8204     98.1189   3.4512099224e+01   2.6476828655e+01    0.2275641    0.1974154 -73.03 0.0003851757    1.173    0.148
       328 -11.9046     75.0769     97.6765   6.2266132257e+01   4.8319102037e+01    0.2014765    0.1816404  -0.78  0.000414266    1.091    0.083
       329 -10.4979    188.6788     97.6933   3.2510559358e+01   2.4293348842e+01    0.1440836    0.1193833  13.00 0.0003600963    1.639    0.390
       330 -12.1198     82.1548     96.1355   5.9482049546e+01   4.7505676126e+01    0.4462495    0.1969874 -36.36  0.001631688    2.577    0.612
       331 -11.9227     98.4697     92.9542   5.3354257896e+01   4.5251588488e+01    0.4561587    0.1894165 -55.04  0.001472287    3.411    0.707
       332 -12.2088     68.2109     95.2686   6.3945633222e+01   4.9889606071e+01    0.2690652    0.1688083  33.73  0.001290014    1.664    0.399
       333 -11.5765     78.8012     92.4171   5.9547132204e+01   4.8856198696e+01    0.2014331    0.1355687  20.15 0.0009459959    1.649    0.394
       334 -12.4214     61.3463     92.0139   6.5452553079e+01   5.1573165106e+01    0.3371665    0.1852642  44.17  0.001499003    2.204    0.546
       335 -11.2215    244.9435     91.2130   2.2336284370e+01   1.3467743305e+01    0.1904991    0.1501656 -67.07 0.0003265528    1.148    0.129
       336 -12.0641    170.7261     90.5148   3.4205730781e+01   2.9785270506e+01    0.3963642    0.1368465 -34.95  0.001221874    3.520    0.716
       337 -12.8154    230.3674     89.5257   2.3919793588e+01   1.6661073220e+01    0.2677721    0.2383147 -85.14 0.0004403332    1.108    0.098
       338 -10.9325    220.2258     89.8007   2.5428095909e+01   1.8733829614e+01    0.1692681    0.1630515 -19.55 0.0003868824    1.282    0.220
       339 -12.4246     70.2719     90.0378   6.1777779846e+01   5.0705974568e+01    0.2498463    0.1851456  46.44  0.001207515    1.584    0.369
       340 -12.0089     24.3436     90.0688   7.8433708631e+01   5.6013812564e+01    0.3765773    0.2690984 -59.14  0.001424639    1.296    0.228
       341 -11.3112      3.8745     87.9908   8.5510104998e+01   5.7817157065e+01    0.2564749    0.1195442 -47.32  0.001173049    1.637    0.389
       342 -12.4799    149.4401     86.4477   3.7725453996e+01   3.5521353159e+01    0.4849741     0.191032 -33.16  0.001582039    3.205    0.688
       343 -12.2314     54.2374     85.7123   6.6269132059e+01   5.3860696617e+01    0.4610713    0.3585557 -29.02  0.002618764    1.167    0.143
       344 -11.5698     51.6117     79.1282   6.5369970357e+01   5.5556504692e+01    0.2232684    0.2158517  14.94   0.00063461    1.240    0.193
       345 -11.7327     11.3643     87.3278   8.2633716622e+01   5.7537343599e+01    0.2645539     0.201514  28.49  0.001689813    1.598    0.374
       346 -11.9909    178.5453     86.9416   3.1754243355e+01   2.8606541440e+01    0.2625698    0.2100773  60.28 0.0003043262    1.233    0.189
       347 -11.8819    162.3337     86.6525   3.4936572310e+01   3.2463822046e+01    0.2390199    0.1768202 -80.88 0.0009480737    1.701    0.412
       348 -11.0678    125.0250     85.8094   4.3602233082e+01   4.1190319032e+01    0.3916875     0.270599  -1.26   0.00113648    2.224    0.550
       349 -12.2426     60.4840     85.4955   6.3941930930e+01   5.3077184425e+01    0.3489657    0.1799211 -42.25  0.001382788    1.784    0.440
       350 -12.9053     64.5189     82.1933   6.1535337028e+01   5.3186828162e+01    0.4038632    0.3342459  60.47  0.002222432    1.665    0.399
       351 -10.5976     35.2447     86.3549   7.3487075677e+01   5.5858735278e+01    0.1588152    0.1188467  27.78 0.0004227894    1.503    0.334
       352 -12.0638    171.1217     83.3806   3.2283207053e+01   3.0983182431e+01    0.2359161    0.2055402 -29.93 0.0004255325    1.273    0.215
       353 -11.6097    110.1109     83.5066   4.7077069546e+01   4.4813825014e+01    0.3064368    0.1423776  44.65 0.0006153222    2.101    0.524
       354 -11.9761     77.5789     81.8563   5.6863676452e+01   5.1225785730e+01     0.310819    0.2465663  79.39  0.001209473    2.032    0.508
       355 -11.9936    182.1892     80.9280   2.9565659588e+01   2.8813933381e+01    0.2577797    0.1858493 -54.33 0.0005469898    1.387    0.279
       356 -11.4657    183.1826     76.8671   2.8374363320e+01   2.9274477887e+01    0.2179675    0.2080125   4.66 0.0005943113    1.270    0.213
       357 -11.0876    206.5129     80.5091   2.5400241495e+01   2.3313694449e+01    0.1401179    0.1264854 -73.96 0.0008103911    1.021    0.021
       358 -11.5766     88.3089     79.3019   5.2506102707e+01   4.9861574934e+01    0.2577424    0.2549428  59.78  0.001090148    1.197    0.165
       359 -12.1962     29.3375     79.8960   7.4089332313e+01   5.7785340886e+01    0.2372183    0.1790541   4.10  0.001345058    1.380    0.275
       360 -11.8929     22.9846     79.8804   7.6543364949e+01   5.8324187347e+01    0.2343653     0.161681 -48.52  0.001392603    1.214    0.176
       361 -12.4390    187.8523     78.3145   2.7917490358e+01   2.7941057143e+01    0.2675575    0.2458384 -41.25 0.0003747172    1.183    0.155
       362 -13.0849    214.9753     75.8795   2.3101202246e+01   2.2211829423e+01    0.3689086    0.2741449 -33.80  0.001153737    1.508    0.337
       363 -11.7273    112.1100     76.3228   4.4336291978e+01   4.5727426337e+01    0.3062195    0.2124112 -46.49  0.001057918    1.560    0.359
       364 -11.1989    115.9767     74.4991   4.2699662992e+01   4.5229141211e+01    0.2715947    0.1781249  40.67 0.0006558714    1.470    0.320
       365 -11.9170    161.0298     75.7713   3.2305049716e+01   3.4689301869e+01    0.2795592    0.1983578 -65.75  0.001177361    1.662    0.398
       366 -11.9317     75.0337     75.5056   5.5789613973e+01   5.2879766305e+01    0.2644676    0.1997755 -38.51 0.0004753584    1.296    0.228
       367 -10.3876     17.4876     76.4480   7.7846810041e+01   5.9460097409e+01    0.1248596    0.1011466 -37.56 0.0002082719    1.023    0.022
       368 -12.0335    169.2560     74.5909   3.0360384332e+01   3.2939521079e+01    0.2856469    0.2396191 -57.41 0.0007556104    1.204    0.169
       369 -11.5104     86.0476     75.1607   5.1958647247e+01   5.1051739570e+01    0.2175878    0.1783335   4.26 0.0005203074    1.234    0.190
       370 -10.9841    105.8180     72.8241   4.5073361317e+01   4.7659728386e+01    0.2246849    0.1889685  12.48  0.001175722    1.230    0.187
       371 -12.8543     50.9633     72.4910   6.3645511648e+01   5.6960609484e+01    0.2934153    0.2360094 -50.41 0.0005681249    1.364    0.267
       372 -10.6585     11.4037     71.1930   7.8985370431e+01   6.0956599066e+01    0.1573999    0.1044009 -62.58 0.0003820278    1.522    0.343
       373 -10.5773    246.8172     69.4103   1.7737816960e+01   1.6616052654e+01    0.1491946    0.1149982  61.29 0.0003290898    1.493    0.330
       374 -11.4000     94.5232     68.8305   4.7229155082e+01   5.0609981366e+01     0.229804    0.1647663  46.73 0.0009972443    1.424    0.298
       375 -11.6444      1.7849     68.1796   8.2158471072e+01   6.2114169364e+01    0.1937336    0.1446326 -64.23  0.001282701    1.377    0.274
       376 -10.6941     89.1354     67.1157   4.8384072275e+01   5.1930738431e+01    0.1791029    0.1703749 -76.70 0.0004298961    1.341    0.254
       377 -11.5719     60.1822     67.1903   5.8497820153e+01   5.6720334396e+01    0.2011176    0.1605801 -10.42 0.0003967737    1.156    0.135
       378 -11.3694     47.5169     67.3432   6.3391652629e+01   5.8379470325e+01    0.2193088    0.1167741  26.57 0.0007927598    1.921    0.479
       379 -10.4726    203.4736     66.4872   2.2624494108e+01   2.6278272535e+01    0.1364715    0.1227825 -81.51 2.465577e-05    1.042    0.040
       380 -12.4005      7.9106     65.7664   7.9069381428e+01   6.2267909164e+01    0.2351117    0.1183792 -39.78 0.0006124253    1.561    0.359
       381 -12.2232    110.1317     64.1402   4.1112314558e+01   4.8231787351e+01    0.2652922    0.2344608 -37.17 0.0003705423    1.217    0.178
       382 -13.3991    106.0948     56.6156   3.9833936712e+01   5.0265377927e+01    0.4866071    0.3554054 -67.65  0.000805525    2.109    0.526
       383 -11.7539    199.0798     65.3362   2.3003112046e+01   2.7457961827e+01     0.195558    0.1635137  84.66 0.0006027898    1.110    0.099
       384 -10.5971     63.3199     61.6726   5.5517907951e+01   5.7247836410e+01    0.1209884    0.1096005  80.42 0.0007047275    1.684    0.406
       385 -11.1001    233.6949     59.0207   1.7122201241e+01   2.0843771091e+01    0.1743662    0.1414617 -61.42 0.0003063626    1.085    0.078
       386 -13.6337     30.5233     50.0706   6.4767251037e+01   6.3411356863e+01    0.3669159    0.3052967 -27.04  0.001783603    1.166    0.142
       387 -12.7188     29.8302     55.9976   6.7013647963e+01   6.2430633336e+01    0.4537084    0.1982328  43.60   0.00183718    4.109    0.757
       388 -12.0858    178.6032     64.1702   2.5984556099e+01   3.2408327492e+01    0.2488221    0.2214493  77.06 0.0002874875    1.042    0.041
       389 -11.7610    193.0170     57.4808   2.2049495424e+01   3.0047081248e+01    0.2095819    0.1253672  64.83 0.0008658214    1.581    0.367
       390 -11.3569    160.1529     57.4053   2.7526760195e+01   3.7816239446e+01    0.1991666    0.1275427  72.26 0.0006260624    1.644    0.392
       391 -12.1063     52.5340     55.8085   5.7641795727e+01   5.9807834090e+01    0.3632012    0.2974756  87.57  0.001984292    2.411    0.585
       392 -10.8253     43.4758     57.4672   6.1819436626e+01   6.0680405371e+01    0.1288707    0.1061933 -13.12 6.944201e-05    1.004    0.004
       393 -11.9857     98.2504     60.4321   4.3362891395e+01   5.1278506828e+01    0.2464092     0.165605 -20.90 0.0005506903    1.678    0.404
       394 -11.1696    126.7085     54.0298   3.3660702674e+01   4.6135506338e+01    0.1884935    0.1868614  -0.73  0.000906335    1.097    0.088
       395 -12.9401     43.4292     61.6130   6.3194827848e+01   5.9939078416e+01    0.4273419    0.2192753  41.79  0.002023487    2.529    0.605
       396 -11.5894    142.1342     52.4842   2.9738823279e+01   4.2792238664e+01    0.2204738    0.1966214 -32.96  0.001281501    1.237    0.192
       397 -10.8767    115.5107     53.5516   3.6301340336e+01   4.8702285190e+01    0.1393094    0.1265379  40.53 9.242141e-05    1.020    0.020
       398 -12.7327     37.3519     51.9434   6.2490241458e+01   6.2357334700e+01    0.2498746     0.210362 -24.53 0.0003177363    1.154    0.134
       399 -11.6067     18.8046     48.8531   6.9523410547e+01   6.4701486371e+01    0.1875294    0.1298969 -22.68 0.0005008118    1.175    0.149
       400 -10.3401    155.6796     47.2754   2.5603511413e+01   4.0311305667e+01    0.1376097    0.1011534 -82.42 0.0003801945    1.575    0.365
       401 -10.8179    142.6520     45.6962   2.7669661257e+01   4.3600312105e+01    0.1434629   0.09824406  33.34  0.000704074    1.695    0.410
       402 -13.9595     36.5649     40.2248   5.8649438490e+01   6.4366172369e+01    0.3738963    0.3044604  -6.23  0.001055731    1.063    0.059
       403 -10.7950    226.9945     43.5135   1.4689938839e+01   2.4461567291e+01    0.1771294    0.1111178  74.27 0.0003791151    1.498    0.333
       404 -11.2028      2.0227     42.5119   7.5225906287e+01   6.6988926437e+01    0.1965637    0.1145222 -37.16 0.0003359857    1.290    0.225
       405 -11.0733      4.3283     39.7273   7.3261097032e+01   6.7337185377e+01    0.1681619    0.1115352 -34.53 0.0002817026    1.149    0.130
       406 -13.7655    135.5527     39.0267   2.7163328971e+01   4.6109728755e+01    0.4586104    0.2931466  49.11  0.001802422    1.407    0.289
       407 -11.1305    118.8296     41.0413   3.1492343054e+01   4.9668614621e+01    0.2257461    0.1502508  13.71  0.001095326    2.030    0.507
       408 -11.5268    103.2894     39.9499   3.5084507898e+01   5.3176983252e+01    0.1850808    0.1677478  17.10  0.001152632    1.087    0.080
       409 -11.7323     23.0000     39.9797   6.4602548573e+01   6.5839438667e+01    0.1865589   0.05824614 -46.56 0.0008020004    2.939    0.660
       410 -11.8767     53.2430     38.1745   5.0969427351e+01   6.2469803708e+01    0.2134796    0.1680158   1.99 0.0005909915    1.065    0.061
       411 -11.7472      9.5429     37.0091   6.9864468456e+01   6.7446727165e+01    0.1697384     0.125832  -6.88 0.0003515458    1.167    0.143
       412 -12.9133    230.5226     34.6174   1.2544347120e+01   2.4899233274e+01      0.23288    0.1894058 -69.62 0.0004244344    1.082    0.076
       413 -12.5923     43.7459     33.6793   5.3084563108e+01   6.4433452529e+01    0.2510927    0.1878079   1.69 0.0003437077    1.115    0.103
       414 -12.8889     31.8214     32.1907   5.7669653602e+01   6.6122824626e+01     0.358254     0.246754 -27.71  0.002337404    1.301    0.232
       415 -12.9530    106.7573     32.2424   3.1583117818e+01   5.3369858341e+01    0.2675892    0.2468612  23.15 0.0005082383    1.100    0.091
       416 -11.7086    134.9965     30.2432   2.4669068704e+01   4.7269064698e+01    0.3099318    0.1833659 -29.88  0.001239735    1.942    0.485
       417 -13.0340     78.1548     30.8265   3.9244917153e+01   5.9277728210e+01    0.2564416    0.2508019  69.81 0.0008432323    1.393    0.282
       418 -10.6944     65.7626     32.5783   4.4111399274e+01   6.1253198092e+01    0.1636363    0.1110901  46.68 0.0003635027    1.599    0.375
       419 -11.0441      8.6945     31.9648   6.8500021249e+01   6.8330640906e+01     0.156223    0.1133193 -25.56 0.0003911928    1.075    0.069
       420 -11.8036    208.1423     29.4102   1.3759794586e+01   3.0390132259e+01    0.2519763    0.1559015 -77.57  0.001098779    1.582    0.368
       421 -13.1919     46.3708     26.3158   4.9046505775e+01   6.5056486975e+01    0.3083774     0.258141  40.42 0.0009809154    1.577    0.366
       422 -12.1931    159.3095     31.0852   2.0606479257e+01   4.1476542580e+01     0.235932     0.182826  65.31 0.0003026011    1.120    0.107
       423 -10.5111    221.2603     25.3434   1.1581096654e+01   2.8022705649e+01    0.1043936   0.09345616  44.58    0.0004474    1.593    0.372
       424 -12.4272    247.0401    248.3071   5.2723816385e+01  -1.3749403249e+01    0.3518572    0.1972154  29.76 0.0008806938    1.727    0.421
       425 -11.5458    238.0501     22.7200   9.5770946122e+00   2.4834253897e+01    0.1646218    0.1225193 -86.33 0.0003696082    1.104    0.094
       426 -10.8540    166.0632     22.2750   1.7299908169e+01   4.0867635506e+01    0.1821384    0.1408874  73.72  0.000282605    1.094    0.086
       427 -11.2895     36.5142     20.9937   5.1005356635e+01   6.7063439724e+01     0.160454    0.1007158 -26.60 0.0003614648    1.512    0.339
       428 -12.5017     67.8997     25.1355   4.0469576208e+01   6.1782602043e+01    0.1778577    0.1645126  28.81  0.001231898    1.293    0.227
       429 -11.8527    139.5237    248.0563   7.4475257697e+01   2.2051628852e+00    0.2713065    0.2423539 -34.97 0.0008432148    1.276    0.217
       430 -10.6555     31.1631     16.1354   5.1298584025e+01   6.8335460370e+01    0.1418237    0.1189444  11.88 0.0004802035    1.306    0.234
       431 -11.2675    224.5017     15.0223   9.2474233809e+00   2.8540533190e+01     0.187393    0.1292485  85.77 0.0006638267    1.204    0.170
       432 -10.6980    100.2832     12.6539   2.6487661238e+01   5.6716824568e+01    0.1135908     0.094064 -74.47 0.0002951222    1.644    0.392
       433 -12.4752    135.1530    245.9672   7.5124026217e+01   3.3121300625e+00    0.3932937    0.1748634  35.74  0.001660386    2.006    0.502
       434 -11.3087    162.0648    247.0500   6.9481154803e+01  -1.2645065723e+00    0.2043218    0.1765295  20.86 0.0006594019    1.039    0.038
       435 -12.9304     70.1717    248.6540   8.9285157115e+01   1.2781533199e+01     0.260578    0.2183393 -77.22 0.0005481769    1.261    0.207
       436 -10.7419    168.1919    243.2372   6.7573738920e+01  -1.5714527044e+00    0.1745537    0.1529415  54.14 0.0005645252    1.333    0.250
       437 -12.8781    104.8207    242.0188   8.1202079879e+01   8.9810612030e+00    0.4533241    0.1975066  33.08  0.001482038    2.293    0.564
       438 -12.9891     56.4912    250.6421   9.2226168272e+01   1.4235009143e+01    0.4808419    0.1658749  41.69  0.002158463    2.368    0.578
       439 -10.9242     52.6505    243.4401   9.2361908958e+01   1.6238777238e+01    0.1218872    0.1009118  76.05 -2.24863e-05    1.055    0.052
       440 -10.8365     47.2243    242.0588   9.3333500724e+01   1.7227184652e+01    0.1822194    0.1246369 -48.84  0.001039815    1.970    0.492
       441 -10.0585    197.2963    241.7168   6.1220137662e+01  -5.8913140178e+00     0.116509    0.1022394  54.43 0.0002737184    1.542    0.352
