#   1 NUMBER                 Running object number                                     
#   2 MAG_AUTO               Kron-like elliptical aperture magnitude                    [mag]
#   3 X_IMAGE                Object position along x                                    [pixel]
#   4 Y_IMAGE                Object position along y                                    [pixel]
#   5 X_WORLD                Barycenter position along world x axis                     [deg]
#   6 Y_WORLD                Barycenter position along world y axis                     [deg]
#   7 A_WORLD                Profile RMS along major axis (world units)                 [deg]
#   8 B_WORLD                Profile RMS along minor axis (world units)                 [deg]
#   9 THETA_WORLD            Position angle (CCW/world-x)                               [deg]
#  10 FWHM_WORLD             FWHM assuming a gaussian core                              [deg]
#  11 ELONGATION             A_IMAGE/B_IMAGE                                           
#  12 ELLIPTICITY            1 - B_IMAGE/A_IMAGE                                       
         1 -14.2013    218.3095      4.9932   4.0223899058e+01   2.9242582208e+01     2.030057     1.228581  69.96  0.006199237    1.642    0.391
         2 -15.0844    193.1127     34.2342   5.1379724547e+01   3.2332064578e+01      3.15263     1.941875  16.65   0.01278665    2.482    0.597
         3 -11.1499     68.2839      3.9908   6.5774012401e+01   6.6312844909e+01    0.1920969    0.1580614  -0.94  0.001183552    1.059    0.056
         4 -11.7929     61.7201    235.1895   1.2104901045e+02   1.9701895173e+01    0.1857194    0.1406619  79.49  0.000369845    1.195    0.164
         5 -10.3895    247.9916    250.2351   9.1134357536e+01  -8.5671897118e+00    0.1417933   0.06663463  34.92 0.0008914446    1.665    0.400
         6 -19.5116     17.9151    143.9626   1.2288143996e+02   4.2868317096e+01     18.64642     5.420469 -80.96   0.07282005    3.287    0.696
         7  -9.2392     43.8056    220.4105   1.2321033613e+02   2.4408320843e+01    0.1785308    0.1042777 -66.89  0.001173848    1.885    0.470
         8  -9.7996     61.7998    220.0697   1.1994410764e+02   2.2313689336e+01    0.1409128    0.1109701  87.96 0.0006191191    1.225    0.183
         9  -9.3245     73.4182    218.4740   1.1767804545e+02   2.1108274020e+01    0.1153112    0.0882733  64.69 -8.386887e-06    1.022    0.021
        10  99.0000     49.7194    216.4052   1.2187937637e+02   2.4447837688e+01    0.3164897    0.2220176  20.63  0.002010712    2.295    0.564
        11 -12.1848     70.8049    206.9014   1.1715698470e+02   2.3580321414e+01    0.6129131    0.3130646  26.38  0.002124287    3.039    0.671
        12 -11.2585     55.5364    212.0437   1.2048908071e+02   2.4554617690e+01    0.6969906    0.2562554  63.87  0.003076458    3.184    0.686
        13 -13.5012     57.5418    202.0604   1.1931075088e+02   2.6205183830e+01    0.4890707    0.3605479  87.30  0.002364633    1.204    0.169
        14 -10.6122    175.6704    212.7003   9.7707194033e+01   6.3968056606e+00    0.2306917    0.1716611  71.79   0.00117355    2.045    0.511
        15 -11.2966     51.1143    225.8700   1.2227006271e+02   2.2584168931e+01    0.1945645    0.1159208  71.91   0.00075811    1.420    0.296
        16 -11.9800     38.8028    211.6764   1.2355583294e+02   2.6578546490e+01    0.3580704    0.1557266  71.86  0.001911896    2.277    0.561
        17  -9.9098    152.5974    211.7346   1.0187648712e+02   1.0337631735e+01    0.1454998     0.119405 -68.96 0.0004777504    1.540    0.351
        18  99.0000     43.2471    209.6073   1.2260076535e+02   2.6464629939e+01    0.3842224    0.1566943  76.39  0.001827309    2.898    0.655
        19 -10.3561     43.9917    205.6393   1.2218536621e+02   2.7133297942e+01    0.1640659    0.1237469  85.29   0.00118016    1.155    0.134
        20 -12.2134    196.0487    198.0901   9.1613315856e+01   5.0853734539e+00     1.141126    0.9358629  89.06  0.006695966    2.075    0.518
        21 -11.2575     32.8466    206.0120   1.2429397409e+02   2.8302512027e+01    0.1782969    0.1428676 -79.42  0.001349378    1.368    0.269
        22  -9.0121      1.1350    206.2532   1.3000804028e+02   3.1354898969e+01   0.08369181   0.05386728 -83.09 0.0006037307    1.402    0.287
        23 -11.5653     96.8848    200.5097   1.1134810110e+02   2.1124186471e+01    0.3572264    0.2952484 -28.43    0.0011276    1.827    0.453
        24  -9.6349     87.3080    202.8108   1.1351660592e+02   2.2086211530e+01    0.1917326    0.1565513   8.35 0.0008514563    1.933    0.483
        25 -11.6954    153.2534    199.2357   9.9920315725e+01   1.2242397511e+01    0.4472063    0.2069187 -54.08  0.002047188    2.728    0.633
        26  -9.5830    162.4549    201.5180   9.8485041572e+01   1.0303080832e+01    0.1269418    0.1095196  36.21 1.164385e-06    1.008    0.008
        27 -12.0590    135.1134    198.0562   1.0333865253e+02   1.5508837392e+01     0.282535    0.2127993 -77.14  0.001416541    1.642    0.391
        28  -9.6546     45.1087    198.8315   1.2147296216e+02   2.8326103608e+01    0.1774927    0.1285632  80.17 0.0003405464    1.126    0.112
        29 -16.1636     71.4366    146.9748   1.1005497416e+02   3.6154416159e+01     10.96164     4.857508  75.27     0.017007    8.421    0.881
        30 -12.3390     33.1466    198.3490   1.2374526835e+02   2.9755294652e+01    0.2977742    0.1692591  33.84  0.001621528    1.970    0.492
        31 -10.3410    159.9196    196.9831   9.8267426944e+01   1.1469702036e+01    0.1899104    0.1696023  41.60 0.0003557959    1.044    0.043
        32  -9.9721     82.3255    195.5849   1.1374620427e+02   2.4184006533e+01     0.297705    0.1951817  78.35  0.001738486    1.551    0.355
        33 -10.9787     96.8086    192.7291   1.1044280993e+02   2.2625601206e+01    0.3290438     0.262307 -14.57  0.001181567    2.103    0.525
        34  -9.9932     70.3554    178.1085   1.1433686834e+02   2.9401473768e+01    0.2566423    0.1754053  75.97 0.0009083867    1.381    0.276
        35 -12.9659     67.2273    188.1842   1.1608053409e+02   2.7727735053e+01     0.665455    0.5825878 -70.49  0.004043081    1.320    0.243
        36  -9.8583     73.5594    189.5882   1.1490947563e+02   2.6593893421e+01    0.1837199    0.1434875  67.06  0.001191617    1.067    0.063
        37 -11.3170    207.7180    194.6158   8.8899165961e+01   3.5996523011e+00    0.2616164    0.1693469 -25.60 0.0009889868    1.641    0.391
        38  -9.3978    220.4684    228.4399   9.2272855008e+01  -2.6168971693e+00    0.1823121    0.1027618 -44.75  0.001034368    2.657    0.624
        39 -10.6746    154.0022    185.3974   9.7565765423e+01   1.4472353181e+01     0.276856    0.1924553 -69.80  0.001427602    2.008    0.502
        40 -11.4635     99.4592    180.6829   1.0833470412e+02   2.4615853282e+01    0.2516604    0.2143183  47.74  0.000593145    1.162    0.139
        41 -10.4119    204.5201    176.5047   8.6130539439e+01   6.7711580782e+00     0.382113    0.2194276 -44.69  0.001883004    2.049    0.512
        42  -9.7242     50.3490    172.5940   1.1812147484e+02   3.3127891235e+01    0.2049555    0.1314316  46.07 0.0008969337    1.481    0.325
        43 -10.7801     43.6988    171.8979   1.1950800072e+02   3.4051898015e+01    0.4469609    0.1641267  41.78  0.002137935    2.422    0.587
        44  -9.7409    228.6542    171.3097   8.0819825118e+01   3.2472912157e+00    0.1163452    0.1065356 -79.96 0.0007044917    1.704    0.413
        45  -9.3468    185.2937    169.3442   8.8385642297e+01   1.1459309821e+01    0.1401637    0.1020388   4.62 0.0004196435    1.663    0.399
        46  99.0000     31.9987    227.6279   1.2568164256e+02   2.4438107207e+01    0.2208052   0.06411585  51.21  0.001150665    2.420    0.587
        47  -9.6682    162.1219    167.3169   9.2671363583e+01   1.6216959083e+01     0.191601    0.1677286  48.68 0.0004704277    1.115    0.103
        48 -10.7337    230.1749    166.1949   7.9527701022e+01   3.6965406669e+00    0.1665862    0.1574276 -29.77 0.0006869326    1.334    0.250
        49 -12.6156     95.4182    153.4259   1.0519402254e+02   3.1076909546e+01    0.6286196    0.4978451 -25.21   0.00336023    1.809    0.447
        50 -10.3706    188.9133    154.1728   8.4574741978e+01   1.3331130476e+01    0.5932732    0.2070146  37.86  0.002008902    3.218    0.689
        51 -11.6845    133.9339    145.7571   9.4618152983e+01   2.5896380040e+01     1.212531    0.3098106 -54.66  0.003054546    5.766    0.827
        52 -10.0940    113.2460    151.2191   1.0054744869e+02   2.8552705271e+01      0.29452    0.1931927  79.48  0.001317237    2.106    0.525
        53 -10.5795    174.3039    148.6756   8.6343950637e+01   1.7245984427e+01     0.325966    0.2682082 -74.53  0.001195909    1.590    0.371
        54 -11.0686    144.1613    146.4717   9.2417231906e+01   2.3748622351e+01    0.4320491    0.2369857 -57.92   0.00178935    2.177    0.541
        55  -9.3388    117.6757    146.2977   9.8567744446e+01   2.8832357019e+01    0.1468732    0.1079167  76.96 0.0002679022    1.627    0.385
        56  -9.9919    113.1706    142.4313   9.8909691950e+01   3.0499267300e+01    0.2461516    0.1703026  61.93 0.0007048746    1.580    0.367
        57 -10.5463    107.3378    145.8130   1.0097722937e+02   3.0779254434e+01    0.2364708    0.1809812  61.21 0.0006205962    1.319    0.242
        58 -11.8340    107.3255    139.2939   9.9741845190e+01   3.2243332448e+01    0.5590099    0.4112055 -32.52  0.002643165    1.740    0.425
        59 -12.0251     49.7388    234.0395   1.2302771690e+02   2.1335339180e+01    0.2259151    0.1278282  64.24 0.0004817331    1.392    0.281
        60 -12.4133     95.1488    139.0957   1.0276926144e+02   3.4367152694e+01    0.3022755    0.2858611  25.14 0.0003748176    1.252    0.202
        61 -11.2932    105.8562    130.8936   9.8425726313e+01   3.4412850435e+01    0.4263434    0.3192384 -52.95  0.001744684    1.306    0.235
        62 -11.2445    135.5530    127.6295   9.0283835823e+01   2.9438456222e+01    0.9765965    0.2243438 -50.28  0.002489426    4.951    0.798
        63 -11.1506    114.5368    129.8470   9.5987219414e+01   3.3066063374e+01    0.3404171    0.2872369 -25.02 0.0006430317    1.436    0.304
        64 -10.2594    160.5965    127.8061   8.4525965244e+01   2.4130124698e+01    0.2995623    0.2493907 -89.80  0.001483089    1.504    0.335
        65 -11.1538    102.1530    125.7969   9.8319376478e+01   3.6242071732e+01    0.2909258    0.2451371 -24.71 0.0006589635    1.474    0.321
        66 -11.2464    120.0444    123.4217   9.3153296195e+01   3.3459199403e+01    0.5370262    0.3224285 -24.76  0.001988787    2.898    0.655
        67  -9.4002    151.8252    118.9990   8.4347952325e+01   2.7815994487e+01    0.2612892    0.1790829 -71.50  0.001078004    2.098    0.523
        68 -10.1663    109.9489    118.9245   9.4733459650e+01   3.6405960212e+01    0.2163202     0.205037 -76.45 0.0003347892    1.006    0.006
        69 -10.3233    167.6635    112.6048   7.9162645805e+01   2.5569788854e+01    0.3889361    0.2787836 -77.88  0.001463916    2.116    0.527
        70 -10.4798    135.0000    111.5132   8.6467990012e+01   3.3026739093e+01    0.5679361   0.09498981 -44.51  0.001267425    5.866    0.830
        71  -9.7361    134.5154    105.4677   8.4995105567e+01   3.4428921468e+01    0.3917604    0.1481727 -46.72  0.001302864    2.603    0.616
        72 -11.5743    118.6344    110.5806   9.0416806785e+01   3.6615431349e+01    0.5795185    0.3750409  62.29  0.002409386    1.910    0.476
        73 -10.1674    205.5104    110.0388   7.1006052961e+01   1.7465025608e+01    0.2733927     0.224105  45.61 0.0006248383    1.280    0.219
        74  -9.5868    184.6280     84.2844   6.7867998180e+01   2.6821557344e+01     0.278628    0.2031212  71.96  0.001256785    1.647    0.393
        75 -12.2880    162.6405     62.1801   6.5416537297e+01   3.6124563126e+01     1.248418    0.5497049  55.04   0.00361611    2.280    0.561
        76 -11.8215    162.7483     55.7881   6.3301953060e+01   3.7143255378e+01    0.6364026    0.4171499  59.43  0.002813734    1.568    0.362
        77  -8.8162     58.4170    227.3673   1.2108399415e+02   2.1442952495e+01    0.1101188    0.0786008  62.19  0.000139946    1.042    0.041
        78 -13.1670    177.9791     48.6664   5.8204706490e+01   3.4290288698e+01    0.7981323    0.6607531  45.85 0.0008496887    1.261    0.207
        79 -10.2987    169.0851    236.2536   1.0217607222e+02   4.2034057717e+00    0.1654887    0.1621504  22.11  0.000496075    1.273    0.214
        80 -11.0924     53.5761    231.2876   1.2219495188e+02   2.1350906449e+01     0.187679    0.1296235  72.47 0.0005559562    1.167    0.143
