#   1 NUMBER                 Running object number                                     
#   2 MAG_AUTO               Kron-like elliptical aperture magnitude                    [mag]
#   3 X_IMAGE                Object position along x                                    [pixel]
#   4 Y_IMAGE                Object position along y                                    [pixel]
#   5 X_WORLD                Barycenter position along world x axis                     [deg]
#   6 Y_WORLD                Barycenter position along world y axis                     [deg]
#   7 A_WORLD                Profile RMS along major axis (world units)                 [deg]
#   8 B_WORLD                Profile RMS along minor axis (world units)                 [deg]
#   9 THETA_WORLD            Position angle (CCW/world-x)                               [deg]
#  10 FWHM_WORLD             FWHM assuming a gaussian core                              [deg]
#  11 ELONGATION             A_IMAGE/B_IMAGE                                           
#  12 ELLIPTICITY            1 - B_IMAGE/A_IMAGE                                       
         1 -11.1277      2.1649     76.9372   1.2654077667e+02   5.9839961747e+01    0.3851421    0.1087313 -62.35  0.001580876    3.087    0.676
         2 -13.0027    201.8571     33.8158   6.1153879438e+01   3.1078903269e+01    0.8696114    0.6841455  79.97   0.00540887    1.118    0.106
         3 -13.5930    219.1213     15.8792   5.5624408881e+01   2.9477316131e+01    0.9029163    0.7536087  56.01  0.006052868    1.543    0.352
         4 -12.6067      3.5146      4.2868   1.0276568249e+02   7.1691082307e+01    0.6359249    0.4157005  -4.81  0.004865295    1.159    0.138
         5 -11.6071      2.4858     14.0065   1.0740009207e+02   7.0563835999e+01    0.2875699     0.164831 -29.88  0.001591221    1.402    0.287
         6 -12.3430    135.1988    234.8887   1.1811446743e+02   5.3157342648e+00    0.7828106    0.4616852 -66.71   0.00364897    2.171    0.539
         7 -11.5699    184.4468    249.6071   1.1015593918e+02  -5.5116538274e+00     0.601834    0.2086824  40.06  0.002451438    2.625    0.619
         8 -12.0752    178.2537    243.8832   1.1048890141e+02  -3.5563559074e+00    0.5267023    0.3531792  52.69  0.002540085    1.760    0.432
         9 -10.4789    169.1348    248.9984   1.1315620604e+02  -2.9753195627e+00      0.27898    0.2052194 -15.27 0.0005905255    1.657    0.396
        10 -11.4032    170.4062    243.9214   1.1210075336e+02  -2.2906113466e+00    0.3439387    0.2477826  49.54  0.001098132    1.463    0.316
        11 -10.6197    162.4080    250.3810   1.1474161989e+02  -2.1299360635e+00    0.3612947    0.1550115  39.36  0.000874676    2.054    0.513
        12 -11.1425    142.9908    249.2130   1.1856860769e+02   1.2528197897e+00    0.4332719    0.2204158  56.27  0.001854092    2.530    0.605
        13 -12.1481    117.0118    238.2001   1.2248389842e+02   7.6927989381e+00    0.6740847    0.4626926 -38.36  0.003493386    1.886    0.470
        14 -11.8697    115.5099    250.1131   1.2437590916e+02   5.5621827363e+00     1.068547    0.3206444  36.42  0.003837129    3.228    0.690
        15 -10.9472    109.7918    247.7681   1.2525836868e+02   6.9395092539e+00    0.5077726    0.3203258 -78.06  0.002603222    1.970    0.492
        16 -11.3324    122.9987    245.7180   1.2224385197e+02   5.2043593765e+00    0.7161363    0.3852314  65.72  0.002952649    2.868    0.651
        17 -12.1105    125.6586    242.8618   1.2129456018e+02   5.3279809103e+00    0.5171146    0.4140659 -76.06  0.001245036    1.413    0.292
        18 -11.5064    100.0750    247.6873   1.2725110245e+02   8.4949005700e+00    0.7529907    0.3863301  47.09  0.003698316    1.701    0.412
        19 -12.4964    102.3498    239.0147   1.2570361942e+02   9.9081010226e+00    0.8390459    0.5691642 -79.34 4.556624e-05    1.666    0.400
        20 -10.3300     97.1155    239.3155   1.2684434740e+02   1.0676293616e+01    0.3254934    0.2140322  84.14  0.001134322    1.805    0.446
        21  -9.4390     81.5609    248.1104   1.3106475418e+02   1.1240718799e+01     0.277582    0.1229074 -68.23  0.001136898    2.463    0.594
        22  -9.8964     90.7729    250.4006   1.2946104310e+02   9.3883927947e+00    0.2480079    0.2204793  53.39  0.001070985    1.139    0.122
        23 -11.1084     86.5963    248.1187   1.3004984047e+02   1.0483894109e+01    0.3843237    0.3284765  17.23 0.0009302798    1.575    0.365
        24 -10.4258     84.2509    230.1293   1.2844251993e+02   1.4643148093e+01    0.3342568    0.2211212 -52.90  0.001768898    1.703    0.413
        25 -11.1612     90.1619    242.0343   1.2862379134e+02   1.1192535337e+01    0.5742434    0.3524059  21.05  0.002680296    2.503    0.601
        26 -10.3698     83.6214    241.1669   1.2987513890e+02   1.2370939463e+01    0.3961347    0.2856268  68.10  0.001708657    1.295    0.228
        27 -11.2761     87.5252    236.8460   1.2855893876e+02   1.2690421922e+01    0.6154962     0.325888  57.22  0.002913178    1.896    0.473
        28 -10.3032     66.7268    243.9912   1.3360735231e+02   1.4248777347e+01    0.3069377    0.2081517  17.67  0.001324786    2.406    0.584
        29 -12.6905     11.7823    206.0931   1.4123786759e+02   2.9357230230e+01      1.44055     1.105593  57.71  0.008513367    1.281    0.220
        30 -12.3863     41.5536    207.0003   1.3503423443e+02   2.5864474449e+01     1.736936    0.7837692  74.89  0.006696774    3.219    0.689
        31 -12.9837     26.4800    247.5822   1.4160134648e+02   1.8706892370e+01     1.070685    0.8236711  35.38  0.007271104    1.628    0.386
        32 -13.9828      6.9554    244.1367   1.4485077372e+02   2.1578094870e+01     1.948104     1.100281 -82.12   0.01232415    1.473    0.321
        33 -11.9370     45.2564    244.0992   1.3782061391e+02   1.7126378720e+01    0.5566366    0.2702852 -70.72  0.001370206    1.954    0.488
        34 -12.7583     25.0224    225.5342   1.4018371139e+02   2.3582456866e+01    0.3849035    0.3551319 -43.03 0.0007456732    1.579    0.367
        35 -13.9429     31.2508    218.7736   1.3835841113e+02   2.4379799604e+01     1.135149     1.014933  79.39  0.007837094    1.200    0.167
        36 -10.4598     50.6422    249.4915   1.3725850067e+02   1.5303781722e+01    0.3112104    0.2601069  26.24  0.002042858    1.652    0.395
        37  -9.0898     60.9779    239.0000   1.3425858410e+02   1.6110369023e+01     0.198838   0.06600083  37.10 0.0007945658    2.888    0.654
        38 -12.5451     38.7417    239.9006   1.3871337155e+02   1.8837024549e+01     1.250406    0.4854389 -74.55  0.003234984    2.468    0.595
        39 -11.3930    129.3498    235.1694   1.1941265916e+02   6.2493238274e+00    0.3167109    0.2465139  79.57  0.001732445    1.507    0.337
        40  -9.3209     54.6598    235.3547   1.3517030919e+02   1.7757101714e+01    0.2139028    0.1237613  66.89  0.001121073    1.666    0.400
        41 -12.0107    131.5884    248.9128   1.2089054736e+02   3.1807767533e+00    0.9023087    0.2549946  41.72  0.003263248    3.015    0.668
        42 -11.2667    113.5189    230.8266   1.2221171487e+02   9.8051482202e+00    0.4633816    0.3013224 -39.88  0.002275709    1.975    0.494
        43 -11.3447    105.5952    228.5453   1.2362034129e+02   1.1601353552e+01    0.3405863    0.3342178  70.30  0.002138523    1.157    0.136
        44  -9.0480    156.5964    232.7349   1.1319972325e+02   2.0886736614e+00    0.1806216    0.1333656 -63.38 0.0009497959    1.636    0.389
        45 -10.7632     59.4190    245.8162   1.3523046249e+02   1.4884979234e+01    0.3803197    0.2615121  82.42  0.001659659    1.341    0.254
        46 -10.0888    249.7668    231.0028   9.4577167000e+01  -1.2037316863e+01    0.1616319   0.08824658 -35.83 0.0008852457    1.652    0.395
        47  -8.5856     45.6579    231.2831   1.3659176645e+02   1.9827337519e+01    0.1347946   0.07758002  66.17 0.0007014121    1.635    0.388
        48 -10.1974     56.7613    228.3280   1.3403540126e+02   1.9015746676e+01    0.2420572    0.1814581 -85.74 0.0002080146    1.203    0.169
        49 -10.5390     79.3102    225.8349   1.2898113712e+02   1.6342057972e+01    0.4356481    0.2526158 -74.30  0.001458099    1.798    0.444
        50  -9.4758     77.1554    220.8163   1.2883409321e+02   1.7794505758e+01    0.2071932    0.1596051  71.89 0.0004416461    1.203    0.169
        51  -9.9970    117.4154    224.5802   1.2045657798e+02   1.0485159145e+01    0.2952738    0.2427845 -46.07    0.0011496    1.371    0.271
        52  -9.0573     92.5109    226.4507   1.2619460157e+02   1.4166852985e+01    0.1392982    0.1185653  68.47  0.000135813    1.050    0.048
        53  -9.0398     51.3245    225.5710   1.3488001738e+02   2.0357594870e+01    0.1888501     0.135942 -55.12 0.0005294338    1.613    0.380
        54  -9.2095     65.2259    223.8997   1.3177734089e+02   1.8833943576e+01    0.3657453    0.1461599 -52.12  0.001489963    2.911    0.656
        55  -8.9444    164.4616    224.0087   1.1007191103e+02   2.4309585463e+00    0.1936499    0.1373255 -47.61  0.000372866    1.498    0.333
        56 -11.0834     98.6939    222.7531   1.2434121925e+02   1.3995220754e+01    0.3980414    0.2785384  57.04  0.001572114    1.361    0.265
        57  -9.7316     87.3350    223.4255   1.2693364018e+02   1.5651155099e+01    0.2503424    0.1904783  67.25 0.0007472241    1.240    0.194
        58 -10.4445     70.9070    219.6274   1.3005486838e+02   1.8987575326e+01    0.4766571    0.3149908  88.79  0.002490216    1.562    0.360
        59 -10.6668    142.0532    219.6168   1.1421637179e+02   7.2639626655e+00    0.4085642    0.3315658 -61.11  0.001407577    1.331    0.249
        60  -9.6214     90.0832    219.2320   1.2577443989e+02   1.6163955515e+01    0.2803442    0.1672629  78.56  0.001233218    2.199    0.545
        61 -10.0183    111.4603    215.6062   1.2044676826e+02   1.3470265585e+01    0.3713075    0.2506468 -40.57  0.001794487    1.810    0.447
        62  -9.9730    118.0605    214.8163   1.1882794403e+02   1.2514628736e+01    0.2597022    0.2053959 -64.18 0.0004649518    1.309    0.236
        63  -9.2137     88.0861    212.7991   1.2534750672e+02   1.7951841428e+01    0.2814572    0.1809595 -80.37 0.0009638111    1.702    0.412
        64 -10.4207     62.6872    208.8119   1.3056527350e+02   2.2669070686e+01    0.4286685    0.3376592 -47.46  0.001519777    1.533    0.348
        65 -10.2586     63.9542    205.1027   1.2981999193e+02   2.3369053674e+01    0.3262511     0.172972 -60.77 0.0003079827    1.787    0.440
        66 -10.4039     56.0832    208.9084   1.3204995647e+02   2.3550878025e+01    0.5800568    0.2744699 -79.92  0.002348104    2.345    0.574
        67  -8.5120     51.6556    205.3183   1.3261928156e+02   2.4984271582e+01    0.2003591    0.1166296  54.88 0.0008272948    1.670    0.401
        68  -8.9722    134.3880    207.7391   1.1394512016e+02   1.1199202765e+01    0.1966582    0.1353678 -43.78 0.0007977578    1.571    0.364
        69  -9.4727    112.3143    208.1064   1.1908867940e+02   1.5024399199e+01    0.1989458    0.1773344 -80.02 0.0003564023    1.116    0.104
        70 -11.5768    198.1978    245.9846   1.0683338696e+02  -7.0411723550e+00    0.3667724    0.1980557  35.31  0.001616581    1.699    0.411
        71  -8.6677     53.6396    241.1409   1.3592579481e+02   1.6651972373e+01    0.1631631    0.1027198 -62.31 0.0003887858    1.677    0.404
        72 -10.3653    246.8581    205.8857   9.0510722862e+01  -7.6513843169e+00    0.2067891    0.1559279 -10.55  0.001245648    1.276    0.216
        73  -8.4884     89.4544    205.4608   1.2399379464e+02   1.9449180516e+01     0.145466    0.1252274  76.25 0.0001684569    1.079    0.073
        74  -9.8680     83.7510    201.5948   1.2476572243e+02   2.1268178064e+01    0.2496152    0.1976554  88.31 0.0002608844    1.236    0.191
        75  -9.8610     43.7864    200.3882   1.3381841701e+02   2.7154271849e+01    0.3608142    0.3116009  11.80  0.002050419    1.614    0.380
        76 -10.7678    106.8983    203.6561   1.1964330815e+02   1.6984926657e+01    0.2698294    0.2253132 -74.41 0.0003624971    1.195    0.163
        77  -9.6443     75.0634    200.0200   1.2658021802e+02   2.2973701075e+01    0.2082318     0.184421 -88.38   0.00121091    1.033    0.032
        78 -11.7231     54.6224    193.7909   1.3054255057e+02   2.7360946465e+01    0.4705909    0.3219894 -51.19 0.0005640612    1.588    0.370
        79 -12.7403     13.9291    214.7201   1.4150117375e+02   2.7187060323e+01     1.507964    0.9661659  68.21  0.009268806    1.358    0.264
        80  -8.2948     97.7145    196.2719   1.2064318399e+02   2.0286394163e+01     0.145156    0.1058759  72.48 0.0001840255    1.503    0.335
        81  -9.2107     30.5828    193.2489   1.3600194633e+02   3.0402784977e+01    0.2054078    0.1311632 -58.52 0.0007004656    1.535    0.349
        82  -9.3975     33.6878    192.1198   1.3517818930e+02   3.0326705484e+01    0.2993435     0.181229  80.03 0.0008268179    1.674    0.403
        83  -9.4248     26.3471    192.4796   1.3687022946e+02   3.1045840205e+01    0.2756088    0.2238863  44.36  0.001154011    1.376    0.273
        84  -9.4134     21.3829    192.6254   1.3798680419e+02   3.1529558874e+01    0.3364766    0.1844755  66.33 0.0009712416    1.879    0.468
        85  -9.2647    191.4211    191.5755   9.8323726845e+01   4.1033945999e+00    0.2409495    0.2166972 -47.34 0.0006781433    1.142    0.124
        86  -8.5128     72.5940    192.7500   1.2613860365e+02   2.5102129157e+01    0.1337321    0.1107947 -17.32 0.0006941198    1.709    0.415
        87  -8.2203     38.6290    192.2722   1.3406736033e+02   2.9721366490e+01    0.1396732   0.08552521  66.71 0.0007000293    1.677    0.404
        88 -10.5664    250.3166    187.8891   8.6502683921e+01  -5.0957700188e+00     0.335812    0.1355976 -36.26  0.001439438    2.245    0.555
        89  -8.9186     76.7906    187.9817   1.2441897655e+02   2.5643121288e+01    0.2782745    0.1821588 -83.61  0.001307909    1.662    0.398
        90 -10.0506      9.4038    186.7918   1.4006583573e+02   3.4062385878e+01    0.3566659    0.1571304  81.49  0.001545666    2.675    0.626
        91 -10.9509      3.5446    185.9228   1.4126412866e+02   3.4781367427e+01    0.5071112    0.2765947  84.35  0.002071131    1.691    0.409
        92 -10.1935      4.3950    178.8088   1.4043919050e+02   3.6379037662e+01    0.2640924    0.2180552  48.16   0.00118456    1.383    0.277
        93  -9.0733     83.4998    186.8427   1.2259692509e+02   2.4887511312e+01    0.2072673    0.1360592 -65.22 0.0005470851    1.456    0.313
        94  -9.7535     71.0113    187.0721   1.2569528194e+02   2.6727595609e+01    0.2928533    0.1837385  38.74 0.0004448517    1.656    0.396
        95 -11.5430     61.1863    185.8738   1.2791770839e+02   2.8416179217e+01     0.288499    0.2435355 -53.01 0.0004498567    1.281    0.219
        96  -9.5820    106.9102    185.6556   1.1662767014e+02   2.1274105629e+01     0.222995    0.2012356 -51.86 0.0003920908    1.157    0.135
        97  -9.4899     24.6029    184.0713   1.3637907061e+02   3.3243049276e+01    0.2137656    0.1596123  59.75  0.001291385    1.331    0.249
        98 -10.4867    164.6402    241.7491   1.1294789795e+02  -9.5308692223e-01    0.2353412    0.1790729  39.46 0.0008186494    1.203    0.169
        99  -8.6637     85.6970    180.2950   1.2098866767e+02   2.6156851114e+01    0.1501216    0.1075573  74.48 -0.0001541599    1.577    0.366
       100  -9.4781     27.1622    179.6312   1.3529115987e+02   3.4051927284e+01    0.2330902    0.1516297 -73.59 0.0001413954    1.285    0.222
       101  -8.3114     47.6485    179.7170   1.3037695264e+02   3.1702690897e+01    0.1321496     0.100932 -37.02 0.0007017256    1.656    0.396
       102  -8.7190     12.4015    178.2642   1.3857536423e+02   3.5812803082e+01    0.1767652    0.1001305 -83.51 0.0006280363    1.521    0.343
       103  -8.5896    103.0153    176.0235   1.1586915373e+02   2.4313193199e+01    0.1799443    0.1644808 -73.34            0    1.045    0.043
       104  -8.6505     64.6464    176.2798   1.2565623564e+02   3.0317700154e+01    0.1483576    0.1001033  69.35 0.0006426366    1.654    0.395
       105 -10.7294     72.5990    173.8191   1.2324648978e+02   2.9788228848e+01    0.2752331    0.2383163 -60.78 0.0004585131    1.129    0.114
       106  -9.0899     19.7698    175.0026   1.3651756232e+02   3.5911215904e+01    0.2332385    0.1442863 -65.27 0.0006495579    1.367    0.269
       107  -9.4958     18.3440    172.3089   1.3655786254e+02   3.6697284742e+01    0.2409118    0.1555059 -85.02 0.0007943177    1.355    0.262
       108 -11.8892    247.4670    158.3507   8.1175382702e+01   6.3765029288e-01    0.8512445    0.5600641 -74.81   0.00387115    2.699    0.629
       109 -12.0055    245.5237    163.3882   8.2497243926e+01   3.7537652011e-02    0.6170571    0.2971221 -51.44  0.002694869    2.179    0.541
       110 -10.4910     57.9829    173.3512   1.2690059832e+02   3.1958890111e+01    0.3024111    0.2448562  50.53 0.0004853178    1.285    0.222
       111  -9.8176     12.4126    172.8170   1.3801422713e+02   3.7114778772e+01    0.3210147    0.1150846 -64.82  0.001432305    2.158    0.537
       112 -11.9107     10.2730    157.5901   1.3686022354e+02   4.0955244991e+01    0.6549233    0.2750201 -80.30  0.002113135    2.314    0.568
       113 -10.8477      2.9079    172.7840   1.4021017984e+02   3.7923265992e+01    0.3430128    0.2083226  85.64  0.001027925    1.493    0.330
       114 -11.4811     13.0366    167.1643   1.3726014583e+02   3.8418200837e+01    0.5463701    0.2932687  46.10  0.002907093    2.007    0.502
       115 -10.9734      4.9480    167.0212   1.3917048382e+02   3.9127239499e+01    0.3408915    0.2768503 -22.46 0.0004337861    1.697    0.411
       116  -9.9619     27.4018    171.6338   1.3429589000e+02   3.5975570814e+01    0.3226465    0.1807777 -47.04 0.0005352785    1.976    0.494
       117  -9.0743     51.7191    171.0567   1.2815288411e+02   3.3344259712e+01    0.1923928    0.1632614 -76.79 0.0005378749    1.028    0.027
       118  -8.5707    166.9285    170.5215   9.9306735933e+01   1.3317227430e+01    0.2049999    0.1514969  40.16 0.0001148111    1.389    0.280
       119 -11.5312     80.3926    165.7818   1.1985696258e+02   3.0620041542e+01    0.5744672    0.4635008  17.22  0.002957405    1.542    0.352
       120 -10.0800     81.9532    158.3083   1.1807649993e+02   3.2250458805e+01    0.4771295    0.2137381 -61.28 0.0006799533    2.182    0.542
       121 -10.3638     66.9735    161.5608   1.2267426745e+02   3.3680007759e+01    0.2901767     0.193159 -64.42  0.001418054    1.373    0.272
       122 -10.2620     68.2931    166.2909   1.2312361394e+02   3.2303357218e+01    0.2517983    0.2141021 -88.22 0.0003327399    1.129    0.114
       123 -10.3053     44.4054    165.2286   1.2917887997e+02   3.5690190842e+01    0.3790234    0.2265394 -33.59  0.001585655    2.394    0.582
       124 -10.1695     29.1022    161.2830   1.3256197400e+02   3.8341580356e+01    0.2994039    0.1878728  79.58  0.000934232    1.768    0.435
       125  -8.8808     37.9076    163.0000   1.3053617606e+02   3.6986027160e+01      0.19918   0.07819527  29.11 0.0008031223    2.947    0.661
       126  -9.6691     23.9947    162.0041   1.3395192968e+02   3.8668062260e+01    0.1958282     0.161733 -78.04 0.0003347923    1.008    0.008
       127  -8.9444     43.2760    161.0365   1.2885946838e+02   3.6865713486e+01    0.1928901    0.1540782 -73.91 0.0001897756    1.085    0.078
       128  -9.6750     46.4410    156.2590   1.2729491183e+02   3.7684656418e+01    0.2221984    0.1987084  83.46 0.0002100699    1.115    0.103
       129 -10.4574     27.3615    155.4927   1.3223374125e+02   3.9937094997e+01     0.347345    0.1487925  45.21  0.001530576    2.610    0.617
       130  -8.3953    228.4376    155.4745   8.3773542393e+01   4.4904415865e+00    0.1412779    0.1242994 -44.69 0.0001452035    1.039    0.038
       131 -11.4407    249.0677    172.0815   8.3637294474e+01  -2.1123767302e+00    0.4873648    0.3977099  -6.14  0.002939426    1.338    0.252
       132  -9.3223     32.3368    153.9101   1.3070288124e+02   3.9827700295e+01    0.1930987    0.1478213 -67.69 0.0004615902    1.101    0.092
       133 -10.9917    249.5619    150.9002   7.9353336585e+01   1.6498744593e+00    0.4511263    0.2790345 -40.35   0.00236452    1.377    0.274
       134 -11.9362    247.9264    142.3953   7.7897271417e+01   3.4880556719e+00      0.59088    0.5247868  -2.61  0.003646817    1.346    0.257
       135 -12.7952    248.1715    134.1892   7.6202087608e+01   4.9496470008e+00     1.223425    0.6693248 -36.31   0.00587521    1.736    0.424
       136 -11.0861      4.1645    151.1753   1.3765735713e+02   4.2963433832e+01    0.3766715    0.2321068  -4.21  0.002045146    2.526    0.604
       137 -10.1750     94.5124    150.2247   1.1307867437e+02   3.2195073256e+01    0.2905755    0.2753147  64.52 0.0009887237    1.086    0.079
       138  -9.6190     55.0214    150.7976   1.2406704730e+02   3.7990774636e+01    0.2282757     0.156648 -25.37  0.001085224    1.995    0.499
       139 -10.2585     82.6456    149.2060   1.1612694229e+02   3.4417109608e+01    0.2530201    0.2394651 -62.36 0.0003021918    1.040    0.038
       140 -10.7941     21.2941    148.9585   1.3294065353e+02   4.2102838939e+01    0.4193543    0.1467619  36.66  0.001785377    3.029    0.670
       141 -11.8557     68.2106    144.1644   1.1917111986e+02   3.7858906007e+01    0.7364833     0.508021  88.84  0.002547205    1.839    0.456
       142 -11.7820      9.3751    144.2009   1.3547237073e+02   4.4238978365e+01     0.515097    0.1626859 -62.59  0.002203287    2.296    0.564
       143 -12.7026      5.6975    141.9745   1.3616454546e+02   4.5042018871e+01    0.6706148     0.454253 -54.19  0.002575163    1.317    0.241
       144  -9.5697    235.9708    145.9955   8.0532654885e+01   4.9361809649e+00    0.2059313    0.1623802 -11.34 0.0004925517    1.579    0.367
       145  -9.9369     87.0134    151.0258   1.1528943468e+02   3.3256668348e+01    0.2207421    0.2025362 -70.95  0.001196456    1.026    0.025
       146  -8.8520     40.5236    147.5329   1.2752061818e+02   4.0530114955e+01    0.1376142    0.1183379 -74.34 0.0001976782    1.040    0.039
       147 -10.0581    133.2741    141.0691   1.0079994456e+02   2.7030935222e+01     0.339045    0.2684839 -61.91 0.0009129462    1.298    0.230
       148 -11.1364     16.6127    140.1202   1.3298064336e+02   4.4644463067e+01    0.3128289    0.2295674  78.05  0.001482028    1.475    0.322
       149  -9.4959    107.6420    135.7146   1.0630661379e+02   3.3375276640e+01    0.3936732    0.2518984 -21.66  0.001507434    2.486    0.598
       150 -12.3224      2.4074    122.7215   1.3451222260e+02   4.9786491566e+01    0.8372967    0.2755936 -75.96  0.003160794    3.358    0.702
       151  -9.1640     94.1571    133.1254   1.0946510724e+02   3.6445389697e+01    0.2228027    0.1956587 -25.95 0.0004177055    1.237    0.192
       152  -9.4195     44.4739    129.9520   1.2333651412e+02   4.4397059303e+01    0.2103606    0.1208293 -61.63 0.0005653547    1.527    0.345
       153 -10.7701     13.0784    127.9411   1.3220381442e+02   4.7827756710e+01    0.2008722    0.1562236 -55.98 0.0007096351    1.102    0.093
       154  -9.4540     47.9996    126.0345   1.2152631169e+02   4.4935162071e+01    0.2039616     0.182742 -56.40 0.0003663624    1.021    0.021
       155 -11.4692    244.8818    121.1093   7.4026968164e+01   7.9331545554e+00    0.4605787    0.3374194  85.92  0.002500754    1.722    0.419
       156 -12.9244    247.5455    101.4797   6.9670475950e+01   1.0930779097e+01     1.058223    0.6373865 -34.67  0.005360161    1.779    0.438
       157  -9.5757     30.3494    119.3024   1.2561015473e+02   4.8404754670e+01    0.1385903   0.08638787 -35.28 0.0007039554    1.695    0.410
       158 -12.7766      8.8573    112.8855   1.3108960445e+02   5.1631014266e+01    0.5681548    0.2820941 -69.60  0.001889084    1.770    0.435
       159  -9.6373    167.5437    112.8153   8.5863961971e+01   2.5817899200e+01     0.293686    0.2303161 -87.14 0.0007915222    1.517    0.341
       160 -11.6665    248.0568    112.8040   7.1889005148e+01   8.8396501577e+00    0.4426861    0.4137494  52.79  0.002860999    1.310    0.236
       161 -11.7561     17.0984    122.2238   1.3013110815e+02   4.8863845766e+01    0.3496365    0.1781422  35.23  0.001784181    2.281    0.562
       162 -10.1437    232.0181    116.3351   7.4948947682e+01   1.1265059196e+01    0.1923817     0.173209 -66.77 0.0006602195    1.064    0.060
       163 -10.3869     19.0286    105.7192   1.2661256720e+02   5.2516689347e+01    0.1744979    0.1507905 -46.34 0.0004673251    1.069    0.064
       164 -11.6113     16.7162     99.0406   1.2606622150e+02   5.4186946398e+01    0.3563931    0.2114827  34.74  0.001395561    2.025    0.506
       165  -8.5178     71.7698    100.0685   1.0811681024e+02   4.7729460775e+01    0.1750634    0.1110412 -50.86 0.0003217533    1.499    0.333
       166 -10.0099    249.7884    117.7778   7.2653073810e+01   7.6324119441e+00    0.2405169    0.2024027 -62.47 0.0006942984    1.096    0.087
       167 -11.5926    150.2163    247.3787   1.1680409960e+02   4.0183499493e-01    0.3981483    0.3306446 -45.00   0.00212074    1.350    0.259
       168 -10.8188     74.1097    243.7456   1.3209978303e+02   1.3240579769e+01    0.3960971    0.2687439 -61.94  0.002064236    1.579    0.366
       169  -9.5581    158.9773    244.2317   1.1451074733e+02  -4.6861568100e-01    0.1788575    0.1002344  38.20 0.0004511454    1.598    0.374
       170 -10.6624    135.9238    225.4573   1.1650927158e+02   7.1176072918e+00    0.4407361     0.200064 -46.80  0.001189203    2.418    0.586
