#   1 NUMBER                 Running object number                                     
#   2 MAG_AUTO               Kron-like elliptical aperture magnitude                    [mag]
#   3 X_IMAGE                Object position along x                                    [pixel]
#   4 Y_IMAGE                Object position along y                                    [pixel]
#   5 X_WORLD                Barycenter position along world x axis                     [deg]
#   6 Y_WORLD                Barycenter position along world y axis                     [deg]
#   7 A_WORLD                Profile RMS along major axis (world units)                 [deg]
#   8 B_WORLD                Profile RMS along minor axis (world units)                 [deg]
#   9 THETA_WORLD            Position angle (CCW/world-x)                               [deg]
#  10 FWHM_WORLD             FWHM assuming a gaussian core                              [deg]
#  11 ELONGATION             A_IMAGE/B_IMAGE                                           
#  12 ELLIPTICITY            1 - B_IMAGE/A_IMAGE                                       
         1 -10.6809     33.0061     63.7016   1.0720594545e+02   5.9681094958e+01      1.43216     0.573364 -30.87  0.005249795    4.184    0.761
         2 -10.4832     16.3497     66.1245   1.1380057904e+02   6.0449605001e+01     1.458125     0.109584 -59.01  0.004716676    4.436    0.775
         3 -11.1405     24.0809     31.5699   1.0094779870e+02   6.6913610964e+01     1.521271    0.4182227 -41.53  0.004690757    2.927    0.658
         4 -10.9772     34.8425      9.9726   8.6772138736e+01   6.9444151309e+01    0.9917844    0.6509299  18.48  0.002989809    1.547    0.353
         5 -10.3650     17.7788      4.9847   9.2677117141e+01   7.1969391839e+01    0.6239274     0.464387 -50.53  0.003196962    1.770    0.435
         6 -10.2753      4.8703     41.7022   1.1243644390e+02   6.6245628099e+01    0.6567233    0.2748733 -64.95  0.002646249    2.078    0.519
         7  -9.7164      2.1551     14.2053   1.0492900943e+02   7.1607514857e+01    0.6987086    0.1908888 -58.17  0.002825218    3.910    0.744
         8 -10.0234      6.3335      5.1713   9.8872127549e+01   7.2866463406e+01    0.3516863    0.2272844 -30.67  0.001253889    1.131    0.116
         9  -9.8842      2.6047      3.2577   1.0004222475e+02   7.3428173869e+01    0.2972748    0.1341732 -36.21  0.001367004    1.639    0.390
        10 -10.3387     10.3825     18.8242   1.0257068852e+02   7.0274622854e+01     1.286381     0.426771 -25.29  0.004013173    7.042    0.858
        11  -9.5564     77.8121      4.5233   6.7220326448e+01   6.3447701400e+01    0.5626093    0.3188308 -13.03  0.001974525    1.760    0.432
        12 -10.2264     69.7077     40.6307   8.5979599030e+01   5.9772001126e+01     1.257869    0.3660114 -40.37  0.003351793    3.107    0.678
        13 -10.3108     73.5662     17.8131   7.4901448217e+01   6.2651624384e+01     1.274503     0.367156 -28.33  0.003723853    3.673    0.728
        14  -8.6166     72.1693      8.6073   7.1053176779e+01   6.4041995446e+01    0.2618995    0.1663122 -14.99 0.0005635001    1.482    0.325
        15  -9.1896    110.2669     33.2228   7.0129198882e+01   5.3267506105e+01    0.7276544    0.2273696 -31.97  0.002496231    3.106    0.678
        16  -9.6228     63.3617     21.6103   8.0337882896e+01   6.3823900882e+01    0.4102546    0.2855756 -46.66 0.0008725143    1.785    0.440
        17 -10.4379     64.4634     13.4816   7.6145750392e+01   6.4769984222e+01     0.478999    0.3513624 -23.02  0.001891412    1.240    0.194
        18 -10.0505     52.1916     13.8121   8.1090187870e+01   6.6622344703e+01    0.6043442    0.3333858  18.10  0.002706938    2.152    0.535
        19 -10.1718     46.2193     29.5507   9.0615560661e+01   6.4971732022e+01    0.5605757    0.3317351 -56.44   0.00273091    2.383    0.580
        20  -9.2706     96.2266     14.9371   6.6473174313e+01   5.8633454512e+01    0.6657708    0.2809847 -14.34  0.002416445    3.137    0.681
        21  -8.6526    120.4121     15.8049   6.0664158497e+01   5.3148795568e+01    0.3261805    0.1984874  -0.37  0.001496164    1.975    0.494
        22  -9.2348    115.2307      4.3650   5.7208108798e+01   5.5503795817e+01    0.3168044    0.2388988 -54.26 0.0004834791    1.703    0.413
        23  -8.9664    111.0188      4.2037   5.8085958914e+01   5.6490392885e+01    0.4139219    0.2826704 -55.68  0.002093356    2.041    0.510
        24  -8.9196    112.4951     15.5192   6.2427421530e+01   5.5012602880e+01    0.3473023    0.2155257 -35.85 0.0006643073    1.730    0.422
        25  -9.4856    114.2151     10.0134   5.9757476720e+01   5.5199934619e+01    0.4915343    0.1853912  40.27 0.0002841205    2.698    0.629
        26  -9.2163    103.0158     21.0411   6.7183443791e+01   5.6464426495e+01    0.3949689    0.2198753 -32.12  0.001745201    1.799    0.444
        27  -8.2579     80.5403     12.2845   7.0016069534e+01   6.2069387715e+01    0.2531255    0.1321955 -36.41  0.001025497    2.037    0.509
        28  -9.6060     85.2076     13.0097   6.8876365263e+01   6.1086253172e+01    0.4546088    0.2657245 -48.02  0.001427707    2.498    0.600
        29  -7.9868     84.3367      7.3504   6.6536131085e+01   6.1888156634e+01    0.3637986    0.1641561  17.08  0.001247829    4.107    0.757
        30  -8.8831     88.9681      2.5466   6.2949128298e+01   6.1438541230e+01    0.4537179    0.3731662   6.17  0.001866323    1.100    0.091
        31  -9.8512    133.4139     11.6838   5.6296242636e+01   5.0444775375e+01    0.4862044    0.2038131 -37.81  0.001762176    2.576    0.612
        32  -8.6341    125.1924     13.1405   5.8552600849e+01   5.2296478127e+01    0.2640755    0.2004057 -11.39 0.0004866095    1.372    0.271
        33  -8.9198    126.8496      9.1712   5.6657882352e+01   5.2295660767e+01    0.2449661    0.1881848  52.97 0.0004810745    1.192    0.161
        34  -9.1467    125.9012      4.6088   5.5072297316e+01   5.2950296817e+01     0.429123    0.2289111   4.72  0.001627214    2.448    0.591
        35 -10.1577    137.2583      3.7839   5.2621177718e+01   5.0234776059e+01    0.5085324    0.3471434  68.19  0.001216668    1.418    0.295
        36  -9.0441     96.8631      4.5465   6.1711582222e+01   5.9594145586e+01    0.3958252    0.2506399 -46.75  0.001990595    2.128    0.530
        37  -7.5732    156.0000      8.9966   5.1329518095e+01   4.4995143840e+01    0.2237716   0.08113388 -21.74 0.0008082198    2.983    0.665
        38  -8.3376    141.2909     12.3876   5.5048103151e+01   4.8412343874e+01    0.1961063    0.1652548 -72.29 0.0009764816    1.381    0.276
        39  -7.1783    179.3233      5.2904   4.6841806840e+01   3.9284564854e+01    0.1445326   0.09621269  41.61 0.0006864953    1.610    0.379
        40  -9.2794    102.1305      8.1275   6.1915916347e+01   5.8104771142e+01     0.379099    0.2485165 -62.16  0.001376693    2.589    0.614
        41  -9.6983     63.7673      2.8340   7.1143303652e+01   6.6161812692e+01    0.3232822    0.2669758 -53.26  0.001419258    1.886    0.470
        42  -8.3650    104.3074      2.3002   5.8849448356e+01   5.8176522200e+01    0.2859364    0.1746656  27.62   0.00105443    1.623    0.384
        43 -10.7459     22.0230     53.6593   1.0869207601e+02   6.2705720813e+01    0.7607789    0.4075149 -84.69  0.002937903    4.075    0.755
        44  -8.2124    237.4990    250.4867   9.5151992692e+01  -9.2532405341e+00    0.1141427   0.08078708  21.54 0.0008098877    1.057    0.054
        45 -10.2603    204.4482    249.5966   1.0051923643e+02  -4.2127421485e+00    0.6485898    0.1619643  37.32  0.002530556    3.493    0.714
        46  -9.6826    192.5755    249.5487   1.0253143144e+02  -2.3573552919e+00    0.2589501    0.1823387  25.76  0.001753002    1.273    0.215
        47 -10.1730    188.4896    246.4941   1.0282008013e+02  -1.3425549548e+00     0.302436    0.2151406 -39.41  0.002051572    1.801    0.445
        48 -10.1662     58.1128    124.4153   1.1205420969e+02   4.3174303995e+01    0.6588116    0.3589599  84.40  0.002768473    2.763    0.638
        49  -7.3921    172.6526    131.2025   8.4875803222e+01   2.0691762906e+01    0.2011482    0.1425261 -30.77 0.0002755196    1.516    0.340
        50  -9.8057     98.4971    128.5546   1.0216182094e+02   3.6288327856e+01    0.5828437    0.3514309  77.24  0.002291065    2.747    0.636
        51  -9.9931    140.8637    118.7569   8.9157577659e+01   3.0278457417e+01    0.5036289    0.3826979 -89.89  0.001555991    1.760    0.432
        52 -11.2694    134.3402    109.8843   8.8515624664e+01   3.3589111973e+01     1.622517    0.7883402 -54.87  0.005892296    2.386    0.581
        53 -10.1318    117.2831    124.1198   9.6347885262e+01   3.3901154669e+01      1.10059    0.5204809 -47.82  0.003147968    2.066    0.516
        54 -10.7204    123.5522     91.2948   8.6227390728e+01   3.9861593444e+01     1.240386     0.599103 -37.03  0.002473325    2.192    0.544
        55 -10.2608    108.6772    114.4532   9.6339532040e+01   3.7712174809e+01    0.8492205    0.4375614 -65.54  0.001368073    2.672    0.626
        56 -10.7411    108.6890     99.9617   9.2686989216e+01   4.0968261654e+01     1.123945    0.7987435  86.01  0.004901356    2.123    0.529
        57  -9.5334    128.0164    102.5765   8.8196411542e+01   3.6510259675e+01    0.4329243    0.3345299 -54.08 0.0009069161    1.303    0.233
        58 -10.3262    121.4023    112.1952   9.2425638606e+01   3.5763574130e+01    0.7797928    0.5210344 -86.42  0.002170651    2.467    0.595
        59 -10.4049    122.3362    105.2573   9.0398040093e+01   3.7106052794e+01     0.633559    0.5681175  75.47  0.002139852    1.210    0.174
        60  -9.8715     27.4777    123.0586   1.1992422581e+02   4.6709779334e+01    0.5434688    0.2661306  71.89  0.002131548    2.718    0.632
        61  -9.0891    129.4445    124.2710   9.3312134637e+01   3.1465719320e+01    0.3034971    0.1428675 -43.03  0.001142336    2.189    0.543
        62  -9.7011     41.5431    122.1921   1.1611236661e+02   4.5564394169e+01    0.4864358    0.2207192 -81.77  0.001951028    2.630    0.620
        63  -9.6765    134.7453    121.7087   9.1384875081e+01   3.0935866676e+01    0.4913583    0.3011749 -57.48  0.002080158    1.788    0.441
        64  -9.8769    130.3165    118.5511   9.1719204355e+01   3.2546112567e+01    0.4547701     0.320627 -79.24 0.0008382336    1.973    0.493
        65  -9.5312    157.9935    121.7214   8.5836807243e+01   2.5889343320e+01    0.5122848    0.3139128 -75.93  0.001699547    3.405    0.706
        66 -10.1415     91.8813    113.0217   1.0057118572e+02   4.0990038052e+01    0.5813826    0.4391951 -81.24  0.001631939    1.506    0.336
        67  -8.8999     93.2372    103.4745   9.7932050887e+01   4.2957091808e+01     0.659339    0.3905637  17.71  0.002577419    2.922    0.658
        68  -8.1553      1.4301    116.4831   1.2584245691e+02   5.0142862364e+01    0.2435095   0.08703595 -75.90 0.0009185003    2.129    0.530
        69  -8.7232    152.4042    121.8118   8.7157528759e+01   2.7113362222e+01     0.218853    0.1466519 -32.30  0.000942076    1.656    0.396
        70  -9.6915     81.5710     99.0843   1.0023334852e+02   4.5851255934e+01    0.7368909     0.280037 -54.42  0.001865748    2.405    0.584
        71 -10.2336     78.2207    112.9684   1.0436154629e+02   4.3143395758e+01    0.5618539    0.3318436 -82.00  0.001958329    2.442    0.591
        72  -8.1056     78.2776    105.2884   1.0265610246e+02   4.4921680808e+01    0.3383069     0.206647 -25.50  0.001413507    2.632    0.620
        73  -9.9408     14.1522    111.5264   1.2196653196e+02   5.0413716388e+01    0.4283845    0.2082091  83.50  0.001788428    2.430    0.588
        74  -7.6143    167.3574    114.2422   8.1808003781e+01   2.5277821777e+01    0.2201696      0.14265 -49.26 0.0004370614    1.614    0.380
        75 -10.3806     63.0000     95.7534   1.0501759025e+02   4.9251821953e+01    0.6355613    0.3629117 -78.72  0.001599399    2.487    0.598
        76  -8.7062     65.0055     85.9570   1.0203711283e+02   5.1220087188e+01    0.6086592    0.4276932 -41.51  0.003289734    1.342    0.255
        77 -10.3469     65.8437    109.5939   1.0716290577e+02   4.5665652251e+01     1.031498    0.4812924 -55.24  0.003285122    1.846    0.458
        78  -9.6051     59.1817    108.9956   1.0895199744e+02   4.6657022458e+01    0.3889449    0.1890878 -61.17   0.00116464    1.778    0.437
        79  -8.6934    158.8537    112.0719   8.3170585610e+01   2.7677032528e+01    0.2420111    0.2096869 -75.14 0.0005449014    1.314    0.239
        80  -8.3146    149.7083    109.9996   8.4772426611e+01   3.0185386112e+01    0.3240217    0.2365836 -21.38 0.0007937421    1.671    0.402
        81  -9.5101     35.1320    110.5174   1.1605906365e+02   4.8911618656e+01    0.3432427     0.189445 -79.25  0.001578703    1.753    0.430
        82  -8.9026     40.1957    106.9211   1.1402723105e+02   4.9256801130e+01    0.2652809    0.1503839 -78.34 0.0007292195    1.764    0.433
        83 -10.8972     44.7934    102.3230   1.1186008059e+02   4.9855771589e+01    0.8295025    0.4419104  76.81  0.002934533    3.445    0.710
        84  -9.2554     54.1297     36.7044   9.0303002355e+01   6.2714958713e+01     0.499022    0.1902871 -37.70  0.001855164    2.359    0.576
        85  -9.3286     41.8038     52.8270   1.0080063658e+02   6.1100310453e+01    0.4580505    0.3618633  47.83  0.002856399    1.678    0.404
        86  -9.4430    217.4473    247.7309   9.8062899793e+01  -5.9982495401e+00     0.246413    0.1881759  -5.46   0.00177775    1.404    0.288
        87 -10.8397     20.9290    101.0734   1.1863736209e+02   5.2297612591e+01     1.024717     0.468237  82.05   0.00370621    3.792    0.736
        88 -10.2271     19.2533     86.9084   1.1684739347e+02   5.5641802972e+01    0.9998455    0.1923937 -59.56  0.003778413    3.101    0.678
        89 -10.2340     50.0262     53.8325   9.8006498445e+01   5.9978925099e+01    0.6785491    0.3403805 -59.15  0.001833352    2.263    0.558
        90  -9.5103     56.3442     43.2255   9.1931450027e+01   6.1239264149e+01    0.7087864    0.3754745 -10.15  0.002607881    4.015    0.751
        91 -10.4911     25.8341     78.0337   1.1303560166e+02   5.7140098483e+01    0.6601578    0.3967224  79.27  0.002067394    2.524    0.604
        92 -10.0380     34.5690     90.6734   1.1274115211e+02   5.3542259782e+01    0.5627126    0.2549351 -79.38  0.001827311    3.086    0.676
        93  -9.3395    140.9833     99.5083   8.4057038691e+01   3.4336877273e+01    0.4077293    0.2648198  21.05   0.00158819    2.305    0.566
        94  -9.5636      6.3932    103.9403   1.2313610867e+02   5.2648594150e+01    0.3788025    0.2169666  77.51  0.001412369    1.887    0.470
        95  -8.3147    166.0899    104.1746   7.9416582491e+01   2.7580177168e+01    0.2867423    0.2212727 -56.98  0.000618241    1.423    0.297
        96  -9.6855    149.6253    103.3372   8.3003188736e+01   3.1585570758e+01    0.4405782    0.3090539 -58.07 0.0009871075    1.615    0.381
        97  -8.5009     14.4596    105.0193   1.2103820214e+02   5.1871440451e+01    0.1647786    0.1413827 -70.86 0.0005100714    1.133    0.117
        98  -9.1661    158.9876    101.7093   8.0355135599e+01   2.9745725298e+01    0.3878554    0.2525861 -43.17  0.001353173    1.520    0.342
        99 -10.1485     36.7501     81.1871   1.1008144666e+02   5.5492961105e+01    0.7915583    0.3957005 -19.49  0.003073893    4.188    0.761
       100  -9.7091    216.3041    102.8505   6.9056277567e+01   1.5883168060e+01    0.2518573    0.2370646  26.45 0.0002140849    1.093    0.085
       101  -8.3034     73.7869    102.7688   1.0339025914e+02   4.6161721692e+01    0.2787985    0.1746494 -65.30 0.0006706151    1.571    0.363
       102  -8.7645    243.5093    101.5194   6.4270939609e+01   1.0004103688e+01     0.144085    0.1303929 -20.86   0.00081013    1.029    0.028
       103  -8.0594    221.1807     99.0715   6.7242621043e+01   1.5393559222e+01    0.2232745    0.1958936   9.88  0.000304641    1.224    0.183
       104  -9.3860     94.3189     97.2286   9.6039840783e+01   4.4187779001e+01    0.3341213    0.2444396 -63.24   0.00066902    1.414    0.293
       105  -8.6130     95.8853     91.2065   9.3975416043e+01   4.5257959485e+01    0.4726924    0.2981689 -14.68  0.001825101    2.867    0.651
       106  -8.3299    137.6809     97.1711   8.4230194293e+01   3.5561684490e+01    0.3805439    0.2387177 -62.66  0.001505916    2.111    0.526
       107  -9.1792    138.7980     92.5730   8.2639933325e+01   3.6262643804e+01    0.3839444    0.2905888 -67.60 0.0006516408    1.620    0.383
       108  -8.1254    139.3259     87.7118   8.1088087003e+01   3.7130976969e+01    0.4430137    0.2631163  22.83  0.001405002    2.787    0.641
       109  -9.2344    140.3848     83.2212   7.9480923594e+01   3.7782598366e+01    0.7531383    0.3704511 -44.69  0.002109074    2.033    0.508
       110  -9.0399    139.8361     75.5606   7.7259525742e+01   3.9394263274e+01    0.5975552     0.361436 -44.14  0.001848361    1.656    0.396
       111  -9.8163    150.1660     89.8234   7.9056217714e+01   3.4193920678e+01    0.6905724    0.2266242 -36.25  0.002046046    3.278    0.695
       112  -8.7398    164.5064     94.1229   7.6979966337e+01   2.9929363185e+01     0.400978    0.2439588 -49.42  0.000801779    1.751    0.429
       113 -10.2770      4.2869     89.5251   1.2185008278e+02   5.6005271130e+01    0.7619202    0.3019675 -85.21  0.002127132    2.941    0.660
       114  -9.2110      6.1388     78.9632   1.1967940730e+02   5.8249716817e+01     0.544603    0.1841807 -40.54  0.002393093    3.318    0.699
       115  -7.5956    218.8360     92.3624   6.5898219095e+01   1.7064190831e+01    0.2106704    0.1348225  43.83 0.0007501867    1.673    0.402
       116  -9.3426    157.6331     91.0152   7.7650925822e+01   3.2185721438e+01    0.4602425    0.2639628 -38.48  0.001319134    1.722    0.419
       117  -9.5469    110.8575     89.8744   8.9301053597e+01   4.2754033409e+01    0.7942728     0.406037  26.29  0.002689398    3.343    0.701
       118  -9.4517    242.8511     86.4776   6.0653342230e+01   1.2501096721e+01     0.260363    0.1918958 -32.48  0.000507154    1.235    0.191
       119  -8.3837    163.3851     86.5729   7.5055785843e+01   3.1649296808e+01    0.3586984    0.1937184 -32.64  0.001009437    1.931    0.482
       120 -10.6598    103.9951     83.4321   8.9388397477e+01   4.5457965075e+01    0.6601191    0.3345545 -50.45  0.002198516    1.960    0.490
       121  -9.6079    105.1390     71.0570   8.5228557970e+01   4.7789744424e+01    0.7645714    0.5229769 -24.60  0.003439548    1.634    0.388
       122 -10.1624     47.8955     84.4017   1.0715870587e+02   5.3640979110e+01    0.5158116    0.3292197 -89.03  0.001329495    2.259    0.557
       123  -9.3102     48.4706     77.6388   1.0534484199e+02   5.5094139870e+01    0.6244498    0.3721419  -8.42  0.002855159    2.837    0.648
       124  -9.6576    139.3686    104.4999   8.5826733819e+01   3.3647932549e+01    0.4894318    0.3622731 -82.37   0.00171157    1.893    0.472
       125 -10.2465     85.3752     86.7103   9.5884126492e+01   4.8035359400e+01    0.4882235    0.3654662 -88.37 0.0009682163    1.867    0.464
       126  -9.5003     87.5540     78.4835   9.2864416429e+01   4.9463892166e+01    0.5709544    0.3521071  19.43  0.001685876    2.323    0.570
       127  -8.7660    156.8313     76.7616   7.3595572479e+01   3.5088966928e+01    0.3181999    0.2180531 -51.72 0.0004042626    1.591    0.372
       128  -8.9704    157.5773     83.3776   7.5422783847e+01   3.3669773767e+01    0.3687549    0.2007104 -47.22 0.0008997581    1.933    0.483
       129  -7.6657    170.4048     83.2650   7.2556419417e+01   3.0538657774e+01    0.2285851    0.1420425 -47.14 0.0009382307    1.671    0.402
       130  -8.6824    150.0596     80.9178   7.6432012299e+01   3.5951663520e+01    0.3004207      0.21924 -50.01 0.0004860995    1.434    0.303
       131  -8.7057    119.0267     80.4591   8.4234744926e+01   4.3064061528e+01     0.328948    0.2290253 -59.30 0.0006040123    1.683    0.406
       132  -8.3015    119.8567     75.8982   8.2588843936e+01   4.3806553974e+01    0.2845178    0.2211875 -26.08  0.000653715    1.336    0.251
       133  -9.1451     74.1994     79.1968   9.7289633992e+01   5.1426189390e+01    0.6439035    0.2263955 -51.85  0.002080891    2.569    0.611
       134  -8.2587     68.4200     78.8193   9.9051818250e+01   5.2341353651e+01    0.5065579    0.2619523 -71.32  0.001804572    3.589    0.721
       135  -8.2156    166.4263     78.6770   7.2051546392e+01   3.2366303834e+01    0.2787053    0.1464066 -40.94 0.0006416367    1.875    0.467
       136  -8.1376    184.1168     77.9813   6.8215555105e+01   2.8050785422e+01    0.2332587    0.2308356 -37.89  0.000626082    1.005    0.005
       137  -7.4324    174.2835     78.6717   7.0390628250e+01   3.0403466757e+01    0.1604227    0.1215298 -66.86 0.0005468404    1.606    0.377
       138  -9.2244    129.9879     57.1114   7.3686966166e+01   4.5041229725e+01     1.053381    0.2619756 -43.21  0.002816897    4.475    0.777
       139  -8.6701    138.0274     66.4890   7.4805776849e+01   4.1503193589e+01    0.4601907     0.347893  42.14 0.0009641449    1.341    0.254
       140  -7.8972    138.5767     62.2127   7.3262667338e+01   4.2134779836e+01    0.3018524    0.2271231   5.19 0.0008288864    1.662    0.398
       141  -8.8417    130.4747     63.5683   7.5748521160e+01   4.3791213801e+01    0.7104486     0.168711 -41.67  0.001927188    4.156    0.759
       142  -9.4351    127.3212     75.1496   8.0340030083e+01   4.2329051188e+01    0.4481598    0.2624076 -48.20 0.0006739083    1.778    0.438
       143  -8.1467    128.5013     69.5036   7.8217783384e+01   4.3146977741e+01    0.3176642     0.233708  -0.40  0.001020437    1.780    0.438
       144  -9.2741     87.9669     56.8969   8.5761639206e+01   5.3760862334e+01    0.7388709     0.341216 -32.09  0.002461719    2.380    0.580
       145 -10.3192     89.5195     38.3876   7.8339594416e+01   5.6724972830e+01    0.9956509    0.4353502  29.13  0.003468073    3.562    0.719
       146 -10.5262     55.1489     70.9313   1.0130445893e+02   5.5792661501e+01    0.6080201    0.3888499  61.65  0.001188796    2.511    0.602
       147  -9.3410     55.4995     63.0245   9.8886173767e+01   5.7431307877e+01    0.4201047    0.3061316 -20.06  0.001674119    1.508    0.337
       148  -9.9245     63.0158     60.7831   9.5526627922e+01   5.6915967467e+01     0.644553    0.2778099  32.26  0.002291106    2.693    0.629
       149 -10.0742     73.5077     57.2771   9.0713855940e+01   5.6090385406e+01     1.133813    0.3450798 -39.96  0.002521662    3.209    0.688
       150 -10.2099     85.1316     48.0555   8.3491749460e+01   5.5888896914e+01     0.426982    0.3285138 -62.39 0.0009772053    1.763    0.433
       151  -8.9925     79.9834     46.3374   8.4570926336e+01   5.7088615085e+01    0.3601582    0.2091475 -29.94 0.0005400449    1.684    0.406
       152 -10.0193     81.6005     72.4491   9.2927128668e+01   5.1725773674e+01    0.4640696    0.3036447 -59.74  0.001051535    1.710    0.415
       153  -9.1711     83.6497     64.4796   8.9735967060e+01   5.3026156258e+01    0.5112161    0.3299703  -5.23   0.00204621    2.434    0.589
       154  -9.4869    154.3387    249.2635   1.0907844365e+02   3.7335375284e+00    0.2258923    0.1195507  35.76  0.001281536    1.693    0.409
       155  -9.8973    197.7181    246.5027   1.0123490909e+02  -2.8032903068e+00    0.2432795    0.1921023  48.95  0.001716756    1.352    0.260
       156 -10.2453    169.5772    247.6361   1.0624113376e+02   1.5278639764e+00    0.4501362    0.1596337  33.56  0.001835973    3.321    0.699
       157  -8.1288    250.2233    246.0014   9.2410154606e+01  -1.0623027035e+01     0.129158   0.08184189 -20.22 0.0008760887    1.671    0.401
       158 -10.2384     12.0664     45.6483   1.1050947563e+02   6.5035756970e+01    0.7851747    0.3761892  -3.71  0.003893191    3.083    0.676
       159 -10.2075    180.5379    246.1102   1.0414357590e+02  -2.7076316980e-02     0.329735    0.1301151  41.16  0.001652248    1.963    0.491
       160  -7.4974     94.5440    243.5085   1.1878802265e+02   1.3709658187e+01    0.1120193    0.0865485  58.94 0.0008082627    1.059    0.056
       161  -9.6176      6.9230     32.5115   1.0894006111e+02   6.7950203387e+01    0.2604413    0.1786881 -22.80  0.001008109    1.427    0.299
       162 -10.1073      7.2201     28.3204   1.0747665785e+02   6.8734758157e+01    0.3010756    0.2566136  48.52  0.001067256    1.728    0.421
       163  -8.2034    162.3151    238.2799   1.0632124786e+02   3.9719101615e+00    0.1146262   0.08220758  22.92 0.0002409412    1.572    0.364
       164 -10.1189    130.4530    237.1188   1.1186907385e+02   9.2938681650e+00    0.2100985    0.1756987  54.79  0.000298937    1.071    0.066
       165  -8.5622    162.7656     73.1257   7.1163393271e+01   3.4278935373e+01    0.3467323    0.2222114 -55.14  0.000716532    1.847    0.458
       166  -9.0924    115.1272     72.3596   8.2775821992e+01   4.5505658359e+01    0.5805124    0.2707072 -37.41    0.0015646    2.126    0.530
       167  -9.9357    119.7576     65.5086   7.9244936898e+01   4.5834408089e+01    0.4425029    0.3619649  72.43 0.0008147864    1.517    0.341
       168  -8.3364    122.4781     61.4696   7.7145511805e+01   4.5979099365e+01    0.3012923    0.2261277   4.26 0.0009776234    1.651    0.394
       169  -7.6603    175.2200     72.4250   6.8340897197e+01   3.1265527456e+01    0.2163344    0.1531419  71.74 0.0009383509    1.645    0.392
       170  -8.3527    156.8754     70.5380   7.1662008543e+01   3.6205630605e+01    0.3634517    0.1976423 -52.35  0.001279673    2.240    0.554
       171  -7.7541    169.3783     71.1656   6.9157328503e+01   3.2962780300e+01    0.2294097    0.1380562 -45.34 0.0005043155    1.709    0.415
       172  -9.3123    147.0098     69.2994   7.3539728346e+01   3.8846465936e+01    0.3985596    0.2721155 -55.61 0.0008827207    1.718    0.418
       173  -9.8779     94.9099     68.2537   8.7403426988e+01   5.0292922285e+01     1.017246    0.2524096 -44.65 0.0008190273    3.777    0.735
       174  -9.2378     96.8595     59.0521   8.3706544594e+01   5.1720367875e+01    0.7902987    0.4100591 -18.05  0.002588323    3.789    0.736
       175  -7.4393    163.6418     68.6791   6.9603242479e+01   3.4841815001e+01    0.1668331    0.1205604  20.39 0.0007044537    1.765    0.433
       176  -8.0016     75.7540     65.9842   9.2822011253e+01   5.3994128688e+01    0.1867445    0.1071663 -45.76 0.0008752832    1.560    0.359
       177  -8.0338    170.9844     64.7435   6.6860732440e+01   3.3649780721e+01    0.2148849    0.2058173  71.47 0.0005224392    1.062    0.059
       178  -9.2986    109.7669     63.9013   8.1515355341e+01   4.8251230601e+01    0.3619171    0.2660959 -52.05 0.0006555883    1.482    0.325
       179  -8.9119    110.6840     58.2208   7.9301133529e+01   4.9113502911e+01    0.3656738     0.283253  -7.19 0.0008807442    1.454    0.312
       180  -8.1533    157.5156     63.0220   6.9146359493e+01   3.7352898069e+01    0.2199262    0.2145526  78.48 0.0006006846    1.060    0.056
       181  -8.5474     49.4232     62.1831   1.0081331042e+02   5.8331952048e+01    0.1861009    0.1132603 -62.00 0.0009467589    1.725    0.420
       182  -9.8939    188.3017    233.8134   1.0107975270e+02   3.0189213840e-01    0.2649325    0.2206198 -41.10  0.001300475    1.519    0.342
       183  -8.0567    164.4168     60.2209   6.6789449146e+01   3.6074616917e+01    0.2170978    0.1403638 -44.36 0.0005950345    1.588    0.370
       184  -7.6292    152.9585     60.4859   6.9334375759e+01   3.8921144229e+01    0.2058162     0.138868  88.93 0.0006160187    2.290    0.563
       185  -9.1822    146.9557     56.7688   6.9467532955e+01   4.1030324900e+01    0.7635425    0.2646609 -27.87  0.002266282    3.591    0.721
       186  -9.2232    139.0419     56.3898   7.1196995764e+01   4.3022636407e+01    0.6136577    0.2652164 -44.29   0.00111867    2.496    0.599
       187  -8.3211    122.5290     41.3613   6.9982159231e+01   4.9316747477e+01    0.4390083     0.246686  10.94  0.001504516    3.389    0.705
       188  -9.3653    118.2373     54.9740   7.6046782701e+01   4.8068229842e+01    0.5048333    0.3266154 -36.64  0.001035094    1.506    0.336
       189  -9.0690    121.1270     47.1203   7.2458786554e+01   4.8737244314e+01    0.3663715    0.2268538 -33.40 0.0004490581    1.588    0.370
       190  -9.0782    214.4837     54.4476   5.6361641609e+01   2.4125003601e+01    0.4017977    0.2530751 -33.66   0.00117989    1.522    0.343
       191  -9.1602    153.5964     41.1402   6.2764925267e+01   4.1772239420e+01    0.3710148    0.2268754 -51.67  0.001080175    1.937    0.484
       192  -9.4007    162.8474     52.9731   6.4794290759e+01   3.7636674004e+01    0.5249468    0.2967463 -25.50  0.002135957    1.916    0.478
       193  -9.2407    157.5965     48.9017   6.4539707948e+01   3.9607280750e+01    0.7209101     0.231799 -47.24  0.001946782    4.510    0.778
       194  -7.6825    152.6296     53.7697   6.7204197513e+01   4.0105430219e+01    0.2116266    0.1369778 -42.79  0.000284388    1.589    0.371
       195  -9.1473    105.5976     51.7053   7.8459150782e+01   5.1326004273e+01    0.5934607     0.283584 -30.69  0.002105651    2.186    0.543
       196  -9.4019    140.0272     22.9776   5.9153970403e+01   4.7570670470e+01    0.6353465    0.2002164  53.08  0.002217689    2.711    0.631
       197  -9.6796    130.5889     45.8766   6.9596765373e+01   4.6742309920e+01     1.066122    0.4446952 -18.20  0.001970986    4.577    0.782
       198  -8.4665    132.9725     35.9685   6.5442001665e+01   4.7635473059e+01    0.2506226     0.209977 -39.20 0.0004747393    1.257    0.204
       199 -10.8684    134.0315     31.0589   6.3399615681e+01   4.8044320168e+01    0.3931049    0.2910539   5.46            0    1.539    0.350
       200  -8.7570    141.9773     48.4897   6.7804427004e+01   4.3587243317e+01    0.3088444    0.1976944 -40.13 0.0003819645    1.593    0.372
       201  -8.7399    149.9089     47.9129   6.5836235115e+01   4.1705086433e+01    0.2670728    0.2185974 -49.10 0.0004581513    1.305    0.234
       202  -8.6607    111.8800     47.0590   7.4953209899e+01   5.0790847132e+01    0.2682065     0.218571 -38.51 0.0004403012    1.245    0.197
       203  -8.6801    113.2681     42.1710   7.2745973390e+01   5.1272958615e+01    0.3978973    0.2527637   5.65  0.001617401    2.244    0.554
       204  -7.1402    188.7285     46.2870   5.7976857489e+01   3.1915820148e+01    0.1500354    0.1113407 -64.01 0.0002013828    1.505    0.336
       205  -7.9042    162.4431     46.2523   6.2691293220e+01   3.8761547686e+01    0.2127267    0.1377153 -42.81 0.0009367624    1.593    0.372
       206  -7.4136    132.6418    222.7868   1.0976077123e+02   1.1234962999e+01     0.142022    0.1123656 -80.07 0.0003451657    1.471    0.320
       207  -7.7150      2.4837    222.4808   1.3257003135e+02   2.8347198952e+01    0.1008097   0.06941324  75.69 0.0008095972    1.052    0.050
       208 -10.0115     76.2275     32.0148   8.0186401380e+01   6.0131433160e+01    0.5596901    0.3947623  64.82   0.00111692    2.356    0.576
       209  -8.5175    240.6139    209.9710   8.8024178077e+01  -5.2663874363e+00    0.2060029    0.1507881  35.10 0.0003916962    1.278    0.218
       210  -9.9232      9.7901    207.3665   1.3067356512e+02   3.0432108972e+01    0.4654298    0.2232871  35.34  0.002941507    2.357    0.576
       211  -9.8697     79.2776     24.1632   7.5785437973e+01   6.0764068500e+01    0.5786807    0.3018752  24.56  0.002028976    2.448    0.592
       212  -8.9875     84.6958     21.9575   7.3035412835e+01   6.0062535524e+01    0.2815389    0.2172617 -29.81 0.0008614041    1.298    0.229
       213  -9.9325     37.8180     41.9930   9.8804188234e+01   6.3655861627e+01    0.3510107    0.2699487 -79.71  0.001554761    2.029    0.507
       214 -10.5926     35.9184     37.9753   9.8168385313e+01   6.4613934102e+01    0.6255019    0.3106879 -23.66 0.0003568012    2.594    0.614
       215  -8.9156    191.2272    192.8882   9.3916939020e+01   5.7272677532e+00    0.5101082    0.2690763 -59.49  0.001958757    3.812    0.738
       216  -8.9752    105.0179     41.4025   7.4785317493e+01   5.3160354296e+01    0.3784758    0.2290621 -46.49 0.0008899136    1.881    0.468
       217  -8.7564    105.9079     36.4827   7.2624263284e+01   5.3731115461e+01     0.340712    0.2441415  11.27 0.0008873531    1.586    0.369
       218  -9.1047    139.6716     40.0133   6.5364265617e+01   4.5426565177e+01      0.45407    0.1781956 -33.80  0.001251596    2.491    0.599
       219  -7.5106    190.0000     38.5902   5.5463772604e+01   3.2653019988e+01    0.3256761   0.08411326 -28.29 0.0009353145    3.939    0.746
       220  -8.5356    160.8581     37.8355   6.0222572299e+01   4.0368515380e+01    0.5047208    0.2238509 -14.23  0.001589042    3.670    0.728
       221  -8.9556    144.1148     36.4015   6.3111055139e+01   4.4832381238e+01    0.2966135    0.2332893 -57.14 0.0007369168    1.477    0.323
       222  -8.9219    118.9550     34.5776   6.8350719677e+01   5.1130461870e+01    0.3675489    0.1941858 -34.21 0.0007237265    1.880    0.468
       223  -9.3178    101.0085     31.9954   7.2255827211e+01   5.5419921826e+01    0.4091786    0.2148044 -35.51  0.001169142    1.876    0.467
       224  -7.0909      7.6253     36.7941   1.0990767734e+02   6.7073848472e+01    0.1104556   0.06573632 -29.92 0.0002394042    1.578    0.366
       225  -8.3957    153.1105     34.6789   6.0660249985e+01   4.2788657787e+01    0.2158381    0.1821896  54.41  0.001013729    1.139    0.122
       226  -9.4072     60.1671     33.9929   8.6878749069e+01   6.2348458705e+01    0.4113564    0.2472377 -49.96  0.001330066    1.919    0.479
       227  -9.0129     62.7646     26.6572   8.2800078467e+01   6.3154953005e+01     0.452263    0.2313208  28.16  0.002162363    2.224    0.550
       228  -9.3184    238.8626    192.0721   8.5031501407e+01  -2.7062923200e+00     0.280613     0.252495 -53.41  0.001801786    1.639    0.390
       229  -7.1209    151.3437    188.7449   1.0114051080e+02   1.3906600903e+01     0.136163   0.09801013  66.20 0.0003482053    1.585    0.369
       230  -8.7319     46.6158     20.1625   8.6385796677e+01   6.6452272136e+01    0.3629807    0.1750736 -25.56  0.001287204    2.126    0.530
       231  -9.0576    226.7236    186.8263   8.6164803399e+01   1.2930648046e-01    0.2459647      0.20528  34.54 0.0003142383    1.189    0.159
       232  -9.1213    227.8444    182.0720   8.5035676570e+01   6.0799888035e-01    0.2242692    0.2031517   4.59 0.0003370331    1.113    0.102
       233  -8.5378     42.0113     28.2602   9.1848302546e+01   6.5698324916e+01    0.2014014    0.1471445 -28.70 0.0001945471    1.112    0.100
       234  -9.2708    152.3994     28.8863   5.8805251081e+01   4.3720324455e+01    0.4269655     0.239064  20.15  0.001606729    2.745    0.636
       235  -7.5668      8.7138    180.6900   1.2934370070e+02   3.5760266427e+01    0.0984717   0.07148081 -64.11 0.0002861768    1.574    0.365
       236  -9.1496     91.3129     25.9989   7.2689868067e+01   5.8230841637e+01    0.4119877     0.235978 -47.00  0.001393861    2.252    0.556
       237  -8.4284     92.0838     20.9622   7.0300948367e+01   5.8748560458e+01    0.2852968    0.1903376  27.66  0.000701531    1.495    0.331
       238  -8.7273    144.1416     25.7184   5.9311329615e+01   4.6210372909e+01    0.2457073    0.1918331 -39.59 0.0006658406    1.360    0.265
       239  -8.9159    128.6655     24.7908   6.2269340605e+01   5.0141803837e+01    0.5077941    0.3141883  -4.95  0.001871026    1.971    0.493
       240  -9.5109    131.5305     17.2279   5.8775939266e+01   5.0324823158e+01    0.4816075    0.2778045  67.38  0.002166696    1.855    0.461
       241  -9.5021    118.9766     21.4245   6.3228193067e+01   5.2842470550e+01    0.3098268    0.2637275 -30.81 0.0005152298    1.244    0.196
       242  -7.8225    237.4238    177.6979   8.2468424427e+01  -4.8792415202e-01    0.1807962    0.1158503 -16.89 0.0009426115    1.603    0.376
       243  -8.1221    111.5072     21.0148   6.4918325592e+01   5.4600034790e+01    0.3098091    0.1333048 -26.13  0.001100078    2.345    0.573
       244  -9.1042    228.2062    177.1706   8.3994958731e+01   1.2545321408e+00    0.2222913    0.1963563  36.14 0.0002588651    1.220    0.180
       245  -8.3657    148.8735    176.0405   9.9463883641e+01   1.6759702707e+01     0.200835    0.1835348  53.84 0.0003482077    1.011    0.011
       246 -10.3310    195.9957    174.1835   8.9444978280e+01   7.8629444912e+00    0.2626605    0.2419806  39.94 0.0003180415    1.115    0.103
       247  -9.1601     81.9491    175.0270   1.1383547014e+02   2.8451652686e+01    0.1862623    0.1605752  82.35  0.001183892    1.033    0.032
       248  -7.5952      8.2169    171.4261   1.2883898721e+02   3.7708545004e+01      0.14088   0.08365455  54.84 0.0004026242    1.537    0.349
       249  -8.0756    104.6860     14.6827   6.4059742111e+01   5.6850358697e+01    0.3238177    0.1867522  17.58  0.001165225    2.123    0.529
       250  -8.6859     40.9830     20.8877   8.9129861887e+01   6.7043084308e+01    0.2246496    0.1401622 -34.28  0.000688697    1.336    0.251
       251  -7.9180    149.6316     25.2300   5.8063285775e+01   4.4876706865e+01    0.1945118    0.1397341 -11.11 0.0009407509    1.549    0.354
       252  -8.4179    154.8575     17.0500   5.4275053397e+01   4.4467398169e+01    0.2488494    0.1453149 -52.12  0.001079637    2.066    0.516
       253  -8.6041    230.5953    169.3911   8.1979223207e+01   1.9639013618e+00    0.2636614      0.10819 -46.31 0.0009643718    3.433    0.709
       254  -8.6787     81.6918    159.6360   1.1175476881e+02   3.1857978630e+01    0.2081657    0.1786296 -71.00 0.0003859629    1.147    0.128
       255  -8.7939    216.1120    157.3399   8.2072117447e+01   6.6520482319e+00    0.2254385    0.1915907 -24.54 0.0002941232    1.163    0.140
       256  -7.6519    202.0068    155.9869   8.4477567531e+01   9.7495954019e+00    0.1753256    0.1626791  11.41 0.0006794395    1.007    0.007
       257  -6.8293    126.2645    156.7350   1.0092701576e+02   2.4990533356e+01    0.1372666    0.1062645  78.76 0.0006835342    1.458    0.314
       258  -7.3536    144.4021    153.3781   9.6126778895e+01   2.2178646430e+01    0.1424763     0.135083  56.17            0    1.015    0.015
       259  -7.5110    149.1374    148.8869   9.4124680407e+01   2.2149268478e+01    0.1923882    0.1729208  -6.27 0.0003238684    1.290    0.225
       260  -8.7190    133.6837    146.5429   9.7196846731e+01   2.5752882813e+01    0.5079147    0.1362878 -52.43  0.001457539    4.160    0.760
       261  -9.2460     66.9797    144.2292   1.1295305483e+02   3.7428025522e+01    0.4574551    0.2854022  68.88  0.002331182    1.792    0.442
       262  -8.8785    235.9806    146.0000   7.5984347488e+01   4.5112248349e+00      0.31982   0.07798211  48.33   0.00097146    4.237    0.764
       263  -8.9219    241.4143    137.8008   7.3205472081e+01   4.7169365034e+00    0.2022625    0.1250177 -21.04 0.0008672365    1.640    0.390
       264  -8.3377    112.1485    133.9183   9.9794440196e+01   3.2649460380e+01    0.3007095    0.1960382  77.18  0.001041169    2.217    0.549
       265  -8.6781    135.7999    131.8353   9.3505808506e+01   2.8511654388e+01    0.6825255    0.1538171 -48.34  0.001809713    4.496    0.778
       266  -9.0687    132.3270    131.6722   9.4310878386e+01   2.9254535851e+01    0.3430244    0.2421798  84.75  0.001482452    2.022    0.505
       267  -8.3049     82.7522    131.0043   1.0673585394e+02   3.8252053399e+01     0.604642     0.333256  84.92  0.002182444    3.474    0.712
       268 -10.2965     70.3076    126.1614   1.0911364138e+02   4.1180986834e+01    0.6903307    0.5461881 -45.05  0.001629442    1.368    0.269
