#   1 NUMBER                 Running object number                                     
#   2 MAG_AUTO               Kron-like elliptical aperture magnitude                    [mag]
#   3 X_IMAGE                Object position along x                                    [pixel]
#   4 Y_IMAGE                Object position along y                                    [pixel]
#   5 X_WORLD                Barycenter position along world x axis                     [deg]
#   6 Y_WORLD                Barycenter position along world y axis                     [deg]
#   7 A_WORLD                Profile RMS along major axis (world units)                 [deg]
#   8 B_WORLD                Profile RMS along minor axis (world units)                 [deg]
#   9 THETA_WORLD            Position angle (CCW/world-x)                               [deg]
#  10 FWHM_WORLD             FWHM assuming a gaussian core                              [deg]
#  11 ELONGATION             A_IMAGE/B_IMAGE                                           
#  12 ELLIPTICITY            1 - B_IMAGE/A_IMAGE                                       
         1 -13.9444    210.2083     17.6683   5.6402842635e+01   3.0473957799e+01      1.31167    0.9898672  29.80   0.00742276    1.993    0.498
         2 -11.3226      2.1634      6.4458   1.1127575645e+02   7.4535411617e+01    0.6507356    0.1155187 -49.22  0.002357984    5.221    0.808
         3  -9.2223    105.3758     40.2532   8.1141509438e+01   5.3619818255e+01     0.235071     0.170017  74.14 0.0008772903    1.779    0.438
         4 -12.4715    140.0560    249.1306   1.2045388384e+02   3.9252929633e+00    0.6759811    0.2746567  39.14  0.003133706    1.963    0.491
         5 -12.7786    127.8347    247.4934   1.2272974091e+02   6.1253853467e+00    0.6235088    0.4743676  20.70  0.003806979    1.464    0.317
         6 -11.9964    114.9147    248.8969   1.2551502616e+02   7.8960509483e+00    0.3544875    0.3207783  32.30  0.002376885    1.217    0.178
         7 -14.8913     34.5530    247.2518   1.4110159047e+02   1.9257297112e+01     8.602331     2.308843  28.42   0.02370167    9.237    0.892
         8 -15.2260      8.6677    244.4999   1.4562841722e+02   2.2591756976e+01     11.97907       1.2682 -78.28   0.03477249    8.872    0.887
         9 -14.2873     10.2403    207.0427   1.4345190519e+02   2.9993775138e+01      1.87585    0.9484071  89.68  0.008225982    1.696    0.411
        10 -15.6602     50.4418    206.8100   1.3486985522e+02   2.5621113591e+01     12.66065     4.582063  65.60   0.04149584    4.604    0.783
        11 -12.0598    149.4745    228.6317   1.1571232010e+02   5.8780453594e+00      0.58448    0.2048865  35.11   0.00224459    2.639    0.621
        12 -14.2672     41.6180    215.0522   1.3748708138e+02   2.4912614380e+01     1.107072    0.7919873  78.13  0.006050803    1.190    0.160
        13 -11.5776    178.2975    248.8889   1.1279313495e+02  -2.0370439562e+00    0.4017867    0.1965162  22.64  0.001843451    2.402    0.584
        14 -10.2006    225.5654    200.2755   9.5506982135e+01  -2.1320512825e+00    0.3247451    0.2215299 -54.37  0.001338676    2.208    0.547
        15  -9.8912    193.1804    194.9617   1.0080664269e+02   4.2255448199e+00    0.3715414    0.1805814 -61.25 0.0009673728    7.346    0.864
        16 -11.7041     63.0752    249.7889   1.3588849680e+02   1.5224256910e+01    0.4838085    0.1533621  45.20  0.001729961    2.313    0.568
        17 -11.5302     61.3057    191.9398   1.3084547911e+02   2.7567243983e+01    0.3617287    0.2583287 -45.59  0.001138123    1.779    0.438
        18 -11.2544    162.3049    249.4206   1.1602690586e+02   3.7144378842e-01    0.3108551    0.1343432  33.71  0.001446944    1.980    0.495
        19 -11.5638     67.2578    184.7650   1.2854381619e+02   2.8423910819e+01     0.299679    0.2476754 -50.80 0.0004142518    1.408    0.290
        20 -12.2030     55.1369    239.2150   1.3662031713e+02   1.8277116550e+01    0.4655396    0.2521133  84.80  0.001702867    1.968    0.492
        21 -10.8322     77.1851    173.1849   1.2445173491e+02   2.9744509687e+01    0.2504893    0.2239064 -76.49 0.0003326328    1.104    0.095
        22 -13.1391     64.0653    170.4422   1.2747646121e+02   3.2299313254e+01    0.5313704     0.287264 -45.74   0.00155744    2.265    0.558
        23 -11.9709     84.4272    164.5777   1.2120136303e+02   3.0713450355e+01    0.7515072    0.5504918  60.37  0.003786495    1.382    0.277
        24 -11.2625     28.6036    235.0311   1.4148812197e+02   2.2303130615e+01    0.2446024    0.1418419  74.45  0.001261146    1.463    0.316
        25 -12.7671     67.3652    143.9701   1.2248272828e+02   3.8397130061e+01    0.9773064    0.6167528  76.48  0.003126492    2.048    0.512
        26 -12.1504     57.8175    132.2485   1.2326705736e+02   4.2631423217e+01      1.60951    0.5509378 -75.42  0.003410901    8.552    0.883
        27 -11.8900     86.2517    148.1166   1.1780287857e+02   3.4472471531e+01    0.3060916    0.2670575 -43.76 0.0006708186    1.236    0.191
        28 -12.7146     34.2655    224.0479   1.3967103211e+02   2.3882432983e+01     0.348365    0.2996835  63.72 0.0007782088    1.195    0.163
        29  -9.0808    100.9982    145.0518   1.1303648994e+02   3.2682841216e+01    0.2450825    0.1881512 -19.20  0.001120737    1.765    0.433
        30  -9.5754    109.5342    135.3886   1.0854888240e+02   3.3431468911e+01     0.335517     0.234337 -12.35  0.001183672    2.319    0.569
        31 -10.4458     96.6851    132.1984   1.1153271372e+02   3.6604593632e+01    0.2871984    0.2468585 -25.84 0.0008029131    1.334    0.251
        32 -10.9020     49.0056    237.5367   1.3770227189e+02   1.9385372458e+01    0.2364572     0.137333  76.65  0.001373429    1.634    0.388
        33  -9.2069    106.8138    122.5066   1.0630799496e+02   3.7043274361e+01     0.212993     0.153709  39.76  0.000448816    1.404    0.288
        34  -9.8565     97.7935    149.4732   1.1482068850e+02   3.2173865338e+01    0.2902568    0.2721805 -74.53 0.0008263714    1.046    0.044
        35 -10.2593    167.6875    112.7886   8.8005416332e+01   2.5764656452e+01    0.3753789    0.2854833 -76.09  0.001003687    1.673    0.402
        36 -11.2303      1.9255     88.8497   1.3464512783e+02   5.8142562538e+01    0.5939952     0.107551 -70.76  0.001906795    4.474    0.776
        37 -11.4278      1.9452     79.8677   1.3319105379e+02   6.0194257839e+01    0.4992238    0.1410387 -70.44  0.001977549    3.036    0.671
        38  -9.7659      1.5145     62.0102   1.2996823204e+02   6.4157903050e+01    0.1803135   0.09606835 -63.15 0.0004295715    1.534    0.348
        39 -12.3645    193.1074     36.8565   6.3063908933e+01   3.2296265995e+01     0.677416    0.4592192 -65.39  0.003496288    1.485    0.326
        40 -12.7529    198.8002     31.5284   6.0994888866e+01   3.1573045672e+01    0.6454523    0.4937933 -78.99  0.003478962    1.205    0.170
        41 -10.9512    248.9570    248.2398   9.9676566839e+01  -1.1892879700e+01     0.331418    0.1769915 -15.83  0.001961338    1.880    0.468
        42  -9.5982    189.5407     15.4962   5.7954468345e+01   3.5701209238e+01    0.1344366    0.1126786 -85.15 0.0001361724    1.019    0.019
        43 -10.7458    229.5178    249.0183   1.0319172185e+02  -9.4797845979e+00    0.2059666    0.1443422  36.44 0.0006916533    1.522    0.343
