#   1 NUMBER                 Running object number                                     
#   2 MAG_AUTO               Kron-like elliptical aperture magnitude                    [mag]
#   3 X_IMAGE                Object position along x                                    [pixel]
#   4 Y_IMAGE                Object position along y                                    [pixel]
#   5 X_WORLD                Barycenter position along world x axis                     [deg]
#   6 Y_WORLD                Barycenter position along world y axis                     [deg]
#   7 A_WORLD                Profile RMS along major axis (world units)                 [deg]
#   8 B_WORLD                Profile RMS along minor axis (world units)                 [deg]
#   9 THETA_WORLD            Position angle (CCW/world-x)                               [deg]
#  10 FWHM_WORLD             FWHM assuming a gaussian core                              [deg]
#  11 ELONGATION             A_IMAGE/B_IMAGE                                           
#  12 ELLIPTICITY            1 - B_IMAGE/A_IMAGE                                       
         1 -14.2029    201.2327     17.4760   6.4210727758e+01   3.2612802462e+01     2.756388      1.61497  29.77   0.01189158    2.660    0.624
         2 -11.6199     14.1527     12.6657   1.1488044042e+02   7.2032339959e+01    0.2284015     0.178895  -5.77 0.0008608232    1.195    0.163
         3 -12.6549      2.2547     11.1071   1.2087504697e+02   7.3142117191e+01     1.214751    0.3722998 -37.77  0.005943561    2.589    0.614
         4 -10.1559    144.4752    243.0808   1.2610189754e+02   6.1590749249e+00    0.1498012    0.1217473 -59.84 0.0005347693    1.556    0.357
         5 -10.9453    249.0612    248.7437   1.0842367505e+02  -1.0655928702e+01     0.324618    0.1868656 -12.98  0.002081168    1.822    0.451
         6 -11.7183    140.3127    249.8516   1.2766119784e+02   5.8112201033e+00     0.507998     0.166373  40.48  0.002270635    2.413    0.586
         7 -11.7622    126.4616    246.2003   1.2978414943e+02   8.5426757432e+00     0.438811    0.2616966  85.58  0.002278857    2.771    0.639
         8 -11.4209    105.4289    246.6467   1.3366883831e+02   1.1691992771e+01    0.2515332    0.1783141 -78.72  0.001685002    1.635    0.388
         9 -11.9946     80.7312    247.8065   1.3819438683e+02   1.5061040209e+01    0.4443841    0.2665197  59.88  0.002885081    1.328    0.247
        10 -10.2249     66.6951    250.1521   1.4081829670e+02   1.6560365802e+01    0.1967172    0.1109225  54.09 0.0006516909    1.311    0.237
        11 -10.8197     52.8278    249.3217   1.4312450832e+02   1.8470640663e+01    0.2128407    0.1474898  70.85  0.001556298    1.121    0.108
        12 -10.9997     46.2186    248.8727   1.4420665183e+02   1.9355112193e+01    0.3170404    0.1674229  59.88  0.001374418    1.409    0.290
        13 -11.3544     41.4847    206.5943   1.4221240887e+02   2.7768183703e+01    0.3394299    0.1988395  64.90   0.00209372    1.418    0.295
        14 -10.8790     52.6868    198.2390   1.3928705606e+02   2.8118725745e+01    0.3836856     0.227455  53.35   0.00174662    1.442    0.306
        15 -14.5053     32.1922    247.0667   1.4642678597e+02   2.1300792011e+01     10.88532     3.071485  30.60   0.02674782   14.629    0.932
        16 -13.7030      6.7324    243.8875   1.5036653869e+02   2.4538598568e+01     1.581242    0.9585147 -83.20   0.01218686    1.527    0.345
        17 -15.6953      7.8006    207.6526   1.4858730352e+02   3.1088292277e+01     8.907505     1.285045 -75.57   0.02759522    5.191    0.807
        18 -10.7961     33.3644    207.1280   1.4381409812e+02   2.8585471316e+01    0.3450137    0.1699386  89.77  0.001953266    1.873    0.466
        19 -11.1170     23.8436    202.3851   1.4531254276e+02   3.0555128227e+01    0.3071547    0.1886871  65.84  0.001599423    1.288    0.224
        20 -10.1606    193.5857    196.1059   1.0954891774e+02   5.0003803058e+00     0.695998    0.3393028 -61.34  0.001848795    8.140    0.877
        21 -11.4471     66.3335    195.9475   1.3623542455e+02   2.6820385783e+01    0.3338788     0.235665 -47.73  0.001499865    1.929    0.482
        22 -11.6010     71.7227    188.4574   1.3427139516e+02   2.7657894808e+01    0.2749041    0.2300738 -60.03 0.0007705392    1.399    0.285
        23  -9.0818    120.4971    188.1740   1.2349397346e+02   1.9964712601e+01    0.2347605    0.1740151   4.68  0.001134049    2.267    0.559
        24  -8.3905    126.0237    186.0000   1.2193736350e+02   1.9423239673e+01    0.2361091   0.07222059  41.29 0.0008067263    2.972    0.664
        25 -10.9090     80.8847    176.2614   1.3071785878e+02   2.8980631641e+01    0.2333453    0.2030828 -82.94 0.0003697788    1.120    0.108
        26 -13.1097     68.1019    174.0848   1.3337968004e+02   3.1293728374e+01    0.4658961    0.2713557 -46.80  0.001475361    2.231    0.552
        27 -12.0041     87.8588    167.2164   1.2780823207e+02   2.9929215881e+01    0.8969009    0.5334205  61.29  0.004318745    1.777    0.437
        28 -12.6976     67.2516    144.1776   1.2943007962e+02   3.8277169368e+01     1.044284    0.5982868  85.93  0.004614284    2.278    0.561
        29 -12.2451     57.2112    130.0258   1.2986243045e+02   4.2937702178e+01     1.520487    0.5258963 -76.46  0.003936106    6.412    0.844
        30 -12.0702     88.8524    150.4602   1.2488897054e+02   3.3599206360e+01    0.2786397    0.2523147 -44.66 0.0005336005    1.281    0.219
        31 -14.5745     55.6601    210.9472   1.3980046926e+02   2.5171548117e+01     4.449518    0.7114688  50.61   0.01388488    5.527    0.819
        32  -9.5759    134.2616    147.5844   1.1299737870e+02   2.5979387475e+01     0.386209    0.1308804 -54.18  0.001206096    3.421    0.708
        33 -12.7691     41.3897    229.4001   1.4382898308e+02   2.3388303922e+01    0.3572113    0.3179891 -84.88 0.0009554669    1.441    0.306
        34  -9.1591    103.0389    146.8704   1.2062910656e+02   3.2048856622e+01    0.2679974    0.1816615 -32.25  0.001188263    2.064    0.516
        35  -8.7728    192.1765    144.2072   9.9284765778e+01   1.4331857069e+01    0.1908488    0.1736227 -74.73  0.000412512    1.287    0.223
        36  -9.7581    111.0527    136.5614   1.1651102229e+02   3.2967333919e+01    0.3496176    0.2520883 -23.21   0.00131766    2.025    0.506
        37 -10.3873     98.3483    133.7155   1.1927709278e+02   3.5915531369e+01    0.2661742    0.2307589 -26.46 0.0003454325    1.404    0.288
        38 -10.7106     50.2597    129.9568   1.3177464224e+02   4.3789667716e+01     0.238626    0.1929095  69.51 0.0005577769    1.238    0.192
        39  -8.6586    116.3541    129.3172   1.1355141765e+02   3.3613409254e+01    0.1520291    0.1216783  -6.68 0.0004501201    1.744    0.427
        40  -9.4543    107.7707    123.6106   1.1455303534e+02   3.6558189320e+01    0.2202778     0.191702 -45.93 0.0004275744    1.176    0.150
        41  -8.8702     92.6718    214.9536   1.3284959298e+02   1.9219470573e+01    0.1686238    0.1355721  76.10 0.0003411772    1.130    0.115
        42  -8.8226    152.5403    213.0270   1.2050908966e+02   9.6328898817e+00    0.1612554    0.1318435 -50.98 0.0001061714    1.443    0.307
        43 -10.6837    168.0036    113.1401   9.6889123292e+01   2.5827474956e+01    0.3674878    0.3034753 -82.79 0.0007134484    1.462    0.316
        44  -9.8634    100.0367    151.3491   1.2221404779e+02   3.1541390529e+01    0.2714507    0.2481518  89.58 0.0007735052    1.025    0.024
        45 -14.2828     48.0652    220.0880   1.4197080768e+02   2.4337972130e+01      1.28814     0.716211  50.87  0.006748213    1.453    0.312
        46  -9.1947    229.9755    230.2659   1.0870875248e+02  -5.8760666709e+00    0.1500512   0.08581253  36.03 0.0004430136    1.467    0.318
        47 -12.5695     99.8771    247.4702   1.3474997140e+02   1.2380939052e+01    0.5078101    0.3546338  45.85  0.003428038    1.198    0.165
