#   1 NUMBER                 Running object number                                     
#   2 MAG_AUTO               Kron-like elliptical aperture magnitude                    [mag]
#   3 X_IMAGE                Object position along x                                    [pixel]
#   4 Y_IMAGE                Object position along y                                    [pixel]
#   5 X_WORLD                Barycenter position along world x axis                     [deg]
#   6 Y_WORLD                Barycenter position along world y axis                     [deg]
#   7 A_WORLD                Profile RMS along major axis (world units)                 [deg]
#   8 B_WORLD                Profile RMS along minor axis (world units)                 [deg]
#   9 THETA_WORLD            Position angle (CCW/world-x)                               [deg]
#  10 FWHM_WORLD             FWHM assuming a gaussian core                              [deg]
#  11 ELONGATION             A_IMAGE/B_IMAGE                                           
#  12 ELLIPTICITY            1 - B_IMAGE/A_IMAGE                                       
         1 -13.2207     29.7270     59.8906   1.0045178925e+02   6.1598073657e+01     1.306625    0.8849934  43.02  0.002690315    1.966    0.491
         2 -12.8390    216.3181     15.1865   3.8251053202e+01   2.9128815951e+01    0.8901338    0.5839149  62.48  0.004954783    1.517    0.341
         3 -11.9149     42.7001     21.0610   8.0046495065e+01   6.7243142543e+01    0.5358364    0.3185755  33.38  0.001698299    1.729    0.422
         4 -11.7358    112.5451     14.1137   5.3424043367e+01   5.4816555701e+01    0.5322878    0.3105124 -83.86   0.00200896    3.723    0.731
         5 -10.9649     65.7465     11.2141   6.5834624998e+01   6.4875356332e+01    0.2831341    0.1887767  44.38   0.00100956    1.482    0.325
         6 -13.1201    190.6343      9.5076   3.9414132525e+01   3.5929370848e+01    0.7973281    0.3963476 -86.98  0.003434577    2.369    0.578
         7 -12.0307     57.6600      6.9794   6.6800415848e+01   6.6752577111e+01    0.5165023    0.4745321  12.99  0.003115088    1.305    0.234
         8 -11.9487     43.5401      8.2353   7.3357965735e+01   6.8847781306e+01    0.2995571    0.2160919  26.22  0.000756612    1.286    0.222
         9 -10.5517    168.0140      8.3639   4.1779630341e+01   4.1688340229e+01    0.1962612    0.1540486  73.95 0.0004842744    1.133    0.118
        10 -10.6884    109.5828      8.8530   5.2040859623e+01   5.5995494272e+01    0.2522945    0.1744096  81.47  0.001297938    1.847    0.459
        11 -11.4090    165.9963      1.7817   4.0095802555e+01   4.2781174206e+01    0.4258003    0.1557394  67.01  0.001037188    2.268    0.559
        12  -9.9589      2.9161    240.4698   1.2897197625e+02   2.3763612202e+01    0.1454333   0.08123077  45.14 0.0007926751    1.567    0.362
        13 -10.1395    109.2206    232.9155   1.0878562023e+02   1.1896739308e+01    0.2196787    0.1501497  44.05  0.000632752    1.226    0.184
        14 -10.3636     72.1457    228.0826   1.1566048661e+02   1.8182656018e+01    0.2274121    0.1551395 -83.96 0.0006910405    1.484    0.326
        15 -10.1020    104.4459    224.9521   1.0882539426e+02   1.4104966820e+01    0.1761563    0.1234288 -65.30  0.001028614    1.595    0.373
        16 -10.7452     95.7274    225.2023   1.1063801090e+02   1.5377621031e+01    0.3318323     0.123999  49.64  0.001417761    2.449    0.592
        17 -10.3762    149.7885    223.8240   9.9315823921e+01   6.9686827080e+00    0.1859977    0.1444816  57.56  0.001084567    1.379    0.275
        18  -9.8090     36.3889    223.1734   1.2215670642e+02   2.3591756262e+01    0.1639925    0.0889119  86.83 0.0009510412    1.722    0.419
        19 -11.1571    226.8632    221.5441   8.3801730053e+01  -5.2631204595e+00    0.2208803    0.1664848 -46.67  0.001327859    1.909    0.476
        20 -10.1056    236.7508    210.5761   8.0036857550e+01  -5.2585949480e+00    0.1647655    0.1108923  39.93 0.0009489863    1.618    0.382
        21 -11.5654    237.8581    218.8487   8.1337133843e+01  -6.5412315878e+00    0.2700485    0.1442015  24.25   0.00143092    1.764    0.433
        22 -10.5418    239.5522    214.3123   8.0218690837e+01  -6.1861549947e+00    0.3109884    0.1080728 -40.12   0.00130032    3.252    0.693
        23  -9.9597    211.4109    218.2350   8.6105810938e+01  -2.3927542193e+00    0.1632401    0.1199434 -42.42 0.0009514042    1.678    0.404
        24  -9.8577    150.6476    218.6737   9.8367550607e+01   7.7229569887e+00    0.1354664   0.09931801   6.51 0.0007047544    1.764    0.433
        25 -11.1673    230.8633    212.7926   8.1506995313e+01  -4.6687265151e+00    0.3969529    0.2201881  -4.18  0.001866023    2.400    0.583
        26 -11.3384    221.4894    214.3185   8.3511547181e+01  -3.4271870971e+00    0.3108778   0.09916449  37.02  0.001231546    2.874    0.652
        27 -10.5794    116.2874    209.5385   1.0434830133e+02   1.5216018704e+01     0.328328     0.124984 -62.95   0.00122397    3.498    0.714
        28  -9.6440     85.6828    209.3414   1.1092904607e+02   2.0024014633e+01     0.138523   0.08594657  67.90  0.000704886    1.711    0.416
        29  -9.6600     99.3148    205.9662   1.0756409230e+02   1.8658863923e+01    0.2097537    0.1039253 -86.42 0.0007047174    4.338    0.769
        30 -10.9261     49.2404    201.4315   1.1785451513e+02   2.6579130491e+01    0.3808886    0.1957079  74.66  0.001880824    2.136    0.532
        31 -10.2298    149.4944    198.9999   9.5455406458e+01   1.1553698967e+01    0.1883109    0.1253518 -80.25 0.0008106346    2.600    0.615
        32 -10.2564      2.3998    199.1636   1.2710905580e+02   3.1861109488e+01    0.2197514    0.1017396  52.75  0.001298389    1.833    0.454
        33  -9.8561    112.4942    197.9898   1.0353587783e+02   1.8194776356e+01    0.2922846    0.1454998  64.67  0.001040354    3.444    0.710
        34 -12.4093    160.3532    192.0197   9.1851120612e+01   1.0914680993e+01    0.7663362    0.5439762  73.05  0.003136282    2.179    0.541
        35 -10.4231     34.3118    186.8718   1.1973013315e+02   3.1462095052e+01    0.2488966   0.09859956 -81.79  0.001089851    2.566    0.610
        36  -9.9014    109.3365    186.6401   1.0254132142e+02   2.1146089699e+01    0.1512696    0.1020254  71.83 0.0007038418    1.815    0.449
        37 -10.7433    183.2971    183.5462   8.5296594395e+01   8.2154391262e+00    0.3984087     0.225556 -45.73  0.001754478    1.923    0.480
        38  -9.6579     66.3184    194.6735   1.1347357078e+02   2.5878862614e+01    0.1385308    0.0845624  68.36 0.0003949718    1.678    0.404
        39  -9.8692    191.4816    177.9989   8.2468206883e+01   7.6816014428e+00    0.1925356    0.1274263 -64.29 0.0007413034    2.541    0.606
        40  -9.5597     28.3989    176.8180   1.2013726678e+02   3.4332442774e+01     0.168675   0.09457564 -65.26 0.0004512175    1.621    0.383
        41  -9.8081     12.4369    176.2259   1.2360480519e+02   3.5945956281e+01    0.1744869   0.09003268  87.67 0.0009488913    1.701    0.412
        42  -9.6483     76.4092    175.2179   1.0869386956e+02   2.8880802332e+01    0.1972569    0.1222738 -80.74 0.0009494231    1.740    0.425
        43 -11.3310     36.4391    174.1791   1.1805774313e+02   3.4109111223e+01    0.4183907    0.1612267  46.15  0.001912815    2.455    0.593
        44 -10.1511    176.1270    171.6912   8.4441659076e+01   1.1835233833e+01    0.2867091    0.1745815 -56.00  0.001225626    2.105    0.525
        45 -10.8163     44.5029    168.4774   1.1555026361e+02   3.4551584545e+01    0.2380637   0.09256496 -58.78 0.0009237556    2.337    0.572
        46 -11.4963     55.5336    168.0618   1.1282651303e+02   3.3347143222e+01     0.551181    0.2867259  85.13  0.002360066    2.507    0.601
        47  -9.8931    138.7900    165.1804   9.1686811999e+01   2.0525745133e+01    0.2583977    0.1664699  79.32 0.0009565795    2.880    0.653
        48 -11.5922    106.8741    158.3461   9.8302472487e+01   2.7989479114e+01    0.6897314    0.3949545  65.00  0.002668207    2.559    0.609
        49 -11.1965    121.6971    169.6247   9.6690040233e+01   2.2754247304e+01    0.4226917    0.2574897  75.86   0.00158115    2.916    0.657
        50 -10.8521     22.1064    159.3324   1.1996364809e+02   3.8958701833e+01    0.3129192    0.2270942  76.08  0.001964813    1.241    0.194
        51 -11.1501    167.8615    156.6260   8.3065694557e+01   1.6510916495e+01    0.3858338    0.3416435 -58.63   0.00201939    1.258    0.205
        52 -11.7414    119.1689    157.2065   9.4945954535e+01   2.6041457695e+01    0.5216124    0.3122723  41.79  0.002137174    1.641    0.391
        53 -10.4003    218.4926    156.4486   7.2498639379e+01   6.3657380599e+00    0.3115276    0.1325859 -37.55   0.00122895    2.229    0.551
        54  -9.7692    196.3420    157.6691   7.7135656935e+01   1.0492040502e+01    0.1452577    0.1209044 -85.05 0.0004684938    1.749    0.428
        55  -9.9019    144.6640    155.3024   8.8220029075e+01   2.1528118763e+01    0.1549367     0.121319  78.27 0.0007037069    1.663    0.399
        56  -9.8148     23.4984    153.9349   1.1908595994e+02   4.0101183413e+01    0.1901387     0.103849 -75.84 0.0005232943    1.528    0.346
        57 -10.0512     40.5058    153.1276   1.1471654538e+02   3.8633606451e+01    0.1946665    0.1121119 -70.35 0.0005684437    1.501    0.334
        58 -10.1821    139.5079    158.5133   9.0151729215e+01   2.1849288455e+01    0.1500323     0.146319  28.87 0.0008104117    1.020    0.019
        59  -9.9471    189.3202    148.6612   7.6568145012e+01   1.3647079087e+01    0.1497301     0.122802 -81.16 0.0007049986    1.712    0.416
        60 -10.9679    107.5344    145.7070   9.5650155256e+01   3.0855654726e+01    0.5873094    0.3415231  75.61  0.001945877    3.585    0.721
        61 -10.1022     39.3202    147.6685   1.1433225427e+02   4.0072597657e+01    0.1380787   0.08784045  71.80 0.0004707659    1.695    0.410
        62 -11.0509    148.6937    145.1386   8.4990524323e+01   2.2929731340e+01    0.4483597    0.2919598 -77.93   0.00165123    2.768    0.639
        63 -10.4880     55.2062    144.9372   1.0970955619e+02   3.8949293581e+01    0.4430029    0.2082253  89.14  0.001466582    4.016    0.751
        64 -10.1723    125.0188    143.7266   9.0628039137e+01   2.8041587807e+01    0.3216992    0.2006523 -78.59  0.001173482    2.741    0.635
        65  -9.9129     92.6664    160.3467   1.0231322346e+02   2.9903012887e+01    0.1545266    0.1061701  74.09 0.0007049115    1.769    0.435
        66 -10.4475    181.8789    141.7428   7.6550418233e+01   1.6582010520e+01    0.2968937    0.2042698 -65.98  0.001238677    2.114    0.527
        67 -10.1153     22.8290    137.9975   1.1749860977e+02   4.3952827805e+01    0.2220984    0.1212824  77.54  0.001084035    2.080    0.519
        68 -10.1046     83.0710    131.9960   9.9602511268e+01   3.8276080675e+01    0.4353745    0.2460139  69.42  0.001568039    3.146    0.682
        69 -10.3665     82.5771    126.7192   9.8648447473e+01   3.9639824609e+01    0.4034149    0.1288489 -54.19  0.001349329    2.821    0.646
        70 -10.3497    131.8755    131.7540   8.6091381758e+01   2.9414173859e+01    0.3123014    0.2126635 -75.90  0.001246527    2.177    0.541
        71 -10.4543    110.5321    132.0359   9.1879644321e+01   3.3551400710e+01    0.3247446    0.1871462  70.82  0.001043358    3.582    0.721
        72 -12.2592     98.6484    128.3437   9.4367507880e+01   3.6584953593e+01     1.391263    0.7863107  83.16  0.003529747    6.350    0.843
        73  -9.4152    142.3693    131.6714   8.3382160497e+01   2.7235787822e+01    0.1651665    0.1264162  85.09  0.000703292    1.819    0.450
        74 -10.4963     12.3720    127.7549   1.1913583669e+02   4.7208199736e+01    0.4425462    0.1496531 -81.41  0.001693424    3.167    0.684
        75 -10.9458     14.8696    120.8961   1.1760868881e+02   4.8667145821e+01     0.321922    0.2619052 -10.46  0.001407101    1.600    0.375
        76 -10.2131    117.9668    125.8720   8.8389645259e+01   3.3572274220e+01    0.3818655    0.1974311  60.61  0.001244247    3.212    0.689
        77 -10.2345     59.5043    125.2759   1.0517062468e+02   4.3244533427e+01    0.3789031    0.2110451  82.14  0.001416092    3.190    0.687
        78 -11.1067     43.4780    122.3676   1.0942790192e+02   4.5807340112e+01    0.7368478     0.364606  87.86   0.00266274    3.584    0.721
        79 -11.8217    193.1637    118.3229   6.8450707771e+01   1.8689884458e+01    0.6409839    0.4756325 -65.77  0.001954798    1.736    0.424
        80 -11.3718    141.0778    113.7755   7.9150995127e+01   3.1459005872e+01    0.6369519    0.2823418 -36.36  0.002154536    2.532    0.605
        81 -10.8417    130.2882    118.2864   8.3156657214e+01   3.2794366858e+01    0.3229249    0.1919382 -65.98  0.001161504    2.507    0.601
        82 -10.3115      2.2684    116.5359   1.2068936350e+02   5.0501427925e+01    0.4318636    0.1533246  89.65  0.001571405    3.919    0.745
        83  -9.9499     71.3327    120.6782   1.0071410165e+02   4.2788295263e+01    0.1476845    0.1087485  76.35 0.0005945472    1.701    0.412
        84 -10.5356    108.4076    112.6358   8.7771475436e+01   3.8506711728e+01    0.6156597      0.28257 -62.72  0.001880496    3.572    0.720
        85 -13.5975    143.0600    103.9029   7.5953218307e+01   3.3127958977e+01     1.272575    0.7744876  52.95   0.00522737    1.754    0.430
        86 -12.8242    152.3727    109.9474   7.5299292211e+01   2.9733819843e+01    0.7568756    0.3998123  50.97   0.00289642    1.981    0.495
        87 -10.5433     78.7620    112.5397   9.6639840123e+01   4.3664264064e+01    0.4964206    0.2823984 -83.94  0.001650926    3.749    0.733
        88 -11.4296    174.4494    110.7244   7.0410163234e+01   2.4464322234e+01    0.4966642     0.372013 -50.47  0.001186479    1.390    0.281
        89 -10.4885    122.4234    113.1353   8.3943811658e+01   3.5597764357e+01    0.3010192    0.2122293  81.75  0.001198932    2.269    0.559
        90 -10.2021     91.8515    111.1050   9.2285294358e+01   4.1877985081e+01    0.4719389    0.1974183 -62.36  0.001472715    3.442    0.709
        91 -11.4722     14.9359    109.7824   1.1609943544e+02   5.1313372157e+01    0.6404003     0.351191 -89.12  0.003241558    1.972    0.493
        92 -11.7985     44.7804    101.1496   1.0502184156e+02   5.0813489551e+01    0.6982104    0.4066202 -88.52  0.002979683    2.649    0.622
        93 -12.5567    126.6398    100.3796   7.9290480718e+01   3.7525175274e+01     0.636457    0.5700889  53.00  0.002842201    1.170    0.145
        94 -11.2310     27.5810    121.4913   1.1399948776e+02   4.7532050709e+01    0.6882121    0.3115329  81.89  0.002417243    4.126    0.758
        95 -10.7902     22.4925    102.1560   1.1254202022e+02   5.2587101897e+01    0.4012355    0.1816549  67.04  0.001337868    5.156    0.806
        96 -10.9011     62.9158     95.7074   9.7689994554e+01   4.9936923504e+01     0.388397    0.2067965 -74.23  0.001430861    3.101    0.677
        97 -12.4880    170.1086     91.0334   6.5968257860e+01   2.9313005433e+01    0.5492962    0.4224553 -48.95 0.0009651638    1.331    0.248
        98 -13.0218    110.9372    100.2271   8.3692933234e+01   4.0829429764e+01     1.399529    0.6310896  54.55  0.004583672    3.170    0.685
        99 -10.4868      4.8307     91.7340   1.1667165500e+02   5.6158644202e+01    0.2988061    0.1469027  89.51  0.001401466    2.514    0.602
       100 -10.6151     34.2470     87.8994   1.0579319954e+02   5.4972767833e+01    0.6221792    0.1600189 -61.99  0.002126349    3.397    0.706
       101 -10.8858     87.3830     87.1794   8.7211183459e+01   4.8124193120e+01    0.4246046     0.282056  62.84   0.00182185    2.266    0.559
       102 -10.9167     46.7656     83.2569   1.0019388829e+02   5.4783348448e+01    0.5680951    0.3538339  78.62  0.002317346    3.337    0.700
       103 -10.7287    104.7695     83.5271   8.0615274523e+01   4.5664961701e+01    0.4108808    0.3218198  85.26  0.001895709    1.885    0.470
       104  -9.8015    140.5193     83.0261   7.0506212947e+01   3.7939241102e+01    0.2276928     0.130962 -59.50 0.0008101319    2.545    0.607
       105 -13.0131    159.6255    110.1589   7.3620823130e+01   2.8021363897e+01     1.079367    0.6264925 -61.53  0.003876187    2.559    0.609
       106 -10.7355     24.2067     80.2783   1.0775771384e+02   5.7565754298e+01    0.4101744    0.2104589 -75.93  0.001886725    2.337    0.572
       107  -9.6238      1.3825     78.7083   1.1578174652e+02   5.9304508645e+01    0.1810584   0.07957055 -59.29 0.0009464771    1.630    0.387
       108  -9.3541    153.1801     77.8612   6.5886615403e+01   3.5875161281e+01    0.2117117    0.1815564  14.55 0.0004907984    1.302    0.232
       109 -10.3504     62.7859     75.6855   9.2265836518e+01   5.4475551583e+01    0.2934142     0.187357 -57.26  0.001430741    1.632    0.387
       110 -10.7523     62.4851     70.4315   9.0770459242e+01   5.5639163025e+01    0.3966441    0.1253117 -49.71  0.001403072    2.889    0.654
       111 -10.8855     82.5364     73.4164   8.4590699033e+01   5.1891284548e+01    0.4763955    0.2995378 -74.02  0.001727186    3.530    0.717
       112  -9.8628    116.2037     73.4113   7.4008468993e+01   4.5307091887e+01    0.2145991    0.1461531  58.09 0.0008126525    1.713    0.416
       113 -10.8732     51.8071     70.7390   9.4870091393e+01   5.6972186980e+01    0.3420021    0.2536209 -73.81  0.001297889    1.804    0.446
       114 -10.7925      9.2989     56.7016   1.0817472184e+02   6.3741917224e+01    0.6342628    0.4234335  66.83  0.003551456    2.470    0.595
       115 -11.9227     41.6510     62.8758   9.6470594713e+01   5.9805375699e+01    0.6338503    0.3789307 -59.53  0.002564358    1.759    0.432
       116 -12.0359     28.9769     52.4593   9.8526023595e+01   6.3199256937e+01    0.8033431    0.4189103  30.07  0.004237125    2.195    0.544
       117 -11.7080    238.5768     64.9432   4.7742639224e+01   1.7535842536e+01    0.5185741    0.2924531 -71.30  0.002231256    2.491    0.599
       118 -10.4129    196.6293     67.8085   5.4449861272e+01   2.6849444104e+01    0.4121392    0.1936984  53.99  0.001641185    2.121    0.529
       119 -11.4482    231.2022     59.6344   4.7385402846e+01   1.9947865304e+01    0.3931308    0.2636047 -54.69 0.0008972239    1.428    0.300
       120 -10.0900     72.7986     58.9875   8.3155217879e+01   5.6381426673e+01    0.2181716    0.1639451 -67.09  0.001078792    1.980    0.495
       121  -9.5813     62.5994     54.7970   8.5485230003e+01   5.8758596167e+01    0.1933008    0.1225036 -51.11 0.0009547783    1.725    0.420
       122 -10.2052     54.3126     54.2452   8.8542522129e+01   6.0026545366e+01    0.3334864     0.208622 -71.34  0.001337595    3.558    0.719
       123 -11.4033     19.4580     59.7385   1.0468395121e+02   6.2449161828e+01    0.3576147    0.2147339 -43.05 0.0006673645    1.332    0.249
       124 -10.3028    161.7514     53.1656   5.6472999564e+01   3.7852073774e+01    0.2655838    0.2021604  73.19 0.0007740571    1.395    0.283
       125 -11.4640    221.7158    248.6777   8.9235603528e+01  -7.9886251789e+00    0.6055164    0.2287464  44.54  0.002681458    3.127    0.680
       126 -11.6176    149.0561     52.0605   5.8724309835e+01   4.1207509190e+01    0.3855952     0.199953  52.89  0.001449875    1.817    0.450
       127 -10.0527     92.3827     51.2056   7.3543042265e+01   5.4258111751e+01    0.2047808    0.1285098 -44.60 0.0008623603    1.738    0.425
       128 -10.1477    193.8116     46.6663   4.9105883811e+01   3.0704134033e+01    0.1907984    0.1863465  -1.91 0.0004385491    1.151    0.131
       129 -11.5633     74.7197     43.1309   7.6512668737e+01   5.8880753948e+01    0.3972548    0.3387401  61.54  0.001570097    1.634    0.388
       130 -11.0626     69.7738     42.1757   7.7960558059e+01   5.9880785803e+01     0.406642    0.3072461 -66.88  0.002001822    2.296    0.564
       131 -11.4737      7.6914     43.1572   1.0525061781e+02   6.6625602410e+01    0.4940092    0.2656471  34.08  0.002800266    2.450    0.592
       132  -9.0317    149.3221     43.3306   5.5835791587e+01   4.2405332565e+01    0.1552651    0.1085149  27.12 0.0005626451    1.697    0.411
       133 -12.1773     41.0558     37.8069   8.7997446163e+01   6.4735554274e+01    0.5987027    0.3531328  18.93  0.001779486    1.805    0.446
       134 -10.3074     81.1543     37.2128   7.1854192785e+01   5.8649988897e+01    0.1769119    0.1694304 -53.88  0.001079758    1.369    0.269
       135  -9.8203    147.0220     36.5120   5.4061484750e+01   4.3895824478e+01    0.2191833     0.135967  60.44 0.0004106921    1.521    0.343
       136 -11.4967    120.4808     34.4166   5.9209525866e+01   5.0644106726e+01    0.3506299    0.2493265  50.84 0.0007409959    1.308    0.236
       137 -10.8681     49.9735     34.7116   8.2850362368e+01   6.4124792273e+01    0.3368111    0.2095335  24.93  0.001113493    1.625    0.385
       138 -10.2901     73.6927     32.5306   7.2549101205e+01   6.0710344161e+01    0.3169527    0.1995586  63.03   0.00140372    2.873    0.652
       139 -11.6838    104.4404     30.2323   6.1807977374e+01   5.4844395010e+01    0.4171889    0.2848466  61.11 0.0003000274    1.628    0.386
       140 -12.4103    205.0347     22.4759   4.1220743037e+01   3.1007130861e+01    0.5990494    0.3360968 -78.74  0.002747892    2.079    0.519
       141 -11.4261     21.9059    248.3737   1.2620826543e+02   2.0437458600e+01    0.2140474    0.1843258   6.08  0.001206408    2.109    0.526
       142  -9.6657      2.3305    249.3275   1.2941851948e+02   2.2236914115e+01   0.08519637   0.07270878 -67.90 0.0007051266    1.710    0.415
       143 -11.3226    239.5055     20.5093   3.7410780244e+01   2.3238782544e+01    0.2969247    0.2051017  88.40 0.0006743634    1.378    0.274
       144 -10.1311     89.9134     18.5215   6.1181241411e+01   5.9365771570e+01    0.3009899    0.1892644  69.98  0.001313043    2.364    0.577
       145  -9.9920     46.7049     16.6508   7.6155127955e+01   6.7307394956e+01    0.2409164    0.1488841 -13.16 0.0009073142    1.555    0.357
       146  -9.6640    187.5213    248.5052   9.5506461907e+01  -2.9152046300e+00    0.2276086   0.09393382  29.43  0.001022811    2.375    0.579
       147  -9.6382     69.5859    245.7229   1.1767612977e+02   1.5241808729e+01    0.1473171   0.09547926  84.88 0.0007877533    1.559    0.358
       148 -12.3573     21.9928    239.0124   1.2571130553e+02   2.2128179367e+01    0.7639278    0.2441163  65.46  0.003467664    3.288    0.696
       149  -9.9305     14.5214    231.4806   1.2660824914e+02   2.4304159197e+01    0.1757718   0.09069237  66.23 0.0006809873    1.532    0.347
       150 -10.8748     12.5361    227.5039   1.2675127999e+02   2.5258529207e+01      0.29276    0.1435926  85.54 0.0008427193    1.746    0.427
       151 -10.6652     32.8396    242.3002   1.2402087344e+02   2.0346801258e+01     0.181549   0.09726053  56.03 0.0009449933    1.434    0.302
       152 -10.3112      8.0020    240.6900   1.2814772321e+02   2.3235944550e+01    0.1486305    0.1055784  65.08 0.0006837818    1.077    0.072
       153 -10.7986     35.8843     23.1295   8.4167733182e+01   6.7794317942e+01    0.3793307    0.2160292  47.48  0.001871476    3.021    0.669
