#   1 NUMBER                 Running object number                                     
#   2 MAG_AUTO               Kron-like elliptical aperture magnitude                    [mag]
#   3 X_IMAGE                Object position along x                                    [pixel]
#   4 Y_IMAGE                Object position along y                                    [pixel]
#   5 X_WORLD                Barycenter position along world x axis                     [deg]
#   6 Y_WORLD                Barycenter position along world y axis                     [deg]
#   7 A_WORLD                Profile RMS along major axis (world units)                 [deg]
#   8 B_WORLD                Profile RMS along minor axis (world units)                 [deg]
#   9 THETA_WORLD            Position angle (CCW/world-x)                               [deg]
#  10 FWHM_WORLD             FWHM assuming a gaussian core                              [deg]
#  11 ELONGATION             A_IMAGE/B_IMAGE                                           
#  12 ELLIPTICITY            1 - B_IMAGE/A_IMAGE                                       
         1  -8.6880    119.2221     32.7641   2.9069183833e+02   6.6790820107e+00   0.01594167  0.009135138 -72.39   0.00126065    2.051    0.512
         2  -8.9552     74.1010     19.5940   2.9114495537e+02   7.1058244753e+00    0.0158884   0.01040649  87.87 0.0008572994    2.097    0.523
         3  -8.4733     55.7786     10.1450   2.9130407509e+02   7.3258763247e+00   0.01025343  0.008795506  64.94 0.0006148182    1.270    0.213
         4  -8.2468     90.8100      9.0422   2.9088283620e+02   7.1245517234e+00   0.01074384  0.007417628  75.29 0.0006862059    1.912    0.477
         5  -8.0997     69.0300      7.9435   2.9113380725e+02   7.2702061129e+00  0.007935673  0.007647526 -59.34 0.0004203555    1.061    0.058
         6  -7.5639    101.3124      7.7314   2.9075060425e+02   7.0753297139e+00  0.006792166  0.004937345  56.96 0.0001776905    1.547    0.354
         7  -8.7164     33.2626      5.1167   2.9153992704e+02   7.5207238086e+00   0.01686729   0.01064228 -88.81  0.001553354    2.209    0.547
         8  -8.5407     79.0429      3.6553   2.9098913050e+02   7.2581442677e+00   0.01259736  0.009331303  88.44 0.0009719723    1.654    0.395
         9  -7.2520     44.6960      3.3190   2.9139358851e+02   7.4716280045e+00  0.006941318  0.005015298  62.02 0.0003486674    1.629    0.386
        10  -7.5548     15.6857      3.3117   2.9173705565e+02   7.6484107670e+00    0.0069715  0.004991504  60.71 0.0002630083    1.635    0.388
        11  -7.6310    115.2985      2.6236   2.9055398453e+02   7.0482040155e+00  0.007130068   0.00501143  65.68 0.0007025939    1.753    0.430
        12  -8.4637     62.3367      1.6207   2.9117440050e+02   7.3834592218e+00   0.01143131  0.007364428  39.95 0.0006400417    1.527    0.345
        13  -7.5108     39.2778      1.6300   2.9144742484e+02   7.5239939164e+00  0.006972474  0.005044703  67.37 0.0007009156    1.687    0.407
        14  -8.3105     13.4946    247.4584   2.9324518858e+02   4.8609360497e+00  0.006624223  0.006448234   4.73  9.03737e-05    1.021    0.021
        15  -9.0215    240.5856    239.8400   2.9052339878e+02   3.5618968370e+00   0.03087226    0.0083495 -45.51  0.001868597    4.514    0.778
        16  -8.6569    249.4141    248.6704   2.9047328488e+02   3.4066269764e+00   0.01848113  0.007955043 -51.63  0.001550235    2.274    0.560
        17  -9.7662    248.6689    241.9911   2.9044140773e+02   3.4877311819e+00   0.02852272   0.01595653 -71.72  0.002338329    2.095    0.523
        18  -8.7985    247.6375    234.6070   2.9040859924e+02   3.5786692676e+00   0.01407644   0.01374696   0.59  0.001196279    1.020    0.019
        19  -9.7082    246.5700    229.5611   2.9039044179e+02   3.6430360845e+00   0.03064077   0.01229317 -54.92  0.002227273    2.386    0.581
        20  -9.3445    233.4393    246.6522   2.9064891065e+02   3.5275884505e+00    0.0327542   0.01453469 -47.95  0.002420668    2.308    0.567
        21  -8.9764    211.2843    247.2614   2.9091331149e+02   3.6562417405e+00   0.02220021    0.0128573  87.33  0.001826291    2.840    0.648
        22  -8.1639    191.6944    249.8693   2.9115975633e+02   3.7462185845e+00   0.01349309  0.007463397  51.37 0.0008994926    2.113    0.527
        23  -8.4907     93.8396    249.4902   2.9231024295e+02   4.3483926708e+00   0.01309992  0.008967811  84.60  0.001279858    1.936    0.483
        24  -7.2915     86.2881    250.6492   2.9240627300e+02   4.3811440806e+00  0.006980753  0.005041946  65.40  0.000452967    1.665    0.399
        25  -8.7623     67.5073    245.0359   2.9259367990e+02   4.5600433838e+00   0.01014592  0.006641557 -62.89 0.0008390545    1.568    0.362
        26  -8.4276     59.1645    245.0238   2.9269196889e+02   4.6110073188e+00   0.01147597  0.007613702  73.21  0.001086083    2.048    0.512
        27  -8.5383    201.7766    242.9403   2.9099895474e+02   3.7639756927e+00   0.01457414  0.008975149 -72.32  0.001003073    1.857    0.461
        28  -8.4698    169.1444    243.5152   2.9138669208e+02   3.9570145230e+00    0.0137482  0.009841642  74.57 0.0007983469    1.774    0.436
        29  -9.2828     77.5024    242.9809   2.9246339637e+02   4.5227153773e+00   0.01628378   0.01044082  62.77  0.001545634    2.002    0.501
        30  -8.1435     49.6657    243.1430   2.9279258548e+02   4.6904406402e+00   0.01302014  0.006546238 -73.58  0.001035839    2.539    0.606
        31  -9.4562    160.3851    240.5935   2.9147212229e+02   4.0440850644e+00   0.02082485   0.01261487  84.48  0.001229837    2.564    0.610
        32  -9.3086    183.0461    240.3855   2.9120395798e+02   3.9078813351e+00   0.02126889   0.01261863  58.29  0.001459754    2.159    0.537
        33  -8.2185    153.2798    242.1964   2.9156555774e+02   4.0691336955e+00   0.00938995  0.007663747  67.16 0.0007559216    1.379    0.275
        34  -8.0714     88.1858    242.1758   2.9233257183e+02   4.4668172375e+00  0.009239476  0.007702517  76.70 0.0005688057    1.360    0.265
        35  -8.4684      2.7789    240.1184   2.9332721450e+02   5.0103118597e+00   0.01161307  0.008504522  40.95 0.0007128637    1.352    0.261
        36  -9.5260    231.0527    236.7125   2.9061652367e+02   3.6561304152e+00    0.0223243   0.01473431 -71.82  0.001528415    1.688    0.408
        37  -8.2394    135.5305    238.7251   2.9175361460e+02   4.2174196035e+00  0.008737883  0.006599247 -82.87 0.0009252457    1.532    0.347
        38  -8.5941    129.4497    239.1069   2.9182758976e+02   4.2501840038e+00   0.01446671   0.00770537  46.28  0.001298736    2.011    0.503
        39  -7.7957     40.7375    239.3934   2.9287518117e+02   4.7878313009e+00  0.006968407  0.005036106  69.95 0.0004423096    1.707    0.414
        40  -7.9813    209.0103    238.2877   2.9088551628e+02   3.7730430118e+00  0.009579996  0.007213444  80.24  0.000558386    1.628    0.386
        41  -8.1109    105.4549    238.5249   2.9210686932e+02   4.4033616349e+00   0.01241659  0.006625388  11.77  0.001035625    2.440    0.590
        42  -8.3142     25.6870    237.3140   2.9304009798e+02   4.9032679573e+00   0.01121708  0.007478449  60.88   0.00109704    1.829    0.453
        43  -9.8823    214.8997    233.2616   2.9078562553e+02   3.7946077955e+00   0.03230211    0.0173169  69.41  0.002389723    3.519    0.716
        44  -8.7540    203.1658    234.9023   2.9093373085e+02   3.8476342617e+00   0.01575736   0.01028557  85.23  0.001288797    2.141    0.533
        45  -9.7115    175.6779    233.2549   2.9124740448e+02   4.0347329445e+00   0.02704984   0.01486568 -82.89  0.002236572    2.733    0.634
        46  -7.8501    170.3489    236.0925   2.9132741472e+02   4.0347836590e+00  0.009178296  0.006361505 -79.57 0.0004763422    1.705    0.413
        47  -9.4183    109.1041    234.7560   2.9204099764e+02   4.4243389875e+00   0.02689237   0.01203921  43.87  0.001444311    2.343    0.573
        48  -7.8144     57.9584    237.0000   2.9265762174e+02   4.7104547323e+00   0.01110203  0.003743363  27.36  0.000797069    2.905    0.656
        49  -8.5157     99.5028    234.4350   2.9215223697e+02   4.4866186262e+00   0.01495132  0.008870417  61.58 0.0009362819    2.283    0.562
        50  -9.0434     78.9282    234.5863   2.9239573258e+02   4.6103712887e+00   0.01453401   0.01001653  64.19 0.0009621763    1.787    0.441
        51  -8.4227      3.3412    235.2947   2.9329144324e+02   5.0622768494e+00  0.006998189  0.005036287 -22.01 0.0004738029    1.658    0.397
        52  -8.2352    122.7360    234.1484   2.9187662847e+02   4.3480818850e+00   0.01061861  0.008312972  81.47 0.0007039612    1.517    0.341
        53  -9.4077     68.2112    232.3845   2.9250876718e+02   4.7009678800e+00   0.02649293   0.01396225  59.96  0.002125177    2.841    0.648
        54  -7.4864     53.7196    234.3965   2.9269184689e+02   4.7661558645e+00  0.007095856  0.005012981  67.92 0.0006994518    1.759    0.431
        55  -8.6207    194.4771    233.0816   2.9102496009e+02   3.9216935222e+00   0.01102293  0.008835435  52.92 0.0007701719    1.318    0.241
        56  -8.4247    145.0150    233.4819   2.9161002310e+02   4.2196182671e+00   0.01546714  0.007666957  53.22  0.001249164    2.631    0.620
        57  -8.5657    140.1057    230.1900   2.9164788879e+02   4.2873861997e+00   0.01454238  0.008665626  51.51  0.000901702    1.908    0.476
        58  -8.4663    132.5290    232.9382   2.9175386389e+02   4.3021500563e+00  0.009902208  0.006653095 -63.67 0.0005637725    1.536    0.349
        59  -8.3313     92.9898    232.5303   2.9221747557e+02   4.5482124050e+00   0.01755557  0.009615388  58.80  0.001475834    2.535    0.605
        60  -9.4091    236.2229    230.4259   2.9051743526e+02   3.6965182554e+00   0.02463891   0.01083216 -59.66  0.001228569    2.253    0.556
        61  -9.3098    186.5069    230.7129   2.9110441456e+02   3.9976316538e+00   0.01905936   0.01219081  81.86  0.001312105    2.265    0.559
        62  -9.2744    194.2673    239.7457   2.9106794155e+02   3.8465603444e+00   0.01811441  0.009964421 -67.14  0.001555075    1.980    0.495
        63  -9.9171    149.7707    226.3262   2.9151052710e+02   4.2726394204e+00   0.03459521   0.01848389  80.84  0.002408756    4.059    0.754
        64 -10.1130      8.0903    228.3454   2.9319343026e+02   5.1132065095e+00   0.02735072    0.0152287  75.20  0.002097509    3.305    0.697
        65  -8.5368      1.9430    230.9919   2.9328193679e+02   5.1201699206e+00   0.01118805  0.007709151  62.47  0.001118244    1.759    0.431
        66  -8.2659    229.6281    228.8599   2.9058550458e+02   3.7548661712e+00  0.009358958  0.006447445 -79.70 0.0004982542    1.725    0.420
        67  -8.5089    162.0297    227.9571   2.9137598905e+02   4.1789751061e+00   0.01282824  0.009927514  62.79 0.0009164108    1.468    0.319
        68  -9.0368    128.1060    227.4683   2.9177279167e+02   4.3919298622e+00   0.01572783   0.01126443  63.50  0.001073744    1.667    0.400
        69  -8.2440    119.8992    227.5678   2.9187013440e+02   4.4409140419e+00   0.01297605  0.008967869  88.83  0.001019408    1.868    0.465
        70  -8.2216    223.6797    226.5664   2.9064155269e+02   3.8175921178e+00   0.01503849  0.006994765 -47.33 0.0007482028    2.220    0.550
        71  -8.3959     49.2771    226.9445   2.9269912659e+02   4.8787513922e+00   0.01419577  0.006807857  50.37  0.001150708    2.544    0.607
        72  -8.3303    205.9570    226.1876   2.9084786862e+02   3.9304670672e+00   0.01055091  0.008708801  58.33 0.0005895559    1.306    0.234
        73  -7.7254    199.7923    225.9648   2.9091909690e+02   3.9707650583e+00  0.008883963   0.00534361 -60.97 0.0004672044    1.686    0.407
        74  -9.0384     94.4719    224.6289   2.9215209114e+02   4.6298518879e+00   0.02101578   0.01185326  62.96  0.001765616    2.611    0.617
        75  -8.9357    216.4822    223.7576   2.9070917877e+02   3.8938751976e+00   0.01490104   0.01084184  84.76  0.001102428    1.726    0.421
        76  -9.1334    180.6117    224.1660   2.9113404563e+02   4.1087873804e+00   0.01633556   0.01272091  77.26  0.001053026    1.530    0.346
        77  -8.7123    104.8820    223.7733   2.9202415386e+02   4.5761427100e+00   0.01712582    0.0112664  79.93  0.001612932    2.124    0.529
        78  -7.9140     38.4282    224.9294   2.9281489648e+02   4.9679271440e+00  0.009342501   0.00576464  81.45 0.0008053596    2.461    0.594
        79  -8.4126    172.9907    223.2787   2.9121842580e+02   4.1655925539e+00   0.01370595  0.009318079 -75.26 0.0005747543    1.682    0.405
        80  -7.8960    113.9813    224.2380   2.9191969188e+02   4.5152605208e+00  0.009608266  0.007292875  77.94 0.0007657443    1.601    0.375
        81  -8.3076     59.7825    224.0018   2.9255739538e+02   4.8485445302e+00   0.01115745  0.007435197  72.03  0.001061132    2.017    0.504
        82  -9.4246    192.5067    221.3671   2.9097692835e+02   4.0680852870e+00   0.01929776   0.01289547  78.55    0.0012078    2.056    0.514
        83  -8.4156    140.4079    223.1257   2.9160142894e+02   4.3665879855e+00  0.009455916  0.006494259 -82.70 0.0009379571    1.778    0.438
        84  -8.8212    238.9901    221.5392   2.9043078301e+02   3.7814197217e+00   0.01202772  0.009463278  87.06 0.0005846996    1.495    0.331
        85  -9.2677    225.3017    221.4652   2.9059141765e+02   3.8661334413e+00   0.01235414   0.01046696  89.21 0.0004670669    1.319    0.242
        86  -9.0498    159.5475    220.8470   2.9136203206e+02   4.2757147786e+00   0.01897402   0.01014778  51.43  0.001309675    2.222    0.550
        87  -9.1494      7.5969    222.1525   2.9316181235e+02   5.1873030805e+00    0.0164144  0.006005033  41.23  0.001243302    2.732    0.634
        88  -9.1329    120.5937    219.5863   2.9181350214e+02   4.5282568964e+00   0.02310699   0.01176354  55.45  0.001693649    2.681    0.627
        89  -8.5027     82.9660    220.8018   2.9226456894e+02   4.7439611491e+00   0.01462105  0.008837408  62.34  0.001220988    2.227    0.551
        90  -8.0304     72.8887    221.0205   2.9238474751e+02   4.8028958800e+00    0.0111704  0.007573495  76.43  0.001074675    1.981    0.495
        91  -8.2800     27.6668    220.5141   2.9291512488e+02   5.0840924386e+00   0.01187244  0.006266355 -62.77  0.001065965    1.946    0.486
        92  -8.0681    202.7045    220.0869   2.9084905195e+02   4.0203331217e+00   0.01033351  0.008160685  85.63 0.0005079004    1.490    0.329
        93  -8.3907    209.9740    219.0028   2.9075686340e+02   3.9882480442e+00   0.01160562  0.009335524 -81.12 0.0007331264    1.385    0.278
        94  -8.0958    249.7718    218.6154   2.9028613258e+02   3.7488531439e+00  0.009840581  0.005740762  38.89 0.0009390148    1.670    0.401
        95  -8.6408    247.4283    215.3305   2.9029369604e+02   3.8008626067e+00   0.01414595  0.006687983 -62.25  0.001120633    2.168    0.539
        96  -9.2031    132.9712    216.1147   2.9164650603e+02   4.4924736515e+00    0.0238664   0.01296425  63.04  0.001917866    2.873    0.652
        97  -7.9327    112.2286    217.8060   2.9190132228e+02   4.5997719250e+00   0.01152544  0.006358155  62.08  0.000851448    2.699    0.629
        98  -8.6872     51.5172    217.2352   2.9261390384e+02   4.9765648775e+00   0.01493582   0.01028404  77.71 0.0008684383    1.923    0.480
        99  -8.7469    169.3984    216.5160   2.9121963623e+02   4.2651373868e+00   0.01468772  0.009346637  59.44 0.0008045557    1.947    0.487
       100  -8.5136    142.9473    216.5160   2.9153134881e+02   4.4268973203e+00   0.01252621  0.009314788  86.21 0.0006901337    1.651    0.394
       101  -8.2285     61.7002    217.1642   2.9249334952e+02   4.9153484273e+00   0.01063861  0.008307527  78.87  0.001149605    1.522    0.343
       102  -7.7728     18.5020    216.5273   2.9299912977e+02   5.1855993314e+00  0.006663945  0.006422121  44.14 5.975272e-05    1.040    0.038
       103  -8.7502    232.2085    214.5196   2.9046784782e+02   3.9034329181e+00    0.0138045   0.01073358  82.74  0.001157483    1.536    0.349
       104  -8.3288    185.8145    214.5407   2.9101423116e+02   4.1873344087e+00   0.01053284  0.008855964  66.15 0.0006519728    1.312    0.238
       105  -8.0490    154.2419    215.1783   2.9139010487e+02   4.3731879336e+00  0.009525358  0.007686985  66.93 0.0008057706    1.403    0.287
       106  -9.0265     93.4255    214.3526   2.9210209970e+02   4.7541751291e+00   0.02062447   0.01066041  54.24   0.00169754    2.515    0.602
       107  -7.6036     41.3287    215.6581   2.9272455083e+02   5.0567049747e+00  0.007190097  0.004967817  61.85 0.0007051299    1.742    0.426
       108  -9.3775     73.1414    211.9166   2.9232657918e+02   4.9058493638e+00   0.03342174    0.0142126  53.34  0.002332346    3.614    0.723
       109  -8.3442    224.9435    212.7690   2.9054269735e+02   3.9680161635e+00    0.0116958  0.008759574  89.27 0.0008241826    1.616    0.381
       110  -9.4338    213.8673    212.1279   2.9066918564e+02   4.0432230485e+00    0.0179604   0.01377057  57.73  0.001328293    1.442    0.307
       111  -8.5169    161.8145    212.6219   2.9128532529e+02   4.3561986962e+00    0.0122608  0.009932745 -83.98 0.0009662653    1.387    0.279
       112  -8.0877    106.6316    213.0758   2.9193861121e+02   4.6882255575e+00    0.0103645  0.008257198  84.58 0.0008649359    1.468    0.319
       113  -8.9462    204.3264    210.9182   2.9077416557e+02   4.1155309785e+00   0.01517331   0.01115448  87.02 0.0007581564    1.683    0.406
       114  -9.3613    175.6875    210.2999   2.9110774016e+02   4.2979531426e+00   0.02175975   0.01231771  57.80  0.001586981    2.328    0.571
       115  -9.4814      6.6573    209.6369   2.9309721148e+02   5.3367039068e+00   0.02717948   0.01405834  77.13  0.001744503    4.760    0.790
       116  -8.0733    192.3151    210.4881   2.9091300737e+02   4.1940134308e+00   0.01107839  0.008039507  83.13 0.0006807171    1.739    0.425
       117  -8.7511    147.9960    210.6491   2.9143619308e+02   4.4633400995e+00   0.01372989   0.01056656  74.26  0.001003283    1.554    0.356
       118  -8.7713    116.2414    210.5320   2.9180984868e+02   4.6587360560e+00   0.01488035  0.009925338  61.98 0.0008382416    1.853    0.460
       119  -8.5510     32.7552    210.3971   2.9279385053e+02   5.1692793115e+00   0.01923508   0.01138129  73.77  0.001616698    2.701    0.630
       120  -9.4402    246.3972    207.5001   2.9025813383e+02   3.8969237611e+00   0.01632197   0.01268656 -85.62 0.0005392904    1.489    0.328
       121  -8.3410     85.6486    209.8917   2.9216676361e+02   4.8528179763e+00   0.01340398  0.008808777 -89.96  0.001273029    2.044    0.511
       122  -8.0467     47.1590    209.9453   2.9262116196e+02   5.0867878325e+00   0.01500759  0.006719092  49.20  0.001171468    2.725    0.633
       123  -9.2252    236.5972    207.5673   2.9037386191e+02   3.9562261960e+00   0.02109126   0.01240844 -63.77  0.001812824    1.765    0.433
       124  -7.3701    156.4812    208.4670   2.9132292073e+02   4.4364817985e+00   0.00664147  0.006449141  37.10  8.03377e-05    1.024    0.023
       125  -8.4706    139.1225    207.8849   2.9152399539e+02   4.5493013788e+00   0.01305536  0.009277493  66.28 0.0008500957    1.724    0.420
       126  -9.3813    124.3599    206.3657   2.9168881729e+02   4.6569505788e+00   0.01738371   0.01082045  62.03 -0.0001541599    2.097    0.523
       127  -9.1221     99.4113    206.2139   2.9198211523e+02   4.8110486487e+00   0.01820305   0.01204642  72.23  0.001551546    2.051    0.512
       128  -9.0605     11.9650    206.9966   2.9301860176e+02   5.3347589825e+00   0.01104723  0.007788643  60.50  0.001127053    1.666    0.400
       129  -9.2488    194.8724    203.8897   2.9084273489e+02   4.2540213978e+00   0.01794718   0.01539555 -83.73  0.001010289    1.274    0.215
       130  -9.7912    192.4482    197.5899   2.9083294845e+02   4.3411085519e+00   0.02568008   0.01998816 -81.22  0.001615474    1.453    0.312
       131  -8.9255    183.8410    204.0566   2.9097370092e+02   4.3196507594e+00   0.01651674    0.0107596  57.80 0.0008156261    1.836    0.455
       132  -8.7411    131.3467    204.2253   2.9159343282e+02   4.6388153043e+00   0.01637291  0.009545354  64.96  0.001059318    2.515    0.602
       133  -7.9564    109.0210    205.2348   2.9186283385e+02   4.7636172572e+00  0.009659852  0.007213559  84.33 0.0006168807    1.644    0.392
       134  -8.5638     25.1641    205.1669   2.9285176156e+02   5.2755054806e+00  0.009473071  0.007787692  66.60 0.0005418457    1.359    0.264
       135  -7.4381    218.3180    204.3332   2.9056933307e+02   4.1053186149e+00  0.007117653  0.004990139 -26.14 0.0007048212    1.693    0.409
       136  -9.5345    163.8612    203.1321   2.9120350528e+02   4.4525330778e+00   0.02218431   0.01161701  48.60  0.001278498    2.150    0.535
       137  -8.4117     48.7785    202.7671   2.9255855802e+02   5.1593261887e+00   0.01664436  0.009250791  83.08  0.001258963    3.357    0.702
       138  -8.9403     17.6883    203.2857   2.9292859910e+02   5.3425679948e+00   0.01700267   0.01020723  83.94  0.001451063    2.619    0.618
       139  -9.3556    250.1215    201.8837   2.9018009629e+02   3.9384552332e+00   0.01931339   0.00989601 -61.77  0.001427667    1.989    0.497
       140  -8.4399     66.2122    202.4172   2.9235072589e+02   5.0571246844e+00   0.01480653   0.00806167  86.15  0.001090154    3.509    0.715
       141  -9.2289    242.9262    200.6269   2.9025710392e+02   3.9969748695e+00   0.01692695   0.01143837 -64.46 0.0009921017    1.537    0.349
       142  -8.4786    210.8971    201.7957   2.9064126068e+02   4.1798777636e+00   0.01255697  0.008412818  74.69 0.0007519264    2.027    0.507
       143  -8.9132    140.2760    201.0752   2.9146901162e+02   4.6203772562e+00   0.01632809   0.01116638  74.21  0.001152048    1.937    0.484
       144  -8.4137     80.2468    201.6904   2.9218073349e+02   4.9798961429e+00   0.01619318  0.007900327  61.75  0.001123333    3.788    0.736
       145  -7.5165     72.6991    202.3182   2.9227358973e+02   5.0187164986e+00  0.006932679  0.005021774  62.23 0.0003469384    1.620    0.383
       146  -8.3999     56.4672    205.4893   2.9248433298e+02   5.0812443517e+00    0.0148337  0.008983168  64.44 0.0008389066    2.289    0.563
       147  -7.8306    222.0067    201.4970   2.9050863427e+02   4.1152307444e+00  0.009482418  0.004924657  50.03 0.0004993073    2.246    0.555
       148  -8.9812    236.9657    198.1724   2.9031229652e+02   4.0616499651e+00   0.01871677  0.009924497 -74.06  0.001400934    2.378    0.579
       149  -9.4019    149.5372    198.7111   2.9134545872e+02   4.5908686314e+00   0.01963699   0.01259156  74.43  0.001221819    2.226    0.551
       150  -8.8490    124.0198    199.2500   2.9164959988e+02   4.7406764639e+00   0.01597361   0.01070445  87.73   0.00116275    1.997    0.499
       151  -9.2034    112.9791    198.7510   2.9177677672e+02   4.8138484584e+00    0.0236496   0.01298501  59.88   0.00198106    2.591    0.614
       152  -8.9647     88.6295    198.5263   2.9206263847e+02   4.9650734985e+00   0.01904345   0.01194676  75.10  0.001711876    2.347    0.574
       153  -8.2016    177.0300    199.0198   2.9102330514e+02   4.4191109323e+00   0.01064041  0.007684818  61.04 0.0005020318    1.614    0.381
       154  -8.4865    202.1285    197.6992   2.9071958673e+02   4.2805652501e+00   0.01116545  0.009215728 -83.89 0.0004836292    1.349    0.259
       155  -9.1886     61.4438    196.7308   2.9237250890e+02   5.1514571113e+00   0.02301835   0.01449047  86.55  0.001943633    2.296    0.564
       156  -8.2186     12.8027    197.7156   2.9295254487e+02   5.4362177348e+00   0.01295171  0.008537309  75.94  0.001218908    2.098    0.523
       157  -7.8295     36.0019    196.9791   2.9267426660e+02   5.3035576752e+00    0.0118252  0.007136643  83.27  0.001004283    2.593    0.614
       158  -8.6317    215.9242    195.3928   2.9054307492e+02   4.2224833784e+00   0.01464274  0.009504254 -86.11 0.0007892261    2.032    0.508
       159  -8.0021    133.0313    196.0489   2.9152388192e+02   4.7223321820e+00   0.01072085   0.00776217  65.17 0.0007516972    1.658    0.397
       160  -8.5645    224.6717    194.3093   2.9043348052e+02   4.1812933460e+00   0.01157567  0.008226405 -80.13 0.0006505558    1.651    0.394
       161  -8.9733    185.1712    194.9244   2.9090245695e+02   4.4162378136e+00   0.01214369   0.01046329  74.78 0.0007812461    1.287    0.223
       162  -8.8020    160.8753    194.3218   2.9118511270e+02   4.5718622714e+00   0.01378633  0.009618528 -88.82 0.0008082619    1.813    0.449
       163  -9.3528    245.6067    192.4392   2.9017566883e+02   4.0743763944e+00   0.02253709   0.01146222 -58.91  0.002051322    1.953    0.488
       164  -8.1439    230.7194    194.1255   2.9036116477e+02   4.1463288610e+00   0.01063767  0.008508409  89.99 0.0008719658    1.444    0.308
       165  -8.6743     77.0826    193.8698   2.9217061515e+02   5.0889554932e+00   0.01216051   0.01036645  67.77 0.0007053801    1.290    0.225
       166  -8.8722     43.7441    193.3888   2.9256113218e+02   5.2976396143e+00   0.02061001   0.01266398  65.42   0.00186838    2.250    0.556
       167  -7.6812      8.6520    193.3364   2.9297503085e+02   5.5117222620e+00  0.007272902  0.004921693  60.58 0.0007047571    1.780    0.438
       168  -7.7719    241.4521    192.4130   2.9022440312e+02   4.1001531620e+00   0.00659884  0.006379843  28.09 0.0001358976    1.015    0.015
       169  -7.9774    205.2297    191.9113   2.9064781899e+02   4.3279305892e+00  0.008587938  0.005635585 -64.99 0.0003705565    1.591    0.372
       170  -8.0536    198.8277    191.8124   2.9072262552e+02   4.3682850300e+00  0.009088515  0.007744086  71.08 0.0005002095    1.302    0.232
       171  -8.2147    179.1452    191.8651   2.9095484273e+02   4.4882185260e+00   0.01022277  0.008724624  63.08 0.0005613254    1.270    0.213
       172  -8.5121    172.2838    191.7885   2.9103523581e+02   4.5311013062e+00   0.01274715  0.009816355  73.08  0.001063981    1.548    0.354
       173  -8.9966    139.5620    190.6819   2.9141424884e+02   4.7439825630e+00   0.01668922   0.01121937  64.09  0.001180261    1.868    0.465
       174 -10.3065     91.8110    188.5756   2.9196469400e+02   5.0598596273e+00    0.0462994   0.01229929  40.87   0.00302302    3.735    0.732
       175  -7.7292     90.4748    182.0067   2.9194056903e+02   5.1434011972e+00   0.01463224  0.009216289 -25.52  0.001229872    2.058    0.514
       176  -8.3267    148.4798    189.4543   2.9130163369e+02   4.7035288337e+00   0.01157882  0.008443353  64.53 0.0007041721    1.631    0.387
       177  -8.9459    129.4108    188.7775   2.9152237879e+02   4.8278902276e+00   0.01557198   0.01039015  65.91  0.001016139    1.926    0.481
       178  -9.8571    121.0403    187.0537   2.9161062722e+02   4.8988247559e+00   0.02680305   0.01506543 -87.67  0.002189823    2.852    0.649
       179  -8.5273      6.0000    189.9964   2.9298611814e+02   5.5661837948e+00     0.011153  0.003818593 -62.26 0.0008078181    2.980    0.664
       180  -8.4638    237.3073    188.1814   2.9024739836e+02   4.1740691496e+00    0.0137216  0.009202795 -56.87 0.0008944994    1.493    0.330
       181  -8.9411    191.4713    187.5069   2.9078307483e+02   4.4627168273e+00   0.01594013   0.01141878  85.73  0.001010637    1.772    0.436
       182  -8.9670     34.3620    188.1492   2.9264011682e+02   5.4149011615e+00   0.01767655     0.010734  74.64  0.001273706    2.536    0.606
       183  -8.9139    216.5051    187.5569   2.9048850585e+02   4.3087578191e+00   0.01428469   0.01129337 -74.02 0.0009547391    1.369    0.269
       184  -9.2410    155.7375    187.0674   2.9120154884e+02   4.6865121977e+00   0.01762032   0.01219247 -85.25  0.001109857    1.795    0.443
       185  -8.9922     54.5667    186.8904   2.9239399139e+02   5.3063146726e+00   0.02060512   0.01264733  74.55  0.001587469    2.468    0.595
       186  -8.1029    230.1628    186.9382   2.9032392536e+02   4.2321260424e+00   0.01063188  0.008993792  71.80  0.001214782    1.320    0.242
       187  -8.7786    164.9931    186.7841   2.9109071643e+02   4.6331243683e+00   0.01345193   0.01053353  75.11 0.0008275897    1.511    0.338
       188  -9.1305    109.6001    186.0268   2.9173933580e+02   4.9804984454e+00    0.0193055   0.01216303  69.33  0.001370357    2.232    0.552
       189  -8.5273    249.5162    185.4426   2.9008701705e+02   4.1305809661e+00   0.01569233     0.009715 -67.69  0.001538548    1.742    0.426
       190  -8.6350    210.3103    184.4885   2.9054276887e+02   4.3819030998e+00   0.01136626   0.01023033 -73.99 0.0005098933    1.165    0.142
       191  -8.7952    202.7835    184.8645   2.9063371648e+02   4.4237160987e+00   0.01212628  0.009152746  80.10  0.000676867    1.621    0.383
       192  -8.6241    182.9342    184.7693   2.9086700039e+02   4.5463967142e+00   0.01252277  0.009814983 -77.73 0.0007345562    1.412    0.292
       193  -8.9204     66.8879    184.5804   2.9223455318e+02   5.2577383228e+00   0.01964845    0.0104458  54.30  0.001221269    2.400    0.583
       194  -8.4083    224.0802    183.7126   2.9037588365e+02   4.3063927852e+00   0.01124534  0.009116801 -83.45  0.000559897    1.383    0.277
       195  -7.9520    197.2336    183.9206   2.9069334826e+02   4.4685421669e+00  0.008548572  0.005663206 -64.77  0.000603209    1.573    0.364
       196  -8.8650    174.1910    183.5307   2.9096250038e+02   4.6141369354e+00   0.01439779    0.0103772  86.96 0.0009042457    1.744    0.427
       197  -8.5396      2.2134    183.9837   2.9299442262e+02   5.6582206666e+00   0.01285894  0.007708831  41.33  0.001250808    1.659    0.397
       198  -8.8813     44.2177    182.3161   2.9248841104e+02   5.4218586525e+00   0.01637851   0.01130119  79.91  0.001026657    1.919    0.479
       199  -8.3537    240.5884    181.4514   2.9016775757e+02   4.2310808272e+00   0.01264689    0.0080353  77.86  0.001138897    2.306    0.566
       200  -9.1101    147.5487    180.5925   2.9125870865e+02   4.8108851523e+00   0.01854196   0.01278035  84.08  0.001327179    1.916    0.478
       201  -9.7265     25.8750    179.2234   2.9268621437e+02   5.5690091245e+00   0.03227169   0.01723521  79.81   0.00225182    4.038    0.752
       202  -8.6353    137.6054    179.5354   2.9136953738e+02   4.8838251073e+00   0.01291894   0.01009195  81.48  0.000867027    1.524    0.344
       203  -9.2936    191.4956    178.3354   2.9072693796e+02   4.5677381824e+00   0.01440244   0.01132515  57.58 0.0005292272    1.391    0.281
       204  -8.0907    169.2992    178.8179   2.9099147359e+02   4.6981364494e+00   0.01017097  0.008177116  83.47 0.0005697237    1.449    0.310
       205  -9.1288     35.9156    177.0690   2.9255460558e+02   5.5326365230e+00   0.02744012   0.01492407  81.21  0.001994742    3.703    0.730
       206  -9.3930    248.4859    176.5714   2.9004505519e+02   4.2385623114e+00   0.02179735   0.01446515 -84.69   0.00212966    1.925    0.480
       207  -8.5108    250.5160    172.9631   2.8999915985e+02   4.2674546893e+00   0.01157348  0.007995708 -54.84 0.0006685354    1.448    0.310
       208  -8.2292    231.2699    177.3404   2.9025239650e+02   4.3353494461e+00     0.010994  0.008062829  85.40 0.0005694862    1.699    0.411
       209  -8.5542    205.1810    177.6601   2.9056158885e+02   4.4916262450e+00   0.01374799  0.009993319  76.34 0.0009667611    1.732    0.423
       210  -8.5711    129.1354    177.3977   2.9145643701e+02   4.9601378609e+00   0.01425625  0.009421366  65.78 0.0009520054    1.959    0.489
       211  -8.3064    217.4841    177.1635   2.9041364978e+02   4.4219064142e+00   0.01081769  0.008817274  54.92 0.0005805112    1.305    0.234
       212  -9.1619    183.1309    176.2417   2.9081275926e+02   4.6429858280e+00   0.01324855   0.01074437 -85.91 0.0006000903    1.395    0.283
       213  -8.5569     89.1302    177.0487   2.9192632269e+02   5.2085060140e+00   0.01312918  0.007713269  53.21 0.0008483476    2.004    0.501
       214  -9.9329     57.2375    173.3130   2.9228008954e+02   5.4458827130e+00   0.03948663   0.02092764  76.83  0.002712888    4.170    0.760
       215  -8.9215     12.5818    176.4208   2.9282619103e+02   5.6820266486e+00   0.01591451   0.01020834  74.69 0.0009629055    2.220    0.549
       216  -8.2255    211.5231    175.9798   2.9047664431e+02   4.4720188145e+00    0.0101089  0.006650114 -63.13 0.0006028159    1.565    0.361
       217  -9.1753    158.9167    175.1959   2.9109182715e+02   4.8032317093e+00    0.0191229   0.01116055  59.06  0.001251576    2.256    0.557
       218  -9.0566    104.3422    174.7488   2.9173283728e+02   5.1420262634e+00   0.02437611   0.01163795  54.38  0.001886242    2.939    0.660
       219 -10.5048     76.1457    171.3300   2.9204484157e+02   5.3533597199e+00   0.05029181   0.02318402 -82.97  0.003161976    4.816    0.792
       220  -8.9518     74.9279    160.1939   2.9199157408e+02   5.4885886341e+00   0.03442761   0.01552764   7.24  0.002133428    4.745    0.789
       221  -8.1901    224.3971    174.2801   2.9031466630e+02   4.4125738579e+00  0.009049471  0.006531464 -78.96 0.0006137904    1.599    0.375
       222  -9.4061    175.7229    172.3278   2.9087623853e+02   4.7332403583e+00   0.01608696   0.01118922 -68.49 0.0008057026    1.536    0.349
       223  -8.4581    143.1840    172.8785   2.9126324808e+02   4.9260762537e+00     0.013247  0.009326537  66.81 0.0008987678    1.760    0.432
       224  -8.4266    134.7765    171.9277   2.9135662711e+02   4.9884028007e+00   0.01204768  0.009215056  82.65 0.0008227324    1.580    0.367
       225  -9.5763    121.4212    170.5778   2.9150596464e+02   5.0855386998e+00   0.01851287   0.01289987  77.66  0.001027284    1.882    0.469
       226  -8.9806     45.0955    171.1234   2.9241015698e+02   5.5449879233e+00   0.01813968   0.01178187  86.71  0.001192273    2.140    0.533
       227  -9.2647    230.5433    169.9135   2.9021567377e+02   4.4249316821e+00     0.016793   0.01283259 -82.49  0.001820969    1.504    0.335
       228  -8.1049    205.9813    170.3559   2.9050765418e+02   4.5704647511e+00   0.01225663  0.009004423  74.07  0.001044606    1.689    0.408
       229  -8.0876    237.0809    169.8051   2.9013804196e+02   4.3860723874e+00   0.01030241  0.008563397  54.62 0.0005130615    1.270    0.213
       230  -8.2358    198.3026    170.0841   2.9059646638e+02   4.6206434150e+00  0.009347695  0.008598221 -77.66 0.0005158283    1.142    0.124
       231  -9.2613    167.1223    168.7977   2.9095613199e+02   4.8263885265e+00    0.0169707   0.01097473  50.23  0.001030129    1.684    0.406
       232  -8.6072    149.7171    169.5634   2.9116602614e+02   4.9241360360e+00   0.01330774  0.009505577  70.78 0.0008090634    1.755    0.430
       233  -8.1662    244.3919    169.2058   2.9004832415e+02   4.3480874704e+00  0.009284605  0.006493819 -80.54 0.0005496098    1.698    0.411
       234  -8.3883    218.7912    168.3551   2.9034456790e+02   4.5148666841e+00   0.01078743  0.009126429 -89.45 0.0005038517    1.319    0.242
       235  -8.6370    111.8390    167.7402   2.9160176971e+02   5.1766517427e+00   0.01880468  0.009626611  58.58  0.001301533    2.925    0.658
       236  -7.8675     88.7926    168.8551   2.9188052928e+02   5.3045947766e+00  0.009514325  0.007669528  63.57 0.0006862716    1.385    0.278
       237  -7.8660    211.2714    168.0279   2.9043114721e+02   4.5647245850e+00  0.009494781  0.008525092 -64.72  0.000512175    1.145    0.127
       238  -8.7793    192.0099    166.7195   2.9065011675e+02   4.6977827797e+00   0.01319594   0.01059168  81.26 0.0008866514    1.455    0.313
       239  -8.9105    185.0107    166.5866   2.9073179564e+02   4.7421908863e+00   0.01238303  0.009370618  87.26 0.0006466763    1.597    0.374
       240  -9.1228     20.2259    166.0067   2.9267280353e+02   5.7550873228e+00   0.01891306   0.01114646  75.11  0.001574942    2.760    0.638
       241  -9.8443    136.8319    164.5159   2.9128728608e+02   5.0608619136e+00   0.02913965   0.01160539  46.36  0.002171895    2.914    0.657
       242 -10.0190     94.9885    162.7458   2.9177026941e+02   5.3368779004e+00   0.04135657   0.02228764  69.64  0.003092219    3.453    0.710
       243  -8.3612    233.8490    165.0646   2.9014718497e+02   4.4602286783e+00   0.01045496  0.008719224  67.48 0.0006542723    1.335    0.251
       244  -8.8348    159.4846    164.4504   2.9101971650e+02   4.9230060231e+00   0.01397747   0.01098459  62.17 0.0008387988    1.430    0.301
       245  -9.4514     33.4939    163.4380   2.9250053063e+02   5.7038411310e+00   0.02738268   0.01289069  53.45   0.00212295    2.917    0.657
       246  -8.5152    240.0276    164.0590   2.9006830939e+02   4.4338472092e+00   0.01005827  0.009869286 -15.02 0.0005080292    1.025    0.024
       247  -8.5916    213.0420    163.8272   2.9038468504e+02   4.6020247233e+00   0.01150687   0.00961351 -72.76 0.0007491758    1.271    0.213
       248  -9.1390    245.8588    162.0633   2.8998749302e+02   4.4209360028e+00   0.02190459   0.01042292 -71.62  0.001777393    2.646    0.622
       249  -9.6835      3.4151    162.3401   2.9284913218e+02   5.8993783301e+00   0.02335047   0.01150388  48.50  0.001951436    2.328    0.570
       250  -9.0460    177.5012    160.8845   2.9078557635e+02   4.8535802654e+00   0.01527739   0.01071689  71.97 0.0009175535    1.827    0.453
       251  -8.6076    151.6453    161.0252   2.9109131130e+02   5.0102746289e+00   0.01209499  0.009875563  70.73 0.0009196726    1.394    0.283
       252  -8.3447     60.6689    160.4247   2.9216133344e+02   5.5728905591e+00   0.01355872   0.00953655  71.40  0.001361215    1.810    0.448
       253  -8.4523    227.1682    158.8496   2.9018795235e+02   4.5724442707e+00   0.01449619  0.009462959 -87.39   0.00104599    2.035    0.509
       254  -9.5708    250.2052    157.7544   2.8991004680e+02   4.4436351752e+00   0.01630348  0.009534051 -64.77 0.0008337883    1.795    0.443
       255  -8.6680    204.8523    162.8492   2.9047520563e+02   4.6634474584e+00   0.01139956  0.009183378 -76.69 0.0005549176    1.354    0.262
       256  -8.4087    196.8034    158.2330   2.9054191092e+02   4.7657105068e+00   0.01306924  0.009372993  58.13 0.0008635842    1.592    0.372
       257  -8.1505    128.2307    159.1012   2.9135580903e+02   5.1755781923e+00   0.01299868  0.007646464  52.40 0.0007990618    1.973    0.493
       258  -9.4117    105.8021    158.0904   2.9161433212e+02   5.3242527158e+00   0.02007861   0.01210844  62.24  0.001148748    2.237    0.553
       259  -8.0368    188.1864    158.1153   2.9064274933e+02   4.8198704781e+00  0.009302131  0.007746781  69.54  0.000510698    1.346    0.257
       260  -9.1149    167.5404    157.3759   2.9088164111e+02   4.9548225480e+00   0.01535978   0.01146039  65.89   0.00102994    1.585    0.369
       261  -8.1369    218.0181    156.9600   2.9028419881e+02   4.6502296775e+00   0.01085468  0.007766433  66.74 0.0007245616    1.711    0.416
       262  -9.2253    157.4351    155.9632   2.9099220321e+02   5.0328963030e+00   0.01656153    0.0119193 -73.89  0.001063053    1.541    0.351
       263  -9.1436    119.5039    155.3029   2.9143567068e+02   5.2725059303e+00   0.01836518   0.01221874  76.29  0.001751665    2.065    0.516
       264  -9.2319     81.7991    155.0786   2.9187936493e+02   5.5053673357e+00   0.02237633   0.01302265  60.08  0.001389075    2.310    0.567
       265  -9.1458     49.4311    155.2051   2.9226234778e+02   5.7012797376e+00   0.01832556   0.01155994  66.15   0.00169628    2.152    0.535
       266  -8.5583    242.8141    154.8678   2.8997943861e+02   4.5220752909e+00   0.01251528  0.008812628  49.75 0.0004068764    1.509    0.337
       267  -7.8568    239.7297    153.3284   2.9000635960e+02   4.5586460469e+00  0.009091668  0.005811881  26.06 0.0003091499    1.546    0.353
       268  -7.8191    204.7979    155.5682   2.9043146128e+02   4.7472530233e+00  0.009425729  0.005854474  40.54 0.0004139768    1.589    0.371
       269  -8.0858    144.6228    155.0618   2.9113783469e+02   5.1216497933e+00   0.01050392  0.008213227  79.81 0.0009593298    1.522    0.343
       270  -9.6613    132.8703    152.9651   2.9126372191e+02   5.2175969715e+00   0.02122879   0.01552912  69.74  0.001236533    1.673    0.402
       271  -8.8682    133.5937    148.2264   2.9122633899e+02   5.2675292254e+00   0.01546472  0.009306621 -58.31  0.001063157    1.661    0.398
       272  -9.1238     67.7885    153.8323   2.9203722190e+02   5.6051379644e+00   0.02024135   0.01229369  67.84  0.001338136    2.384    0.581
       273  -8.2896    232.9818    154.0285   2.9009008486e+02   4.5920322131e+00   0.01084453   0.00768663  61.99 0.0005725117    1.677    0.404
       274  -8.1100    151.5545    152.9816   2.9104340354e+02   5.1030890838e+00  0.009989315  0.006655586 -65.01  0.000604485    1.566    0.361
       275  -9.6594     20.4307    152.6876   2.9258961122e+02   5.9067212586e+00    0.0142183  0.008977797  49.82  0.000850339    1.727    0.421
       276  -8.2552    182.6315    151.5106   2.9066797723e+02   4.9296399517e+00   0.01118803  0.008046542  84.47 0.0007971314    1.764    0.433
       277  -9.6357     29.3791    150.7997   2.9247244990e+02   5.8739438898e+00   0.02421446   0.01309717  62.77  0.001943449    2.881    0.653
       278  -9.4340    248.8915    149.5021   2.8987515480e+02   4.5462556241e+00   0.01665228   0.01098134 -65.15   0.00076769    1.586    0.369
       279  -8.7224    247.0177    144.0064   2.8986367332e+02   4.6207275056e+00    0.0111189  0.009475634 -59.82 0.0005186108    1.195    0.163
       280  -8.2570    243.2019    150.0767   2.8994564061e+02   4.5745973847e+00    0.0147461   0.00893598 -72.13 0.0009245048    1.894    0.472
       281  -8.7544    189.4647    150.5136   2.9058135114e+02   4.8991957886e+00   0.01381196   0.01057575  70.59 0.0009540704    1.551    0.355
       282  -7.5275    175.3587    151.6758   2.9075472793e+02   4.9723041352e+00  0.007282694  0.004908678  59.57 0.0007043979    1.776    0.437
       283  -8.3704    162.7276    150.8333   2.9089853868e+02   5.0593252826e+00  0.009527023  0.007645956  62.66  0.001047769    1.389    0.280
       284  -7.4121    146.6264    151.6923   2.9109368313e+02   5.1480371390e+00  0.007209658  0.005006863 -21.61 0.0007031668    1.771    0.435
       285  -8.5469     98.3809    150.6912   2.9165692987e+02   5.4544798853e+00   0.01423224   0.01015163  65.57  0.001085235    1.705    0.413
       286  -8.1969    237.2483    150.4278   2.9001787966e+02   4.6071144416e+00  0.009277345  0.005989118  38.79 0.0003305751    1.513    0.339
       287  -8.2872    212.9978    150.0053   2.9030092792e+02   4.7607391403e+00   0.01064419  0.007696876  61.87 0.0004369603    1.622    0.384
       288  -9.8953     39.8658    147.4544   2.9232826789e+02   5.8484956588e+00   0.03072694   0.02053612  84.13  0.002242368    2.037    0.509
       289  -8.4384    198.8509    149.0483   2.9046178931e+02   4.8584599327e+00   0.01043581  0.008636733  65.64 0.0005055111    1.342    0.255
       290  -9.9064     89.0474    146.1888   2.9173973985e+02   5.5631312595e+00     0.031833   0.01779982  75.41  0.002449647    3.289    0.696
       291  -8.7728    233.3672    147.7180   2.9004704794e+02   4.6619855503e+00   0.01252571  0.008189447 -58.68 0.0005818826    1.538    0.350
       292  -8.8290     78.0638    147.1726   2.9187541345e+02   5.6188801783e+00   0.01266218  0.008420502  75.04 0.0008006818    2.058    0.514
       293 -10.2329     54.4848    143.9692   2.9213441797e+02   5.7994309030e+00   0.04096545   0.02315278  76.62  0.002769879    3.187    0.686
       294  -9.1448     57.2219    135.5889   2.9205116302e+02   5.8789121086e+00   0.01705378  0.008690784   7.35  0.001300637    3.057    0.673
       295  -8.0161    223.4728    146.9077   2.9015863621e+02   4.7319862977e+00  0.009576253  0.006623026 -62.20 0.0002828366    1.480    0.324
       296 -10.1739    148.9250    144.9763   2.9102566418e+02   5.2109988598e+00   0.02525709   0.01547692  68.39  0.001775021    2.355    0.575
       297  -9.7790    139.1705    144.9820   2.9114078156e+02   5.2706270139e+00   0.02398511   0.01481577  88.41  0.001770768    2.374    0.579
       298 -10.1364    106.5408    144.1106   2.9152057199e+02   5.4801325520e+00   0.03410302   0.01975527  72.46  0.002147929    2.850    0.649
       299  -9.6626     13.0487    145.8143   2.9263512907e+02   6.0305050539e+00   0.02184347   0.01363722  70.62  0.001574455    2.302    0.566
       300  -8.1038    206.7230    146.5647   2.9035387715e+02   4.8386610403e+00  0.009054876  0.006031068  39.03 0.0004482557    1.469    0.319
       301  -8.4037    175.6588    146.1513   2.9071752184e+02   5.0338137723e+00   0.01183182  0.008613828  44.02 0.0008940933    1.386    0.279
       302 -10.1552      2.8004    141.9457   2.9273275560e+02   6.1372035827e+00   0.03173353    0.0163541 -80.69  0.002506999    2.978    0.664
       303  -8.1358    242.7050    143.3111   2.8991020299e+02   4.6551706656e+00  0.009596691  0.007699157 -30.74 0.0006066707    1.346    0.257
       304  -8.8489    165.5471    144.2003   2.9082487302e+02   5.1181266765e+00   0.01341437  0.009721749  47.12 0.0007043364    1.426    0.299
       305  -9.7447    125.0113    142.7408   2.9129422011e+02   5.3829442423e+00   0.02483338   0.01510566  79.58  0.001577514    2.573    0.611
       306 -10.6994     68.8583    141.5115   2.9194971406e+02   5.7399976033e+00   0.03251133   0.02026543 -72.20  0.002645409    1.821    0.451
       307  -7.9492    194.2277    144.1728   2.9048655119e+02   4.9426973202e+00  0.009444508  0.007620655  63.68 0.0005455997    1.384    0.278
       308  -8.4506    182.0461    141.6549   2.9061480290e+02   5.0462319669e+00    0.0125734   0.00931922  88.06 0.0006343239    1.653    0.395
       309  -7.9144    250.3383    141.0203   2.8980635587e+02   4.6345520761e+00  0.009238149  0.008598177 -64.67 0.0004939704    1.103    0.094
       310  -9.0863    134.3502    140.3187   2.9116926072e+02   5.3536066631e+00   0.01583656   0.00677044 -69.27  0.001215329    2.871    0.652
       311  -9.7467     23.7851    138.4702   2.9246370670e+02   6.0494877973e+00   0.02912975   0.01529213  58.84  0.002110038    2.780    0.640
       312  -8.5453    172.1235    138.1659   2.9071053648e+02   5.1470372304e+00   0.01165429  0.009750455  83.68 0.0005847655    1.355    0.262
       313  -7.7397    218.4870    138.5906   2.9016662642e+02   4.8578997753e+00  0.006628307  0.006371247  28.38 0.0001415818    1.020    0.019
       314  -8.1647    207.2196    137.9239   2.9029532100e+02   4.9346637084e+00   0.01030164  0.008743443  63.59 0.0007895823    1.283    0.221
       315  -8.5683    197.5035    137.5907   2.9040779854e+02   4.9980694690e+00   0.01264953   0.01042401  86.70 0.0007585856    1.385    0.278
       316 -10.3179     83.4509    132.8755   2.9172485386e+02   5.7500459342e+00   0.02708497   0.01647832 -79.89  0.001399786    2.108    0.526
       317  -8.2173    162.5298    136.5172   2.9081363665e+02   5.2247109235e+00   0.01167869  0.008420626  63.46 0.0005707644    1.650    0.394
       318  -8.6081    150.8565    136.2569   2.9094975647e+02   5.2991755627e+00   0.01648526   0.01014677  -3.40  0.001467398    2.309    0.567
       319  -8.7199    140.3200    137.1143   2.9107929847e+02   5.3538333500e+00   0.01182103  0.009205595   6.82 0.0008609841    1.399    0.285
       320  -9.1533     39.1012    136.1154   2.9226844209e+02   5.9832785154e+00   0.01448569   0.01106491  87.88 0.0007945198    1.566    0.362
       321  -8.8992    250.7233    130.1804   2.8973564287e+02   4.7563753235e+00   0.01963071  0.006128597 -60.64   0.00140355    3.149    0.682
       322  -8.8558    248.3933    135.2168   2.8979382407e+02   4.7129862011e+00   0.01486593   0.01107006 -74.98 0.0007448375    1.487    0.328
       323  -8.4412    246.8340    130.7449   2.8978487995e+02   4.7737943707e+00   0.01255041  0.009779594 -73.42 0.0006839946    1.389    0.280
       324  -7.6519    187.6241    135.7579   2.9051308158e+02   5.0796515428e+00  0.008961234  0.006486516 -77.22 0.0004120567    1.571    0.363
       325  -7.9711    237.5174    133.7160   2.8991272127e+02   4.7969608966e+00   0.00907406  0.006599695 -82.92 0.0009367745    1.628    0.386
       326  -8.0631    231.3761    133.8533   2.8998588725e+02   4.8330877999e+00  0.009318015  0.005895094 -49.33 0.0002699465    1.595    0.373
       327  -8.3947    179.3520    134.0169   2.9059999947e+02   5.1503149357e+00   0.01201801  0.008762208  55.59 0.0008671884    1.521    0.343
       328  -8.9895    112.6530    133.2309   2.9138219827e+02   5.5675889027e+00   0.01430737   0.01043487  73.37 0.0007577115    1.707    0.414
       329  -9.0537    143.0486    131.8538   2.9101505242e+02   5.3974657145e+00   0.01554526   0.01117683  71.88 0.0008135504    1.743    0.426
       330 -10.1620    132.1288    131.3447   2.9114081723e+02   5.4701251642e+00   0.02369613   0.01614385  81.12  0.001035726    1.974    0.493
       331 -10.6115     98.5805    130.8869   2.9153408311e+02   5.6804702401e+00   0.02814801   0.01543172 -70.01  0.001946584    2.082    0.520
       332  -9.8268     73.0955    129.1537   2.9182452669e+02   5.8559416101e+00   0.02227134   0.01450761  89.82   0.00138844    2.086    0.521
       333 -10.2381     12.8255    128.8678   2.9253493190e+02   6.2263481115e+00   0.03040447   0.01809373  89.53  0.002630224    2.557    0.609
       334  -7.7486    220.6636    130.2707   2.9009021186e+02   4.9398938800e+00  0.006944508  0.004905687  56.17 0.0005781202    1.598    0.374
       335  -7.8673    204.5623    130.5040   2.9028136935e+02   5.0360102685e+00  0.006637718  0.006417861  50.49  0.000215194    1.047    0.045
       336  -8.1636    192.8369    130.1896   2.9041766383e+02   5.1115257022e+00   0.01020764  0.008832175  61.59 0.0004784176    1.239    0.193
       337  -9.3838    168.0395    129.3991   2.9070525685e+02   5.2725786105e+00   0.01833445   0.01055995  47.63 0.0009606322    1.874    0.466
       338  -9.5042    152.7672    128.7797   2.9088164548e+02   5.3732228067e+00   0.01917392   0.01287784 -81.17 0.0009084968    1.819    0.450
       339  -8.3395    240.3463    145.2307   2.8994968990e+02   4.6476535497e+00     0.010094  0.009068361 -29.09 0.0003601561    1.154    0.134
       340  -8.1704    211.6522    129.1330   2.9018944954e+02   5.0082294759e+00   0.01051251  0.008291696  82.79 0.0006574244    1.498    0.333
       341 -10.4848     59.8871    125.0810   2.9195579809e+02   5.9832306034e+00   0.03550949   0.02073544  70.56  0.002431523    2.723    0.633
       342 -10.5449     45.0601    123.7284   2.9212276890e+02   6.0891178155e+00   0.05394102   0.02847408  71.42  0.003813941    3.904    0.744
       343  -9.9840    118.0517    125.0240   2.9126848692e+02   5.6287200296e+00   0.02832013   0.02035305  79.27  0.001887615    1.775    0.437
       344  -8.5634    228.5215    125.3232   2.8996744120e+02   4.9483560358e+00   0.01229659  0.006838734 -68.84 0.0008100848    2.009    0.502
       345  -9.0564    179.2138    124.8913   2.9054597634e+02   5.2557838708e+00   0.01570468   0.01064299  46.52 0.0008726907    1.529    0.346
       346 -10.4331     28.2941    121.2728   2.9230598758e+02   6.2193913259e+00   0.04771936   0.02860578 -85.51  0.003756141    2.355    0.575
       347  -7.7510    243.5825    124.4970   2.8978501388e+02   4.8653420031e+00  0.006536772  0.006479842  11.46 6.924499e-05    1.014    0.014
       348  -7.7517    188.5313    124.0288   2.9043084294e+02   5.2085486964e+00  0.009098815  0.005768281  79.54 0.0005537117    2.321    0.569
       349  -9.1282    158.6806    121.5795   2.9076798248e+02   5.4195690291e+00   0.01636948   0.01184734  72.31 0.0009826507    1.725    0.420
       350  -7.8196    154.3094    123.3249   2.9083019724e+02   5.4263283207e+00  0.007035526  0.005002205 -26.20 0.0003638408    1.654    0.395
       351 -10.0533    131.6491    119.3708   2.9107352604e+02   5.6103838584e+00   0.03245668   0.01685347  64.78  0.002126661    3.456    0.711
       352  -7.8244    203.1590    122.1562   2.9024697007e+02   5.1402974336e+00  0.009224914  0.007697093  65.12 0.0004674088    1.323    0.244
       353  -7.8972    195.1555    122.2039   2.9034160922e+02   5.1888447044e+00  0.009347044  0.007641531  67.80 0.0004859848    1.379    0.275
       354  -8.5368    171.9428    121.6104   2.9061171971e+02   5.3379604421e+00   0.01183219  0.009793504 -75.16 0.0003855834    1.299    0.230
       355  -8.7214    100.2049    120.0797   2.9144911008e+02   5.7945167632e+00   0.02309647   0.01176437   3.46  0.001672174    3.501    0.714
       356  -9.5656     71.1160    119.6692   2.9179021715e+02   5.9768316538e+00    0.0219634   0.01241566 -78.07  0.001411734    2.321    0.569
       357  -9.3009    243.6285    119.3086   2.8975278586e+02   4.9244988567e+00   0.01550862   0.00843194  50.89 0.0009930409    2.145    0.534
       358  -9.8480    141.4360    118.2379   2.9095110220e+02   5.5634796831e+00   0.02536189   0.01464907 -77.71    0.0013794    2.226    0.551
       359  -9.6855      3.1933    117.5404   2.9258002377e+02   6.4148845735e+00   0.02551469   0.01482932  72.21  0.002110366    2.808    0.644
       360  -7.4771    231.4920    117.5257   2.8988483869e+02   5.0194603039e+00    0.0066516  0.006445594  39.99 0.0003810154    1.029    0.028
       361  -9.8291    109.2673    114.3637   2.9130727637e+02   5.8046929819e+00   0.02187344   0.01452049  74.53  0.001359419    2.064    0.516
       362  -8.6033    108.9824    108.0320   2.9127206621e+02   5.8790497883e+00   0.01492433  0.009065308 -26.93  0.001217923    2.171    0.539
       363  -8.4024     58.5402    115.7823   2.9191516274e+02   6.0981243478e+00   0.01566735  0.009309605   0.33  0.001359489    2.408    0.585
       364  -7.9088    192.9668    115.3026   2.9032529886e+02   5.2813698408e+00   0.00903449  0.008657812  26.64 0.0004365709    1.021    0.021
       365  -7.7173    153.3041    115.6832   2.9079546697e+02   5.5201044059e+00  0.006945822  0.005021167  61.96  0.000428551    1.624    0.384
       366  -9.9636     78.8197    112.5317   2.9165576661e+02   6.0116958008e+00   0.02700381   0.01729897  68.62  0.001756163    2.141    0.533
       367  -8.8482     78.8871    105.1677   2.9161014081e+02   6.0957511832e+00   0.01660865    0.0104495   1.96  0.001013376    2.088    0.521
       368  -8.3176    167.3923    114.2375   2.9062042742e+02   5.4503713353e+00  0.009107604  0.006525241 -78.57 0.0004969047    1.611    0.379
       369 -10.0302     92.7139    112.5798   2.9149192060e+02   5.9263048520e+00   0.02321349   0.01528356 -86.20  0.001224397    1.977    0.494
       370  -8.9964     93.7476    104.6907   2.9143166402e+02   6.0104736752e+00   0.02915729   0.01457167  -0.36  0.001912581    4.366    0.771
       371  -8.6012    159.2856    112.0226   2.9070256208e+02   5.5254358145e+00   0.01309274   0.01068924  83.17 0.0008337431    1.412    0.292
       372 -10.0110    133.7313    109.3895   2.9098810814e+02   5.7121005662e+00   0.02839672   0.01526481 -75.37   0.00200032    2.394    0.582
       373 -10.0179    128.5423    102.1860   2.9100545378e+02   5.8264528684e+00   0.01686576   0.01306484  85.39  0.001024701    1.540    0.351
       374  -9.9620    121.6511    112.1188   2.9114736583e+02   5.7547141090e+00   0.01984309   0.01377597  80.54  0.001051569    1.900    0.474
       375  -9.5239     14.1865    111.2419   2.9241181166e+02   6.4203175571e+00   0.01940276   0.01270494  84.20  0.001550102    2.128    0.530
       376 -10.4908    248.4531    108.7483   2.8963146320e+02   5.0158248638e+00   0.02228854   0.01401428 -59.33  0.002246952    1.601    0.375
       377  -9.9251     66.2642    110.2757   2.9179038977e+02   6.1141882809e+00   0.02100838   0.01541805  87.69  0.001697796    1.682    0.406
       378  -8.5813     67.3430    105.3209   2.9174748660e+02   6.1644424364e+00   0.01239048   0.00823295   9.97  0.001224346    1.734    0.423
       379  -8.7892     43.2012    109.5225   2.9205837352e+02   6.2634261847e+00   0.01713084  0.006854599  23.05  0.001310759    2.725    0.633
       380  -8.1912    189.4393    108.0087   2.9032237502e+02   5.3866036653e+00  0.009948773  0.006650474 -65.28 0.0006321289    1.564    0.361
       381  -9.2462    140.0206    104.6911   2.9088521458e+02   5.7274740763e+00   0.01712315   0.01175965  69.12 0.0008083456    1.872    0.466
       382 -10.5072     45.6991    102.5561   2.9198647738e+02   6.3281219294e+00    0.0390067   0.02073831  63.12  0.003057701    3.051    0.672
       383 -10.6298     22.9747    102.7906   2.9225655442e+02   6.4638106915e+00   0.03971709   0.02245925  70.20  0.002850939    2.971    0.663
       384  -7.5496    205.3220    105.6531   2.9012072933e+02   5.3161514288e+00   0.00716942   0.00499069  62.70 0.0007049562    1.738    0.425
       385  -8.5702    166.7942    104.2588   2.9056660332e+02   5.5684276895e+00    0.0111122  0.009108399 -86.23 0.0005870961    1.374    0.272
       386  -9.4917    150.5916    103.2716   2.9075178124e+02   5.6790158105e+00   0.01862641    0.0126157  78.94  0.001002568    2.000    0.500
       387 -10.3324    109.0970     98.9785   2.9121554210e+02   5.9821704160e+00   0.04505897   0.01648253  48.83  0.002309118    3.791    0.736
       388  -8.9983    108.1583     92.5169   2.9118724421e+02   6.0620017743e+00   0.02217789   0.01228841   5.96  0.001768388    2.586    0.613
       389  -8.8495      6.7845    103.1236   2.9245001167e+02   6.5584642384e+00   0.01524236   0.01043308  80.97  0.001446059    1.952    0.488
       390  -8.6487    174.5663    111.8454   2.9052120445e+02   5.4338241337e+00   0.01287275   0.00982571  60.59 0.0007208677    1.480    0.324
       391  -7.5597    175.6456    102.2968   2.9045020345e+02   5.5366574476e+00  0.007147019  0.004906512  57.80 0.0004555598    1.694    0.410
       392  -8.2672    159.6938    101.1675   2.9063152331e+02   5.6473743231e+00   0.01016282  0.008245944  87.98 0.0003672733    1.418    0.295
       393  -9.0965     82.1548    100.1491   2.9154097033e+02   6.1333619483e+00   0.01643292   0.01162208  76.81 0.0009331891    1.826    0.452
       394  -9.1685     95.0240     97.0416   2.9136998605e+02   6.0903951133e+00   0.01414773    0.0106682 -84.89 0.0006214201    1.555    0.357
       395  -9.8818     63.9340     95.9093   2.9173048634e+02   6.2931873743e+00   0.02603574   0.01532864  73.63  0.001827849    2.750    0.636
       396  -8.1469    150.8294     95.7862   2.9070330763e+02   5.7633695396e+00   0.01233169  0.006568589 -26.73 0.0009619453    2.931    0.659
       397  -8.1412    176.3251     93.4498   2.9038818221e+02   5.6338851432e+00   0.01119032  0.008042671  84.31 0.0006640735    1.768    0.434
       398  -8.1067    164.9707     94.3032   2.9052736194e+02   5.6937161256e+00  0.009196873  0.008608537  36.86 0.0004407449    1.053    0.051
       399  -9.2985    139.0340     92.2663   2.9082107862e+02   5.8759581380e+00   0.02011106   0.01356346  80.65 0.0006771242    2.018    0.504
       400  -9.2077     45.5111     93.1372   2.9193139545e+02   6.4373041245e+00   0.02253706   0.01227694   7.69  0.001875607    2.576    0.612
       401  -7.7521    188.5252     93.4880   2.9024450302e+02   5.5586178694e+00  0.006667464  0.006428125  45.66 0.0002865755    1.042    0.041
       402  -9.2853    120.4090     93.1852   2.9104661753e+02   5.9794140356e+00   0.01361465  0.009122035  43.11 0.0009326097    1.502    0.334
       403 -10.1883    124.7016     91.1350   2.9098341899e+02   5.9766557735e+00   0.02399363   0.01882688 -87.24 0.0009757304    1.476    0.322
       404  -9.5324      5.2481     92.0328   2.9240079049e+02   6.6950300499e+00   0.02133939   0.01166796  52.18  0.001319994    2.188    0.543
       405  -7.9348    157.7908     91.7939   2.9059677922e+02   5.7664797770e+00  0.009367499  0.007630446  62.46 0.0004116404    1.357    0.263
       406  -9.5979     34.7857     89.9063   2.9203854924e+02   6.5396992043e+00   0.02299507   0.01394985  84.04  0.001540371    2.558    0.609
       407  -9.0160     23.2082     90.1786   2.9217711275e+02   6.6070582032e+00   0.01567962   0.01141885  17.79  0.001283681    1.422    0.297
       408  -8.0292    150.8604     89.3230   2.9066350173e+02   5.8372636347e+00  0.009305649  0.008390542 -86.75 0.0005888962    1.191    0.161
       409  -8.8432     64.8627     87.8261   2.9167029116e+02   6.3802226264e+00   0.01899623   0.01055358  -9.15    0.0014561    3.200    0.688
       410  -9.9005     86.3626     86.3020   2.9140688955e+02   6.2664578591e+00   0.02427264   0.01705639 -89.70  0.001199381    1.800    0.444
       411  -9.8122     48.4256     84.1162   2.9184203088e+02   6.5230009589e+00    0.0267378   0.01762856  80.79  0.002118948    2.116    0.527
       412  -8.4198    157.8877     84.1062   2.9054871048e+02   5.8539959765e+00   0.01007558  0.008858001  65.43 0.0003916187    1.225    0.183
       413  -9.0619    140.8246     82.5666   2.9074075063e+02   5.9761778906e+00    0.0170092  0.009648861 -69.61 0.0009309038    1.984    0.496
       414  -9.6660    104.6835     83.1443   2.9117115349e+02   6.1907057363e+00   0.01916904    0.0136794  87.71 0.0009366713    1.772    0.436
       415  -8.8336    105.4041     77.3589   2.9112735891e+02   6.2526253504e+00    0.0165719   0.01034253   9.59  0.001568709    1.929    0.482
       416  -9.2381     10.2678     81.4770   2.9227724735e+02   6.7855801144e+00   0.02282387   0.01156836  56.73  0.001737346    2.819    0.645
       417  -9.6846     24.5758     80.3891   2.9210139157e+02   6.7110098109e+00   0.02456769   0.01504917  85.97  0.001345378    2.466    0.594
       418  -8.2261    150.1771     80.7095   2.9061899460e+02   5.9401730071e+00   0.01132276  0.009021576 -81.67 0.0006673332    1.408    0.290
       419  -8.6941    119.3211     80.6316   2.9098290294e+02   6.1299869780e+00    0.0137938   0.01004091  67.62 0.0007567578    1.670    0.401
       420  -8.7648     74.4272     80.5458   2.9151288262e+02   6.4053383118e+00   0.01475503   0.01126688  83.92  0.001051028    1.583    0.368
       421  -8.2577    166.7177     79.7607   2.9041796140e+02   5.8496673267e+00   0.01121603  0.007862559 -57.30 0.0004602237    1.434    0.302
       422  -9.2748     65.3256     77.6797   2.9160301762e+02   6.4937466870e+00    0.0144657   0.01205458 -86.47  0.001351936    1.340    0.254
       423  -9.8664     63.4003     73.6452   2.9160120086e+02   6.5517501379e+00   0.02415727   0.01373538 -75.99  0.001601591    2.209    0.547
       424  -7.9672    183.7363     78.6345   2.9021027068e+02   5.7581901881e+00  0.007029132  0.004874473 -32.03  0.000398132    1.646    0.393
       425  -8.3472     91.7411     78.8264   2.9129776258e+02   6.3193121898e+00   0.01517983  0.005448204  20.26  0.001010615    3.631    0.725
       426  -9.3233    127.9797     75.4047   2.9084873610e+02   6.1369112280e+00   0.01628913   0.01226849  83.55 0.0007183311    1.624    0.384
       427  -8.0815    157.3271     76.2363   2.9050727878e+02   5.9476200211e+00  0.009209175  0.006312368 -75.80 0.0004171479    1.674    0.403
       428  -8.5053    140.5569     75.3623   2.9069994139e+02   6.0603869091e+00   0.01156989  0.009261127  80.65 0.0006104314    1.462    0.316
       429  -8.4532    163.4473     73.2836   2.9041700366e+02   5.9439362808e+00   0.01492966  0.006864129 -66.32  0.001059489    2.407    0.585
       430  -9.6123     82.3637     72.7729   2.9137169418e+02   6.4459954523e+00   0.01844263    0.0131704  75.43 0.0008209111    1.787    0.441
       431  -7.7185    151.3189     73.6591   2.9056247111e+02   6.0139742761e+00  0.007127051  0.004997484  62.51 0.0007049519    1.714    0.417
       432  -8.6053    115.7230     72.8201   2.9097775296e+02   6.2415410958e+00   0.01273313  0.009208249 -77.01 0.0006736135    1.570    0.363
       433  -8.1355     42.5271     73.0699   2.9184452851e+02   6.6856149841e+00  0.009959716  0.006665152 -64.41 0.0005365955    1.551    0.355
       434  -7.8886    175.5232     72.5097   2.9026975942e+02   5.8787474793e+00  0.006619905  0.006478077  24.96 0.0002952429    1.006    0.006
       435  -8.8283    105.9105     71.8182   2.9108757983e+02   6.3130419787e+00   0.01241579  0.009915473 -79.32 0.0007253527    1.388    0.280
       436  -9.1985     95.0809     71.1727   2.9121162359e+02   6.3866448294e+00   0.01609415   0.01153008  82.43 0.0008279991    1.784    0.439
       437  -8.9792     28.5079     70.9639   2.9199752448e+02   6.7951532792e+00   0.01912229    0.0115637 -20.18  0.001618116    2.365    0.577
       438  -8.3576     32.3044     68.3130   2.9193647840e+02   6.8024301848e+00   0.01223777   0.01085557 -25.21  0.001016343    1.180    0.152
       439  -9.4068     51.3466     69.5918   2.9171904143e+02   6.6717370191e+00   0.02281766   0.01381049 -86.68  0.001443755    2.351    0.575
       440  -8.9109     16.6547     70.1666   2.9213289296e+02   6.8764339952e+00    0.0146824   0.01056178  74.20 0.0009737384    1.756    0.431
       441  -8.6829    147.1128     68.3845   2.9057992501e+02   6.1001882586e+00   0.01228878  0.009654017 -78.53 0.0005520384    1.415    0.293
       442  -8.6290    138.6171     66.2234   2.9066705640e+02   6.1769972776e+00    0.0142757   0.01046628  77.55 0.0008254839    1.708    0.415
       443  -8.7525    121.6052     66.1729   2.9086769531e+02   6.2817318103e+00   0.01449079   0.01049264  74.53 0.0008306163    1.738    0.424
       444  -8.4688     84.2258     64.8012   2.9130107759e+02   6.5260051172e+00   0.02319815   0.01226701  -8.67  0.001614917    3.920    0.745
       445  -8.8140    110.1525     63.9601   2.9098951066e+02   6.3771647790e+00   0.01438444   0.01079957 -88.46 0.0008161105    1.595    0.373
       446  -8.5496     64.6319     63.6897   2.9152596987e+02   6.6583695362e+00   0.02303619   0.01251352 -15.11  0.001714002    3.423    0.708
       447  -8.8408     37.2095     64.1420   2.9185305725e+02   6.8203740455e+00   0.01644965   0.01091965  76.80  0.001218795    2.079    0.519
       448  -8.2061    158.2647     62.0000   2.9040925922e+02   6.1049902548e+00  0.009166072  0.008579756 -68.90 0.0002903978    1.104    0.094
       449  -9.2133     97.5845     60.7760   2.9111861494e+02   6.4905086496e+00   0.01558777    0.0111373  36.28 0.0009918781    1.359    0.264
       450  -9.5982     73.3056     59.4831   2.9139775904e+02   6.6536488654e+00   0.02067957   0.01227936 -77.84  0.001205823    2.129    0.530
       451  -8.2684    165.7128     60.4494   2.9031185831e+02   6.0770841322e+00   0.01880245  0.003911979  36.48  0.001167254    3.948    0.747
       452  -7.9080     88.9985     59.6909   2.9121348795e+02   6.5554205262e+00  0.009245181   0.00837251  30.22 0.0004604981    1.079    0.073
       453  -8.2917    147.0285     59.3405   2.9052568544e+02   6.2043300309e+00  0.009375472  0.008514113  32.68 0.0005300249    1.077    0.072
       454  -9.7556     23.4533     56.4616   2.9196903253e+02   6.9921878267e+00   0.02413413   0.01435168  76.65  0.002032579    2.724    0.633
       455  -8.3820    130.7645     58.0114   2.9070966469e+02   6.3191862375e+00   0.01031098  0.008721126  70.76 0.0006344093    1.318    0.241
       456  -9.4705      7.5110     57.3082   2.9216283441e+02   7.0794695889e+00   0.01717302   0.01189351  69.56   0.00101991    1.848    0.459
       457  -9.0958    139.9845     55.9163   2.9058796090e+02   6.2867196474e+00   0.01612969  0.009572137 -70.58  0.001159687    1.903    0.474
       458  -9.3184    118.9772     55.6263   2.9083436514e+02   6.4186733697e+00   0.01800979   0.01056432 -74.90  0.001662159    2.068    0.517
       459  -9.5184     54.3819     55.7126   2.9159857220e+02   6.8123353160e+00   0.01757555   0.01242811  89.05  0.001097288    1.791    0.442
       460  -8.7816     44.1154     55.5878   2.9171925390e+02   6.8763557884e+00   0.01365367  0.009973231  74.64 0.0008624176    1.710    0.415
       461  -8.3664    105.6758     53.1291   2.9097631428e+02   6.5286674638e+00   0.01127595  0.008737072  44.64 0.0005480815    1.303    0.233
       462  -9.5064     92.3435     50.6544   2.9111880996e+02   6.6385387075e+00   0.01892162   0.01206953 -78.96  0.001315196    1.928    0.481
       463  -8.0588    129.9523     49.7071   2.9066854454e+02   6.4193037738e+00   0.01166559  0.008716713 -88.55 0.0006497433    1.609    0.378
       464  -8.0937    144.6750     48.8554   2.9048942542e+02   6.3388690592e+00  0.009538841  0.006304338 -76.66 0.0006854169    1.779    0.438
       465  -7.4050    149.6961     48.7235   2.9042931800e+02   6.3096065207e+00  0.006729857  0.005051957 -22.00 0.0002554785    1.545    0.353
       466  -8.8183    120.8943     47.4407   2.9076172880e+02   6.5007264292e+00   0.01208866  0.009337592 -51.03  0.000500693    1.305    0.234
       467  -7.8071    135.9840     47.4869   2.9058372436e+02   6.4077948020e+00  0.009526998  0.006473949  27.51 0.0001930127    1.439    0.305
       468  -8.7272    133.0090     43.6165   2.9059522543e+02   6.4703544582e+00   0.01486308   0.01077098  84.06  0.001023637    1.742    0.426
       469  -8.4633    112.0448     46.9023   2.9086302318e+02   6.5610525227e+00    0.0112948  0.009701577 -72.77 0.0007416478    1.230    0.187
       470  -8.8836     81.9689     46.6453   2.9121701346e+02   6.7478711483e+00   0.01216846   0.00992751 -80.74 0.0006026385    1.356    0.263
       471  -8.5381     44.9015     44.6930   2.9164355428e+02   6.9964334074e+00   0.01216951  0.009696872 -79.44 0.0004557808    1.393    0.282
       472  -8.6114     16.7820     44.9215   2.9197770000e+02   7.1650618178e+00   0.01182374  0.009151581  83.77  0.000697859    1.547    0.353
       473  -8.1038     32.5515     44.4699   2.9178832625e+02   7.0742395100e+00   0.01234551  0.006606501  11.59  0.001032381    2.432    0.589
       474  -9.1729    250.3932     42.4903   2.8920340506e+02   5.7624424757e+00    0.0115001  0.008667865 -59.63   0.00125702    1.346    0.257
       475  -8.5911     92.7980     42.3567   2.9106279401e+02   6.7308375821e+00   0.01152559   0.01002016 -52.67  0.001347876    1.163    0.141
       476  -9.3735     69.5725     41.3097   2.9133106586e+02   6.8847089606e+00     0.022716   0.01429958 -85.65  0.001802968    2.144    0.534
       477  -9.0471     58.0906     42.5615   2.9147452109e+02   6.9404333192e+00   0.01294888  0.009391959  88.86 0.0009613105    1.713    0.416
       478  -9.3297      5.1199     41.7538   2.9209644617e+02   7.2722958824e+00   0.02145339   0.01221972 -81.70  0.001859359    2.460    0.593
       479  -8.6850    105.8230     41.3250   2.9090250944e+02   6.6630124140e+00   0.01117328  0.008977228 -80.61 0.0005420583    1.385    0.278
       480  -7.8379    140.4563     41.4759   2.9049416445e+02   6.4492484795e+00  0.006619801  0.006448837  38.80 0.0001322885    1.025    0.024
       481  -8.3148     36.8965     41.0970   2.9171635433e+02   7.0864250552e+00   0.01042836  0.008778211  62.12 0.0005336443    1.293    0.227
       482  -9.0673     95.4031     38.0691   2.9100581618e+02   6.7640340623e+00   0.01324616  0.009879879  84.69 0.0007100182    1.650    0.394
       483  -8.1357     80.5548     36.9227   2.9117440324e+02   6.8679082549e+00  0.009921673  0.006624607 -63.77 0.0004076172    1.549    0.354
       484  -7.5501    133.5220     36.4883   2.9054560908e+02   6.5488573725e+00  0.006620791  0.006472801   8.87 9.463703e-05    1.011    0.011
       485  -8.0583    125.8694     35.7767   2.9063168556e+02   6.6038785789e+00  0.009179297  0.007515889  56.23 0.0003626093    1.307    0.235
       486  -8.6716    111.7051     34.4486   2.9079098037e+02   6.7057960805e+00    0.0116796  0.008319777 -81.47 0.0007076486    1.664    0.399
       487  -8.9132    175.6988    247.7620   2.9133529422e+02   3.8682260878e+00   0.01755338   0.01149426  68.22  0.001175811    2.039    0.510
       488  -8.8930     48.4306     33.5491   2.9153384828e+02   7.1026135397e+00   0.01320221   0.01059759  68.73 0.0007365022    1.426    0.299
       489  -8.9645     60.5272     32.6614   2.9138530520e+02   7.0390021206e+00   0.01239219   0.01055067  79.15 0.0005586556    1.319    0.242
       490  -8.9951     72.2254     31.4679   2.9123963033e+02   6.9812706838e+00    0.0126736   0.00980599  70.96 0.0006647237    1.527    0.345
       491  -9.0652     13.0057     30.5200   2.9193466682e+02   7.3530672921e+00   0.01642806   0.01107146 -80.69  0.001179245    1.800    0.445
       492  -7.6915    192.0172     30.4687   2.8981808819e+02   6.2589468933e+00  0.009987474  0.006526154  24.84 0.0009793212    1.524    0.344
       493  -8.6772    101.6626     29.3647   2.9087864988e+02   6.8254654963e+00   0.01170041  0.008338994 -81.63 0.0007978985    1.665    0.399
       494  -7.6883     42.1864     30.1789   2.9158718644e+02   7.1792911053e+00  0.009298676   0.00760682  59.62 0.0003944843    1.332    0.249
       495  -8.8095     81.3167     27.4821   2.9110776136e+02   6.9714009471e+00    0.0146951   0.01067573  77.84 0.0008279656    1.739    0.425
       496  -8.7290      3.7400     27.8113   2.9202786411e+02   7.4404501023e+00   0.01256748  0.009271285  85.29 0.0009891527    1.680    0.405
       497  -8.8946     91.6850     26.3050   2.9097794637e+02   6.9215200122e+00   0.01617088   0.01071575 -78.82  0.001075213    1.815    0.449
       498  -9.2082    145.0913     23.6988   2.9033073952e+02   6.6244142329e+00   0.01679511    0.0101432 -68.90 0.0009609441    1.821    0.451
       499  -8.2331    104.2871     22.9648   2.9080852238e+02   6.8827082320e+00  0.008990621  0.008754873 -76.02 0.0004414847    1.061    0.057
       500  -8.9129     63.5582     21.1762   2.9127935367e+02   7.1520702206e+00   0.01539047   0.01113396  80.76 0.0008381507    1.755    0.430
       501  -8.9355     48.4347     21.8330   2.9146232921e+02   7.2368073204e+00   0.01251744  0.009763105  58.98 0.0005874441    1.421    0.296
       502  -8.3378     19.9336     21.9135   2.9180019270e+02   7.4095142102e+00   0.01103179   0.00770381  60.24 0.0007465096    1.693    0.409
       503  -7.6345     88.6530     34.3362   2.9106284391e+02   6.8480584040e+00  0.007261971  0.004931401  60.68 0.0007048198    1.777    0.437
       504  -8.7207    132.3716    248.1138   2.9184780497e+02   4.1290006240e+00   0.01430783  0.009155617  58.89 0.0007958945    1.914    0.478
       505  -7.9377     87.8507     17.8315   2.9097154035e+02   7.0420012495e+00  0.009145697  0.007712711  73.01 0.0004269641    1.331    0.249
       506  -8.0290     38.8513     18.6387   2.9155626985e+02   7.3318138955e+00  0.009618346  0.005711705  38.27 0.0005062208    1.636    0.389
       507  -7.7617    112.7692     17.0072   2.9067182721e+02   6.8990244848e+00   0.00858371   0.00558306 -62.06 0.0003628492    1.573    0.364
       508  -8.1641     30.1720     16.2021   2.9164415155e+02   7.4125997843e+00  0.009440495  0.007683917  61.93 0.0005474664    1.357    0.263
       509  -8.3267      7.5136     15.5264   2.9190831728e+02   7.5582353240e+00   0.01144579  0.006719214 -78.78 0.0008697141    2.205    0.547
       510  -7.8548     17.1329     14.2058   2.9178635908e+02   7.5148447184e+00  0.009412223  0.007511899  56.75  0.000481919    1.358    0.264
       511  -7.6098    119.7053     11.3419   2.9055519283e+02   6.9214222732e+00  0.006978858  0.005037705  64.39 0.0007030533    1.659    0.397
       512  -7.5012     83.3096     11.2709   2.9098517973e+02   7.1448807525e+00  0.006720382  0.005051315 -20.86 0.0003704484    1.545    0.353
       513  -8.1714    113.0697    248.7258   2.9207896620e+02   4.2398306255e+00   0.01211158  0.008596381 -85.64 0.0009307181    1.721    0.419
       514  -8.1481     28.1870     10.3872   2.9163218119e+02   7.4912863005e+00  0.009519825  0.005819412  38.47 0.0003828114    1.593    0.372
       515  -9.2181    103.7906    246.9336   2.9217746188e+02   4.3170250587e+00   0.02405111   0.01354406 -86.57  0.001986724    2.772    0.639
       516  -8.9310    243.0439    246.7025   2.9053623439e+02   3.4681937873e+00   0.02281405  0.009594716 -53.40  0.001510218    2.297    0.565
       517  -8.6967    218.7446    247.3811   2.9082624329e+02   3.6092038634e+00    0.0198247  0.007434004 -60.77  0.001546757    2.655    0.623
       518  -8.5960    156.1179    248.0951   2.9156793517e+02   3.9841229147e+00   0.01054814  0.007717235  64.52 0.0005677688    1.622    0.383
       519  -9.0774    147.3706    246.2776   2.9165994754e+02   4.0584312661e+00   0.02115011   0.01157488  65.05  0.001541231    2.957    0.662
       520  -8.6696    146.9460    240.6509   2.9163079557e+02   4.1255741436e+00    0.0202128   0.01139951  76.99  0.001564651    3.223    0.690
       521  -7.5221     40.6694    248.3336   2.9293005854e+02   4.6856188982e+00  0.007168188  0.004963542  61.25 0.0004811437    1.726    0.421
       522  -9.9815    223.9130    244.1931   2.9074603801e+02   3.6141051666e+00   0.02769222   0.01451389 -74.78  0.002356618    2.464    0.594
       523  -9.0726    120.2443    245.6288   2.9197563692e+02   4.2315689563e+00   0.01971352   0.01196035  67.26  0.001383175    2.372    0.578
