#   1 NUMBER                 Running object number                                     
#   2 MAG_AUTO               Kron-like elliptical aperture magnitude                    [mag]
#   3 X_IMAGE                Object position along x                                    [pixel]
#   4 Y_IMAGE                Object position along y                                    [pixel]
#   5 X_WORLD                Barycenter position along world x axis                     [deg]
#   6 Y_WORLD                Barycenter position along world y axis                     [deg]
#   7 A_WORLD                Profile RMS along major axis (world units)                 [deg]
#   8 B_WORLD                Profile RMS along minor axis (world units)                 [deg]
#   9 THETA_WORLD            Position angle (CCW/world-x)                               [deg]
#  10 FWHM_WORLD             FWHM assuming a gaussian core                              [deg]
#  11 ELONGATION             A_IMAGE/B_IMAGE                                           
#  12 ELLIPTICITY            1 - B_IMAGE/A_IMAGE                                       
         1 -14.8430    174.3840     31.0373   2.8996833339e+02   6.3643576896e+00   0.06729078   0.04000755 -41.35   0.00447481    1.735    0.424
         2 -13.3466    177.9635     24.3569   2.8988795659e+02   6.4200521288e+00   0.02471705   0.02117377 -26.42  0.001249121    1.180    0.152
         3 -12.4656    191.9677      1.9000   2.8959495769e+02   6.5964524481e+00   0.02954032   0.01094217  25.02  0.002361523    2.689    0.628
         4 -11.4047    187.8445    221.8615   2.9092631656e+02   4.1445806640e+00  0.009011854  0.007680617  61.30 0.0005013838    1.319    0.242
         5 -11.1789    159.4677    250.0630   2.9141683073e+02   3.9800533582e+00   0.01265931  0.006524098 -67.14 0.0009055147    2.102    0.524
         6 -19.7393     52.5908    167.6970   2.9217027971e+02   5.4828193661e+00    0.9691471    0.2988417 -65.62   0.06717583    3.691    0.729
         7 -11.4938    118.8379    181.8387   2.9148845220e+02   4.9672482124e+00   0.02631129    0.0105141  53.14  0.001675349    4.754    0.790
         8 -11.8633     99.3993    180.6133   2.9170542833e+02   5.0856925861e+00   0.01221016   0.01080188 -20.36 0.0006141127    1.136    0.120
         9 -11.6706    198.9867    178.5376   2.9054585272e+02   4.5721125487e+00   0.01683166   0.01334183  86.33 0.0009953859    1.514    0.340
        10 -12.3995     16.0253    206.2490   2.9281549295e+02   5.2445299206e+00   0.01290492   0.01081046 -41.96 0.0006328625    1.173    0.147
        11 -13.4426     11.5447    205.7262   2.9286413287e+02   5.2744246271e+00   0.02642386   0.01832551  10.34  0.002264094    1.548    0.354
        12 -12.4506     93.2729    177.6014   2.9175856815e+02   5.1525830751e+00   0.02068137   0.01126238 -42.46  0.001270995    1.897    0.473
        13 -13.0904     95.7502    172.6344   2.9170114034e+02   5.1952059981e+00   0.03000908   0.01317469 -50.66  0.001135222    2.160    0.537
        14 -10.9090    179.0805    174.9301   2.9075407728e+02   4.7202108652e+00   0.01097797  0.007391542 -27.52  0.001133398    1.675    0.403
        15 -12.8206    112.5618    171.2269   2.9149910832e+02   5.1205665257e+00   0.03294985   0.01622075 -45.70  0.001891657    2.035    0.509
        16 -11.6389    126.1314    172.1897   2.9134826771e+02   5.0366334286e+00   0.01205077   0.01106394  69.38  0.001499161    1.201    0.167
        17 -10.9875    228.5076    171.9984   2.9016792952e+02   4.4861675393e+00  0.009207402  0.005660433  81.81 0.0008104254    2.557    0.609
        18 -10.3113    130.4185    206.2177   2.9149668436e+02   4.6302980663e+00  0.008921353  0.006361259 -78.70 0.0009449085    1.633    0.388
        19 -10.5146     25.4944    206.4446   2.9270744088e+02   5.1915813368e+00   0.01124151  0.008247034  27.60 7.685259e-05    1.348    0.258
        20 -11.2527     22.2762    204.9674   2.9273599628e+02   5.2254779786e+00   0.01102688  0.008859979  10.49 0.0003320823    1.273    0.215
        21 -11.9780    137.4649    170.6739   2.9120880937e+02   4.9926263738e+00   0.01276018   0.01214807 -19.52 0.0009675742    1.019    0.018
        22 -11.7514    100.8530    163.4310   2.9158879682e+02   5.2714100494e+00   0.01212162   0.01026452 -54.42 0.0002233446    1.167    0.143
        23 -11.5039    120.1043    205.1271   2.9160919124e+02   4.6981216588e+00   0.01008377  0.008327716 -26.78 0.0004248066    1.241    0.194
        24 -12.9491    105.1070    155.6053   2.9149422577e+02   5.3366508806e+00   0.03193711   0.01545435 -44.80  0.002889823    2.099    0.524
        25 -10.8557     27.5237    156.8917   2.9239682058e+02   5.7390738927e+00   0.01431298  0.009806583  -9.96  0.001164985    1.735    0.424
        26 -10.6943     22.8712    156.3783   2.9244753704e+02   5.7698053446e+00   0.01199073   0.01114217 -75.76 0.0005700866    1.142    0.125
        27 -12.6328    133.1864    145.2583   2.9111019246e+02   5.3018806073e+00   0.03743633   0.01906311 -69.38  0.003379023    2.232    0.552
        28 -11.1226     94.4058    149.7093   2.9158336772e+02   5.4606599635e+00    0.0150435  0.009428977  48.06  0.001278992    1.792    0.442
        29 -12.5175      3.7311    141.5032   2.9258219041e+02   6.0399624305e+00   0.04032309   0.02211185 -44.41    0.0039041    1.838    0.456
        30 -14.3513      4.5255    131.7677   2.9251653894e+02   6.1453860230e+00   0.03786387   0.02630539 -40.49  0.002316963    1.455    0.313
        31 -13.9820      3.0848    122.0912   2.9247701763e+02   6.2621074825e+00    0.0296564   0.02302877 -18.78  0.002182367    1.389    0.280
        32 -14.3510      2.3615    115.2688   2.9244576753e+02   6.3428282335e+00   0.04319249   0.02088211 -66.49  0.003864317    2.226    0.551
        33 -13.4420    197.2189    197.1362   2.9067452551e+02   4.3723164854e+00    0.0342662   0.02485309  34.47  0.002520851    1.378    0.274
        34 -12.1821    189.3356    186.9294   2.9070585435e+02   4.5297711452e+00   0.03021826   0.01877243 -73.83  0.002808655    1.868    0.465
        35 -12.3788    113.3569    140.8735   2.9131335232e+02   5.4581241510e+00   0.02045828   0.01487695 -41.24  0.002281716    1.376    0.273
        36 -12.4544    102.9214    140.8983   2.9143387390e+02   5.5140494280e+00   0.01294642   0.01194522   5.45 0.0005416484    1.072    0.067
        37 -10.9249     20.5258    219.7284   2.9284161337e+02   5.0685126479e+00   0.01060425  0.008173453  23.55 0.0002834242    1.289    0.224
        38 -10.7701    144.2215    200.4273   2.9130400569e+02   4.6211449512e+00  0.009508601  0.005724309  36.43 0.0009536553    1.658    0.397
        39 -12.0815     21.1035    214.0526   2.9280210892e+02   5.1293784614e+00   0.02002393   0.01425916  -5.18  0.002150672    1.610    0.379
        40 -12.0444    106.6169    128.8480   2.9132109938e+02   5.6298434344e+00   0.02798881   0.01207345 -52.64  0.002458764    2.170    0.539
        41 -11.5232    118.7022    130.6581   2.9119221670e+02   5.5443487113e+00    0.0141236   0.01158579 -17.38 0.0007808169    1.279    0.218
        42 -10.9133    136.3907    197.5102   2.9137726685e+02   4.6961939340e+00   0.01317137  0.009560983  70.28 0.0008214524    1.761    0.432
        43 -11.4848    160.2979    128.2645   2.9069858934e+02   5.3469126965e+00   0.01366899  0.007111224 -46.09  0.001279867    1.911    0.477
        44 -10.9629    174.8446    149.0899   2.9065232899e+02   5.0339586953e+00   0.01015879  0.008835816  61.72 0.0007103356    1.283    0.220
        45 -11.8138    124.6339    126.7350   2.9110094270e+02   5.5565453982e+00    0.0248839  0.009894056  49.73  0.001760151    3.750    0.733
        46 -11.6781     86.6133    122.0426   2.9151231531e+02   5.8141732375e+00   0.01230624   0.01194531  17.85 0.0006701457    1.045    0.043
        47 -10.6183    135.0000    119.9953   2.9094210330e+02   5.5765181689e+00   0.01078655  0.003658725 -62.47 0.0008035846    2.950    0.661
        48 -10.9035    113.0640    119.6179   2.9119296049e+02   5.6990338250e+00   0.01173869     0.009077 -49.85 0.0004288522    1.262    0.208
        49 -12.5532    112.1912    196.3517   2.9164940570e+02   4.8395660080e+00   0.03593571   0.01782173 -16.87  0.002571577    3.865    0.741
        50 -11.3875    168.1067    113.7588   2.9052396787e+02   5.4679918209e+00   0.01640635   0.01228675  80.76  0.001373386    1.689    0.408
        51 -10.8201    205.6002    110.0868   2.9007044176e+02   5.3066028076e+00   0.01228346  0.009546612   9.55 0.0007122461    1.336    0.251
        52 -11.6987    181.0566    194.8717   2.9084742497e+02   4.4850496549e+00   0.01989587   0.01302401  74.85  0.001519349    2.198    0.545
        53 -11.8494    112.4235    210.2299   2.9172733296e+02   4.6819893037e+00   0.02034149   0.01247899   4.69  0.001386457    1.960    0.490
        54 -12.1884    207.9767    186.0073   2.9048587449e+02   4.4394800211e+00   0.01829846    0.0145527 -20.98  0.001584929    1.333    0.250
        55 -12.4147    212.4356    182.4345   2.9041373331e+02   4.4555999511e+00   0.02040141   0.01366917 -25.09  0.001141709    1.719    0.418
        56 -11.0787    166.0038    208.6793   2.9110109727e+02   4.4107958201e+00   0.01509468   0.01027165  40.59  0.001455498    1.516    0.341
        57 -12.6208    163.0192     55.9771   2.9024526085e+02   6.1454782007e+00   0.01284307    0.0125173  -2.50 0.0006748642    1.023    0.022
        58 -13.9013    161.7419     47.0886   2.9020804846e+02   6.2523222587e+00   0.03219019   0.02413634 -65.94  0.001451617    1.383    0.277
        59 -12.0373    182.4761    241.6861   2.9110336093e+02   3.9503576976e+00   0.01599922   0.01164217 -81.40  0.001486773    1.624    0.384
        60 -11.4914    176.9851    244.2710   2.9118157431e+02   3.9508618881e+00  0.009245377  0.008541793  15.38 0.0003275898    1.073    0.068
        61 -10.4060    125.8063     26.7934   2.9050424622e+02   6.6746558689e+00    0.0092346  0.007379552  49.83 0.0007557268    1.361    0.265
        62 -11.7712    189.5335     14.9766   2.8969959621e+02   6.4627785360e+00   0.01028002  0.008821737  20.29 0.0006706902    1.157    0.136
