#   1 NUMBER                 Running object number                                     
#   2 MAG_AUTO               Kron-like elliptical aperture magnitude                    [mag]
#   3 X_IMAGE                Object position along x                                    [pixel]
#   4 Y_IMAGE                Object position along y                                    [pixel]
#   5 X_WORLD                Barycenter position along world x axis                     [deg]
#   6 Y_WORLD                Barycenter position along world y axis                     [deg]
#   7 A_WORLD                Profile RMS along major axis (world units)                 [deg]
#   8 B_WORLD                Profile RMS along minor axis (world units)                 [deg]
#   9 THETA_WORLD            Position angle (CCW/world-x)                               [deg]
#  10 FWHM_WORLD             FWHM assuming a gaussian core                              [deg]
#  11 ELONGATION             A_IMAGE/B_IMAGE                                           
#  12 ELLIPTICITY            1 - B_IMAGE/A_IMAGE                                       
         1 -13.7647    248.6636    102.9157   4.3392931653e+01   1.1603709449e+01     2.395463    0.4125123 -28.78  0.007114149    5.507    0.818
         2 -15.3047    248.5219    152.3162   5.3245874135e+01   5.7995470030e+00     7.038679    0.9990049 -32.08   0.02259345    5.797    0.827
         3 -10.6712     54.1640     52.6997   7.3615220471e+01   6.2617456844e+01    0.8292106    0.2598282 -59.21  0.002298928    4.535    0.779
         4 -10.3939     12.7805     28.7666   8.9349088422e+01   7.3600268050e+01    0.5984899    0.1606585 -67.82  0.001969051    3.915    0.745
         5 -10.0992     40.8509     14.0818   6.1030963926e+01   7.2778455449e+01    0.2189764    0.1871516  20.77  0.001280402    1.195    0.163
         6 -11.5837    161.9157    227.1669   7.9430706319e+01   8.7184449788e+00    0.6112999    0.3802885   1.98  0.003482025    2.052    0.513
         7 -13.0375    160.4903    247.3002   8.2063832115e+01   6.4557191686e+00    0.9980054    0.4430805  29.35  0.005913279    1.744    0.427
         8 -11.3518    236.8026    229.9155   6.7487865503e+01  -7.7283760487e-01    0.2543653    0.1676756  11.52  0.001349788    1.100    0.091
         9  -9.8164    116.5358    227.4827   8.8203842344e+01   1.4777184702e+01    0.1176893   0.08954111  36.12 0.0001547776    1.007    0.007
        10 -10.3311     88.4202    226.8045   9.3906115563e+01   1.8574011132e+01    0.1801825    0.1496444  14.45 0.0009323312    1.412    0.292
        11  -9.7994     88.7712    222.7360   9.3477803366e+01   1.9194441753e+01    0.2074113    0.1113656 -74.89  0.001152565    2.580    0.612
        12  -9.9044    192.0124    226.0748   7.3992965468e+01   4.9281147368e+00     0.170304     0.123069  15.73 0.0008378477    1.078    0.072
        13  -9.8299    171.1007    225.6273   7.7571118862e+01   7.6925076858e+00     0.155628    0.1353987  19.60 0.0002897846    1.208    0.172
        14 -10.7571     99.1311    225.4047   9.1552427786e+01   1.7408908119e+01      0.31645    0.1773109  33.30  0.001460303    1.407    0.290
        15 -10.5460    123.4349    224.7771   8.6532150675e+01   1.4250073313e+01    0.2083118    0.1507916 -68.62  0.001118534    1.966    0.491
        16 -10.8770    125.9700    220.5844   8.5555583142e+01   1.4528009406e+01    0.2457867    0.1675852  45.70 0.0006721938    1.324    0.245
        17  -9.8326     62.2273    224.0364   9.9233848159e+01   2.2278798145e+01    0.2309384    0.1021051  42.91  0.001167895    1.621    0.383
        18  -8.9312    114.3843    221.2820   8.7990089679e+01   1.6012363877e+01    0.1173471   0.08180641  11.39 0.0007007163    1.732    0.422
        19  -8.9057    143.6939    216.6579   8.1561345084e+01   1.2632950811e+01    0.1166608   0.08136318   5.75 0.0007042092    1.686    0.407
        20  -9.7619    185.5848    213.1887   7.3310264783e+01   7.2848896434e+00     0.229608    0.1036661 -35.11  0.001262631    2.503    0.600
        21  -9.1090    131.4438    214.4912   8.3733626002e+01   1.4681082702e+01    0.1201228   0.09552438  28.37 0.0001723025    1.066    0.062
        22  -9.5102    217.4899    209.4900   6.7462362288e+01   3.5345178197e+00    0.1092552   0.08175487   9.98 0.0005257609    1.008    0.008
        23  -9.7391     57.9667    206.4701   9.8935504439e+01   2.5963863987e+01     0.195412   0.05629924  47.39 0.0008098258    2.666    0.625
        24  -8.8678    107.5148    248.5241   9.1953310797e+01   1.2910122662e+01    0.1114135   0.08061819  34.51 0.0004513254    1.037    0.036
        25 -12.4229    249.5662    197.6298   6.0872701578e+01   8.4989500655e-01    0.6285708    0.1980684 -32.40  0.003281673    2.995    0.666
        26 -11.0796    160.1035    238.1147   8.1084769418e+01   7.5945120152e+00    0.3861873    0.1636443 -43.46  0.002195274    3.007    0.667
        27 -10.1611     45.3178    194.3508   1.0104294821e+02   2.9827545887e+01    0.2836279    0.1119064  38.58  0.001377707    1.889    0.471
        28 -11.2050    225.1474    191.5061   6.3457167980e+01   4.5305185626e+00    0.2471533    0.1385471 -18.11  0.001057198    1.738    0.425
        29 -12.1573    230.2768    185.2519   6.1648409779e+01   4.5545224665e+00    0.3498574    0.2478679 -17.66  0.002493109    1.261    0.207
        30 -10.6817     97.0913    187.7831   8.7971029049e+01   2.4255625892e+01    0.5258481    0.1472102  38.97   0.00185447    2.763    0.638
        31 -11.0076     92.6590    183.0576   8.8447716272e+01   2.5825463156e+01     0.331554    0.2348428 -62.70  0.001308739    1.631    0.387
        32 -10.7944     56.7852    187.9810   9.7756012952e+01   2.9748724120e+01    0.3940585    0.1249031  44.38  0.001666521    2.381    0.580
        33  -9.9268     35.4673    188.1025   1.0304037303e+02   3.2211806777e+01    0.2795478     0.103116  45.21  0.001322196    1.997    0.499
        34  -9.6532    110.7307    185.4063   8.4488036740e+01   2.2637333671e+01     0.241592    0.1898814 -18.41  0.000836265    1.707    0.414
        35  -9.4795     12.9849    185.4797   1.0846566865e+02   3.5004315582e+01    0.1899277   0.04626325  45.92 0.0008101906    2.560    0.609
        36 -10.2908     45.2682    182.8713   1.0022699560e+02   3.2204949365e+01    0.2464226    0.1313525  42.78  0.001211108    1.483    0.326
        37  -9.3509     27.6729    183.3183   1.0470497698e+02   3.4041455736e+01    0.1376503   0.06675916  55.74 0.0007046207    1.679    0.404
        38  -9.3134    211.6319    182.2326   6.4049652383e+01   7.4723427317e+00    0.1537092   0.09536796 -18.71 0.0005728739    1.585    0.369
        39 -10.7401     61.6058    177.8330   9.5617261587e+01   3.1252293938e+01    0.3580823    0.1418613  39.32  0.001602061    1.993    0.498
        40 -10.5210     80.0992    177.1683   9.0835333779e+01   2.8849673054e+01    0.4390209   0.09887339  43.81  0.001456317    3.526    0.716
        41  -9.3124     14.1998    177.4346   1.0783949949e+02   3.6608654195e+01    0.1794096   0.08232405  41.71 0.0009424743    1.660    0.398
        42  -9.0917    205.2680    176.3877   6.4093106039e+01   9.1374540803e+00    0.1233089   0.07935694  -0.05 0.0006986794    1.706    0.414
        43  -9.1800     24.6599    175.3253   1.0503180858e+02   3.6070236018e+01     0.141491   0.06724127  55.94 0.0007051278    1.729    0.422
        44  -9.5881     36.1359    174.3781   1.0196261110e+02   3.5073393529e+01    0.1963313   0.08702275  41.36  0.000951278    1.765    0.433
        45  -9.9965     45.9718    172.5129   9.9217220602e+01   3.4357689364e+01    0.2028388    0.1101871  34.84  0.001035985    1.604    0.377
        46 -10.7002     56.4982    170.3195   9.6215783693e+01   3.3538842561e+01      0.32701    0.1673932  41.11  0.001614482    1.609    0.378
        47  -9.4121    185.6712    203.4555   7.1870759354e+01   8.4912194867e+00    0.1825274    0.1024662 -35.13  0.001081436    1.969    0.492
        48  -9.2657    211.6588    201.3233   6.7144587403e+01   5.1978496772e+00    0.0951432   0.08765194  49.06 0.0007050807    1.726    0.421
        49  -9.6503    102.9361    167.3916   8.3805809674e+01   2.7360288940e+01    0.3282156    0.1170628  37.01  0.001260683    2.457    0.593
        50 -10.5338     81.0814    164.8787   8.9053680895e+01   3.1302584437e+01    0.4897758    0.2225425  61.63  0.001817966    3.154    0.683
        51 -10.3496     38.5468    164.8665   1.0059445990e+02   3.6928898948e+01    0.2833383    0.1196632  45.87  0.000967133    1.909    0.476
        52 -10.6324     71.4111    163.8084   9.1495747156e+01   3.2952416367e+01    0.2697804     0.173102  38.45  0.001130009    1.376    0.273
        53 -10.1353     48.0760    164.2710   9.7916308461e+01   3.5944802664e+01    0.2686618    0.1423607  48.82  0.001195875    1.591    0.371
        54  -9.0108    164.0000    200.9852   7.5491844537e+01   1.1946025393e+01    0.1714068   0.06797213 -43.39 0.0006626555    2.949    0.661
        55 -10.5262     63.3136    161.3483   9.3408627362e+01   3.4633663501e+01    0.3093011    0.1361729  41.08  0.001367796    1.893    0.472
        56  -9.6742     32.0134    161.0183   1.0211225105e+02   3.8526129240e+01    0.2288232    0.1180005  58.47 0.0009692863    1.710    0.415
        57  -9.5563      9.2210    160.6384   1.0845241212e+02   4.0781304882e+01    0.2976801    0.0689849  63.82 0.0009617219    4.455    0.776
        58  -9.5957     89.6709    199.7548   9.1055457857e+01   2.3082286806e+01    0.2082694    0.0711461  42.51 0.0007107836    2.282    0.562
        59  -9.4929     23.7343    159.9825   1.0436699316e+02   3.9612513925e+01    0.2562608    0.0609129  52.27 0.0008898624    3.510    0.715
        60 -11.4290     51.4076    156.0525   9.6161906290e+01   3.7415881571e+01    0.5749015    0.1821893  46.06  0.002193099    2.650    0.623
        61 -11.3628     83.5303    155.5392   8.7104940262e+01   3.2971716022e+01    0.5850894     0.195699  43.53  0.002166369    2.581    0.613
        62 -11.9627     71.0878    154.1346   9.0348228664e+01   3.5169796471e+01    0.6363294    0.2716926  32.71  0.002622211    2.223    0.550
        63  -9.8173     92.7962    152.3852   8.4119587695e+01   3.2180753735e+01    0.2034301    0.1283677  28.46 0.0009552673    1.701    0.412
        64  -9.5528    100.1755    151.6783   8.2041999777e+01   3.1100252535e+01     0.299001    0.1035135  44.02  0.001076705    2.593    0.614
        65 -10.0334     29.6317    150.7462   1.0200846915e+02   4.1181846071e+01    0.3138824    0.1517233  65.53  0.001444844    2.006    0.502
        66 -11.9846     57.6758    146.5451   9.3236365860e+01   3.8829326149e+01    0.7107918    0.2959253  52.86  0.002704453    2.414    0.586
        67  -8.9089    189.0000    148.0474   6.1627516066e+01   1.5738004317e+01    0.2085253   0.07031451 -37.35 0.0008051248    2.961    0.662
        68 -10.1751    110.1889    146.9897   7.8616508518e+01   3.0355348998e+01     0.696629    0.2523928  54.84   0.00190714    5.045    0.802
        69 -10.2091     79.6720    147.4565   8.6972613194e+01   3.5395771807e+01    0.2750612    0.1779899  52.66  0.001267435    1.441    0.306
        70  -9.4075     13.6339    146.3503   1.0647764517e+02   4.3748018096e+01    0.2182811    0.1111575  57.74 0.0009254339    1.665    0.399
        71 -10.7181     90.6536    144.7396   8.3456295466e+01   3.4231866070e+01    0.5407801    0.2050937  38.48  0.002041757    2.373    0.579
        72 -11.2801     71.8659    141.7253   8.8360953411e+01   3.7932878476e+01    0.5590981    0.2474296  52.20  0.002199195    2.331    0.571
        73  -8.9955    126.7928    196.9663   8.2471180474e+01   1.8149189550e+01    0.1410951    0.1023993 -50.79  0.000849205    1.663    0.399
        74 -10.6470     23.6533    138.1420   1.0283159594e+02   4.4829928767e+01    0.5406437     0.190141  62.15  0.002004196    3.077    0.675
        75 -11.1352     40.3976    148.0551   9.8564467319e+01   4.0641088025e+01    0.5203014    0.1995315  50.92  0.002128381    2.364    0.577
        76 -10.6078     39.7564    136.3361   9.7541239052e+01   4.3567545058e+01    0.3545449    0.1931421  45.96  0.001446045    1.624    0.384
        77  -9.3253    197.3254    135.7765   5.7659077866e+01   1.6097402460e+01     0.178608    0.1115148 -25.32 0.0005855921    1.601    0.375
        78 -12.2603     86.1379    132.5995   8.2622092515e+01   3.7776833964e+01     0.830587    0.3146556  42.48  0.003070948    2.390    0.582
        79 -10.3977     82.6198    140.2618   8.4983875694e+01   3.6581161528e+01    0.2846789    0.1542093  47.22  0.001257136    1.704    0.413
        80 -11.6092    102.0797    129.5255   7.7451608444e+01   3.5638564621e+01    0.7103867    0.3298693  47.06  0.002805217    2.065    0.516
        81 -11.8901     74.8626    130.0899   8.5569487775e+01   4.0237915883e+01      0.54383    0.2619214  48.33  0.001880034    1.992    0.498
        82 -10.0206     12.9465    129.4479   1.0565077215e+02   4.7932769902e+01    0.3589812    0.1503718  68.15  0.001529956    2.327    0.570
        83 -10.0160     68.2444    195.9916   9.5682141684e+01   2.6686663658e+01    0.2543209    0.1180483  45.04  0.001275211    1.701    0.412
        84 -12.6412     60.9913    124.9959   8.9115302072e+01   4.3610111615e+01    0.8266543    0.3825282  57.70   0.00312955    2.557    0.609
        85 -12.2769     44.8164    123.3643   9.4272075029e+01   4.6207007015e+01    0.9339426    0.4323104  68.40  0.003480998    2.850    0.649
        86 -11.2117     28.5052    121.9872   9.9721088082e+01   4.8398401959e+01    0.8648593    0.3053539  67.55  0.002695774    4.234    0.764
        87 -11.8237     72.4528    120.5760   8.4610254378e+01   4.2937216686e+01    0.4851447    0.2534197  44.75  0.001880981    1.795    0.443
        88  -9.7916      3.2531    117.2933   1.0820807719e+02   5.1690407638e+01    0.4015188     0.107628  66.82  0.001286109    4.177    0.761
        89 -10.7138    111.9931    116.0858   7.1766446469e+01   3.6704179423e+01    0.5369841    0.3186819  51.57  0.002318974    1.682    0.406
        90 -12.6104     81.1638    113.8451   8.0452741994e+01   4.3104031634e+01    0.7577789    0.4402184  61.12  0.002885846    2.042    0.510
        91 -12.2800     96.1524    113.5606   7.5733438799e+01   4.0406340022e+01    0.8987973    0.3554212  41.46  0.003211707    2.429    0.588
        92 -12.3583     67.7173    111.6000   8.4442602383e+01   4.5921220099e+01    0.5718732    0.3249888  54.34  0.002164397    1.833    0.455
        93 -10.4066     14.3469    110.2338   1.0366817524e+02   5.2693136274e+01    0.4046978    0.2075713  79.86  0.001746029    1.884    0.469
        94 -12.3866     46.1842    102.4209   9.0471859186e+01   5.1404481256e+01     1.121173     0.509856  67.39  0.003694666    3.572    0.720
        95 -10.2836     43.7370     92.3885   8.9530868977e+01   5.4321855605e+01    0.2717669    0.1713342 -36.53 0.0009466233    2.070    0.517
        96 -11.4005     22.7787    101.7996   9.9525131876e+01   5.4165372044e+01    0.9185228    0.3569749  69.07  0.003124042    3.533    0.717
        97 -12.1515    112.9997    100.7427   6.7667046972e+01   3.9855797112e+01     1.117985    0.4401312  55.34  0.003499018    3.225    0.690
        98 -12.1065     83.5693    100.7682   7.6669115848e+01   4.5823165476e+01    0.5665691    0.3341132  58.72  0.002031834    1.937    0.484
        99 -11.4017     59.6171    109.8899   8.6922983837e+01   4.7606048280e+01     0.285013    0.2140633  71.37  0.001203229    1.353    0.261
       100 -11.9872     97.1997     97.5338   7.1463104713e+01   4.3904082969e+01    0.5887876    0.3609633  40.30  0.002296999    1.663    0.399
       101 -12.8537     64.6582     96.1221   8.2190961384e+01   5.0295292239e+01    0.8569778    0.5137249  78.28  0.003030541    2.421    0.587
       102 -10.8129    127.7830     92.1733   6.1378596060e+01   3.8359471949e+01    0.6864249    0.2132421  54.08  0.001977302    3.683    0.728
       103 -10.3996     57.9709     92.0623   8.3782741198e+01   5.2383947270e+01    0.2257711     0.205057  79.02 0.0003531317    1.037    0.036
       104 -10.8573     34.9642     88.5997   9.2462557005e+01   5.6375253188e+01     0.791098    0.2989646 -72.59  0.002838396    2.644    0.622
       105  -9.4729      4.7912     91.2276   1.0581031797e+02   5.8276930416e+01     0.243674   0.09038559  57.39 0.0009512819    2.761    0.638
       106 -12.7976     88.7274     87.7347   7.1487682877e+01   4.7900238682e+01    0.7992135    0.4473523  58.98   0.00311413    2.129    0.530
       107 -11.8351     49.1484     83.7652   8.5395495093e+01   5.5809201464e+01    0.9331684    0.5175233 -83.03  0.003733273    2.308    0.567
       108 -12.1443    107.6385     84.8052   6.4704760073e+01   4.4495121363e+01    0.8113593    0.3916234  56.99  0.002924636    2.361    0.576
       109  -9.4281    172.9019    195.5072   7.2986723937e+01   1.1399312233e+01     0.175898    0.1010435  37.46 0.0009157801    1.511    0.338
       110 -11.8679     75.1947     80.9192   7.4268302129e+01   5.2169770499e+01    0.4505516    0.3317578 -89.34  0.001602331    1.655    0.396
       111 -10.7538     24.6464     78.9029   9.5290535389e+01   5.9989143885e+01     0.866877    0.3006443 -72.71  0.003185339    2.697    0.629
       112  -9.9778    121.2571     81.5906   5.9946697548e+01   4.2021846098e+01    0.3115325    0.1499658  55.81  0.001143939    2.172    0.540
       113  -9.2142      8.8392     80.6092   1.0294210563e+02   6.0794044332e+01    0.1885994    0.1083906  37.63 0.0009417857    1.753    0.430
       114 -12.2783     61.9812     76.5448   7.8135286723e+01   5.5611393228e+01    0.7205144    0.3149502 -58.10  0.002712334    2.255    0.556
       115 -10.4664    130.4095     76.8232   5.6163652500e+01   4.0762939327e+01    0.5599297    0.2495477  62.51  0.001876196    2.797    0.642
       116 -12.2346     83.2615     73.2661   6.8953922102e+01   5.2348771065e+01    0.6239316    0.4266854  89.00  0.002538059    2.128    0.530
       117 -10.1477    117.0152     73.4956   5.8521029139e+01   4.4656757997e+01    0.2433469    0.1524237  54.25 0.0009475544    1.586    0.369
       118 -11.5282     95.7280     72.1305   6.4349315982e+01   4.9905549990e+01    0.4295716    0.3276097 -78.35   0.00194648    1.559    0.359
       119 -10.5984     42.6318     72.1436   8.5360076757e+01   5.9672943906e+01    0.3239012    0.1742296 -76.17  0.001324321    2.143    0.533
       120 -10.0087     79.4931    193.7719   9.2801586916e+01   2.5616601271e+01    0.2849073    0.1233389  38.37  0.001356576    1.817    0.450
       121 -11.4652     51.7401     69.0957   8.0329321873e+01   5.9113132788e+01    0.7973177    0.3557997 -70.35   0.00272176    3.066    0.674
       122  -9.9375     16.5366     69.4716   9.7564928876e+01   6.3152627547e+01    0.3337153    0.1831183 -81.19   0.00147808    1.732    0.423
       123 -11.0245    106.9203     72.2828   6.0958101503e+01   4.7303338495e+01    0.4547738    0.2142528  61.98  0.001520529    2.784    0.641
       124 -10.7022    111.0002     64.5024   5.7134064515e+01   4.7886751919e+01    0.3608363    0.2270454  72.72  0.001442406    2.017    0.504
       125 -10.5931     37.5150     63.4459   8.5449010441e+01   6.2537880985e+01     0.450936     0.253005 -72.96  0.001809377    1.899    0.473
       126  -9.7871    122.5009     67.0073   5.4940875325e+01   4.4572047668e+01    0.2318727    0.1239749 -59.61 0.0008103733    2.534    0.605
       127 -11.1643    101.3742     61.3253   5.8801150824e+01   5.0837522818e+01    0.4395463    0.2863594 -89.39  0.001673673    2.445    0.591
       128 -12.1134     74.3680     59.6546   6.7526759255e+01   5.7225261710e+01    0.6349809    0.4511936  84.44  0.002496374    1.967    0.492
       129 -10.3498     89.6727     60.3275   6.2192130293e+01   5.3767766757e+01    0.2511447     0.186624 -86.19  0.001113324    1.733    0.423
       130  -9.9307     25.0781     57.9162   9.0501250130e+01   6.5356369169e+01    0.4280522    0.1774721 -64.34  0.001758086    2.132    0.531
       131 -10.5530      7.5927     54.6440   9.9816858971e+01   6.7588717395e+01     0.751958    0.1566792 -69.79  0.002499982    3.528    0.717
       132  -9.9992    120.4366     57.0886   5.2009121831e+01   4.6913646288e+01    0.3296374     0.212946  81.34  0.001332402    2.009    0.502
       133  -9.3880    170.3264    233.3034   7.8681182391e+01   6.8623789900e+00    0.1110961   0.06964819  10.67 0.0007032945    1.644    0.392
       134 -10.7921     45.1838     49.1575   7.6725836458e+01   6.4907852827e+01    0.3266675    0.2476766 -36.86 0.0003498187    1.402    0.287
       135  -9.4344    100.3306     54.3079   5.6485317155e+01   5.2454050889e+01    0.1559539    0.1238735  17.88 0.0007039959    1.663    0.399
       136  -9.9447     20.2245     51.6948   9.1635183038e+01   6.7388548588e+01    0.3879259    0.1595195 -79.15  0.001416515    3.019    0.669
       137 -10.8907     92.9013     50.8128   5.7430043142e+01   5.4911761141e+01    0.4630149    0.2586907 -56.67  0.001730518    2.162    0.537
       138 -10.3604     30.8344     49.7503   8.4828659464e+01   6.6748298711e+01    0.6480901    0.1992206 -66.07  0.002058261    3.697    0.729
       139 -10.3676     82.2699     46.9966   5.9482451354e+01   5.8131379901e+01    0.2184323     0.195925 -48.68 0.0005711852    1.113    0.102
       140 -10.2453     16.8969     42.6739   9.1142572298e+01   6.9919379621e+01    0.5937527    0.1244555 -62.83  0.001944474    3.557    0.719
       141 -10.6836     58.3339     42.4656   6.7367702216e+01   6.4096472450e+01     0.376246    0.2469979 -75.46  0.001572328    2.351    0.575
       142 -10.4841      4.9777     40.1762   9.8550753888e+01   7.1375298408e+01     0.601514    0.1794188 -78.48  0.002095907    3.503    0.715
       143 -10.6251     69.7251     41.6530   6.1971277314e+01   6.1950110596e+01    0.3739212    0.2459076  86.66  0.001458838    2.684    0.627
       144  -8.9860    113.8315     41.1835   4.7591844340e+01   5.1325288096e+01    0.1996516    0.1776697  30.94 0.0002993936    1.268    0.211
       145  -9.8760     36.8110     40.1529   7.7721588695e+01   6.8221661142e+01    0.2986448    0.1941762 -69.47  0.001423026    1.769    0.435
       146 -11.0670     63.1913     54.1980   7.0072179960e+01   6.0640925262e+01     0.477941     0.255974 -54.15  0.001984639    1.892    0.471
       147 -10.3000     27.0097     31.1883   7.9973102293e+01   7.1554769350e+01     0.716499    0.1399572 -46.25  0.001954922    5.268    0.810
       148 -10.0830     44.0000     55.0249   7.9491269352e+01   6.3707821309e+01    0.4329348    0.2346826 -64.52  0.001854174    1.934    0.483
       149  -9.4591     60.7682     32.6003   6.1497081735e+01   6.5568503191e+01    0.2022751    0.1367611  59.02 0.0007217307    1.656    0.396
       150  -9.0188     13.5861    250.5416   1.1025300363e+02   2.2982555955e+01    0.1051016   0.06911647  48.70 9.519641e-05    1.012    0.012
       151  -9.5339     48.3928     21.2369   6.1325561426e+01   7.0113489035e+01    0.1978895    0.1265476 -49.51 0.0009492723    1.670    0.401
       152  -9.3410     40.8482     21.2050   6.5609965283e+01   7.1517812708e+01     0.180959    0.1524038  -5.58 0.0002490982    1.295    0.228
       153  -9.7809      3.7241     25.2953   9.5464122414e+01   7.5051992726e+01    0.4141207    0.1129232 -65.59  0.001595756    2.853    0.649
       154  -9.1501     63.3245     20.6706   5.3838808073e+01   6.7075935413e+01    0.1454581     0.111361 -72.94 0.0004111471    1.700    0.412
