#   1 NUMBER                 Running object number                                     
#   2 MAG_AUTO               Kron-like elliptical aperture magnitude                    [mag]
#   3 X_IMAGE                Object position along x                                    [pixel]
#   4 Y_IMAGE                Object position along y                                    [pixel]
#   5 X_WORLD                Barycenter position along world x axis                     [deg]
#   6 Y_WORLD                Barycenter position along world y axis                     [deg]
#   7 A_WORLD                Profile RMS along major axis (world units)                 [deg]
#   8 B_WORLD                Profile RMS along minor axis (world units)                 [deg]
#   9 THETA_WORLD            Position angle (CCW/world-x)                               [deg]
#  10 FWHM_WORLD             FWHM assuming a gaussian core                              [deg]
#  11 ELONGATION             A_IMAGE/B_IMAGE                                           
#  12 ELLIPTICITY            1 - B_IMAGE/A_IMAGE                                       
         1 -12.1293    248.5629     13.2624   5.8272163073e+01   2.0734948291e+01     2.674415    0.6272653 -17.99  0.007888515    4.660    0.785
         2  -9.1844    186.4803      9.3595   6.3806855721e+01   3.6805462049e+01    0.3128486    0.1271876 -26.19 0.0009134643    2.332    0.571
         3 -10.5760    222.3577      5.5549   5.8539091512e+01   2.7768179965e+01    0.5518904    0.2576874 -55.91  0.002159126    2.680    0.627
         4  -8.9311      2.6491      3.9047   1.2331985736e+02   7.3252483758e+01    0.3380503    0.1155795 -50.26  0.001746804    1.897    0.473
         5  -8.3775    207.6539      2.3045   5.9040925017e+01   3.1813981399e+01    0.1511542   0.09984363 -57.53 0.0007041222    1.692    0.409
         6  -8.0098    196.6501      2.6748   6.0353318722e+01   3.4677404191e+01    0.1604224    0.0966653  36.03  0.000251475    1.754    0.430
         7 -12.5572    242.1566      7.1709   5.7200143606e+01   2.2785629681e+01     2.355105     1.413632  -1.29   0.01136286    1.904    0.475
         8  -9.9819    247.8504    225.2450   1.0613178563e+02  -2.2494835741e+00    0.3472646    0.2509318  -9.53  0.002354861    1.464    0.317
         9 -10.4779    247.2912    216.4645   1.0486355140e+02  -1.4211229213e+00    0.4360248    0.2794788 -23.45  0.002365967    1.804    0.446
        10 -10.5457    240.2079    218.8705   1.0636181724e+02  -6.0177973920e-01    0.6586437    0.2931413 -40.31  0.003309177    4.032    0.752
        11  -8.3481    216.5304    222.8660   1.1079620981e+02   2.5315057532e+00    0.2158815     0.106128 -33.92  0.001283376    2.575    0.612
        12  -8.7805    227.0544    220.3623   1.0870656908e+02   1.2017933632e+00    0.1873649     0.129729   3.05  0.001320534    1.386    0.278
        13  -7.9788    202.2064    218.8005   1.1260123401e+02   5.1159475806e+00    0.1537327   0.08295555 -18.91  0.000868863    2.500    0.600
        14  -7.7081    193.6638    218.6787   1.1403592126e+02   6.4394471153e+00    0.1185941   0.07166478  19.07 0.0007050214    1.709    0.415
        15  -8.1744    209.5143    217.0451   1.1111547018e+02   4.1811715024e+00    0.1461792    0.1080979 -21.33  0.001033598    1.598    0.374
        16  -8.9645    232.7078    212.3231   1.0655188833e+02   1.1167465185e+00    0.3101564    0.1867308  -8.32  0.001974237    1.772    0.436
        17  -9.5414    216.5793    210.5881   1.0895603052e+02   3.7619842208e+00    0.4853871    0.1837074 -35.51  0.002436997    3.259    0.693
        18  -9.3239    242.9373    200.7292   1.0299655931e+02   6.6761573336e-01    0.3280881    0.1528427 -19.88   0.00179349    2.330    0.571
        19 -10.5677    240.6454    208.7783   1.0469723303e+02   2.5436549187e-01     0.622751    0.2093772 -36.32  0.002849006    4.115    0.757
        20  -8.0767    210.1756    200.9062   1.0852969260e+02   5.8186208242e+00    0.2678145   0.07653194 -41.24  0.001010943    5.273    0.810
        21  -8.4981    250.0672    199.6343   1.0166202647e+02  -3.1587149288e-01    0.2284144    0.1570043 -24.13  0.001536126    1.690    0.408
        22  -8.6858    228.5619    200.2520   1.0528829378e+02   2.9534091112e+00    0.1847062    0.1088492 -28.67 0.0008413032    1.953    0.488
        23  -8.8866    236.9415    197.4890   1.0343011057e+02   1.9150681078e+00     0.223109    0.1384648   1.06  0.001364725    1.586    0.370
        24  -7.8155    215.3845    197.2489   1.0703415119e+02   5.3840060721e+00    0.1394246    0.1104889 -28.41 0.0009394412    1.575    0.365
        25  -7.4637    201.6556    196.6857   1.0934597833e+02   7.6906349659e+00    0.1280856   0.07755435  17.89 8.944976e-05    1.712    0.416
        26  -9.8760    246.2639    193.5469   1.0122389106e+02   8.4746124841e-01    0.2781214     0.203585 -22.57  0.001884071    1.583    0.368
        27  -8.1330    219.5997    194.7698   1.0589463441e+02   4.9732479217e+00    0.1434697    0.1106944 -31.73 0.0007379361    1.664    0.399
        28  -8.2143    209.4640    194.4920   1.0761021880e+02   6.6633822704e+00    0.1766539    0.1128688 -42.38  0.001025007    2.196    0.545
        29  -8.9600    223.9861    192.5351   1.0476298898e+02   4.5038001017e+00    0.1825414    0.1440731   1.00 0.0009054047    1.211    0.174
        30  -8.6082    225.2502    207.5852   1.0703282170e+02   2.7236211927e+00    0.1797329    0.1397755 -28.58  0.001262803    1.677    0.404
        31  -9.1703    249.4652    186.7506   9.9497922461e+01   1.0124616460e+00     0.321384    0.1054814 -27.75   0.00145521    3.153    0.683
        32 -10.1782    241.4586    179.4790   9.9481296577e+01   3.0436445549e+00    0.3989573    0.2131925 -30.22    0.0022036    2.064    0.516
        33  -8.8211    236.8414    186.8170   1.0158715476e+02   3.0246164430e+00    0.2205985    0.1606686  18.41  0.001036648    1.035    0.034
        34  -7.9581    224.0000    183.9395   1.0325744654e+02   5.4541389384e+00    0.1752981   0.06704149 -30.04 0.0006653863    2.876    0.652
        35  -8.8770    234.2499    181.8665   1.0112935752e+02   3.9768390448e+00    0.2306601    0.1426883   2.23 0.0007336421    1.625    0.385
        36  -7.9400    210.6476    182.3137   1.0531729686e+02   7.9043136508e+00    0.1134202   0.09751202  61.09 0.0007045856    1.731    0.422
        37  -8.6863    230.0311    179.5031   1.0141485983e+02   4.9403995132e+00    0.1885427    0.1458546   2.14 0.0007788711    1.166    0.143
        38  -8.9804    247.8493    176.9912   9.7962669190e+01   2.2581740287e+00    0.2726996    0.1581222 -19.32  0.001578013    1.696    0.410
        39  -8.4530    219.0000    176.9832   1.0287106231e+02   7.1089563463e+00    0.1864475   0.06898448 -31.07 0.0008053206    2.962    0.662
        40  -8.0060    232.4913    174.0007   9.9968345733e+01   5.1413974759e+00    0.1768925    0.1136099 -19.34 0.0006679804    1.574    0.365
        41  -8.4377    225.3077    173.6738   1.0114794723e+02   6.4105802590e+00    0.1074009    0.1029235  62.89 0.0003405735    1.653    0.395
        42  -8.0737    220.0000    187.9946   1.0466619982e+02   5.6631383849e+00    0.1761323   0.06706527 -30.87 0.0006915241    2.943    0.660
        43  -8.5811    246.0187    167.0392   9.6352077003e+01   3.6161194863e+00    0.2014814    0.1547303  13.55  0.001160594    1.021    0.020
        44  -8.3095    212.4898    163.0053   1.0138790986e+02   9.9928125135e+00    0.1849753    0.1027634  -2.19 0.0008102899    2.532    0.605
        45  -8.3570    246.7841    161.5051   9.5127974752e+01   4.0904290404e+00    0.2324328    0.1595622 -12.56  0.001060838    1.348    0.258
        46  -8.2984    238.1036    157.9979   9.5870881002e+01   5.9986066231e+00     0.278746    0.1504232  -7.71  0.001346366    2.080    0.519
        47  -8.2241    245.6936    156.4998   9.4293424576e+01   4.8358978456e+00    0.2594251    0.1371986  -8.69  0.001116634    2.039    0.510
        48  -8.6423    241.8083    152.9232   9.4202493645e+01   5.9291512034e+00     0.215153    0.1465258  11.45  0.001224175    1.295    0.228
        49  -9.3364    249.7757    150.2141   9.2320168199e+01   4.8277251526e+00     0.399326    0.1502619 -24.68  0.001721217    2.594    0.614
        50  -9.3973    243.8744    148.0276   9.2830155663e+01   6.1275668204e+00    0.3164418    0.1755302 -16.87  0.001613829    1.750    0.429
        51  -9.1518    234.8251    145.8249   9.3889263027e+01   8.0424371498e+00    0.3652793    0.1696089 -16.65  0.001574936    2.442    0.591
        52  -7.6899    200.2930    144.3525   9.9864141354e+01   1.4840062534e+01    0.1454817   0.09652601  10.65 0.0007030427    1.680    0.405
        53  -9.8797    243.5992    139.2461   9.0983054397e+01   7.2119314651e+00    0.2597689    0.2136878  -1.62  0.001066305    1.110    0.099
        54  -9.4996    242.0924    133.5637   8.9973568966e+01   8.1772968387e+00    0.3631005    0.1670038 -24.55  0.001584798    2.082    0.520
        55  -9.6952    202.3053    133.3981   9.7071483875e+01   1.6031323929e+01     0.385796    0.2778438 -52.94  0.001907039    2.026    0.506
        56  -8.9714    249.1848    123.0959   8.6437939541e+01   8.0940576367e+00    0.2755802    0.1886516 -25.36  0.001508519    1.411    0.291
        57 -10.6239    247.9684    130.3569   8.8290381061e+01   7.4569548790e+00    0.6609877    0.2365553 -25.70  0.002658407    2.649    0.623
        58  -8.8401    241.4842    124.9611   8.8116035910e+01   9.3489508861e+00     0.210205    0.1224994 -21.84 0.0009357843    1.605    0.377
        59  -8.9408    242.4957    118.5354   8.6449339524e+01   9.9480614277e+00    0.2572929    0.1212072 -13.08   0.00103736    2.435    0.589
        60  -9.4234    248.2099    117.8970   8.5381940045e+01   8.9082700568e+00    0.2667071    0.1676819   0.74  0.001335733    1.591    0.371
        61 -10.7119    230.0616    101.9664   8.4452839975e+01   1.4631927453e+01    0.5072227    0.2418869 -25.25  0.002141505    1.989    0.497
        62  -9.9033    225.8015     97.9954   8.4156036356e+01   1.6081842377e+01    0.4018537    0.1791712 -27.60  0.001620563    2.117    0.528
        63  -8.8585    249.6269     80.0139   7.5816805297e+01   1.3230490910e+01    0.3578666    0.2510526   6.87  0.001848441    1.428    0.300
        64  -9.1290    247.9743     73.0286   7.4237239425e+01   1.4423220345e+01    0.2334103    0.1525994  13.37 0.0007414744    1.670    0.401
        65  -9.5651    229.5500     71.7664   7.6566400515e+01   1.8698819649e+01    0.3801547    0.1601996  38.80  0.001398011    2.640    0.621
        66  -7.8151    244.2891     71.3690   7.4311689772e+01   1.5427857950e+01    0.1521911   0.09862804  13.89 0.0007023264    1.711    0.415
        67  -9.7675    248.6256     64.9511   7.2031335109e+01   1.5237664505e+01    0.3466999     0.172646 -20.60  0.001176272    1.849    0.459
        68  -9.2147    250.2892     56.1942   6.9507617016e+01   1.5881740143e+01    0.2821425     0.161866 -28.82 0.0009170673    1.552    0.356
        69 -11.0044    245.3574     54.2377   6.9601823699e+01   1.7208291585e+01    0.7029899    0.1568861 -34.26   0.00220714    3.606    0.723
        70 -11.6342    246.5748     44.3001   6.6781083583e+01   1.8046992244e+01    0.9749344    0.3755994 -22.78  0.003797372    2.357    0.576
        71  -8.3134    234.7677    247.8813   1.1136660343e+02  -2.2757129838e+00    0.1915368    0.1156546   0.06  0.001384031    1.747    0.427
        72  -8.6492    229.9691    236.1648   1.1051976949e+02  -6.4438934906e-01    0.1762593    0.1324403  10.73  0.001387188    1.224    0.183
        73  -9.1325    249.4965    233.6015   1.0711958988e+02  -3.1578808403e+00    0.2517687    0.1693417 -16.32  0.001907953    1.670    0.401
        74  -8.6663    215.6599    233.4846   1.1242882386e+02   1.6452458432e+00    0.1771756     0.162294  53.53  0.001422866    1.759    0.431
        75  -8.0724    204.4778    234.0147   1.1431209485e+02   3.2221852888e+00    0.1340637    0.1039193 -19.61   0.00103264    1.597    0.374
        76  -8.8233    236.1110    229.2442   1.0856666731e+02  -9.2061251613e-01    0.2175657    0.1930152 -33.75  0.001723635    1.940    0.484
