#   1 NUMBER                 Running object number                                     
#   2 MAG_AUTO               Kron-like elliptical aperture magnitude                    [mag]
#   3 X_IMAGE                Object position along x                                    [pixel]
#   4 Y_IMAGE                Object position along y                                    [pixel]
#   5 X_WORLD                Barycenter position along world x axis                     [deg]
#   6 Y_WORLD                Barycenter position along world y axis                     [deg]
#   7 A_WORLD                Profile RMS along major axis (world units)                 [deg]
#   8 B_WORLD                Profile RMS along minor axis (world units)                 [deg]
#   9 THETA_WORLD            Position angle (CCW/world-x)                               [deg]
#  10 FWHM_WORLD             FWHM assuming a gaussian core                              [deg]
#  11 ELONGATION             A_IMAGE/B_IMAGE                                           
#  12 ELLIPTICITY            1 - B_IMAGE/A_IMAGE                                       
         1 -14.6846     68.3989    144.1481   1.0860214001e+02   3.7143400697e+01     5.254946     2.562704  69.45  0.004799793    3.733    0.732
         2 -14.4918    197.6444     36.5521   4.9027002060e+01   3.1448253602e+01     1.953099     1.499866  18.43   0.00653347    1.734    0.423
         3 -14.5698    208.6466     24.9187   4.4478098137e+01   3.0196476931e+01     1.678995     1.179364  -0.24  0.003546202    2.052    0.513
         4 -11.7230    226.8440     19.5935   4.1212210607e+01   2.6469933102e+01    0.3145322    0.2665885 -24.61  0.001905703    1.353    0.261
         5  -9.0220    152.3588      8.7003   4.7220228803e+01   4.6128049519e+01    0.1426011   0.09877078 -69.45 0.0004142955    1.712    0.416
         6 -10.7466     61.4883      7.9518   6.9572298410e+01   6.6160338817e+01    0.1925728    0.1485151  27.37 0.0004276222    1.189    0.159
         7 -11.3290     43.2858      7.0052   7.6616196826e+01   6.9087819791e+01     0.259154    0.1281244  15.51  0.001195887    2.737    0.635
         8 -12.2689    232.6217      2.2701   3.6606952228e+01   2.7058912701e+01    0.7194722    0.2556225  75.38  0.002882912    2.689    0.628
         9 -11.5058     57.0043      2.2321   6.8389245948e+01   6.7545508032e+01    0.3751943    0.1190511  49.72  0.001514298    3.491    0.714
        10 -10.9636     30.1275      2.8874   8.0686317204e+01   7.1331866590e+01    0.2461563    0.1319543   3.22  0.001286724    2.296    0.565
        11 -11.8355    193.2303    195.0665   8.8816704911e+01   4.4957255988e+00    0.9778138    0.5295877 -64.06  0.003113149    5.594    0.821
        12 -10.7983    139.6305    249.7775   1.0741853468e+02   4.6567049709e+00    0.2279712    0.1901397  40.62  0.001538037    1.084    0.078
        13 -13.0222     71.7927    175.2747   1.1223023802e+02   2.9348703518e+01     1.084809    0.5984759 -30.68  0.003800863    4.921    0.797
        14 -14.4466     47.0023    221.0647   1.2187764286e+02   2.2815970412e+01     1.276087    0.7524179  80.37  0.005537712    1.521    0.343
        15 -13.1837     18.4734    191.9373   1.2523899177e+02   3.1840573278e+01    0.4244179    0.2748546  52.77 0.0004836959    1.404    0.288
        16 -16.3251     51.2764    200.6290   1.1938887153e+02   2.6440158265e+01     13.20819     4.488999 -81.25   0.02609221    3.869    0.742
        17 -16.3596     62.2962    247.7182   1.2108834046e+02   1.6016601020e+01     7.978909     2.709361  30.03   0.01235181    6.863    0.854
        18 -11.0087    140.4957    174.0040   9.6133158533e+01   1.8286332513e+01    0.3474865    0.2168165 -78.51  0.001400699    2.648    0.622
        19 -13.2419     55.4836    146.0286   1.1223813806e+02   3.8339744279e+01     1.981185    0.8151954 -47.40  0.007926762    2.870    0.652
        20 -11.0964    172.0294    240.4440   1.0022549322e+02   9.7094259796e-01    0.4198395    0.2610356 -71.21  0.002030431    3.425    0.708
        21 -17.0016      7.7019    245.1392   1.2990794025e+02   2.2607548463e+01     1.926755     1.439361  42.33   0.01405158    1.596    0.374
        22  -9.6979    161.4984    166.0711   8.9880378501e+01   1.5879757326e+01     0.214003    0.1454517 -49.09 0.0009888283    1.545    0.353
        23 -11.5462     32.4882    164.9556   1.2007613764e+02   3.6418576362e+01    0.3190526    0.1869558 -64.05  0.001543331    1.552    0.356
        24  -9.8402     82.0479    194.9491   1.1237952021e+02   2.3556766372e+01    0.2245908    0.1711328  49.80 0.0007689458    1.221    0.181
        25 -10.6254     73.6117    188.3233   1.1342285868e+02   2.6183464687e+01    0.2585398    0.1791181  70.40 0.0007486643    1.367    0.269
        26  -8.4229    155.5080    158.4980   8.9674381373e+01   1.8636488569e+01    0.1486448    0.1423445  69.30 0.0002874619    1.081    0.075
        27 -12.3580     89.9974    155.5337   1.0494300708e+02   3.1262180401e+01     0.614161    0.4668495 -25.64  0.003098875    1.868    0.465
        28 -11.1920    133.5663    143.9101   9.1775438499e+01   2.6205867158e+01     1.188765     0.300031 -55.15  0.002737471    6.092    0.836
        29 -10.5362    174.4013    148.4225   8.3259154676e+01   1.6839354532e+01     0.380899    0.2945504 -60.58  0.001767399    1.510    0.338
        30 -10.3793     41.4928    147.5072   1.1599079230e+02   3.9571962619e+01    0.2691055    0.2064931  69.46  0.001038476    1.260    0.206
        31 -11.0072     44.7228    144.5398   1.1479232676e+02   3.9933710549e+01    0.4013519    0.2465149  46.30  0.001153684    1.701    0.412
        32 -10.0157     84.6821    144.1172   1.0433204690e+02   3.4808260434e+01    0.3118776    0.2147231  81.60  0.001492815    1.736    0.424
        33 -11.0366    103.3419    140.5134   9.8757137844e+01   3.2627685101e+01    0.5682675    0.3475128 -29.88  0.002285015    2.505    0.601
        34 -12.4854     90.7843    140.5616   1.0207294223e+02   3.4709353429e+01    0.2808837    0.2490778 -52.59 0.0004304707    1.152    0.132
        35  -9.9722    144.2213    146.2154   8.9689788794e+01   2.3557611164e+01    0.2519958    0.1794526  84.47  0.001060991    2.092    0.522
        36 -12.7632     45.2343    136.4228   1.1354588668e+02   4.1832693275e+01    0.5504569    0.3275887 -75.05  0.002864881    1.493    0.330
        37 -12.9962     83.1176    162.6639   1.0778314966e+02   3.0637655198e+01     1.172943     0.452573  53.21  0.000402322    3.174    0.685
        38 -13.7590     71.2731    158.1806   1.1001804839e+02   3.3392202552e+01    0.5780609    0.5155436 -36.63  0.002612823    1.399    0.285
        39  -9.2823     95.4995    188.1664   1.0857779809e+02   2.2996563100e+01    0.1818188    0.1264208 -67.25 0.0006576622    1.448    0.309
        40 -10.3250    105.9920    130.7462   9.6012636287e+01   3.4483727424e+01    0.3382669     0.288148 -69.31  0.001343471    1.157    0.135
        41 -10.2936    112.2706    130.6232   9.4307422897e+01   3.3369800801e+01    0.3127652    0.2640921   3.51 0.0007688416    1.495    0.331
        42  -9.3980     98.5520    185.8092   1.0757081770e+02   2.3028484994e+01    0.1907313    0.1226866 -80.96 0.0009421374    1.763    0.433
        43 -11.0231    136.1082    128.2180   8.7566474069e+01   2.9238982346e+01    0.4579573    0.1885887 -48.00  0.001596523    2.394    0.582
        44 -11.1427     99.0413    126.9459   9.7073861959e+01   3.6610369591e+01    0.3796568    0.2768508  20.26  0.001048732    1.761    0.432
        45 -11.0792    119.1467    123.3760   9.0805896961e+01   3.3759610222e+01    0.6141689     0.369758 -17.41  0.002003095    3.663    0.727
        46 -10.3823    160.3983    127.5474   8.1512289636e+01   2.4191792464e+01    0.3388729     0.272309 -69.67  0.001382724    1.476    0.322
        47  -9.9825    108.3818    119.4762   9.2796105322e+01   3.6716806386e+01    0.2371568    0.2292545 -62.69 0.0002338813    1.021    0.021
        48 -12.2991     45.0268    115.0056   1.1023184920e+02   4.7051073788e+01    0.6692176    0.2481925  42.28  0.002740531    3.015    0.668
        49 -12.3461     43.7546    109.2702   1.0959391851e+02   4.8571334054e+01    0.4712012    0.3951032  45.08  0.002905313    1.367    0.269
        50 -10.1251    134.7010    112.5571   8.4006142994e+01   3.3047191324e+01    0.2938667    0.1390802 -46.10  0.001077506    2.060    0.515
        51 -11.7954    118.0471    108.5596   8.7399665752e+01   3.7389276840e+01    0.6601205    0.5114617 -64.44  0.002907635    1.401    0.286
        52 -10.1770    205.3596    110.2524   6.7669305148e+01   1.7504387390e+01    0.3471985    0.2291713  36.05  0.001175746    1.724    0.420
        53 -11.2814     33.3790    108.3889   1.1258908404e+02   4.9786407457e+01    0.3069327    0.2040638 -68.17  0.001734827    1.244    0.196
        54 -10.1011    146.8738    184.3199   9.6561550616e+01   1.4986785108e+01    0.2290481    0.1682241  58.78 0.0007422342    1.452    0.311
        55  -9.7959    168.1259    112.8643   7.6004594034e+01   2.5530986402e+01     0.377903    0.2399329 -64.50  0.001297752    2.230    0.552
        56 -10.2886    134.5539    104.3951   8.1861442537e+01   3.4877099929e+01    0.5777122    0.1512708 -43.37  0.001580563    3.746    0.733
        57  -9.3890     67.0468    104.4768   1.0143784995e+02   4.6957501384e+01    0.1962024    0.1419518  32.74  0.001022562    1.562    0.360
        58 -10.2618    241.5186    101.5086   5.9445248412e+01   1.1169837124e+01    0.1428917    0.1265178 -35.02 3.055355e-05    1.001    0.001
        59 -10.8320     33.5786    100.5717   1.1116914477e+02   5.1638176484e+01    0.2441275    0.2057253 -86.56  0.001038624    1.199    0.166
        60 -11.5208     52.9203     92.8070   1.0330809974e+02   5.1501719232e+01     0.509591     0.347767 -67.09  0.002701319    1.408    0.290
        61  -8.8647    108.5990     93.5208   8.5968296363e+01   4.2635487330e+01    0.1520057    0.1418833 -52.22 0.0001071092    1.057    0.054
        62 -11.2537     41.7942     91.0659   1.0661826756e+02   5.3111953223e+01    0.3708101     0.239417 -61.21   0.00104395    1.310    0.236
        63  -9.7396    161.1441     88.3963   7.0833502014e+01   3.2083086157e+01    0.2099371    0.1523405  65.33 0.0004265653    1.571    0.364
        64  -9.7089    107.8473    203.1836   1.0791638560e+02   1.7912381580e+01      0.20417    0.1577108  67.25  0.001195952    1.233    0.189
        65  -9.9330    157.4845     80.9413   6.9473517193e+01   3.4393214789e+01    0.2341903    0.1526013 -37.85 0.0003609258    1.510    0.338
        66  -9.2305    184.4968     77.4764   6.2823002223e+01   2.8407576781e+01    0.1520671    0.1491319 -34.90 1.355478e-05    1.032    0.031
        67  -9.4147     58.7841     67.3121   9.4480678610e+01   5.6528884883e+01    0.2575482    0.1123828  40.49  0.001082131    2.689    0.628
        68 -11.1654     13.4619     59.8018   1.0988069784e+02   6.2452074662e+01     0.234407    0.1806219 -62.42 0.0004038487    1.161    0.139
        69 -13.4914    188.2203     43.9133   5.2502921503e+01   3.2813282591e+01     1.152998    0.6984822  44.03 0.0009277062    1.846    0.458
        70 -10.4553    197.6319    222.9444   9.2782845249e+01  -6.0982532394e-01    0.2261443    0.1610903  39.25 0.0004970619    1.277    0.217
        71 -16.9691      6.3697    212.0836   1.2864837625e+02   2.8869991528e+01     9.001743     1.039307 -74.78   0.03136513    5.765    0.827
        72 -11.4668    148.9960     52.7982   6.2557692568e+01   4.1388387677e+01    0.5193782      0.34398 -79.44  0.001950162    2.393    0.582
        73 -11.0342    209.0958    198.2427   8.6320814300e+01   1.1955638981e+00    0.2625808    0.1944942 -47.35  0.001016203    1.661    0.398
        74 -11.5367     11.4072     52.8646   1.0902546892e+02   6.4056874259e+01    0.2167759    0.1610587 -20.36  0.001169566    1.399    0.285
        75 -10.7761    150.3088     46.0918   6.0067542086e+01   4.2092605158e+01     0.327457    0.2498712 -78.37 0.0006608146    1.651    0.394
        76 -11.6983     21.4197     33.7844   9.8816000245e+01   6.7193658367e+01    0.3346356    0.1691751  32.94  0.001828464    2.431    0.589
        77  -8.7152    115.5229     31.4064   6.2938934622e+01   5.2495012662e+01    0.1393385    0.1301227  29.12 0.0001447794    1.038    0.036
        78  -8.9611     99.3001    199.7034   1.0927685116e+02   1.9968385095e+01    0.1345543   0.08944955  68.94 0.0002592906    1.575    0.365
        79  -9.7345    189.7035     14.9956   4.4009367999e+01   3.6047154368e+01    0.1868189    0.1729464 -66.45 0.0005022825    1.071    0.066
        80  -9.3889    111.7826    217.8196   1.0896230360e+02   1.4438080970e+01    0.1763979    0.1570528  42.66 0.0004087936    1.180    0.153
        81 -10.0259    113.0495    198.7378   1.0620637607e+02   1.7971342152e+01    0.3566112    0.1908752  72.29  0.001380927    3.231    0.691
        82  -9.3928    130.5346    212.9971   1.0452509480e+02   1.2306311399e+01       0.1696    0.1290726 -61.07 4.110374e-05    1.482    0.325
        83  -9.3624    106.4616    210.2081   1.0910579885e+02   1.6735575735e+01    0.1631334    0.1171064 -86.02 0.0004729425    1.540    0.351
        84 -10.2075     99.4169    180.7017   1.0664061015e+02   2.4008096399e+01    0.2329871    0.2259531  47.05 0.0006325278    1.193    0.162
