#   1 NUMBER                 Running object number                                     
#   2 MAG_AUTO               Kron-like elliptical aperture magnitude                    [mag]
#   3 X_IMAGE                Object position along x                                    [pixel]
#   4 Y_IMAGE                Object position along y                                    [pixel]
#   5 X_WORLD                Barycenter position along world x axis                     [deg]
#   6 Y_WORLD                Barycenter position along world y axis                     [deg]
#   7 A_WORLD                Profile RMS along major axis (world units)                 [deg]
#   8 B_WORLD                Profile RMS along minor axis (world units)                 [deg]
#   9 THETA_WORLD            Position angle (CCW/world-x)                               [deg]
#  10 FWHM_WORLD             FWHM assuming a gaussian core                              [deg]
#  11 ELONGATION             A_IMAGE/B_IMAGE                                           
#  12 ELLIPTICITY            1 - B_IMAGE/A_IMAGE                                       
         1 -11.3164     20.7658     20.6602   3.8791679888e+01   7.4005648761e+01    0.4563077       0.2668 -20.78  0.001578034    2.105    0.525
         2 -11.5688     35.8472     18.6836   2.7413435898e+01   7.1982440331e+01     0.606095    0.4852961 -32.32  0.003607933    1.281    0.219
         3 -11.8590     16.3994     12.8233   3.7334683032e+01   7.5984072456e+01    0.6419613    0.2683109 -37.12   0.00284859    2.462    0.594
         4 -10.6147     13.3099      8.6651   3.7095695755e+01   7.7097780909e+01    0.2131075    0.1860613 -59.82 0.0006755069    1.558    0.358
         5 -12.0432    164.5214     18.0452   3.5421804432e+02   4.1902072071e+01    0.4086116     0.282474  38.34  0.002212169    1.970    0.492
         6 -11.2303    127.4874     11.4868   3.5631237900e+02   5.1536945892e+01    0.2444002    0.2052334  75.57  0.001020593    1.110    0.099
         7 -11.8466    127.6153     15.9067   3.5787960537e+02   5.1064079894e+01    0.3932067    0.2716884  61.57  0.001331821    1.390    0.281
         8 -11.3593    137.0437     14.4542   3.5611594786e+02   4.8876834180e+01    0.4282063    0.2267672  69.95  0.001274882    1.744    0.426
         9 -10.9314     88.6651      7.9261   1.4374517847e+00   6.1570740675e+01    0.3459358    0.2862394 -89.19  0.001192673    1.220    0.180
        10 -11.4854     85.9019     13.8823   4.8901155358e+00   6.1664611996e+01    0.4845248    0.3528131 -36.10  0.002119786    1.462    0.316
        11 -10.2014     84.7716     10.0273   3.3216420854e+00   6.2330271111e+01    0.2252093    0.1949723 -30.28 0.0003868721    1.257    0.204
        12 -10.3704    225.5795     13.4988   3.4870194286e+02   2.9479358344e+01    0.2305768    0.1312212 -50.37 8.888535e-05    1.320    0.242
        13 -12.0316    104.6121     11.9510   5.5893613758e-02   5.7218596412e+01    0.4781128     0.310044 -28.26  0.001710273    1.648    0.393
        14 -12.4064     48.6443     12.7937   1.6972901847e+01   7.0337758485e+01    0.7076473    0.2658431  51.67  0.002896396    2.429    0.588
        15 -11.8797     23.1437     10.2656   3.0289615171e+01   7.5416783719e+01    0.4172748    0.3405696  10.04   0.00182896    1.117    0.105
        16 -11.4310    212.0937      9.7922   3.4858750820e+02   3.2464861975e+01    0.3055148    0.1866729 -29.53  0.001126029    1.597    0.374
        17 -11.3615    169.2870      9.4133   3.5131975743e+02   4.1681830854e+01    0.3891663    0.1797845  62.36  0.001855083    2.199    0.545
        18 -11.3844     63.5581      9.3385   8.9893257277e+00   6.7454202664e+01    0.3702872    0.2634573 -55.58 0.0006530551    1.749    0.428
        19  -9.9343    144.6915      9.6919   3.5366345483e+02   4.7473312180e+01    0.1268937   0.09447835  43.37 0.0003309125    1.615    0.381
        20 -10.0485      5.6685      8.9392   4.4446441820e+01   7.7945262114e+01    0.1745151    0.1438211 -27.42  0.001050059    1.105    0.095
        21 -10.5502    185.7162      6.9323   3.4945880147e+02   3.8245517892e+01    0.1743109    0.1382226 -56.58 0.0007361425    1.053    0.050
        22  -9.6891     78.1690      7.3764   3.6325403974e+00   6.4190945020e+01    0.1868784    0.1196831  77.74 0.0005141175    1.626    0.385
        23  -9.7818      1.1680      7.0509   4.7823071742e+01   7.8724689144e+01    0.1591132   0.08182012 -51.17  0.000514578    1.861    0.463
        24 -10.6584    153.9925      6.5300   3.5176688524e+02   4.5533024840e+01     0.191364    0.1144991  80.58 0.0004944613    1.549    0.355
        25 -10.3485    128.9334      4.7587   3.5373087673e+02   5.1793270804e+01    0.1848463    0.1631768  66.47   0.00115729    1.159    0.137
        26 -12.0672    133.9960      2.6183   3.5242766243e+02   5.0725555531e+01    0.5964844    0.2306842  81.57    0.0024614    2.526    0.604
        27 -10.7737     41.2356      3.9996   1.4721380602e+01   7.2908110981e+01    0.3307298    0.1956729  26.84  0.001662923    1.881    0.468
        28  -9.5844     30.5799      4.7689   2.1193518210e+01   7.4906574359e+01    0.1638883    0.1166549 -39.05 0.0006115155    1.599    0.375
        29  -9.9294    223.5399      2.9099   3.4648842808e+02   3.0924332856e+01    0.1663028   0.09091749 -34.36 0.0008092946    1.560    0.359
        30 -11.0187    218.6509      3.1402   3.4675530977e+02   3.1837146381e+01    0.1956491    0.1491074 -89.04 0.0007020168    1.332    0.249
        31 -11.6118    113.8527      2.2872   3.5469000249e+02   5.5761368875e+01    0.4467278     0.234872  84.18  0.001897602    1.849    0.459
        32 -11.1266    206.1710      1.7166   3.4701630059e+02   3.4441813759e+01    0.2876426     0.104163 -75.72  0.001274304    3.016    0.668
        33  -9.8145      2.1808      1.7547   4.2922625107e+01   7.9578052805e+01    0.1754617    0.1197639 -15.19  0.001056239    1.396    0.284
        34 -10.8043    105.4747      1.9246   3.5573401157e+02   5.7889812908e+01    0.2648166    0.1670739 -82.50  0.001356411    1.643    0.391
        35  -9.9427    152.8762      1.4683   3.5031280050e+02   4.6250985676e+01    0.1884075    0.1121116  82.58 0.0008285815    1.536    0.349
        36  -9.7137     28.9186      1.4792   1.9713125485e+01   7.5617049512e+01    0.1805468    0.1128366  46.26 0.0003957431    1.483    0.326
        37 -12.1023      2.5617    111.3819   7.2833663152e+01   5.2877748665e+01    0.5232442     0.328882 -87.31 0.0007237699    1.455    0.313
        38  -9.8966    249.5201    249.9991   3.0810881083e+01  -5.1257783341e+00    0.1412236   0.07303531 -27.57  0.001019131    1.552    0.356
        39  -9.6587    239.5035    250.4637   3.2366226745e+01  -4.3536053527e+00    0.1025664   0.06840976  -6.31 0.0008095322    1.012    0.012
        40 -11.2820      3.5727    104.8608   7.1801618969e+01   5.4617963580e+01    0.5123862     0.319652  51.18  0.002498019    1.681    0.405
        41  -9.3084     58.6557    115.2873   5.1192631640e+01   4.6358458211e+01     0.160315    0.1132765  63.15 0.0004390738    1.649    0.394
        42  -9.6803     43.2906    115.6411   5.7118565243e+01   4.8259018775e+01    0.1595874    0.1092272  68.08  0.000470317    1.690    0.408
        43 -12.0439     26.1805    105.7134   6.2343703589e+01   5.2782993257e+01    0.7177539    0.5340211 -50.62  0.003663823    1.297    0.229
        44 -11.5973     22.2740    114.0577   6.5191816862e+01   5.0814316408e+01    0.5240454    0.3025697  -1.77  0.002176372    2.234    0.552
        45 -11.2494     27.6301    112.3435   6.2785322829e+01   5.0817992665e+01    0.3884339    0.2695513  33.33  0.001192545    1.488    0.328
        46  -9.7804     78.6636    114.7036   4.3880448428e+01   4.3399893716e+01    0.1588309    0.1211437 -18.79 0.0004491706    1.651    0.394
        47 -10.0325     48.9925    111.5102   5.4109573465e+01   4.8683697578e+01    0.2204544    0.1502402  28.13 0.0004265374    1.528    0.345
        48 -11.2133     79.6187    107.9282   4.1902695224e+01   4.4961646668e+01    0.3994551     0.335168  -5.50   0.00105106    1.419    0.295
        49 -11.1809     16.5856    108.8232   6.6814387776e+01   5.2711644129e+01    0.3240007    0.2087948  78.45  0.001525434    1.643    0.391
        50 -11.3480     49.8905    101.2544   5.1564499097e+01   5.1327715073e+01    0.5736542     0.368132 -22.14  0.002390781    2.114    0.527
        51 -11.1242     35.4073    102.8921   5.7945641947e+01   5.2641476923e+01    0.3041697     0.223928  -8.62  0.000330914    1.631    0.387
        52 -11.2154     17.2139    100.4671   6.5387274494e+01   5.4971870039e+01    0.2698285    0.1835536 -72.22 0.0006992928    1.338    0.253
        53 -11.6869    210.3896     98.1473   9.3023463632e+00   2.1136146086e+01    0.2128207     0.188572 -42.65 0.0002673178    1.075    0.070
        54 -11.7919    248.0142     94.8472   4.1714882067e+00   1.5470946688e+01    0.3668282    0.2456777  -8.83  0.002165734    2.090    0.521
        55  -9.4347     77.4892     96.5351   3.9658806320e+01   4.8186301544e+01    0.2337859    0.1871947 -20.69 0.0006824374    1.483    0.326
        56 -11.0719     79.2168     93.1997   3.8096693038e+01   4.8688596154e+01     0.689255    0.2580782 -54.62  0.002264111    2.739    0.635
        57 -11.8293     67.9334     94.9481   4.2794600109e+01   5.0240991807e+01    0.4013359    0.3097557  43.86  0.001132298    1.335    0.251
        58 -11.5227     22.9587     94.4206   6.1840099605e+01   5.6166969952e+01    0.4364825    0.2454486 -35.55  0.001886829    1.985    0.496
        59 -10.6008      8.1046     96.1534   6.8840972370e+01   5.6761093428e+01    0.2467826     0.200337  26.24  0.001372405    1.345    0.256
        60  -9.9591     42.9566     94.6882   5.2985110829e+01   5.3979256453e+01    0.2068424    0.2038307  39.16  0.001059584    1.065    0.061
        61  -9.1926    125.7290     93.7249   2.4015551460e+01   3.9068969206e+01    0.1434916    0.1203834  -2.44 -0.000275831    1.484    0.326
        62 -10.0191     35.6156     92.7468   5.5785833394e+01   5.5367510390e+01    0.2070759    0.1376271 -79.41 0.0004862137    1.618    0.382
        63 -10.7053    240.4898     90.9967   4.1668822606e+00   1.7164918735e+01    0.1822274   0.07060281 -49.62 0.0008105357    2.588    0.614
        64 -10.2766     98.1739     90.7683   3.0974870260e+01   4.5553403472e+01    0.2233072    0.2054231  76.82  0.000472232    1.152    0.132
        65 -10.3825     43.8762     90.5583   5.1605184923e+01   5.4956940458e+01    0.2379513    0.1865387 -51.21 0.0003580857    1.211    0.174
        66 -11.8564     18.5040     87.4072   6.2659199117e+01   5.8438090834e+01    0.5834152    0.3014795 -85.58  0.002387185    2.206    0.547
        67 -10.0200     38.9398     90.3173   5.3746192642e+01   5.5632501419e+01    0.1999239     0.190124   3.89 0.0004401941    1.108    0.098
        68 -11.5647      5.9060     88.2162   6.8816904597e+01   5.9046297535e+01    0.5737492    0.3618456   6.74  0.002201159    1.789    0.441
        69 -11.5178     27.9276     84.7857   5.7610295377e+01   5.8306247411e+01    0.4887806    0.3523631 -33.61  0.001584233    1.453    0.312
        70 -10.0594     52.1862     87.1278   4.7091813445e+01   5.4705858906e+01    0.2023045     0.174128  88.66 0.0004239993    1.293    0.227
        71 -10.9799     45.2438     84.3101   4.9400837535e+01   5.6405207062e+01    0.3488885    0.2839318 -55.84  0.001461523    1.168    0.144
        72  -9.5289     36.7894     85.6005   5.3609336425e+01   5.7133417579e+01    0.2085557    0.1320198  37.74 0.0009493728    1.648    0.393
        73 -12.4418     60.8836     83.3924   4.2339881930e+01   5.4294577297e+01    0.2896705     0.284272  53.11  0.000378206    1.054    0.051
        74  -9.1157    151.2789     83.7204   1.5388266466e+01   3.5417875263e+01    0.1433039     0.108736 -70.34 0.0001638603    1.505    0.336
        75 -12.6772    247.7332     76.2712   4.3500034066e-01   1.8035660125e+01     0.460883    0.2634142 -43.52  0.002847297    1.319    0.242
        76  -9.8831    113.1949     82.1770   2.3910762454e+01   4.4199349305e+01    0.2160735     0.180332 -77.85 0.0007797783    1.356    0.262
        77 -10.8266      2.4631     80.8102   6.9492284540e+01   6.1212780824e+01    0.4170808    0.2149643  75.32  0.001773269    2.305    0.566
        78  -9.3962    197.0248     81.2070   7.1683270969e+00   2.6275753051e+01    0.1528633    0.1074308  61.03 0.0004817947    1.642    0.391
        79  -9.8641    162.4106     81.2757   1.2603072741e+01   3.3418691801e+01    0.1841474    0.1244133 -47.83 0.0002402462    1.371    0.271
        80 -11.1792     76.1271     79.8753   3.5201687557e+01   5.2427724210e+01    0.6038667    0.4007519  67.06  0.002489396    2.144    0.534
        81 -10.3384     77.2508     76.0214   3.3522895291e+01   5.3091103374e+01     0.374435    0.2657162  64.12 0.0008855626    1.767    0.434
        82 -10.0463     67.8334     80.6841   3.8677134350e+01   5.3763763467e+01     0.240986      0.19777   6.81 0.0008291802    1.426    0.299
        83 -10.4799     89.0911     77.0677   2.9652381064e+01   5.0473224768e+01    0.3530986    0.2088355  48.70  0.001075822    1.737    0.424
        84 -10.6294     53.5411     76.0182   4.3266699338e+01   5.7279871111e+01    0.2779798     0.268336  80.76  0.001383578    1.105    0.095
        85  -9.4180    158.9553     75.9763   1.1767350757e+01   3.5088489972e+01    0.1678997    0.1521926 -52.99 0.0003752878    1.010    0.010
        86 -10.7630     95.1687     75.6336   2.7175940519e+01   4.9497023957e+01    0.3263508     0.263269  60.32 0.0008237978    1.318    0.241
        87 -11.1163     14.2028     74.3818   6.2326215399e+01   6.2236451281e+01    0.3142853    0.2447903 -68.73  0.001712594    1.193    0.161
        88 -11.7254     27.4457     73.4247   5.5156168416e+01   6.1331620977e+01    0.3646342    0.2612216  -5.15 7.350753e-05    1.598    0.374
        89 -10.9974      2.0454     71.1127   6.8276005811e+01   6.3805389193e+01    0.4096714    0.1987766 -63.73  0.001872194    1.723    0.420
        90 -10.6788     35.2642     71.5851   5.0648751690e+01   6.0924571978e+01    0.4286252     0.195125  43.86  0.001535729    2.535    0.606
        91 -10.8033     40.5172     72.7560   4.8374084277e+01   5.9965796093e+01    0.3439299    0.2669151   2.52 0.0009667685    1.452    0.311
        92 -10.8140     40.2532     68.8074   4.7300758879e+01   6.0976232510e+01    0.3129596    0.2449397  31.82  0.001088145    1.320    0.242
        93  -9.7341     80.6848     71.2839   3.0648476087e+01   5.3454455456e+01     0.150155     0.120597  83.67  0.000280869    1.580    0.367
        94 -11.0067    122.8235     68.2558   1.6991447712e+01   4.4716022809e+01    0.3342487    0.2328342  43.89 0.0005064361    1.543    0.352
        95 -10.2278    222.4716     67.4660   9.6964580181e-01   2.3502168188e+01    0.1260681    0.0981109 -47.93 5.081886e-05    1.036    0.035
        96 -10.0394    102.0895     66.8609   2.2067495023e+01   4.9748189040e+01    0.2156328    0.1971218 -83.05  0.001142911    1.147    0.128
        97 -11.4756     14.8924     56.4606   5.7666956715e+01   6.6765217384e+01     1.209717    0.4822301  -8.07  0.003655584    4.962    0.798
        98 -10.2592      9.2227     55.4303   6.0893773910e+01   6.7435997960e+01    0.3113341    0.1522219  35.97  0.001219668    2.253    0.556
        99 -11.9095      7.5321     63.4789   6.3774805759e+01   6.5506370266e+01    0.3580301    0.2393148 -32.21 0.0005256369    1.479    0.324
       100 -12.6406      4.3045     61.1045   6.5187055463e+01   6.6292258869e+01     0.497324     0.238743 -51.95 0.0003411128    1.762    0.432
       101 -10.1236    202.4952     63.5025   2.1993672730e+00   2.7841678133e+01    0.2427798   0.08909881 -43.55 0.0009034497    2.218    0.549
       102  -9.6130    105.5027     63.4821   1.9907572600e+01   4.9612528840e+01    0.1485403    0.1447132 -84.06 0.0008104154    1.003    0.003
       103 -10.9161     92.6201     62.5477   2.3448372097e+01   5.2706126030e+01    0.3400103     0.258967  71.90 0.0008028385    1.551    0.355
       104 -11.6439     39.4718     56.5505   4.3545323445e+01   6.3990250258e+01     0.307452    0.2404959  30.41 0.0005183476    1.302    0.232
       105 -11.4225     43.1386     60.3678   4.3018286845e+01   6.2581255518e+01     0.412946    0.2676141 -56.12 0.0007065259    1.547    0.353
       106 -11.4075     46.4736     59.4767   4.1014497303e+01   6.2281150916e+01    0.6595269    0.2650401  46.45  0.002300056    3.085    0.676
       107  -9.6425    159.7819     62.4227   7.7887494282e+00   3.7128972823e+01    0.1910099    0.1273791  48.69 0.0009353032    1.689    0.408
       108  -9.7388    113.4656     60.5038   1.6729565671e+01   4.8300778352e+01    0.1466026    0.1431786 -81.47 3.078567e-05    1.021    0.021
       109 -10.7713     26.1670     59.3620   5.1866112786e+01   6.4990962158e+01    0.3140896     0.209078  29.46  0.001574729    1.557    0.358
       110 -10.7548     25.3457     55.5395   5.1113772796e+01   6.6001616109e+01    0.3404586    0.1979312 -38.34 0.0009887306    1.716    0.417
       111 -11.4083     75.4868     54.9859   2.6535054704e+01   5.7878289284e+01    0.6449518    0.2680461 -48.79  0.002330445    2.630    0.620
       112 -11.5406     72.6161     46.2352   2.4019245232e+01   6.0124366194e+01    0.5349308    0.2901405 -54.53  0.002162272    2.359    0.576
       113 -10.6010    124.5820     56.8333   1.2810181867e+01   4.6292555123e+01    0.2440057    0.1966378  48.81 0.0004492271    1.296    0.228
       114 -10.0662    118.6392     56.3191   1.4006182861e+01   4.7797678416e+01    0.1573716    0.1114473 -75.40 0.0007042831    1.767    0.434
       115 -11.1737     31.4470     53.0408   4.6697177399e+01   6.5873621421e+01    0.4433615    0.2657359   1.24  0.001922461    2.257    0.557
       116 -10.6545     59.8718     50.7122   3.1201967961e+01   6.1841905139e+01    0.5106387    0.2703327 -62.34  0.001843209    3.133    0.681
       117 -11.9336    119.7384     37.4711   7.0676585400e+00   5.0424223527e+01    0.5314327    0.2892502 -45.58  0.001814709    1.850    0.459
       118 -10.3351    112.5746     50.2051   1.3308325237e+01   5.0259968869e+01    0.3706082     0.265769 -24.96  0.001231124    1.588    0.370
       119 -11.3903    116.8326     47.7694   1.1421617615e+01   4.9618935942e+01    0.4505346    0.3463497  34.74  0.001279661    1.526    0.345
       120 -11.0327    116.5070     43.4779   9.9451622802e+00   5.0353230535e+01     0.325429    0.2668104  12.56   0.00104208    1.559    0.359
       121 -10.0336    155.3272     48.7999   4.5040865136e+00   4.0212747701e+01    0.1922698    0.1271967 -24.82 0.0004388841    1.703    0.413
       122  -9.5070     52.3075     48.2962   3.3693384025e+01   6.3717495575e+01    0.1441352    0.1098122  -5.12 0.0002706771    1.589    0.371
       123  -9.7661      2.0112     48.4949   6.3847052917e+01   6.9565861412e+01    0.1890079    0.1280084   8.88  0.001024095    1.567    0.362
       124 -12.1872     42.1514     44.0884   3.7068691518e+01   6.6294624176e+01    0.7612874    0.3177715  34.59  0.002409911    2.426    0.588
       125 -11.0800    243.6684     51.0957   3.5558022176e+02   2.1935927491e+01    0.1783125     0.130667 -63.94 0.0002889371    1.283    0.221
       126 -10.7533     29.7915     45.2321   4.4665862077e+01   6.7844796356e+01    0.4053731    0.2185312 -20.24  0.001575556    2.873    0.652
       127 -10.6344     20.6810     45.7800   5.0588974369e+01   6.8783859380e+01    0.2322869    0.2135472  -5.96 0.0005620871    1.073    0.068
       128 -10.0890     13.7304     45.8488   5.5186884419e+01   6.9421820371e+01    0.2321684    0.1407058 -41.52 0.0007050888    1.511    0.338
       129  -9.8802    138.9802     44.0210   5.6927529707e+00   4.4794878771e+01    0.2254009    0.1691663  28.53  0.001126474    1.777    0.437
       130 -11.0056     26.3249     42.4038   4.5653871438e+01   6.8901789950e+01    0.3456939    0.2817803 -85.32  0.001020482    1.631    0.387
       131 -10.5076     23.7406     37.3763   4.5185165227e+01   7.0302293224e+01    0.3165309    0.1536487  40.19   0.00137103    2.295    0.564
       132 -10.7810    110.2376     39.3939   9.8533382567e+00   5.2486656292e+01    0.4582355     0.216145 -22.03  0.001681824    2.955    0.662
       133 -10.2366     57.0113     41.8432   2.8613335019e+01   6.4099281188e+01    0.2125718     0.191993  66.77  0.001090128    1.273    0.215
       134 -10.4727     18.1718     40.3981   5.0208391183e+01   7.0261924343e+01    0.2444914    0.1585083 -40.10  0.001271798    1.430    0.301
       135 -11.0926      3.9278     37.3208   5.9344040581e+01   7.2129526981e+01    0.5499383    0.3488004 -82.41  0.002824533    1.916    0.478
       136 -10.2562    249.9668     38.9556   3.5265740301e+02   2.2337019189e+01    0.1710734    0.1220172 -49.40 0.0003676415    1.033    0.032
       137 -10.8649     78.5503     37.4913   1.8033673583e+01   6.0300866922e+01     0.400878    0.2709194 -72.82  0.001759537    2.279    0.561
       138 -11.1263     78.9480     33.6821   1.6181722382e+01   6.0797737812e+01    0.5579866    0.3504328  24.37  0.002429466    2.227    0.551
       139 -10.0602     60.6024     36.7585   2.4628507413e+01   6.4294883828e+01    0.2792392    0.1338439 -42.33 0.0008837451    2.162    0.538
       140 -10.1648     62.1418     33.4527   2.2372124155e+01   6.4529636875e+01    0.2630587    0.2029961  40.11 0.0006721036    1.243    0.196
       141 -10.5204    153.0553     35.7509   8.7410372307e-01   4.2529683990e+01    0.2254533    0.1830738 -47.39 0.0005210215    1.154    0.134
       142 -10.6605    175.2534     34.2141   3.5769288555e+02   3.7570110957e+01    0.2567391    0.1712112 -60.71 0.0006459476    1.387    0.279
       143 -10.6742    103.2831     32.6938   8.8704749644e+00   5.5131517690e+01    0.2182633     0.189407 -78.79 0.0001838245    1.192    0.161
       144 -11.5118    107.3380     31.0903   7.2932150662e+00   5.4347622114e+01    0.4994344    0.3261182  10.84  0.001612465    2.437    0.590
       145 -12.4402    112.7192     24.9180   3.7463952077e+00   5.3784715046e+01    0.7413422    0.3320101  62.48  0.003138787    2.038    0.509
       146 -12.6595    105.6068     19.9684   3.1798946415e+00   5.6130938862e+01    0.3466052    0.2818182 -71.69 0.0003931964    1.272    0.214
       147  -9.9894    217.1702     32.1587   3.5341171528e+02   2.9024915741e+01     0.172739    0.1076257 -54.53 0.0003761316    1.310    0.237
       148 -11.6874     58.2755     29.3479   2.1969734126e+01   6.5990507359e+01    0.3856823    0.2599376  26.38  0.001895207    1.690    0.408
       149 -11.3746     48.9295     29.9443   2.6654735117e+01   6.7752062833e+01    0.7308922    0.2116863  40.54  0.002402674    3.555    0.719
       150 -10.4674     10.0666     30.3779   5.2019429969e+01   7.3235345969e+01    0.2565753     0.180374 -83.25  0.001348829    1.994    0.499
       151 -12.1932    127.4123     28.3405   2.3504836888e+00   4.9713743919e+01    0.6378326    0.3659838  82.15   0.00154056    1.904    0.475
       152 -11.6999     26.4716     27.3932   3.8479158939e+01   7.1961918503e+01    0.4598201    0.3147462 -54.11  0.001576499    1.650    0.394
       153 -10.0527    177.3439     29.3167   3.5612681220e+02   3.7694017672e+01    0.1237306   0.09804711  35.00 0.0003554031    1.716    0.417
       154 -11.5520    157.6988     29.0938   3.5824128501e+02   4.2253764854e+01    0.3761221    0.1712049  76.04  0.001517877    2.294    0.564
       155 -10.8028    189.2005     27.1609   3.5443890743e+02   3.5336250732e+01    0.3095904    0.2067516  37.66  0.001661318    2.246    0.555
       156 -11.4516    230.3769     26.5778   3.5127757682e+02   2.7176452198e+01    0.1956968       0.1881 -40.02  0.000989081    1.360    0.264
       157 -11.0081    183.6324     26.4674   3.5475530349e+02   3.6630128298e+01    0.3445631    0.1389243 -45.15  0.001509069    2.052    0.513
       158 -12.5682    164.8089     27.3362   3.5689286122e+02   4.0793404108e+01    0.3157382    0.2576551 -78.38 0.0004879803    1.119    0.106
       159 -10.4579    219.3874    247.8529   3.5162248344e+01  -2.2901560750e+00    0.1478799   0.07437332 -24.03 0.0009464524    1.723    0.420
       160 -10.8805     46.3927     24.0451   2.4734544371e+01   6.9195775554e+01    0.2923425    0.2185251  14.00  0.000847887    1.485    0.327
       161 -10.3695     46.6088     19.7221   2.2139154911e+01   6.9808699591e+01    0.2082174    0.1877491 -64.57 0.0008572599    1.393    0.282
       162 -11.8756    246.2318     21.5105   3.4932941731e+02   2.4920696008e+01    0.4520544    0.1615354  66.38  0.002390978    3.240    0.691
       163 -10.6388    169.4031     22.9946   3.5516004641e+02   4.0229190369e+01    0.2378331    0.1770072  82.91 0.0005753824    1.299    0.230
       164 -11.0672    178.5797     20.9350   3.5372470002e+02   3.8375882564e+01    0.4113909    0.2173246  44.03   0.00190598    2.788    0.641
       165 -12.0127    148.9384     22.2485   3.5719788538e+02   4.5142983150e+01    0.3746246    0.1685996  66.24  0.001676148    2.090    0.521
       166 -10.8699    134.4697     21.5485   3.5887897873e+02   4.8758314395e+01     0.251985    0.2268709 -77.63  0.001373197    1.012    0.012
       167 -10.7586     68.9105     20.2734   1.3088043976e+01   6.4958001071e+01    0.3745233    0.3084268 -29.90  0.002151752    1.291    0.226
       168  -9.7401     53.4002     21.8150   2.0101794073e+01   6.8133215546e+01    0.1852967    0.1271632 -16.50 0.0009394981    1.681    0.405
       169 -10.3528    131.5152    240.5214   5.0612102213e+01   8.0211394585e+00    0.1210031   0.09762508  12.81 0.0002436556    1.026    0.025
       170 -11.5370      9.0327     19.5699   4.7690471755e+01   7.5579785639e+01    0.3982218    0.2299291  -9.54 0.0003736619    2.039    0.509
       171 -10.7125    248.2593    223.0605   2.7094724997e+01  -1.9647819912e+00    0.2719626    0.1576557 -42.77  0.001780233    2.260    0.558
       172 -10.0952      8.6683    211.3158   7.6757517867e+01   2.6974064600e+01    0.1376677   0.06776488  52.95 0.0007046504    1.684    0.406
       173  -9.5541    171.4886    208.5007   3.7929318078e+01   8.4176786561e+00    0.1252726    0.1027504  -2.67 9.098378e-05    1.013    0.013
       174  -9.9246     39.7653    205.9958   6.8704292492e+01   2.5350608832e+01    0.1654111    0.1053408 -78.70  0.000888404    1.657    0.396
       175 -11.6036      3.1187    182.7370   7.7025339424e+01   3.4030887335e+01     0.426722    0.1936867 -79.12  0.002006271    2.078    0.519
       176 -10.4680    132.3559     15.3079   3.5701360909e+02   4.9948044375e+01    0.2835324    0.1895921  18.69  0.001345505    2.205    0.546
       177  -9.3695     85.6806    185.3248   5.4413639790e+01   2.4692331672e+01    0.1472315     0.100774  59.84  0.000440165    1.676    0.403
       178 -10.2434     15.9961    173.5033   7.2928089958e+01   3.5341744363e+01    0.2057166   0.07217506  45.05 0.0008095605    2.458    0.593
       179 -11.4468      8.5934    166.7803   7.4688202044e+01   3.7623228725e+01    0.2427991     0.183682  25.87  0.001089006    1.370    0.270
       180  -9.3971     80.6462    164.6878   5.2824777432e+01   3.0319681830e+01    0.1523816    0.1113071 -21.23 0.0007044826    1.730    0.422
       181 -10.3207    235.4732     16.5448   3.4884743409e+02   2.7340131092e+01    0.1124614    0.0852092 -52.25 0.0001114671    1.041    0.039
       182 -11.0626    228.5292     15.4819   3.4897895873e+02   2.8721527441e+01    0.2108592    0.1389089 -48.73 9.680262e-05    1.135    0.119
       183 -10.2902    205.0552    163.2742   2.3751004021e+01   1.1368992564e+01    0.1747136    0.1494859 -16.78  0.001152793    1.064    0.060
       184  -9.9988    186.5175     15.0250   3.5150595632e+02   3.7255914106e+01    0.1817727    0.1087437 -33.97 0.0006119147    1.544    0.352
       185 -12.4177     13.2470    160.1668   7.2870967788e+01   3.8987406972e+01    0.4864342    0.3303238 -42.99  0.002523328    1.722    0.419
       186  -9.5467     93.6750     15.7134   3.8990072333e+00   5.9560228828e+01    0.1409934   0.09535564  38.69 0.0003201061    1.605    0.377
       187 -10.4285    243.4072     13.8322   3.4790385194e+02   2.6218142919e+01     0.148813   0.09216308 -24.75 0.0009544001    1.748    0.428
       188 -12.1094     22.2315    149.5067   6.9166673378e+01   4.1088991216e+01    0.6214844    0.3081152 -33.91  0.002250819    2.851    0.649
       189  -9.8517      4.6620    153.3159   7.5110672606e+01   4.1394392599e+01    0.1507506   0.08291289  56.05 0.0003287503    1.700    0.412
       190 -10.2259    240.6983    152.3733   1.6257406442e+01   8.2608957942e+00    0.1128767   0.08053736 -51.36 0.0007029902    1.754    0.430
       191 -11.1230    120.6616     11.5532   3.5728682640e+02   5.3234255344e+01    0.2576449    0.1137334  66.72  0.001099013    2.010    0.503
       192  -9.8148     55.6580    152.6782   5.8657830810e+01   3.6732516449e+01    0.1538008    0.1092361 -30.75 0.0007050378    1.725    0.420
       193 -11.0873     47.5155    145.5372   6.0316619525e+01   3.9612455149e+01    0.3428967    0.2390316  24.11  0.001657983    1.497    0.332
       194  -9.2298    104.2917    147.6245   4.3003769870e+01   3.0840378678e+01    0.1551635    0.1177659  77.91  0.000165553    1.734    0.423
       195 -10.0855     16.5138    147.4857   7.0873414333e+01   4.2098560600e+01    0.1402736    0.1258795  79.70 0.0001151277    1.001    0.001
       196 -10.7046     32.9053    143.9357   6.5026498197e+01   4.1615323986e+01    0.2691089    0.2234592 -80.89 0.0007830968    1.138    0.121
       197 -11.9257      3.3008    141.9182   7.4857956076e+01   4.4511786202e+01    0.4766721    0.3299839  24.39  0.002561565    1.529    0.346
       198  -9.7050    105.4516    142.5372   4.1648663229e+01   3.1866009207e+01    0.1486108    0.1462296 -23.98 0.0001041081    1.009    0.008
       199 -11.1900     40.6049    138.4397   6.1690971550e+01   4.2312853913e+01    0.4449851    0.2790664 -72.93  0.001196766    1.537    0.349
       200 -11.6843     22.8008    137.3934   6.7786509289e+01   4.4326108581e+01    0.4392637    0.2970377 -34.64  0.002131781    1.743    0.426
       201 -10.2664     20.4936    134.0249   6.8249811638e+01   4.5441537128e+01     0.260597    0.2526446 -87.50 0.0009751121    1.081    0.075
       202 -11.8348     12.5771    135.1220   7.1162901558e+01   4.5744195339e+01    0.5371597    0.2574062 -47.24  0.002258753    2.258    0.557
       203 -10.6608     30.3340    132.6193   6.4558604696e+01   4.4957796636e+01    0.2975233    0.2134321 -38.30  0.000821365    1.562    0.360
       204  -9.7097     26.2775    131.3239   6.5866019169e+01   4.5689687750e+01    0.1488404    0.1006331 -44.36 0.0002056686    1.585    0.369
       205  -9.4306     26.6959    127.2765   6.5216251257e+01   4.6768841116e+01    0.1495239    0.1004056  59.13 0.0001835164    1.545    0.353
       206 -10.9455     11.1936    125.0422   7.0748394055e+01   4.8605292832e+01    0.4435657    0.2157711 -43.65  0.001856516    2.266    0.559
       207 -10.8397    104.3766    122.5131   3.7527581369e+01   3.6880700108e+01    0.3029063    0.2926066  42.55 0.0009773404    1.056    0.053
       208 -12.1551    245.8971    119.4364   9.2918128673e+00   1.2314550788e+01    0.3392478    0.1908901 -46.35  0.001991424    1.619    0.382
       209  -9.8884    218.3283    116.3057   1.2177893608e+01   1.6939402049e+01    0.1239624   0.09105895  -7.22 0.0003806202    1.653    0.395
       210 -11.9985      7.8775    114.7753   7.1029700987e+01   5.1647636557e+01    0.3112215    0.2515078 -71.77 0.0003451519    1.118    0.106
