#   1 NUMBER                 Running object number                                     
#   2 MAG_AUTO               Kron-like elliptical aperture magnitude                    [mag]
#   3 X_IMAGE                Object position along x                                    [pixel]
#   4 Y_IMAGE                Object position along y                                    [pixel]
#   5 X_WORLD                Barycenter position along world x axis                     [deg]
#   6 Y_WORLD                Barycenter position along world y axis                     [deg]
#   7 A_WORLD                Profile RMS along major axis (world units)                 [deg]
#   8 B_WORLD                Profile RMS along minor axis (world units)                 [deg]
#   9 THETA_WORLD            Position angle (CCW/world-x)                               [deg]
#  10 FWHM_WORLD             FWHM assuming a gaussian core                              [deg]
#  11 ELONGATION             A_IMAGE/B_IMAGE                                           
#  12 ELLIPTICITY            1 - B_IMAGE/A_IMAGE                                       
         1 -16.5559    228.6219     75.3708   5.3795432755e+01   1.7887716271e+01     8.476442     4.767279 -24.89   0.03682268    1.976    0.494
         2 -10.9311    123.9040      3.9611   4.9455122952e+01   5.3210549435e+01    0.4695273    0.2410742  37.78  0.002166267    1.937    0.484
         3  -9.6122    188.5371    123.4014   7.3221672492e+01   1.8543922396e+01    0.3633059    0.2672274 -48.37  0.001126729    1.412    0.292
         4  -9.4940    178.0822    210.3896   9.3780054177e+01   4.3602335961e+00    0.2415441    0.2006882 -46.36  0.001097172    1.424    0.298
         5 -10.6044    197.6748    204.4298   8.8809283015e+01   1.9049563617e+00    0.3022304    0.2651573 -50.82  0.001840231    1.471    0.320
         6 -10.6105    210.7292    201.5720   8.5735478298e+01   9.9052964250e-02    0.4159817    0.1724574 -39.29   0.00179194    2.562    0.610
         7  -8.9851    186.5075    203.0523   9.0796741017e+01   4.0932161035e+00    0.1926565    0.1337517 -41.12  0.001029642    1.600    0.375
         8  -9.5017    167.5370    201.7750   9.4481334574e+01   7.7124247810e+00    0.3063911    0.1376468 -48.41  0.001290268    2.566    0.610
         9  -9.3902    241.5591    201.9144   8.0091425659e+01  -4.9925632394e+00    0.2145104    0.1623415  30.86 0.0003890748    1.313    0.239
        10  -9.5607    202.9654    197.6943   8.6523679075e+01   2.0559983920e+00    0.2202965    0.1997809 -71.31 0.0009891345    1.588    0.370
        11  -9.4410    177.8617    197.6019   9.1591083176e+01   6.5782415681e+00    0.2589275    0.2084708 -51.35  0.001451656    1.476    0.323
        12 -10.3729    186.2258    192.5708   8.8934150451e+01   5.9263005054e+00    0.3816921    0.2269666 -43.48  0.001808137    1.843    0.457
        13  -9.3459    199.4801    191.6076   8.6060134662e+01   3.6737642493e+00    0.2714784    0.1331588 -39.05  0.001203082    2.141    0.533
        14  -9.1807    179.3277    190.4336   8.9965959912e+01   7.5781308764e+00    0.2591344      0.17735 -45.25 0.0009327404    1.617    0.381
        15  -7.8616    250.3091    186.6228   7.5598028874e+01  -4.2222861089e+00     0.117136    0.1016045 -54.42 0.0007028525    1.785    0.440
        16 -10.8826    202.4766    183.9117   8.3955765902e+01   4.4207310349e+00    0.3446647     0.268105 -45.17  0.001159031    1.482    0.325
        17  -9.8775    182.9550    183.7558   8.7927011761e+01   8.1010338566e+00    0.3617355    0.2072885 -47.72  0.001630849    1.976    0.494
        18 -10.6869    211.1017    182.7463   8.2019158774e+01   3.0384061030e+00     0.409699    0.3080274 -71.51  0.001961355    2.462    0.594
        19  -8.8660     64.5052    184.0471   1.1466072721e+02   2.8329321008e+01    0.1824206     0.154632  67.15 0.0003719861    1.074    0.069
        20  -8.9283    243.8677    182.2818   7.5850124177e+01  -2.5606578948e+00    0.2450778    0.1495941  32.21  0.001238294    1.601    0.375
        21  -9.9839    190.7241    178.9180   8.5346812444e+01   7.4968538106e+00    0.3136611    0.2566797 -52.98  0.001394997    1.471    0.320
        22  -9.4249    176.4886    178.5738   8.8281229357e+01   1.0295770892e+01    0.2906591    0.1428534 -44.29  0.001205358    2.161    0.537
        23  -8.8667    169.5399    178.9600   8.9860209887e+01   1.1564795047e+01    0.2125772    0.1432722 -43.96   0.00102462    1.577    0.366
        24 -11.4569      6.2125    172.2975   1.2632404720e+02   3.7139711439e+01    0.4840665    0.2784342 -71.62  0.003017248    1.471    0.320
        25 -11.1912    200.7167    172.7177   8.2029154599e+01   6.6904944658e+00     0.427782    0.2356614 -28.86  0.001537697    1.986    0.496
        26  -9.4028    231.9799    175.6763   7.6630580268e+01   4.5476577251e-01      0.22928    0.1915189 -51.58  0.001312209    1.603    0.376
        27  -9.6437    211.3292    175.8227   8.0563406549e+01   4.1528793389e+00     0.244059    0.1687905 -38.03  0.001135361    1.483    0.325
        28 -10.4168    193.6817    173.6951   8.3669476915e+01   7.8694764088e+00    0.2647589    0.2570661 -65.26  0.001372881    1.256    0.204
        29  -8.4754    146.6721    174.3092   9.4079361944e+01   1.6909116382e+01    0.1482164    0.1139077  74.56 0.0007039781    1.660    0.398
        30  -9.4400    177.0524    171.0146   8.6632992959e+01   1.1623773528e+01    0.3809513    0.2065565 -57.64  0.001373229    2.707    0.631
        31 -10.8507    206.3585    170.2583   8.0381992890e+01   6.0434983545e+00     0.304345    0.2253757 -44.96  0.001283985    1.498    0.333
        32  -8.8807    246.5879    169.7088   7.2800608567e+01  -1.1302881610e+00    0.1989425    0.1727761  62.96  0.001170351    1.716    0.417
        33  -9.4748    185.0614    168.0205   8.4291140014e+01   1.0606590198e+01    0.2180986    0.1860886 -89.78 0.0006450738    1.624    0.384
        34 -10.4720    191.7116    166.5771   8.2585326781e+01   9.5572913813e+00    0.2810495    0.2465442 -53.76  0.001526477    1.336    0.252
        35 -10.3225    196.2843    159.4057   8.0085957105e+01   9.9741899520e+00     0.244845    0.1809369 -57.96 0.0008101095    1.743    0.426
        36 -11.1739     53.6829    151.3192   1.1312180742e+02   3.7313760270e+01    0.3722754    0.3167509 -86.92  0.001354699    1.023    0.022
        37 -10.4715     40.2525    158.6012   1.1738372641e+02   3.7099984890e+01    0.3584117    0.2805037  -9.51  0.001405444    1.956    0.489
        38 -11.5886     47.2780    154.7803   1.1519655112e+02   3.7231611617e+01    0.5593682    0.4845417  87.45  0.003233131    1.044    0.042
        39  -8.8998    167.6330    158.8180   8.6141978981e+01   1.5935734005e+01    0.2106599    0.1417551 -53.43 0.0009425465    1.673    0.402
        40  -9.5235    185.4003    213.7560   9.2879038407e+01   2.5443516487e+00    0.2834976    0.1661655 -47.89  0.001430105    2.092    0.522
        41  -9.9233    176.0993    123.0444   7.5809507961e+01   2.1430534266e+01    0.4960663     0.197082 -51.11  0.001506427    3.287    0.696
        42  -8.9189    170.1983    122.4976   7.6993028807e+01   2.2881653523e+01    0.2572342    0.2143053 -63.44  0.000742492    1.373    0.272
        43  -9.8434     68.8393    145.3238   1.0826414311e+02   3.6826768983e+01    0.2770621    0.1081813  41.62   0.00109634    2.583    0.613
        44  -8.7730    157.4270    120.4553   7.9446716365e+01   2.6199525178e+01    0.2872378    0.1453722 -52.58 0.0009981492    2.289    0.563
        45  -8.3818    152.4732    121.4841   8.0909034307e+01   2.7088534642e+01    0.1570392    0.1549885 -61.66  0.000253069    1.043    0.041
        46  -9.4038    181.8810    119.8512   7.3733256871e+01   2.0754563256e+01    0.2773822    0.2546571 -34.58 0.0008237091    1.065    0.061
        47 -10.6172    182.7614    134.8936   7.7290087783e+01   1.7557915256e+01    0.4137751    0.2306872 -45.66  0.001677871    1.836    0.455
        48  -8.7408    162.4971    149.9720   8.5365756174e+01   1.8827611415e+01    0.2331243    0.1512814 -45.24 0.0008251283    1.571    0.364
        49 -10.0729    146.6816    122.0858   8.2492229887e+01   2.8238333828e+01    0.3766107    0.2595765 -39.88  0.001043775    1.453    0.312
        50  -9.1658    131.4986    140.9938   9.0867863819e+01   2.7191078659e+01     0.239662    0.1512281 -50.45  0.001031826    1.590    0.371
        51  -8.5580    134.3418    116.6591   8.4250480081e+01   3.2116593728e+01     0.164794     0.127246 -89.76 0.0007048906    1.775    0.437
        52  -8.7630    152.5612    114.3681   7.9031262462e+01   2.8595542496e+01    0.3046396    0.1523158 -46.73  0.001120446    2.027    0.507
        53 -10.1796    176.0946    112.6573   7.3120342175e+01   2.3523848353e+01    0.3636968    0.2433636 -34.36  0.001208505    1.497    0.332
        54  -9.1247    173.4754    107.9801   7.2451091902e+01   2.5070657166e+01    0.3613765     0.187104 -41.49  0.001057664    1.890    0.471
        55  -8.6524    157.7327    113.4159   7.7528559438e+01   2.7618852684e+01    0.2971236    0.1889389 -51.05  0.001023354    1.675    0.403
        56  -8.8340    146.4119    113.7919   8.0400353576e+01   3.0103633858e+01     0.302352    0.1515742 -47.13  0.001017784    2.016    0.504
        57  -9.7122    167.9402    111.6617   7.4678798890e+01   2.5623549366e+01    0.3200729    0.2269671 -47.94 0.0009310914    1.441    0.306
        58  -8.2418    138.3111    112.6206   8.2153479487e+01   3.2152493871e+01    0.1661333    0.1271638 -82.38 0.0006749982    1.796    0.443
        59  -8.5956    162.3812    111.1614   7.5827570949e+01   2.7017449780e+01    0.2343559    0.1448487 -51.31 0.0008448376    1.754    0.430
        60  -9.8630    133.8206    109.4347   8.2473649290e+01   3.3832820652e+01    0.3116773    0.2548869 -79.00  0.001087862    1.516    0.340
        61  -8.7548    115.6507    110.3217   8.7672171585e+01   3.7421241862e+01    0.1603931    0.1243912  85.44 0.0007048784    1.744    0.426
        62  -8.9833    127.6414    109.3055   8.4091048333e+01   3.5186289987e+01    0.1618329    0.1266695  86.10 0.0007040019    1.726    0.420
        63  -8.7034    154.4760    107.4796   7.6710183444e+01   2.9612746417e+01     0.285684    0.1462891 -51.30  0.001024331    2.203    0.546
        64  -8.6345    160.4790    106.0866   7.4897700692e+01   2.8505771826e+01    0.2447594    0.1553367 -41.28  0.001017606    1.552    0.356
        65  -9.3861    141.5349    105.2457   7.9318689166e+01   3.3038504172e+01    0.3072499    0.1525251 -47.25  0.001125648    2.046    0.511
        66  -8.8918    178.4735    131.5514   7.7410669359e+01   1.9175225170e+01    0.3155142    0.1512493 -41.14 0.0008519356    2.058    0.514
        67  -9.7566    136.0089    105.2465   8.0752347989e+01   3.4269812402e+01    0.2284392    0.2175043  42.12  0.001174656    1.070    0.065
        68  -9.0175    174.8168    102.2713   7.0609298063e+01   2.5881217090e+01    0.2788636    0.2100605 -49.72 0.0007377323    1.372    0.271
        69  -9.5746    149.6762    102.5139   7.6509454727e+01   3.1759039269e+01    0.3079288    0.2766137  79.53  0.001095784    1.260    0.206
        70  -9.7197    167.9505    100.3415   7.1594833462e+01   2.7898752198e+01    0.4267425     0.231376 -44.36  0.001240757    1.845    0.458
        71  -9.5797    160.4080    100.6630   7.3412763301e+01   2.9627079097e+01    0.4022369    0.1822064 -43.71  0.001211296    2.197    0.545
        72  -9.0917    120.6086     99.7943   8.3408500793e+01   3.8776544028e+01    0.2240358    0.1454484 -54.42 0.0009427683    1.650    0.394
        73  -9.1849    159.6001    129.9678   8.1330729099e+01   2.3688609608e+01     0.338119    0.2352156 -50.09  0.001056587    1.493    0.330
        74  -9.1142    175.5015     97.4984   6.9147778088e+01   2.6644342392e+01     0.156938    0.1535284 -37.30 -0.0002875263    1.016    0.016
        75  -8.3380     92.5301     97.3963   9.1044402016e+01   4.4722686792e+01    0.1464343    0.1404642 -44.36 0.0001805562    1.037    0.036
        76  -8.9424    164.3085    144.2077   8.3633811431e+01   1.9652649476e+01    0.2423723    0.1913522 -27.08 0.0006795001    1.352    0.260
        77  -9.5365    168.5656     90.2301   6.8606457206e+01   2.9717118756e+01    0.4090171    0.2260877 -56.65  0.001179177    2.430    0.588
        78  -9.9143    175.4111     80.7687   6.4428461403e+01   2.9787750694e+01    0.3927791    0.2487919 -28.15  0.001655104    1.688    0.407
        79 -11.0818    173.4655     76.4299   6.3564944776e+01   3.1044434360e+01    0.4816966    0.3815771 -21.10  0.001493592    1.365    0.268
        80 -10.5875    174.6987     89.3199   6.7025701544e+01   2.8393075930e+01    0.5515368    0.4169711 -26.25  0.002135442    1.390    0.281
        81  -9.3875    164.6174     93.2309   7.0343774221e+01   3.0095884871e+01    0.5708769    0.1749743 -40.69  0.001690075    3.158    0.683
        82  -9.0698    148.4726     95.0341   7.4678883736e+01   3.3581597124e+01    0.2489511    0.1554107 -40.05 0.0007304154    1.581    0.368
        83 -10.1590    157.2142     88.9961   7.0820122916e+01   3.2706565727e+01    0.6574541    0.2711586 -48.00  0.002140466    2.747    0.636
        84  -9.3442    142.4647     90.5113   7.4859293300e+01   3.5902607683e+01     0.327347    0.1542105 -40.67 0.0007963534    2.093    0.522
        85  -8.8080     75.2175     88.9883   9.4300589586e+01   4.9472228857e+01    0.1995054    0.1719479 -43.81            0    1.049    0.047
        86  -8.7976    151.0015     88.0004   7.2002230611e+01   3.4391664544e+01    0.2471005    0.1950272 -71.90  0.000566571    1.594    0.373
        87  -9.0437    173.0971    129.3712   7.8067901608e+01   2.0815647836e+01    0.3082683     0.227417 -47.50  0.001022116    1.389    0.280
        88  -9.1213    163.5422     86.5668   6.8661799116e+01   3.1638459468e+01    0.3206037    0.1541945 -37.33 0.0008259867    2.058    0.514
        89 -10.0962    169.7648     83.6782   6.6456077480e+01   3.0653021987e+01    0.4760885    0.2603475 -28.16    0.0018187    2.059    0.514
        90  -9.6062    158.3769     81.6507   6.8378048978e+01   3.3827498223e+01    0.2942523    0.2442338 -42.08  0.001032657    1.203    0.169
        91  -8.5017    125.4733     82.5319   7.6932879206e+01   4.1383638272e+01    0.1565244    0.1485512  -4.91 5.397411e-05    1.039    0.038
        92  -9.3967    142.7230     80.7060   7.1833723694e+01   3.7781710086e+01    0.3210156     0.179425 -56.72  0.001159151    2.448    0.591
        93  -9.3202    150.2473     78.6098   6.9353453993e+01   3.6376747361e+01    0.3046638    0.2185395 -37.32 0.0009363055    1.387    0.279
        94  -9.9486    167.2048     77.0466   6.5055220365e+01   3.2493661746e+01    0.2391111    0.2144254   0.84 0.0008185336    1.216    0.178
        95  -9.1779    157.2743     74.9410   6.6600960290e+01   3.5333360595e+01    0.2928155    0.2211934 -15.20  0.001033208    1.537    0.349
        96  -9.5297    139.4720     73.9328   7.0533813916e+01   3.9836876566e+01    0.2426234    0.1526191 -36.78   0.00102969    1.585    0.369
        97  -9.2110    171.5013     95.0233   6.9322922551e+01   2.8085911507e+01    0.3444044    0.2144262 -41.70  0.001123726    1.578    0.366
        98 -10.5037    170.0925     69.9941   6.2349503158e+01   3.3007506354e+01    0.2371127    0.2356412 -19.16 0.0007499302    1.015    0.014
        99  -9.7424    162.8615     69.8216   6.3809113851e+01   3.4850586171e+01    0.2368626    0.2121727  13.67 0.0006059942    1.211    0.175
       100  -8.9348    133.1618     70.1399   7.0929986538e+01   4.2026490598e+01    0.2158894    0.1870134 -65.28  0.001072102    1.341    0.254
       101  -9.1927    156.4099     69.2396   6.5039581892e+01   3.6560333344e+01    0.2213222    0.1423322 -45.42 0.0005411357    1.614    0.380
       102  -9.2265    145.4755     67.5079   6.7014812029e+01   3.9556557723e+01    0.3157792    0.1522973 -35.32  0.001186726    2.086    0.521
       103  -9.9392    151.0563     71.8230   6.7063812621e+01   3.7424687031e+01    0.2792201    0.2265864 -36.75 0.0007881406    1.233    0.189
       104  -9.9412    177.0861     93.2894   6.7639582147e+01   2.7064850966e+01    0.3791443    0.2913845 -44.10 0.0008627226    1.288    0.224
       105  -9.0860    150.5012     65.0280   6.5050002899e+01   3.8753348003e+01    0.2400714    0.1520233 -34.64  0.001033229    1.591    0.371
       106  -8.9069    133.1351    148.1623   9.2028593786e+01   2.5239438500e+01     0.212265    0.1830287 -89.03 0.0008051691    1.315    0.240
       107  -8.5104    136.6552     63.3265   6.7807224169e+01   4.2418860254e+01    0.1579423     0.122591 -75.85 0.0007050564    1.744    0.427
       108  -9.5300    181.9626    126.3701   7.5365296971e+01   1.9437187816e+01    0.5572278    0.2187441 -40.83  0.001896694    2.491    0.599
       109 -10.2929    163.6194     64.1710   6.1917739327e+01   3.5619536425e+01    0.2562182     0.183987  49.41 0.0008290595    1.375    0.273
       110  -9.8447    165.9626    126.9701   7.9095421134e+01   2.2907857348e+01    0.4238619    0.2456624 -54.15  0.001487586    2.022    0.505
       111 -10.3322    162.6003    120.1926   7.8153565939e+01   2.5085513968e+01    0.6093181    0.2672767 -53.37  0.001932895    3.010    0.668
       112 -10.4648    133.9075     17.2801   5.2381571826e+01   4.9519964167e+01     0.336343    0.2749081  64.94 0.0004495735    1.182    0.154
       113 -10.1826    192.5379    210.2231   9.0854818727e+01   1.8759908398e+00    0.2795404    0.2240625 -71.26  0.001550492    2.014    0.504
       114  -8.8698    136.4254    126.7603   8.6263025284e+01   2.9406957277e+01    0.2235898    0.1482082 -36.37 0.0007313432    1.602    0.376
