#   1 NUMBER                 Running object number                                     
#   2 MAG_AUTO               Kron-like elliptical aperture magnitude                    [mag]
#   3 X_IMAGE                Object position along x                                    [pixel]
#   4 Y_IMAGE                Object position along y                                    [pixel]
#   5 X_WORLD                Barycenter position along world x axis                     [deg]
#   6 Y_WORLD                Barycenter position along world y axis                     [deg]
#   7 A_WORLD                Profile RMS along major axis (world units)                 [deg]
#   8 B_WORLD                Profile RMS along minor axis (world units)                 [deg]
#   9 THETA_WORLD            Position angle (CCW/world-x)                               [deg]
#  10 FWHM_WORLD             FWHM assuming a gaussian core                              [deg]
#  11 ELONGATION             A_IMAGE/B_IMAGE                                           
#  12 ELLIPTICITY            1 - B_IMAGE/A_IMAGE                                       
         1 -12.7562    248.1262    101.7022   6.9232475415e+01   1.1029651658e+01    0.8423054    0.6428735 -37.33  0.004943177    1.355    0.262
         2 -13.0147    202.5049     33.7904   6.0705648811e+01   3.1119813003e+01     1.028948    0.8604746  85.99  0.006477364    1.069    0.064
         3 -13.5937    219.9154     15.7553   5.5182721762e+01   2.9517572465e+01    0.9749125    0.8184317  45.02  0.006711937    1.726    0.421
         4 -12.4885      3.6306      4.2134   1.0265250572e+02   7.1780826753e+01     1.036115    0.3924942  24.92  0.006019457    2.448    0.591
         5 -13.2454      2.3333     18.2691   1.0918325821e+02   7.0087431760e+01     1.068998    0.4892666 -45.07  0.006436887    2.156    0.536
         6 -12.0045    179.5807    243.7051   1.0992769823e+02  -3.7663480690e+00    0.5558602    0.2637732  32.79  0.002529873    1.993    0.498
         7 -11.3851    184.0661    250.1159   1.1004863063e+02  -5.5703129504e+00    0.4762766    0.2679125  24.66  0.001841407    1.822    0.451
         8 -10.2933    174.7782    250.4328   1.1198684675e+02  -4.1699428948e+00    0.3094567    0.1128492  37.10  0.001262907    2.455    0.593
         9 -10.7909    162.8295    249.9973   1.1437580120e+02  -2.1877916404e+00    0.2701504    0.2251053  59.59 0.0008115433    1.391    0.281
        10 -12.2433    149.9910    246.9501   1.1659012105e+02   4.5268011845e-01    0.6380517    0.5533118  59.15  0.003909711    1.232    0.188
        11 -12.1418    119.1884    236.6105   1.2166023152e+02   7.5809116431e+00       1.0301    0.6661164 -19.63  0.004387469    2.990    0.666
        12 -11.8964    142.9229    248.7116   1.1833054028e+02   1.2815624930e+00    0.6121434    0.5189205  82.21  0.003686023    1.410    0.291
        13 -12.2752    136.0788    241.7103   1.1876058220e+02   3.7513215287e+00    0.6828082    0.4408374  40.69  0.003455853    1.390    0.280
        14 -12.4346    135.0013    234.4359   1.1791256119e+02   5.3827338132e+00     1.069054    0.6104462 -64.93  0.004887544    2.205    0.546
        15 -10.9340    109.7722    247.8961   1.2516951893e+02   6.8114089211e+00    0.5602842    0.3477238 -80.10   0.00278853    2.091    0.522
        16 -10.7697    116.0640    249.7836   1.2409841498e+02   5.4339530533e+00    0.5696588    0.3272093  36.99  0.002884638    1.603    0.376
        17 -12.8694    124.6058    245.0558   1.2167407472e+02   4.9834805227e+00      1.08199    0.7955548  53.08  0.004773512    1.278    0.218
        18 -11.5493    100.1253    247.6446   1.2714687371e+02   8.3811393654e+00    0.8399215    0.4498717  38.91  0.004105633    1.703    0.413
        19 -12.2483    102.2607    238.7309   1.2558670746e+02   9.8844568296e+00    0.5969978     0.569515 -78.88 0.0008465586    1.166    0.142
        20 -10.8558     96.9983    239.2062   1.2676765509e+02   1.0614835021e+01     0.428292    0.3054447  70.66  0.001755255    1.447    0.309
        21 -10.2434     81.3979    248.1174   1.3104801313e+02   1.1130957148e+01    0.5749701    0.2078294 -59.47  0.002453369    2.850    0.649
        22 -10.4884     84.3921    230.1523   1.2834865522e+02   1.4517953189e+01    0.3354995    0.2309202 -55.39   0.00108052    1.582    0.368
        23 -11.5873     86.5406    248.2271   1.3001271083e+02   1.0342239333e+01    0.5474517    0.4793016  73.34  0.002248809    1.064    0.060
        24 -11.1448     91.4990    241.3342   1.2818889741e+02   1.1020325277e+01    0.5416655    0.3327841  27.73  0.002004101    1.965    0.491
        25 -12.2430     87.8091    237.0754   1.2845719088e+02   1.2490243755e+01    0.7696473    0.5537274  32.82  0.004273633    1.505    0.335
        26  -8.9801     56.4811    250.4942   1.3622889054e+02   1.4158572873e+01    0.1668046    0.1565827 -40.38 0.0006709879    1.540    0.351
        27 -11.2797     60.1314    245.8508   1.3508308938e+02   1.4631213880e+01    0.4844776    0.3358392  55.00  0.001999443    1.237    0.192
        28 -10.7170     68.0929    245.0259   1.3341327009e+02   1.3698734589e+01    0.4194954    0.2652424  68.25   0.00188974    1.516    0.340
        29 -12.3270      6.3295    215.1357   1.4309651077e+02   2.7696853442e+01     1.609568     0.945829   3.10  0.007600468    4.076    0.755
        30 -12.1600      9.8115    206.7887   1.4176245979e+02   2.9254091297e+01     1.117619    0.6465237   4.19  0.005251349    3.829    0.739
        31 -12.7262      3.7948    226.7853   1.4438879823e+02   2.5374509585e+01     1.125214    0.9284156  81.45  0.008261029    1.160    0.138
        32 -13.2107     41.3169    243.3983   1.3853475484e+02   1.7612367227e+01     1.528319    0.8303418  65.51  0.003988286    1.701    0.412
        33 -11.6654     21.9110    219.8029   1.4037612449e+02   2.5056974225e+01    0.2902418    0.2220455 -80.41 0.0004474825    1.167    0.143
        34 -12.8156     24.3848    225.2675   1.4033227801e+02   2.3561903515e+01    0.5448225    0.3648166 -49.65 0.0007999511    1.969    0.492
        35 -14.2527     30.6902    218.7407   1.3850419707e+02   2.4318614343e+01     1.575651     1.432318   3.36   0.01059102    1.635    0.388
        36  -8.4942     63.2839    250.3329   1.3488926258e+02   1.3265032034e+01    0.1102185   0.09707827 -41.27 0.0004226397    1.617    0.381
        37 -12.7708     26.2651    247.5893   1.4168468809e+02   1.8547409045e+01    0.9839945    0.6882812  44.19  0.006271253    1.456    0.313
        38 -11.0891    129.0820    235.1441   1.1930404575e+02   6.2350668434e+00    0.4626558     0.266445  60.97  0.002038099    2.223    0.550
        39  -9.4261     54.7742    235.5125   1.3515811412e+02   1.7570502268e+01    0.2539944    0.1326193  69.94 0.0009528758    2.092    0.522
        40 -11.1826    105.5388    228.4911   1.2351046339e+02   1.1547335013e+01    0.3459928    0.3030327 -39.27  0.001671472    1.373    0.271
        41 -11.0779    109.9293    232.8835   1.2315342073e+02   9.8849476243e+00     0.489552    0.3002663  82.30  0.002160008    2.408    0.585
        42 -11.0839    113.5210    230.9816   1.2210216804e+02   9.7000968793e+00     0.335035    0.2859685 -67.39   0.00112416    1.234    0.190
        43  -9.3903    156.5794    232.7666   1.1298241210e+02   2.0531465603e+00    0.1838063    0.1345359 -64.57 0.0009514323    1.684    0.406
        44 -10.9820     74.2112    244.0888   1.3207747021e+02   1.3021440576e+01    0.4463356    0.2638225 -56.26  0.002012223    1.883    0.469
        45 -10.4695     98.6107    230.4861   1.2530098216e+02   1.2229284930e+01    0.2687783    0.2122803 -45.35  0.001402161    1.508    0.337
        46  -8.3919     45.6572    231.2841   1.3660276839e+02   1.9688149742e+01    0.1354392   0.07825371  65.96 0.0007016084    1.639    0.390
        47 -10.0433     56.8953    228.5665   1.3402145156e+02   1.8821592704e+01    0.2733134    0.1689047 -76.48 0.0003584707    1.531    0.347
        48  -9.4557     77.1848    220.8477   1.2877514062e+02   1.7694598657e+01    0.2240153    0.1682158 -89.93  0.000443513    1.297    0.229
        49 -10.7396     79.2839    225.5771   1.2889728310e+02   1.6308380685e+01    0.5003167    0.3192755 -71.75   0.00235142    1.567    0.362
        50 -10.0071     92.4971    225.9439   1.2604431942e+02   1.4198047899e+01    0.2063246    0.1940405  28.83 0.0008788523    1.255    0.203
        51 -10.8634    136.1992    225.2858   1.1623345620e+02   7.0665937086e+00    0.4695134    0.2166272 -49.49   0.00126354    2.299    0.565
        52 -10.1276    117.2480    224.3091   1.2030812402e+02   1.0516396287e+01    0.2578894    0.2273631  88.68 0.0007025808    1.163    0.140
        53  -9.3989     65.0014    224.1304   1.3182237201e+02   1.8706845279e+01     0.389881    0.1785321 -50.19  0.001674914    2.658    0.624
        54 -11.3440    165.4903    242.6803   1.1268398281e+02  -1.3032885753e+00    0.3356218    0.2418801  61.04  0.001768777    1.790    0.441
        55 -10.5763    244.8034    242.1626   9.7034480268e+01  -1.2989631382e+01    0.2538947   0.08515279 -44.79  0.001034294    3.460    0.711
        56  -8.8295    164.3056    224.0164   1.0985460314e+02   2.4491135283e+00    0.1861215    0.1758481 -32.51 0.0003188335    1.109    0.098
        57 -11.1132     98.9515    222.7401   1.2417816630e+02   1.3885974221e+01    0.4745282    0.3135726 -56.91  0.002421611    1.574    0.365
        58  -9.6156     91.5050    219.2612   1.2537198152e+02   1.5861075494e+01    0.5457053    0.2109334  36.82  0.001887021    2.536    0.606
        59  -9.9083     87.4242    223.4652   1.2684174884e+02   1.5545281358e+01     0.251486    0.2136655  70.57  0.000740226    1.061    0.058
        60 -10.5784    141.9627    219.7054   1.1404361271e+02   7.2391422710e+00    0.4070622    0.3445844 -72.08   0.00142333    1.320    0.243
        61 -10.3509     70.8709    219.6689   1.3002436731e+02   1.8890767874e+01    0.5034105    0.3281725  87.76  0.002581695    1.618    0.382
        62 -10.8445    246.4903    219.3549   9.2671186309e+01  -9.6949703591e+00    0.3515232    0.1369203 -31.63  0.001488294    2.624    0.619
        63  -9.8487    117.7618    215.0347   1.1877437244e+02   1.2480727975e+01    0.2979335    0.2491615 -15.40   0.00115142    1.557    0.358
        64  -9.6636    111.6937    215.1391   1.2018208653e+02   1.3492315901e+01    0.2502366    0.1998911  35.71 0.0002968723    1.274    0.215
        65  -9.6309     87.6927    212.4867   1.2530778015e+02   1.8024608836e+01    0.3664775    0.2220477  69.79  0.001149522    1.991    0.498
        66 -10.4959     56.0525    209.0949   1.3206170758e+02   2.3422816141e+01    0.6660163    0.3792619  84.15  0.002598404    2.004    0.501
        67 -10.1251     63.2770    208.7204   1.3038929311e+02   2.2528406467e+01    0.3982078     0.316967 -51.19  0.001611028    1.438    0.305
        68 -10.1430     63.9303    205.0679   1.2978514889e+02   2.3308679891e+01    0.3235213    0.1789457 -65.69 0.0003327578    1.686    0.407
        69  -9.2869     99.3873    209.9914   1.2224609126e+02   1.6730552388e+01    0.3469159    0.1652609  65.59   0.00073451    3.998    0.750
        70  -8.8201    134.3879    207.7462   1.1374358464e+02   1.1191599169e+01    0.1984475    0.1356431 -43.54 0.0009348824    1.572    0.364
        71 -13.6136      6.2391    245.1812   1.4510910687e+02   2.1240072402e+01     1.211227     1.067956  55.01  0.009362124    1.418    0.295
        72 -10.9072    106.8773    203.5368   1.1948911155e+02   1.6991928641e+01     0.287842    0.2310144 -64.70 0.0001847919    1.245    0.197
        73  -8.9990     90.6732    204.9935   1.2354306696e+02   1.9320565559e+01    0.3697764    0.1936104  20.54   0.00133949    3.317    0.699
        74  -9.3777     83.7494    201.5347   1.2467261366e+02   2.1238958623e+01    0.2398476    0.1787955 -70.56 0.0002315735    1.291    0.226
        75 -10.3704      3.2978    179.0684   1.4078744955e+02   3.6310638351e+01    0.2758955    0.2145467  17.20  0.001796874    1.764    0.433
        76  -9.7024      2.5385    201.5267   1.4283208099e+02   3.1132140624e+01    0.2379343   0.09835993 -80.84 0.0008166987    2.029    0.507
        77  -9.4285      3.4438    198.0158   1.4237081814e+02   3.1859857128e+01    0.2576875    0.1743712  55.57 0.0008857869    1.443    0.307
        78 -10.6093      2.4928    192.8482   1.4215258125e+02   3.3140520525e+01    0.5252481    0.2734942  75.97  0.002777957    1.873    0.466
        79 -10.7825      2.9946    185.9428   1.4146444850e+02   3.4712901721e+01    0.5207574    0.2801929  86.43  0.002800047    1.695    0.410
        80 -10.0745     74.9828    200.1028   1.2654595909e+02   2.2915631510e+01     0.223757    0.1871982 -73.96 0.0003217868    1.123    0.110
        81 -10.1260     44.2606    200.4028   1.3371832156e+02   2.7006997861e+01    0.3629981    0.3303327  38.34   0.00173571    1.326    0.246
        82  -8.7486    250.6608    200.6637   8.8468744862e+01  -7.1864649574e+00    0.1352236   0.08825637 -10.62 0.0007051197    1.755    0.430
        83  -8.8808    112.4451    208.4487   1.1896361225e+02   1.4894519959e+01    0.1453699    0.1332749  71.03 5.501905e-05    1.034    0.033
        84 -11.6745     54.2517    193.7667   1.3060646808e+02   2.7354767055e+01    0.4885258    0.3414196 -53.05  0.001119439    1.503    0.335
        85  -9.6451     33.8648    192.2649   1.3517766407e+02   3.0189349601e+01    0.3390247    0.1963083  88.06 0.0007777193    1.736    0.424
        86  -9.3334     30.5320    193.4457   1.3606494272e+02   3.0272546329e+01    0.1738194    0.1434433 -50.33 1.243327e-05    1.426    0.299
        87  -9.4351     25.9777    192.7013   1.3701483428e+02   3.0939226173e+01    0.2563087    0.1878986 -88.18 0.0009725349    1.145    0.126
        88  -9.1151     21.7481    193.0384   1.3799432652e+02   3.1295272090e+01     0.321648    0.1805673  77.46  0.001252827    1.818    0.450
        89  -9.2397    191.5487    191.7064   9.7984603832e+01   4.1376550511e+00    0.2310577     0.195994 -29.21 0.0006859232    1.141    0.124
        90  -8.1647     38.6444    192.2906   1.3407977555e+02   2.9638443234e+01    0.1410593   0.08688009  68.18 0.0007027719    1.682    0.405
        91  -9.1077     65.9054    239.0888   1.3324881077e+02   1.5270337887e+01    0.2972583    0.1231863  59.14  0.001205851    2.770    0.639
        92  -9.9391    250.2529    187.5207   8.6031762152e+01  -4.8623075741e+00    0.3006966    0.1347152 -31.91  0.001304165    2.244    0.554
        93  -9.1618     76.1717    187.0906   1.2435804616e+02   2.5933256761e+01    0.4590046    0.2584975  86.79   0.00178602    2.615    0.618
        94 -10.1489      9.6089    186.8216   1.4009225506e+02   3.3933273684e+01    0.3523387    0.1690785  84.54  0.001665059    2.176    0.540
        95  -9.8288     71.0449    187.1017   1.2562721425e+02   2.6686908451e+01    0.2990575    0.1857532  41.21 0.0003905933    1.640    0.390
        96 -11.5072     60.7906    185.7669   1.2795931223e+02   2.8459238804e+01    0.2893756    0.2360443 -51.91 0.0004871282    1.307    0.235
        97  -9.4970    107.0089    185.6988   1.1645215152e+02   2.1258089184e+01    0.2322718    0.2054646 -66.97 0.0003718746    1.100    0.091
        98  -8.4865     83.4401    186.5764   1.2247313177e+02   2.4948516597e+01    0.1452623    0.1325241  89.31 0.0001958443    1.007    0.006
        99  -8.8359     24.5387    183.9813   1.3642497741e+02   3.3192315533e+01    0.1900614    0.1665813  72.06 0.0008853909    1.160    0.138
       100  -8.4380     30.2944    183.6744   1.3504497802e+02   3.2668614345e+01     0.137127   0.08673497  74.16 0.0003033126    1.623    0.384
       101  -9.7159     36.9565    180.5570   1.3308671368e+02   3.2705737944e+01    0.3252694    0.1605674 -62.06  0.000743937    1.741    0.426
       102  -8.2097    115.0000    180.0447   1.1342616026e+02   2.1218396532e+01    0.2347794   0.08525248 -54.81            0    2.710    0.631
       103  -9.6391     27.0295    179.6559   1.3536018619e+02   3.3991953166e+01    0.2441331    0.1611349 -75.01 0.0001396853    1.268    0.212
       104  -9.8674    249.8398    193.5910   8.7266549555e+01  -5.8581541348e+00    0.2617087    0.1812289 -16.73  0.001467012    1.483    0.326
       105  -8.4133    103.0005    175.9721   1.1570453024e+02   2.4355577879e+01    0.1804818    0.1664691 -73.31 0.0003030412    1.035    0.034
       106 -10.7129     72.1052    173.6509   1.2326801844e+02   2.9902649625e+01    0.2670953    0.2465517 -72.01 0.0004081376    1.061    0.057
       107  -9.5470     18.9028    173.0670   1.3655958193e+02   3.6394866121e+01    0.4344839    0.2113474  81.01  0.001880259    2.565    0.610
       108 -11.2650     10.3048    157.5096   1.3690990365e+02   4.0920794349e+01    0.5349357    0.2424598  82.53  0.002029419    3.081    0.675
       109 -10.8872      2.5926    172.5194   1.4033843360e+02   3.7922785290e+01    0.4383286    0.2137107  86.08  0.001081296    2.094    0.522
       110 -11.5349     12.2396    166.7446   1.3746923723e+02   3.8523677885e+01     0.595224     0.321641  45.62  0.002424434    2.008    0.502
       111 -12.0091    248.1555    171.3647   8.3231992501e+01  -1.6555536035e+00    0.7578065    0.4167334 -38.10  0.003774391    1.562    0.360
       112 -10.7353    240.9760    150.7764   8.0281522501e+01   3.3490154625e+00    0.3594122    0.1749918 -34.10  0.001302605    2.100    0.524
       113 -11.2838    245.1018    162.1013   8.1894515236e+01   5.3630055930e-01    0.3593439     0.245852 -28.99  0.001384682    1.431    0.301
       114 -10.9521    249.3652    161.3406   8.1049271887e+01  -2.1785361734e-02    0.4488005    0.2311916 -46.46  0.002139217    1.711    0.416
       115 -11.0902    243.5982    155.1730   8.0746734978e+01   2.0751751327e+00    0.3726127    0.2455813  67.06  0.001820575    2.303    0.566
       116 -10.3442     57.3993    173.4499   1.2702440910e+02   3.1994392122e+01    0.3266224      0.24003  48.67  0.001192744    1.418    0.295
       117  -9.7623     12.5195    172.6350   1.3803330000e+02   3.7074319331e+01     0.276617    0.1030106 -71.62  0.001210092    2.165    0.538
       118  -9.9950     27.4729    171.5334   1.3429858021e+02   3.5940664576e+01    0.3549467     0.191582 -46.80 0.0005383428    2.044    0.511
       119  -9.0494     51.9239    171.0514   1.2807363747e+02   3.3300254701e+01    0.2059117     0.185858 -81.76 0.0005464397    1.046    0.044
       120 -11.4145     80.1219    165.7408   1.1981397974e+02   3.0696034017e+01    0.5583873    0.4418165  11.60   0.00192989    1.632    0.387
       121  -9.9332     81.9575    158.2148   1.1793783832e+02   3.2312698563e+01    0.4208344    0.2459662 -63.53 0.0008788888    1.667    0.400
       122  -9.4565     38.7816    167.7681   1.3097622802e+02   3.5677218078e+01    0.1929763     0.159508 -65.73 0.0004517356    1.102    0.093
       123  -9.9643     68.1445    166.3089   1.2309254059e+02   3.2329260961e+01    0.2525638    0.2185473 -89.82 0.0003935232    1.117    0.105
       124  -8.6622     64.6931    167.2755   1.2416412456e+02   3.2568845359e+01    0.1839238    0.1690103 -50.78 0.0004387668    1.162    0.139
       125 -10.3603     44.3331    165.4403   1.2921785971e+02   3.5627600758e+01    0.4494703    0.2193335 -44.77  0.001586263    2.332    0.571
       126  -8.6377     43.2882    161.0401   1.2884694155e+02   3.6851859366e+01    0.1969556    0.1556447 -71.98 0.0003160935    1.095    0.087
       127 -10.3051     66.9592    161.4969   1.2259326257e+02   3.3714979402e+01    0.2648304    0.1929661 -59.97 0.0003256787    1.246    0.198
       128  -9.8749     24.0253    162.0000   1.3398121799e+02   3.8626611212e+01    0.1982361    0.1638575 -70.99 0.0003909204    1.052    0.049
       129  -9.9085     28.7445    161.0202   1.3264494014e+02   3.8411100655e+01    0.1948168    0.1813506  85.46 0.0002977898    1.146    0.127
       130 -10.2291      4.9682    167.0265   1.3924372168e+02   3.9048936644e+01    0.2910265    0.2189706 -11.60  0.001142732    1.941    0.485
       131  -9.5606     46.4005    156.1809   1.2727257903e+02   3.7710375204e+01     0.212073    0.1948764  43.56 0.0002584898    1.231    0.187
       132  -8.4605    228.4461    155.4840   8.3368220456e+01   4.6699641789e+00    0.1419031    0.1243793 -44.43 6.618759e-05    1.040    0.038
       133 -10.6941     24.7593    154.9660   1.3287506290e+02   4.0291018339e+01    0.4474404    0.1852884  26.94  0.001981095    2.837    0.647
       134 -10.4672     11.9004    153.0926   1.3598197613e+02   4.1863883713e+01    0.3450007    0.1798955 -86.90  0.001251833    1.974    0.493
       135  -9.1668     32.4354    153.3009   1.3060331690e+02   3.9955582681e+01    0.1932979    0.1155552 -78.38 0.0009501616    1.602    0.376
       136  -9.7863      1.5748    152.8118   1.3857370050e+02   4.2706112869e+01    0.1842041   0.09848388 -84.61 0.0009510727    1.705    0.413
       137 -10.1550      5.1732    150.5862   1.3741180142e+02   4.2982362273e+01    0.2846385     0.115922  24.79  0.001345918    2.956    0.662
       138 -11.7570    244.7465    121.1570   7.3643007082e+01   8.1839668911e+00    0.7054529    0.4125142  76.44  0.003116517    2.772    0.639
       139 -12.0661    248.2531    113.6212   7.1615712939e+01   8.9003520213e+00    0.7258465    0.4425328 -50.01  0.003816781    1.390    0.280
       140  -9.3872    238.6637    249.3153   9.9373089195e+01  -1.3246855006e+01    0.1019766   0.09764794  56.90 0.0007047434    1.694    0.410
       141  -9.9270     94.1120    150.2744   1.1303348759e+02   3.2316912498e+01    0.3249512    0.2673154  46.93 0.0009097327    1.271    0.213
       142  -9.3270     86.9557    151.0053   1.1515845209e+02   3.3328471930e+01    0.2227972    0.2033081 -74.98            0    1.060    0.056
       143 -11.4676     21.5377    149.4111   1.3297787193e+02   4.1950053219e+01    0.5088971    0.2466453  35.16  0.002490167    2.302    0.566
       144  -9.7497     82.4982    149.0305   1.1600088941e+02   3.4540446208e+01    0.2540243    0.2237591  37.95 0.0003685261    1.220    0.181
       145 -11.6910     68.0690    144.0180   1.1908891191e+02   3.7964675827e+01    0.7641095    0.5087619 -88.53  0.003195207    1.967    0.492
       146 -10.0193     59.2572    146.7336   1.2210782004e+02   3.8487514592e+01    0.4562283    0.1526229 -44.43  0.001453924    3.554    0.719
       147 -12.0989      9.2744    142.9739   1.3541072325e+02   4.4511936376e+01    0.5839784    0.2038502 -60.48  0.002600756    2.115    0.527
       148 -12.4675      5.6742    141.8672   1.3623349678e+02   4.5037503598e+01    0.6972935    0.3569096 -44.45  0.003477887    1.987    0.497
       149  -9.1159    235.8380    146.1282   8.0169744235e+01   5.1374566822e+00    0.1861362    0.1538219 -22.75 0.0004631541    1.297    0.229
       150  -8.9337     40.5391    147.4986   1.2750064557e+02   4.0546112006e+01    0.1386588    0.1188242 -69.40 0.0001515055    1.013    0.013
       151  -9.9848    133.1871    141.0476   1.0053698658e+02   2.7165184111e+01    0.3454089    0.2572778 -64.10 0.0008006808    1.453    0.312
       152 -11.0178     16.5671    140.1493   1.3304740860e+02   4.4628877653e+01    0.2637062    0.2153737 -85.12 0.0003100813    1.166    0.142
       153  -8.4691     97.5168    146.4265   1.1128240066e+02   3.2686118273e+01     0.152558    0.1443657 -42.62 6.255085e-05    1.076    0.071
       154  -9.3696    107.5524    135.6982   1.0610555010e+02   3.3494561035e+01    0.3818133    0.2586088 -17.19  0.001300253    2.265    0.559
       155  -9.1423     94.1162    133.1415   1.0929372834e+02   3.6539610435e+01    0.2217768    0.1961248 -24.16 0.0003191736    1.220    0.180
       156 -12.8559      2.4502    123.1847   1.3464849303e+02   4.9669237636e+01    0.8293863    0.4696198 -54.27  0.004730777    1.412    0.292
       157  -9.8178     44.2267    129.8897   1.2336466149e+02   4.4483149934e+01    0.2055492    0.1732535 -80.88 0.0005519639    1.221    0.181
       158 -10.2357     33.3051    127.4358   1.2619371023e+02   4.6219933398e+01    0.3002484     0.180302  78.48  0.001332871    2.554    0.608
       159  -9.4865     66.5164    126.4753   1.1593661256e+02   4.2505264443e+01    0.1447589    0.1319196 -52.80 0.0008099293    1.009    0.009
       160  -8.6644     47.8530    126.3435   1.2158335777e+02   4.4931088103e+01    0.1731471    0.1311776   6.92 0.0003661592    1.611    0.379
       161  -8.5799    209.7013    125.6652   8.0257628495e+01   1.4191272515e+01    0.1430612    0.1158476  -8.73  0.000606142    1.652    0.395
       162 -11.9335     18.0080    122.3841   1.2992754015e+02   4.8771907997e+01    0.4925162    0.2171325  34.80  0.002335432    2.605    0.616
       163 -11.0515    249.6136    150.9325   7.8933727279e+01   1.8474311450e+00    0.4614057    0.2541074 -44.56  0.002283134    1.535    0.348
       164 -10.9951     12.9692    127.6825   1.3225292337e+02   4.7899271551e+01    0.2288053    0.1429044 -56.73 0.0006896079    1.290    0.225
       165 -10.6989    231.7639    116.3730   7.4586159353e+01   1.1531082656e+01    0.2934926    0.2065746 -71.98  0.001158539    1.629    0.386
       166 -10.6425     14.7203    117.0500   1.3003958871e+02   5.0274477696e+01    0.2143023    0.1533284 -20.57  0.001041616    1.619    0.382
       167 -12.9316      9.0472    111.7525   1.3090708519e+02   5.1896513974e+01     0.800116    0.2827711 -65.98  0.002414968    2.326    0.570
       168 -11.4685      2.7365    111.6345   1.3284083233e+02   5.2318340023e+01    0.4972904    0.1824044 -69.37  0.002202942    2.346    0.574
       169  -9.4640    167.6829    112.8302   8.5469743534e+01   2.5945223432e+01     0.297186    0.2195753 -79.25  0.001015402    1.709    0.415
       170 -11.8547    247.9569    142.5276   7.7501958387e+01   3.6781905719e+00    0.5859439    0.4786621 -31.51  0.003492301    1.197    0.164
       171  -8.4310    203.4840    111.5139   7.8166416864e+01   1.8278271195e+01    0.1454294    0.1355754 -54.93  0.000162656    1.068    0.064
       172 -12.6900     14.3523    101.5752   1.2738336816e+02   5.3841085912e+01    0.6541834    0.4475925  42.60  0.002540905    1.852    0.460
       173  -8.4865     71.7073    100.2671   1.0802697205e+02   4.7802767519e+01    0.1299746    0.1119933  78.55   0.00022196    1.508    0.337
       174 -11.2104      2.0000     89.4815   1.2923323184e+02   5.7271650483e+01     0.537517   0.05548547 -64.24  0.001331482    7.815    0.872
       175 -12.4405    248.2114    134.0482   7.5751034138e+01   5.1965714970e+00     1.157452    0.5009963 -34.34   0.00465492    2.547    0.607
       176  -8.7198     30.6756     85.2828   1.1816663941e+02   5.6042362723e+01    0.1140993   0.09902331  72.08 0.0002166818    1.597    0.374
       177  -9.0629    160.6756     79.3059   7.8380925456e+01   3.3960288507e+01     0.150142     0.110977 -80.70 0.0002952662    1.645    0.392
       178 -11.2222      2.0000     63.5065   1.2356382906e+02   6.2564051100e+01    0.5134572   0.05375705 -59.33   0.00134357    7.955    0.874
       179 -10.7313    169.1267    248.9879   1.1292055104e+02  -3.0205935871e+00    0.3221901    0.2181513   9.13 0.0006281427    1.830    0.454
       180 -11.0166    170.8976    244.1165   1.1178637098e+02  -2.4430905386e+00     0.241242    0.2050695 -59.69 0.0007806241    1.433    0.302
       181 -11.4158    198.1008    246.1290   1.0658106711e+02  -7.0600728926e+00    0.3215259     0.220264  31.35  0.001590072    1.335    0.251
       182 -11.3449      2.5251     37.8952   1.1608198020e+02   6.7102268885e+01    0.3009092    0.1259001 -53.44  0.001603515    2.384    0.581
