#   1 NUMBER                 Running object number                                     
#   2 MAG_AUTO               Kron-like elliptical aperture magnitude                    [mag]
#   3 X_IMAGE                Object position along x                                    [pixel]
#   4 Y_IMAGE                Object position along y                                    [pixel]
#   5 X_WORLD                Barycenter position along world x axis                     [deg]
#   6 Y_WORLD                Barycenter position along world y axis                     [deg]
#   7 A_WORLD                Profile RMS along major axis (world units)                 [deg]
#   8 B_WORLD                Profile RMS along minor axis (world units)                 [deg]
#   9 THETA_WORLD            Position angle (CCW/world-x)                               [deg]
#  10 FWHM_WORLD             FWHM assuming a gaussian core                              [deg]
#  11 ELONGATION             A_IMAGE/B_IMAGE                                           
#  12 ELLIPTICITY            1 - B_IMAGE/A_IMAGE                                       
         1 -12.0754     26.6326     50.3302   8.3007377960e+01   6.6323826582e+01     1.766183    0.8824354 -83.34  0.006089308    3.791    0.736
         2 -13.2187     38.0822     49.5076   7.6502073852e+01   6.5132025921e+01    0.8907703    0.8138244 -27.53  0.004037162    1.084    0.077
         3 -10.8591    129.3943     22.7715   3.3907186377e+01   4.9888043645e+01    0.6254116     0.326243  22.64  0.002220832    3.299    0.697
         4 -11.2745     50.7814     16.2146   5.3014997591e+01   6.9569959848e+01    0.4379852    0.3715423  34.10  0.002549758    1.174    0.148
         5  -9.5126     37.1576      6.2978   5.3277743162e+01   7.3664057037e+01    0.3015722    0.2023279  25.85   0.00135521    1.596    0.373
         6 -10.7474     41.8144     18.6632   5.9164718381e+01   7.0876299654e+01    0.4540204    0.3620931  22.34  0.001897221    1.293    0.227
         7 -11.5834     40.0319     11.8334   5.5656152559e+01   7.2309435455e+01    0.6633975    0.4957526  -5.33    0.0032064    1.437    0.304
         8 -10.8602     29.8646     18.8998   6.6527513764e+01   7.2804806347e+01    0.5064151    0.2421596 -28.77  0.001556988    2.729    0.634
         9 -10.2352     34.2168     15.7554   6.1739694501e+01   7.2686526648e+01    0.4393849    0.2707138 -19.73  0.002109724    1.933    0.483
        10 -10.3739      9.7150     16.0441   7.9995514440e+01   7.5863027639e+01    0.3538274    0.1987482 -32.50  0.001796064    1.782    0.439
        11 -11.1248     18.8475     16.6194   7.2947787350e+01   7.4752710344e+01    0.4795314    0.3293664  -4.62  0.002587316    1.712    0.416
        12 -12.2199      4.2544     16.5276   8.4983312960e+01   7.6220429519e+01    0.4430047    0.3076209  48.83  0.001308993    1.886    0.470
        13 -12.1761    159.8044     22.8814   2.9624351307e+01   4.2144737119e+01    0.5263203    0.3810217   8.49 0.0006343309    1.727    0.421
        14 -12.0388     66.4657     20.0112   4.8617032476e+01   6.5706536560e+01    0.4826088     0.334801   9.70  0.000331134    1.814    0.449
        15 -10.1510     74.2910      1.8620   3.5342904550e+01   6.6020055831e+01     0.317235    0.2096248 -57.80  0.001547993    1.884    0.469
        16 -11.0134     70.6267     13.5572   4.3404756246e+01   6.5633925005e+01    0.3761621    0.2360114 -21.11  0.001565282    1.632    0.387
        17 -11.6112     76.7176     10.8203   3.9904880000e+01   6.4522853696e+01    0.6722253    0.2927881  59.48    0.0027608    2.202    0.546
        18 -10.5650     73.9438      6.8775   3.8434253001e+01   6.5615137014e+01    0.2837081     0.199575  -3.40 0.0006921018    1.542    0.352
        19 -12.5511    237.9269     17.5159   2.1655812969e+01   2.5261190951e+01    0.2899211    0.2056103 -51.33 0.0004070909    1.210    0.174
        20 -10.2765     83.8112     13.4323   3.9331837456e+01   6.2510283116e+01    0.2709895     0.196973  -5.43  0.001370557    1.506    0.336
        21 -10.2261    225.6496     14.0302   2.1494599221e+01   2.8021335427e+01     0.273249     0.180295  20.76    0.0014967    2.224    0.550
        22 -10.1070    185.2510     14.5306   2.4413885663e+01   3.6830698256e+01    0.2326339    0.1685979 -29.28 0.0004934331    1.271    0.213
        23 -11.2816    155.5215     11.4345   2.6176376083e+01   4.4381130949e+01    0.6621701    0.2700281 -21.11  0.002652943    2.440    0.590
        24 -10.3978    131.4746     14.0016   3.0096854475e+01   5.0292997785e+01    0.4225308    0.2272663  21.87  0.001487231    2.808    0.644
        25 -11.9787    127.9737     10.1997   2.9066643471e+01   5.1569146208e+01    0.4634245    0.2221292 -37.92 0.0009650166    1.978    0.495
        26 -10.2088    118.5189     12.0811   3.1295992362e+01   5.3843227929e+01    0.3715503     0.218631  -1.12  0.001617428    2.141    0.533
        27 -10.5467    118.2507      7.8530   2.9511019166e+01   5.4313490447e+01    0.2306886    0.2147449  -5.14 0.0005726448    1.128    0.113
        28 -11.1041     61.2487     13.5805   4.6831677508e+01   6.7746348915e+01    0.4568346     0.192369  54.03  0.001857822    2.346    0.574
        29 -11.5679    237.2773      1.8384   1.7946282492e+01   2.6815134147e+01    0.2624655    0.2296662 -58.92  0.001932553    1.156    0.135
        30 -11.7383    234.6524     10.6155   2.0168121459e+01   2.6544719325e+01    0.2807316    0.1936473 -21.68  0.001044199    1.362    0.266
        31 -11.8461    234.1021      5.8277   1.9038681074e+01   2.7085165241e+01    0.2696928    0.2102602 -22.91  0.001064611    1.247    0.198
        32 -10.0979     95.8840     12.1273   3.5665893313e+01   5.9651498294e+01    0.2247329    0.1755244 -60.35  0.001172329    1.424    0.298
        33 -10.2512     15.0721     13.4911   7.3993302458e+01   7.5826845203e+01    0.2102457    0.1520538 -35.95 0.0005330866    1.222    0.182
        34 -11.2702      5.3026     10.8467   8.0947085026e+01   7.7359329947e+01     0.244597    0.2247069 -61.60  0.001455551    1.235    0.190
        35 -11.2393      9.8827      9.2537   7.5704660402e+01   7.7244421127e+01    0.3566938    0.2412556  39.16  0.001822946    1.765    0.433
        36 -10.7398    175.9314     10.4167   2.3926509538e+01   3.9437612628e+01    0.2960215     0.203881  39.29  0.001486367    1.763    0.433
        37 -10.6477    148.7891      1.8903   2.3464386036e+01   4.6923309676e+01     0.252536    0.2127954  47.27 0.0004718675    1.286    0.222
        38 -11.7829    146.1577      7.0394   2.5601321031e+01   4.7160825033e+01    0.4383205    0.3412921   6.80  0.001776843    1.492    0.330
        39  -9.5726    150.6981      5.6844   2.4641993214e+01   4.6120908219e+01    0.1766209    0.1262362 -84.46 0.0002506903    1.410    0.291
        40  -9.9337    138.1117     10.8687   2.7976262724e+01   4.8880738211e+01    0.2319591    0.1744576 -57.12 0.0006292099    1.325    0.245
        41 -10.8141    164.6949      6.5571   2.3641547346e+01   4.2531798348e+01    0.4793731    0.1895661 -15.96  0.001869865    2.776    0.640
        42 -11.2363    241.0163      9.0386   1.9483792064e+01   2.5459533122e+01    0.1866393    0.1381798 -44.88 0.0004861411    1.067    0.062
        43 -12.6049    213.6231      5.5131   1.9979299571e+01   3.1305330537e+01    0.7506866    0.4259232 -55.52  0.004158607    1.573    0.364
        44 -10.3272     11.0976      3.1920   7.0128031301e+01   7.8260044833e+01    0.2311261    0.1793199 -30.77 0.0006463536    1.121    0.108
        45 -10.3412     24.9385      7.9491   6.2444959359e+01   7.5507404606e+01    0.3198799    0.1840533  56.65  0.001428412    2.894    0.654
        46 -11.4610     19.4177      3.5507   6.3185786095e+01   7.7074584534e+01    0.6761958    0.4021535  38.93  0.003633851    1.793    0.442
        47  -9.5232    113.3312      7.1632   2.9981658078e+01   5.5654342336e+01    0.1963028    0.1165238 -33.71 0.0003642851    1.649    0.394
        48  -9.7754    100.5975      6.8515   3.2081996298e+01   5.8972034232e+01    0.2012017    0.1095486  16.80 0.0008000449    2.536    0.606
        49  -9.4875     91.9360      6.9870   3.3929981792e+01   6.1165247427e+01    0.2199349    0.1578789 -61.88 0.0009451673    1.616    0.381
        50 -10.2178     68.5952      4.9056   3.8855412457e+01   6.7090880124e+01    0.2852913    0.1769593 -41.19  0.001391619    1.741    0.426
        51  -9.6138    131.2356      5.5653   2.6761394723e+01   5.1138303499e+01    0.1855026    0.1214367  59.34   0.00032101    1.495    0.331
        52  -9.2808    109.4169      5.4790   2.9856644817e+01   5.6819648474e+01    0.1364406    0.1323089  48.39 0.0001299399    1.035    0.034
        53  -9.3053     58.2048      5.3629   4.2728315912e+01   6.9430859751e+01    0.1815615     0.129079  68.78 0.0007748409    1.616    0.381
        54 -11.0624    190.2457      6.1328   2.1557243314e+01   3.6445098297e+01     0.377052    0.2846533 -42.27  0.002250232    1.147    0.128
        55 -10.5223    178.8108      3.9164   2.1684883551e+01   3.9325775060e+01    0.2232007    0.1813152 -86.72 0.0005516988    1.219    0.180
        56 -11.0040     27.6041      3.0752   5.6710951840e+01   7.5842251374e+01    0.3139629    0.2576917 -62.13  0.001720725    1.731    0.422
        57 -11.1349     31.0899      1.1970   5.2861801623e+01   7.5491970032e+01      0.50105   0.09755901  47.57  0.001548021    4.882    0.795
        58 -10.9325    242.9965      2.5968   1.7891966043e+01   2.5654724183e+01    0.2261232    0.1419797 -30.21 0.0005898539    1.289    0.224
        59 -10.2775    118.2167      3.4164   2.7588138502e+01   5.4707015319e+01    0.3205642    0.1354335  77.81  0.001001335    2.468    0.595
        60  -9.6415     98.2352      2.9363   3.0593188093e+01   5.9923943917e+01      0.21867    0.1417571  23.61 0.0006420034    1.773    0.436
        61 -10.3857    194.9651      1.7436   1.9997509206e+01   3.5742883779e+01    0.2362793    0.1502675 -87.02  0.001280691    1.607    0.378
        62 -10.2229    125.5825      2.8768   2.6375048832e+01   5.2832778280e+01    0.2680373    0.1693476  55.09 0.0008788098    1.557    0.358
        63  -9.6058      3.0408      1.3617   7.6790362727e+01   7.9479738989e+01     0.162811    0.1121258  17.86 0.0005793455    1.532    0.347
        64  -9.9392     66.9959    165.4693   9.0311127179e+01   3.2862377133e+01    0.2065835    0.1205112  32.88   0.00103818    1.612    0.380
        65 -10.8090    247.6821    250.0816   6.6498660980e+01  -2.4506772156e+00    0.1571232    0.1020269  20.82  0.001321652    1.375    0.273
        66 -11.4115    224.5679    247.6876   6.9560879018e+01   9.4234462243e-03    0.2626788    0.1317648 -24.53  0.001851777    1.917    0.478
        67 -12.4513    227.5731    243.6767   6.8573917692e+01   8.8427204044e-02    0.2837464    0.1687395  18.61  0.002173267    1.277    0.217
        68 -10.3549     72.3663    250.1320   9.6726581473e+01   1.6474471066e+01    0.1893489    0.1264009  17.52 0.0009866696    1.573    0.364
        69 -12.0788     28.3082    245.8982   1.0496163612e+02   2.1440233038e+01     0.519289    0.2540024  70.19  0.003328991    2.065    0.516
        70 -12.8421     19.0330    237.0114   1.0643333236e+02   2.3728926447e+01    0.5160203    0.2684467  42.95  0.003488346    1.379    0.275
        71 -12.7969      6.1190    245.7112   1.0914672913e+02   2.3359966179e+01     0.614217    0.3623816  76.72  0.003731776    1.610    0.379
        72 -12.9011     15.3997    245.8247   1.0740955135e+02   2.2576423335e+01    0.6599817    0.2530139  49.74  0.003244626    1.835    0.455
        73  -9.4615    111.7753    164.0134   7.8661980218e+01   2.6854170853e+01    0.1699297    0.1109262 -53.84 0.0005621533    1.635    0.388
        74  -9.5372    221.2797    161.2946   5.6282996625e+01   1.0243052096e+01    0.1197282   0.07793227  -1.32 0.0002087144    1.533    0.348
        75 -12.1356     21.2620    157.0718   1.0199021332e+02   3.9691139379e+01    0.5031364    0.4247308   7.14  0.003223753    1.459    0.315
        76  -9.2917    105.3622    153.3169   7.8444478190e+01   3.0065426333e+01    0.1422498    0.1065177 -10.02 0.0007041762    1.765    0.433
        77 -11.2051      9.8633    152.4754   1.0488987288e+02   4.1693436763e+01    0.3772268    0.1787342  44.05  0.001356345    1.833    0.454
        78  -9.4177    222.6424    152.1964   5.4311652547e+01   1.1247898881e+01    0.1719063   0.09539047 -22.08 0.0004086964    1.633    0.388
        79  -9.9621    176.8768    150.1033   6.1759679879e+01   1.8754503376e+01     0.185944    0.1836513 -52.30 0.0007166126    1.303    0.232
        80 -10.5878    207.0181    146.5063   5.5653816705e+01   1.4407540139e+01    0.1994542    0.1501837 -22.25  0.000687896    1.152    0.132
        81 -10.3397    219.8721    144.1765   5.3132588928e+01   1.2741004073e+01    0.1753374    0.1261985  -1.81 0.0006922542    1.325    0.245
        82 -10.5169     10.5814    143.5567   1.0414661362e+02   4.3775438959e+01    0.2466891    0.1363628 -50.70 0.0006061313    2.086    0.521
        83  -9.3769    204.5296    141.5278   5.5036534905e+01   1.5526304312e+01    0.1280747     0.108481 -12.27 5.592225e-05    1.026    0.026
        84  -9.5793     13.6681    139.7262   1.0296252010e+02   4.4477344275e+01    0.1223899   0.09215318 -43.31 0.0002488122    1.595    0.373
        85 -10.9481      9.2813    136.3405   1.0406962270e+02   4.5634824791e+01    0.2457576    0.1809533  86.42 0.0002141508    1.181    0.153
        86  -9.4419    143.7737    137.0664   6.5917424471e+01   2.6830580844e+01    0.1797308    0.1130584 -44.22 0.0004441548    1.590    0.371
        87  -9.9962     17.4866    137.0417   1.0158819541e+02   4.4839051538e+01    0.1832688    0.1594675  48.84  0.001158657    1.153    0.133
        88  -9.9193      2.6854    135.1645   1.0602647746e+02   4.6369792442e+01    0.2625225   0.09759482  87.35  0.001086726    2.551    0.608
        89 -10.0370     21.2243    135.1062   1.0025998898e+02   4.5011269111e+01    0.2613661    0.1285065  53.32  0.001220128    1.961    0.490
        90  -9.8183    249.1089    133.6832   4.6887782916e+01   9.7891779077e+00    0.1571909    0.1278576  -3.40 0.0004754282    1.129    0.114
        91 -10.3324    241.0258    134.0849   4.8030420292e+01   1.0902067004e+01    0.1831419    0.1442965 -17.25   0.00052199    1.040    0.039
        92 -11.3260     54.2265    132.5025   8.9548701283e+01   4.2229042891e+01    0.4288901    0.2551849  32.84  0.001070653    1.682    0.406
        93  -9.9021     47.9069    133.3533   9.1653216341e+01   4.2774917539e+01    0.1912487    0.1669161  41.34  0.000775905    1.164    0.141
        94  -9.2552     79.5339    132.4749   8.1815145471e+01   3.8759194955e+01    0.1396119    0.1357158  85.04 9.739512e-05    1.021    0.021
        95 -11.2708     36.9368    129.7994   9.4686498912e+01   4.4868396969e+01    0.4717378    0.2494847 -52.93  0.002000341    1.945    0.486
        96 -11.1988     73.8721    128.9905   8.2880403477e+01   4.0433778226e+01    0.3346395    0.2988825  44.29  0.001120854    1.118    0.106
        97 -10.5921     15.8583    125.5125   1.0113351561e+02   4.7857390310e+01    0.3826285    0.1606907  24.88  0.001697881    2.442    0.591
        98 -11.3453     10.7695    122.9690   1.0260939244e+02   4.8878225880e+01    0.3356394    0.2533791  57.79  0.001592192    1.242    0.195
        99  -9.5134     61.8085    125.1440   8.5966425192e+01   4.3074051923e+01    0.1878369    0.1619918 -31.56  0.001032422    1.337    0.252
       100  -9.8764    219.9602    123.9934   4.8864257494e+01   1.5507949262e+01    0.1943354     0.159639 -18.75 0.0004780419    1.021    0.021
       101 -10.5833      2.5683    123.3135   1.0535890045e+02   4.9327406366e+01     0.294039    0.1438482 -41.24  0.001337779    2.612    0.617
       102  -9.8425    243.5599    122.4959   4.5304507842e+01   1.1986824853e+01    0.1220242   0.09440499 -18.75 0.0001028234    1.007    0.007
       103 -10.2960     20.0017    121.6982   9.9382559007e+01   4.8499700354e+01    0.1781898    0.1666506  71.30 0.0005999357    1.099    0.090
       104 -11.9307     15.6963    115.3764   1.0023214204e+02   5.0463048530e+01    0.3316118    0.2294193 -74.73 0.0003284462    1.284    0.221
       105 -12.2931     14.9855    108.6827   9.9792761744e+01   5.2250047201e+01    0.5062093    0.3896396  -3.54  0.002321921    1.628    0.386
       106 -10.2661     72.7464    116.7787   8.0873724548e+01   4.3574729827e+01    0.3563481     0.222349 -83.70 0.0008719158    2.120    0.528
       107 -10.3008     23.3706    118.0135   9.7829347251e+01   4.9162528031e+01    0.2054586    0.1887034 -15.16 0.0005042388    1.309    0.236
       108  -9.5873    179.4704    115.9613   5.3691352688e+01   2.3937840527e+01    0.2126371    0.1260214 -35.11 0.0009680241    1.549    0.354
       109 -10.2158     86.0114    116.0688   7.6546674995e+01   4.1637038985e+01    0.2135305    0.2077709 -70.53  0.001211722    1.014    0.014
       110 -10.1956    213.9840    115.1198   4.7773335821e+01   1.7765812983e+01    0.1981304    0.1649523 -14.38 0.0005014369    1.049    0.047
       111  -9.8512    183.5119    114.4900   5.2603946898e+01   2.3410559461e+01    0.1386531    0.1232878 -17.60 0.0008104855    1.006    0.006
       112 -11.0598    249.4871    112.2152   4.2407857588e+01   1.2370843003e+01    0.2211131    0.1729852 -22.51 0.0005444437    1.039    0.038
       113 -10.4746     94.3332    112.4029   7.3179758003e+01   4.1071111950e+01    0.2837266    0.2780951 -78.11  0.001087638    1.010    0.010
       114 -11.9424     54.5111    109.6516   8.5590296085e+01   4.7942532251e+01    0.5007959    0.3024254 -48.78  0.001731657    1.679    0.404
       115 -10.2949     52.1870    103.7685   8.5264362102e+01   4.9747490426e+01     0.234093    0.1672655 -32.10 0.0007078169    1.696    0.410
       116 -10.9271      1.8994    107.6932   1.0450387576e+02   5.3350662736e+01    0.5887268    0.1270774 -73.34  0.002007799    3.464    0.711
       117 -10.9762     35.0677    108.4864   9.2374689863e+01   5.0525305378e+01    0.3111048    0.2329573 -42.07   0.00126455    1.471    0.320
       118 -10.2370     37.8442    102.8958   9.0424400923e+01   5.1685294021e+01    0.3640513    0.2623497  57.91  0.001886057    1.456    0.313
       119  -9.3700     82.4153    106.0236   7.5360004306e+01   4.4638159980e+01    0.4106509    0.1464859 -65.95 0.0009384952    6.510    0.846
       120 -10.4497      1.3728    118.5751   1.0545428706e+02   5.0596104002e+01    0.2326431    0.1070123 -81.81 0.0001894723    1.872    0.466
       121 -11.3433     26.7125    103.6252   9.4762547155e+01   5.2605569236e+01    0.3970119    0.2405022  74.33  0.001878663    1.810    0.448
       122  -9.8321    111.9750    105.5803   6.6384250858e+01   3.9321019001e+01    0.2213917    0.1463109  42.69 0.0003047011    1.550    0.355
       123  -9.2295    103.3316    105.2747   6.8755645592e+01   4.1051706613e+01    0.1482755    0.1187469  -4.37 0.0003047732    1.596    0.373
       124 -10.2957    119.3235    103.2980   6.3789438903e+01   3.8354030903e+01    0.3941742     0.131946 -41.29   0.00125256    3.076    0.675
       125 -11.1403    143.7545     98.4482   5.6473368466e+01   3.4267939171e+01    0.4222234    0.3477197 -74.28  0.001704256    1.510    0.338
       126 -11.4046     61.9312     98.6726   8.0620592814e+01   4.9690750438e+01    0.3374777    0.2907261 -37.07  0.000896075    1.242    0.195
       127 -11.4595     66.8594     97.9740   7.8687543051e+01   4.9123138140e+01    0.2519355    0.2363613  40.26            0    1.123    0.109
       128 -11.0538     51.1410     98.4851   8.4558005887e+01   5.1236118346e+01    0.4144545    0.2540803 -33.11   0.00128857    2.112    0.527
       129 -10.0959     90.4908     99.0344   7.1013356923e+01   4.4870241886e+01    0.2331755    0.1443285 -51.62   0.00046443    1.563    0.360
       130 -10.9181     10.0536     98.5346   1.0056596991e+02   5.5241971066e+01    0.2690546    0.1700057 -85.42 0.0008352387    1.408    0.290
       131 -10.4077     94.6220     97.7440   6.9375773299e+01   4.4403093880e+01    0.2625354     0.183011  62.70 0.0006377812    1.771    0.435
       132 -11.0564     14.5139     96.6074   9.8569668822e+01   5.5441622351e+01    0.3579886    0.2069181 -61.24  0.001787237    1.543    0.352
       133 -10.0247      1.4271     95.6926   1.0369819228e+02   5.6487986675e+01    0.3482048     0.139343 -82.58  0.001060028    2.178    0.541
       134 -10.6023      1.8080     89.3945   1.0295389353e+02   5.8112474660e+01    0.5144331    0.2136527  68.14  0.002065613    2.749    0.636
       135 -12.2156    166.1604     83.6651   4.7732901848e+01   3.2058885127e+01    0.8848739    0.5159494  56.20  0.003913343    1.893    0.472
       136 -11.9248    162.1106     91.7495   5.0761408861e+01   3.1567877836e+01    0.5994956    0.2886145 -33.11  0.002078453    2.004    0.501
       137 -11.9905    158.4719     89.9741   5.0987908758e+01   3.2659126960e+01    0.3613374    0.2584546 -40.02  0.001162464    1.312    0.238
       138 -11.5829    156.1265     83.2168   4.9530517799e+01   3.4345095266e+01    0.5419731    0.4575801 -22.09  0.002894205    1.176    0.150
       139 -10.7883     66.1483     93.0235   7.7717479263e+01   5.0459724862e+01     0.431951    0.2084372  33.68  0.001726107    2.210    0.547
       140  -9.9076     31.0357     92.9885   9.1340879182e+01   5.4980327863e+01    0.2296544    0.1465455 -43.75 0.0008009467    1.657    0.397
       141  -9.6795     36.2342     91.4642   8.8940973122e+01   5.4837810174e+01    0.1923415    0.1255921  43.74 0.0009199029    1.613    0.380
       142 -11.5741      6.2322     51.0106   9.4998937819e+01   6.7840603870e+01    0.6783279    0.4122559 -86.16  0.003439929    1.686    0.407
       143 -10.7941      7.1116     40.9804   9.1932716509e+01   7.0291701653e+01    0.3363317    0.1835716 -62.95  0.001612076    1.531    0.347
       144 -12.4360     22.0439     85.3735   9.3767012641e+01   5.7806742266e+01     1.538309    0.2465379 -69.46  0.004148769    4.906    0.796
       145 -12.1446     14.7408     77.5432   9.5694673357e+01   6.0434788769e+01    0.6992929    0.5564672 -81.84  0.003101628    1.138    0.121
       146 -12.3177      6.1216     73.9419   9.9175253547e+01   6.1929663624e+01    0.6757088    0.4917924 -13.44   0.00282531    1.646    0.393
       147 -14.0961     16.5876     67.3703   9.2896888101e+01   6.2948154501e+01    0.5125464    0.4275511 -67.81  0.001109017    1.048    0.046
       148 -11.5356     12.7101     50.0583   9.0942332740e+01   6.7653530896e+01    0.5000633    0.3175007 -76.96  0.001810074    1.543    0.352
       149 -10.9579     11.1942     44.3020   9.0269606798e+01   6.9194904169e+01    0.3201448    0.2578052 -73.74  0.001290832    1.190    0.160
       150 -12.7336      3.0994     61.4448   9.8765353209e+01   6.5338275207e+01    0.8799061    0.4027389 -89.14  0.002874549    2.304    0.566
       151 -11.8206      9.7382     61.1146   9.5163143772e+01   6.5046716453e+01    0.4885002    0.2626902  44.29  0.001407111    2.111    0.526
       152 -10.8789     12.0549     57.0998   9.3047363813e+01   6.5920822724e+01     0.263885    0.1709697 -69.60 0.0003704523    1.351    0.260
       153 -10.0105      7.7151     81.7211   9.9517939635e+01   5.9799635649e+01    0.3307333    0.2314789 -55.18  0.001832073    1.332    0.249
       154 -10.7439     10.4620     90.6937   9.9485044421e+01   5.7272212163e+01    0.2354255    0.2121246 -88.58 0.0004557809    1.051    0.049
       155  -9.9126      9.8112     86.3091   9.9202475746e+01   5.8466062207e+01    0.2879686     0.169692  56.25  0.001116462    1.810    0.448
       156  -9.8637    101.0077     95.5297   6.6822506390e+01   4.3680809476e+01    0.2255418    0.1499752  42.68 0.0005751915    1.552    0.356
       157 -10.5039     96.3797     89.1636   6.6410789264e+01   4.6008606497e+01    0.3848794    0.2002989  39.53  0.001538404    2.035    0.509
       158 -10.3117     83.2760     88.4529   7.0451962503e+01   4.8654722461e+01    0.2554659    0.2249369 -41.87 0.0004939433    1.123    0.109
       159 -10.8027     78.0678     88.0575   7.2126090344e+01   4.9681570851e+01     0.376494    0.3325483 -30.91  0.001944711    1.198    0.165
       160 -10.7079     47.9235     88.1874   8.3505275338e+01   5.4290537125e+01    0.2583342    0.2103693 -87.04 0.0002883423    1.274    0.215
       161 -11.0648    114.2385     87.2512   6.0609983009e+01   4.2771675019e+01    0.4350102    0.2544405  57.00  0.001259022    2.015    0.504
       162 -10.3270     31.2093     88.0519   9.0349277530e+01   5.6254144879e+01    0.2087434     0.168689 -54.75 0.0003251592    1.175    0.149
       163  -9.9846    120.9387     86.6686   5.8635296006e+01   4.1460307932e+01    0.2056706    0.1998539  51.19 0.0005276211    1.071    0.067
       164  -9.9277      4.8714     86.1253   1.0130773284e+02   5.8806648773e+01    0.1798454    0.1388297 -49.75 0.0005434698    1.308    0.235
       165 -11.5363     29.8474     81.8193   8.9686457596e+01   5.8016639804e+01    0.5522988    0.3116522 -37.68  0.002472232    2.048    0.512
       166 -11.0844     66.4527     85.8939   7.5715974910e+01   5.2163394999e+01    0.5590541    0.2888786 -37.48  0.002139903    2.406    0.584
       167 -10.0644     74.4648     82.0500   7.1658327515e+01   5.1736827526e+01    0.2408036    0.1410574 -50.60  0.001035499    1.616    0.381
       168  -9.3825     62.4583     82.4896   7.6287077722e+01   5.3631597785e+01    0.1479912    0.1385446 -59.25 4.296827e-05    1.004    0.004
       169  -9.8139     42.5282     81.7053   8.4180874242e+01   5.6630903788e+01    0.2843502    0.1231279 -58.20  0.001129936    2.026    0.506
       170  -9.4925    146.4961     80.9599   5.0849997001e+01   3.6891006483e+01     0.226909    0.1396345 -38.59 0.0009312966    1.527    0.345
       171  -9.9336    101.1764     81.1298   6.2492177138e+01   4.6800549174e+01    0.2087141    0.1779307 -74.34 0.0003935163    1.323    0.244
       172  -9.2607    183.6217     80.6871   4.3900340012e+01   2.8761537943e+01     0.146523    0.1053397  15.03  5.04793e-05    1.799    0.444
       173 -12.8455     44.7460     74.7908   8.1440623881e+01   5.8102508952e+01    0.5564658    0.3444377  61.81 0.0006272616    2.162    0.537
       174 -10.5485     35.7345     67.9927   8.3674387015e+01   6.0930049299e+01    0.2897907    0.1851418  45.51  0.000757702    1.748    0.428
       175 -10.1978    112.0713     79.2957   5.8744728897e+01   4.4872748674e+01    0.2085869    0.2010308 -85.73 0.0006620845    1.087    0.080
       176 -10.0993     59.8885     78.7946   7.6241241422e+01   5.4937139778e+01    0.3933399    0.2407182   4.78  0.001493715    2.935    0.659
       177  -9.4105    184.3536     76.7386   4.2702975641e+01   2.9203159811e+01    0.1942986    0.1234962 -24.47 0.0006681062    1.530    0.347
       178  -9.7332    169.7188     77.1002   4.5221964616e+01   3.2342051953e+01    0.2035009     0.172604 -32.08 0.0004068284    1.083    0.076
       179  -8.9155     70.2716     76.3354   7.1462994289e+01   5.3815979753e+01    0.1511005    0.1134325 -24.94 0.0001926341    1.598    0.374
       180 -10.2611    145.3457     74.5747   4.9148502228e+01   3.8275430160e+01    0.3002082    0.1833954 -32.36  0.001024403    1.592    0.372
       181  -9.2789    121.5047     75.5464   5.5012714555e+01   4.3532092170e+01     0.151299    0.1454635 -47.66 0.0008087285    1.022    0.022
       182 -10.2776     75.5285     74.5074   6.8921091417e+01   5.3302301813e+01     0.423205    0.3173386  19.66  0.002015167    1.634    0.388
       183 -10.3211     77.9943     69.9766   6.6509077245e+01   5.3866898292e+01    0.3128282    0.2323499  28.72  0.001042832    1.526    0.345
       184 -10.4212     75.2778     68.3185   6.6936979998e+01   5.4750232561e+01    0.3535302      0.19366 -40.05  0.001321303    1.862    0.463
       185 -10.7989    207.5060     73.1491   3.8468324248e+01   2.4893035822e+01    0.2122177    0.2059822   5.35 0.0003030545    1.155    0.134
       186 -10.3040     54.6845     74.3655   7.7064753308e+01   5.6813935815e+01    0.3253315     0.167424  48.16  0.000829948    2.268    0.559
       187 -10.7420    101.2617     71.8847   5.9437199934e+01   4.8723231437e+01    0.4478661    0.2700573  73.33  0.001036547    3.016    0.668
       188 -10.7755     93.9726     72.3410   6.1859507582e+01   5.0167835312e+01    0.3337702    0.2027375 -28.02  0.001346581    2.069    0.517
       189  -9.7762    152.0573     71.7789   4.6917255560e+01   3.7207967738e+01    0.1958251    0.1905055  29.16 0.0003951713    1.089    0.082
       190 -11.7462     50.8458     68.1656   7.6814450193e+01   5.8893140058e+01    0.5243682    0.4225267 -20.99  0.001183644    1.425    0.298
       191 -10.2682     51.9186     62.3971   7.4443748449e+01   6.0113585974e+01    0.3917288    0.2275064 -38.23  0.001707536    1.846    0.458
       192 -10.9552     47.4506     60.0999   7.5696747410e+01   6.1325666427e+01    0.6355651    0.3364975 -54.54  0.002633843    1.739    0.425
       193 -11.0096    167.7991     69.6302   4.3375805048e+01   3.3947936257e+01    0.2469259    0.2217397 -34.30 0.0002962605    1.024    0.024
       194  -9.1479     69.2430     69.9874   6.9799375085e+01   5.5473348741e+01    0.1881838    0.1211232 -50.88 0.0002208358    1.472    0.321
       195  -9.3476    230.4619     68.5120   3.4642070607e+01   2.1046819185e+01    0.1288241    0.1042567 -31.59 0.0001758225    1.010    0.010
       196 -10.2795    128.3216     66.7438   5.0419899781e+01   4.3603740766e+01    0.3977822    0.2709329 -82.44  0.001639202    2.279    0.561
       197 -10.1645     43.0339     67.8016   8.0213331899e+01   6.0070255813e+01    0.2477297    0.1956675 -55.99 0.0009118485    1.154    0.133
       198  -9.0693    220.6738     67.7262   3.5510296234e+01   2.3003815216e+01    0.1234339   0.09469768  12.55  0.000257297    1.583    0.368
       199 -11.1040     93.7486     66.6266   5.9943810665e+01   5.1408945100e+01    0.2714949    0.2493963 -47.71 0.0003236683    1.056    0.053
       200 -12.1720     30.2873     63.3674   8.5041815404e+01   6.2706276587e+01    0.7046606    0.5565119 -60.38  0.001907152    1.133    0.117
       201 -12.1668     37.0335    242.8834   1.0315408016e+02   2.1130173192e+01     0.488548    0.2490377  72.63  0.002137911    2.114    0.527
       202 -11.4645     30.5584    234.5723   1.0406198582e+02   2.3117403584e+01    0.3913306    0.1475141  74.25  0.001932662    3.312    0.698
       203 -10.5516     33.9018     32.2922   7.1397252580e+01   6.9537984431e+01    0.4243407    0.2510634  29.97  0.001525059    1.839    0.456
       204 -12.7977     27.6040     37.7667   7.7709040134e+01   6.9167042365e+01    0.4166268    0.2808486 -51.21  0.000368626    1.324    0.245
       205 -11.5274     24.4885     34.5107   7.8245012277e+01   7.0269797526e+01    0.2675713    0.2252902 -24.54 0.0007636115    1.164    0.141
       206 -12.0966    122.9695     63.9045   5.0741398301e+01   4.5363569643e+01    0.4304908    0.2995841 -60.71 0.0003012516    1.709    0.415
       207 -10.3674    118.8753     65.3675   5.2275891725e+01   4.6050880018e+01    0.2669483    0.2365791  33.60 0.0002377966    1.204    0.170
       208 -10.1942     99.4170     64.7126   5.7486063249e+01   5.0573594971e+01     0.327716    0.3009647  -1.08  0.001717862    1.178    0.151
       209 -10.5783     99.7236     55.6576   5.4016191187e+01   5.2249856434e+01    0.2775422    0.2229452  16.47 0.0005031576    1.502    0.334
       210 -10.9143     92.6925     60.6796   5.8108956300e+01   5.2839623283e+01    0.2979462    0.2021375  39.10  0.001298058    1.585    0.369
       211 -11.6464     96.5210     58.8246   5.6200505543e+01   5.2366368624e+01    0.4474441    0.2995428  59.47 0.0008694144    1.686    0.407
       212 -10.3612     70.0000     62.9544   6.7046928314e+01   5.6926396058e+01    0.2487803   0.08142129 -48.33 0.0007960753    2.899    0.655
       213 -10.0473    202.1911     61.6306   3.6099066250e+01   2.7534184927e+01    0.2621636    0.1637049 -12.15  0.001264761    1.848    0.459
       214 -11.1750     83.3096     61.4080   6.1535790449e+01   5.4666251689e+01    0.3207423    0.2312577  49.79 0.0009506951    1.467    0.319
       215  -9.9330     76.9826     62.4922   6.4218456855e+01   5.5701866539e+01    0.2133415    0.1494922  42.29 0.0003692251    1.496    0.331
       216 -10.0772    113.2005     60.9016   5.2177508896e+01   4.8185791189e+01    0.2269889    0.1986961 -64.52 0.0004939589    1.221    0.181
       217  -9.9552    169.0014     59.9866   4.0282786108e+01   3.5128176101e+01    0.2137243    0.1967187 -30.66 0.0003697599    1.036    0.035
       218 -11.0643     58.8178     58.6920   7.0080531966e+01   5.9859284854e+01    0.3718297    0.3396579  -5.88  0.001339419    1.172    0.147
       219 -10.3458     61.9240     53.5214   6.6753221096e+01   6.0463149196e+01    0.3936503    0.2115743 -38.51  0.001084477    1.908    0.476
       220  -9.5115    127.0160     58.9887   4.8058532680e+01   4.5266494252e+01    0.1770212    0.1692873  61.37 0.0009604166    1.086    0.079
       221 -11.3361    147.2519     56.7111   4.3027434634e+01   4.0772178152e+01    0.2862533    0.2354636 -49.03 0.0003251708    1.188    0.158
       222 -10.7892    110.0255     54.6847   5.0727948499e+01   5.0045946689e+01    0.3480012     0.275253 -72.18 0.0004088182    1.523    0.343
       223 -12.9430    105.1964     52.3769   5.1164389680e+01   5.1585627747e+01    0.4312564    0.3722779 -19.45 0.0004195194    1.209    0.173
       224 -10.4969     75.1647     55.7391   6.2317218195e+01   5.7487379480e+01    0.2695284    0.2001013 -40.49   0.00035589    1.294    0.227
       225  -9.9707    230.6985     54.5867   3.1225360329e+01   2.2685277621e+01    0.2279778    0.1357489 -19.26 0.0006797138    1.612    0.380
       226 -11.2225     88.1371     53.8593   5.6961766719e+01   5.5164486959e+01    0.2767793    0.2479592  79.25 0.0007326991    1.262    0.207
       227  -9.2660     82.4230     54.4315   5.9148083123e+01   5.6271211690e+01    0.1479906    0.1411037 -26.23 0.0001500728    1.028    0.027
       228 -10.1325    119.8843     52.7839   4.7504356287e+01   4.8025331085e+01    0.2146831    0.1976028  12.90    0.0003387    1.174    0.148
       229  -9.5097     95.9987     52.2287   5.3797898156e+01   5.3728734964e+01    0.1962485    0.1902243  31.51  0.001077026    1.061    0.057
       230 -11.5930    128.9099     49.4873   4.4226426656e+01   4.6363766823e+01    0.5377248    0.3805537   1.70  0.002118533    1.919    0.479
       231 -11.3754    131.2816     41.7136   4.0862702092e+01   4.6947144500e+01    0.3621789    0.2718042 -44.05 0.0006039659    1.297    0.229
       232  -9.8687     73.3713     51.2680   6.1191395858e+01   5.8761121036e+01    0.2399454    0.1780579  -7.59  0.001106529    1.786    0.440
       233  -9.3381     57.4078     51.2764   6.7819353655e+01   6.1746125882e+01    0.1503249    0.1116746  -5.20 0.0006977395    1.777    0.437
       234 -10.2446     52.2116     50.9222   7.0049064293e+01   6.2698859015e+01    0.2808866    0.1810818 -34.72 0.0008862451    1.633    0.388
       235  -9.7277    181.9364     49.7077   3.5314293416e+01   3.3570819455e+01    0.1866234    0.1717796 -58.76 0.0003315759    1.084    0.078
       236  -9.9757    167.9417     49.0053   3.7055866704e+01   3.6933846264e+01     0.207269    0.1939541 -35.30   0.00119992    1.035    0.034
       237 -10.4626     78.2750     47.9538   5.7961108373e+01   5.8409622377e+01    0.3872428    0.1758003 -28.33   0.00111699    3.172    0.685
       238  -9.2714    205.9979     48.5307   3.2128745714e+01   2.8396066873e+01    0.1680618    0.1326398  71.80 4.898387e-05    1.448    0.309
       239 -10.2527     60.0946     47.8737   6.5213602126e+01   6.1996190859e+01    0.3275248    0.2123065  26.76  0.001405706    1.846    0.458
       240 -10.3243    104.4550     46.8645   4.9184065924e+01   5.2713934150e+01    0.2814393    0.2145731  43.19  0.000658597    1.366    0.268
       241 -10.9079    151.7009     45.6306   3.8518040624e+01   4.1325630838e+01    0.2595868    0.2361402 -38.51  0.000316194    1.038    0.037
       242 -10.4495    143.0296     45.4137   3.9959788185e+01   4.3492935471e+01    0.2776074    0.2068455 -32.50 0.0006395204    1.280    0.219
       243  -9.7079    120.0915     46.5766   4.5115364516e+01   4.8983998685e+01    0.2096144     0.146002  57.73 0.0002518674    1.470    0.320
       244  -9.9952     85.8356     45.8367   5.4410961135e+01   5.7174601130e+01     0.304509     0.150922 -35.26  0.001203776    2.015    0.504
       245 -10.7769     82.7265     42.7775   5.4132461495e+01   5.8413290924e+01    0.4204836     0.154841 -45.90  0.001409336    2.916    0.657
       246  -9.9043    113.4596     44.8033   4.6013286233e+01   5.0885810620e+01    0.3646322    0.1998812  27.78   0.00128042    3.042    0.671
       247 -10.3505     98.0421     37.9805   4.7239358635e+01   5.5694230321e+01    0.2274102    0.2182282 -41.05 0.0005452044    1.036    0.035
       248 -10.3677    101.4520     36.3195   4.5580529388e+01   5.5130804937e+01    0.3443012    0.2222969 -63.16  0.001468575    2.067    0.516
       249 -10.8829     91.7048     42.9487   5.1273650719e+01   5.6361391465e+01    0.5432094    0.2277999 -42.49  0.002003431    2.356    0.576
       250 -10.6902     95.8060     42.7006   4.9922994405e+01   5.5453040970e+01    0.4248075    0.2690858 -26.64 0.0005795873    1.675    0.403
       251 -10.2276     51.3452     44.7487   6.7875867364e+01   6.4185361814e+01    0.2702771    0.1908448 -41.87 0.0005752228    1.328    0.247
       252 -11.2891     53.3953     40.8245   6.5136884837e+01   6.4652247662e+01    0.3843943    0.3137973  -0.93  0.002049054    1.397    0.284
       253  -8.9386    139.2716     44.3850   4.0291101162e+01   4.4572075810e+01     0.151395    0.1130723  14.15 0.0006993775    1.708    0.415
       254  -9.8954    187.1492     42.9187   3.2663676335e+01   3.3245460924e+01    0.2150768    0.1643747 -52.91 0.0004735324    1.252    0.201
       255 -10.7807    158.2541     42.6653   3.6474893657e+01   4.0126395411e+01    0.2323202    0.2263239 -22.22 0.0002918655    1.073    0.068
       256 -10.9435     79.8130     27.8621   4.8069746322e+01   6.1539505027e+01    0.5868341    0.2762716 -20.63  0.002133053    2.821    0.646
       257 -10.1766     71.7056     40.6586   5.7193944346e+01   6.1159474202e+01    0.4888156    0.1920961 -52.40  0.001508446    3.786    0.736
       258 -11.2008     69.5719     37.4485   5.6519523217e+01   6.2190346312e+01    0.3987594    0.2690421 -10.88 0.0005544397    2.018    0.504
       259 -11.3275     74.6447     35.6173   5.3704877195e+01   6.1438100662e+01    0.5401403    0.3655635 -27.40  0.000361174    1.526    0.345
       260 -11.4828     34.2815     42.5753   7.5822244995e+01   6.7232753782e+01    0.6095217    0.3477255  -2.21  0.002347413    3.227    0.690
       261 -11.7763     44.8372     38.1377   6.8133370535e+01   6.6650582748e+01    0.3732082    0.2922503  29.76  0.002026571    1.359    0.264
       262 -10.3910    148.8171     40.0585   3.7089278576e+01   4.2801547935e+01    0.3947918    0.1878132 -29.69  0.001607899    1.982    0.495
       263  -9.5044    121.2882     41.3254   4.2815469991e+01   4.9494594014e+01     0.150201    0.1146098  18.72 0.0003559426    1.609    0.379
       264 -11.3981    225.0356     37.9057   2.7565309245e+01   2.5697291411e+01    0.3158952     0.232142 -76.32 0.0004825457    1.529    0.346
       265 -11.0878    226.1197     33.0378   2.6250737602e+01   2.6008968404e+01    0.2059107    0.1692088 -28.93 0.0002831474    1.106    0.096
       266 -11.3116    221.7313     31.9272   2.6306893706e+01   2.7014886955e+01    0.2907566    0.1643643 -34.98 0.0002966738    1.417    0.294
       267  -9.7305      1.3974     37.7099   9.4871753706e+01   7.1421341996e+01    0.1825974   0.09848233 -59.28 0.0003171602    1.499    0.333
       268  -9.9773    249.2091     37.4024   2.5642528281e+01   2.1157489578e+01    0.1514128    0.1050332 -75.28 0.0009559347    1.685    0.406
       269 -12.6837     57.7812     34.0435   5.9825295097e+01   6.5171506058e+01    0.3368411     0.302396 -14.68 0.0005910915    1.090    0.083
       270 -10.0001     60.9779     28.7415   5.5663551965e+01   6.5489175981e+01    0.2098017    0.1823616   1.02 0.0002948864    1.186    0.157
       271 -10.8433     23.9184     41.3663   8.1401590700e+01   6.8756396704e+01    0.4317211     0.311536  69.90  0.001657084    1.920    0.479
       272  -9.4814    134.5611     34.8052   3.7651902018e+01   4.7078725113e+01     0.215907    0.1224053 -41.76 0.0009353338    1.699    0.411
       273 -12.2840      8.7534     31.9248   8.7900566376e+01   7.2364126989e+01    0.4344457    0.3407726 -70.98  0.002592785    1.258    0.205
       274 -10.5246     17.3880     30.9505   8.1410098791e+01   7.1839829113e+01    0.4529598    0.2344342  21.40    0.0021529    2.167    0.538
       275  -9.9227    192.5947     33.7975   2.9411619041e+01   3.3092442434e+01    0.1909583    0.1071839 -37.30   0.00047474    1.518    0.341
       276 -11.2536     83.2520     35.5265   5.0649228125e+01   5.9542727865e+01      0.46311    0.3338568  27.59  0.001734489    1.615    0.381
       277 -10.1190    205.7742     32.2451   2.7720597609e+01   3.0340928219e+01      0.16795    0.1482889   5.91  0.000443092    1.318    0.241
       278 -10.1117    166.5257     32.0811   3.1844236436e+01   3.9439786132e+01    0.2152945     0.132254 -25.47  0.001020974    1.566    0.361
       279 -10.1265    122.4426     32.4815   3.9072261251e+01   5.0456413690e+01    0.3077016    0.1431924  62.91  0.001096643    2.168    0.539
       280 -10.9598    102.7881     29.7420   4.2336798464e+01   5.5762051393e+01    0.4924304    0.3244463 -74.15  0.002124212    2.143    0.533
       281 -10.4691     49.6098     30.7800   6.2024587334e+01   6.7301188192e+01    0.2746705     0.226901 -56.06 0.0003607394    1.348    0.258
       282 -11.0694     49.1710     26.0650   5.9680804826e+01   6.8247702163e+01    0.2728933    0.2432268  66.16  0.001570651    1.372    0.271
       283  -9.5276     44.1167     31.3858   6.5176227363e+01   6.8138038768e+01    0.1778749    0.1296759  53.03 0.0003393771    1.660    0.398
       284 -10.3488    237.2586     29.7221   2.4634920691e+01   2.4175592910e+01    0.1736132   0.08667975  54.86 0.0008990853    2.465    0.594
       285 -10.7554    198.0238     27.9908   2.7231495946e+01   3.2515067375e+01    0.2060166    0.1531528  29.21  0.001131889    1.718    0.418
       286  -9.7838    107.7074     27.5919   4.0203291977e+01   5.4826619954e+01     0.196191    0.1416228  77.62 0.0009378161    1.547    0.353
       287 -10.6643    111.9920     27.3817   3.9151526955e+01   5.3774249224e+01    0.3484926    0.2298321 -12.53 0.0009223334    1.741    0.426
       288  -8.6305    111.6932     22.3381   3.7025152038e+01   5.4480124178e+01    0.2459824    0.1615225 -43.01 0.0009028148    1.533    0.348
       289  -9.6828    114.3552     20.8043   3.5819899249e+01   5.3980853971e+01    0.2400957    0.2151709  45.16 0.0005938517    1.135    0.119
       290 -11.2485     68.4598     26.5332   5.1440288077e+01   6.4282136730e+01    0.7374084    0.2591038  38.04  0.002220238    4.227    0.763
       291 -10.2797    128.4548     26.4660   3.5533244417e+01   4.9692435949e+01    0.2595962     0.217577  68.96 0.0005136569    1.203    0.168
       292 -12.4125    232.4404    245.2532   6.8058721927e+01  -5.4915557130e-01    0.4472478    0.1888413 -22.66  0.002848001    2.318    0.569
       293 -10.4629    129.0000     18.9698   3.2456131411e+01   5.0414842008e+01    0.3303335    0.2290781  -7.29  0.000900379    1.646    0.392
       294 -13.2472     74.7788    238.5964   9.5448265286e+01   1.8004500085e+01    0.6531529    0.5188177 -62.93  0.004996146    1.572    0.364
       295 -11.0983     88.7304    240.9741   9.2871295013e+01   1.6099901217e+01    0.1944884    0.1390258 -44.15  0.001380979    1.811    0.448
       296  -9.9796     30.9814     12.6857   6.1722299819e+01   7.3746446380e+01    0.1853804     0.176087 -47.90 0.0005242728    1.253    0.202
       297  -9.4971    109.8402    242.6188   8.8907227346e+01   1.3462200203e+01    0.1559046   0.07585298  38.82 0.0003519244    1.632    0.387
       298 -10.0475    195.4810    238.3573   7.2933172746e+01   4.0632666619e+00    0.1905431    0.1221248  -2.94  0.001359978    1.439    0.305
       299  -9.6984    134.5321    237.9769   8.3722368768e+01   1.1224898029e+01    0.1442861   0.08279473 -21.46 0.0008096069    2.557    0.609
       300 -10.8870    244.3363    236.9088   6.5177406735e+01  -9.5130184551e-01    0.1602717    0.1097318  18.54  0.001281546    1.314    0.239
       301 -10.9815     22.5539     24.4244   7.4673990637e+01   7.2697471033e+01    0.3234231    0.2184837 -35.61 0.0005381957    1.382    0.277
       302 -10.6027     24.5659     21.5324   7.1680002302e+01   7.3038277753e+01    0.2929328    0.2237325 -62.91  0.001069569    1.534    0.348
       303  -9.4862    180.2848     26.6443   2.8548953615e+01   3.6750670997e+01    0.1496228   0.08700488 -52.23 0.0005480862    1.669    0.401
       304 -10.8990    172.7822     25.6101   2.9027175016e+01   3.8659679820e+01    0.3348617    0.2461673  27.14 0.0006856545    1.702    0.412
       305  -9.6473    116.9156     26.4042   3.7699280801e+01   5.2649164683e+01    0.2783809    0.1439716  69.70  0.001136527    2.080    0.519
       306 -10.2054      1.7538     25.8315   9.0990187336e+01   7.4261387786e+01     0.193746    0.1484483 -43.74 0.0007090906    1.133    0.117
       307  -9.3939    219.4389     25.4469   2.4810177525e+01   2.8167409032e+01    0.1264635    0.1049089 -40.27  0.000134766    1.013    0.013
       308  -9.9657    214.5353     25.1927   2.5106312575e+01   2.9218908085e+01    0.1700917    0.1140147 -11.51 0.0004676616    1.631    0.387
       309 -11.7047     22.4785    248.7474   1.0616863332e+02   2.1497451486e+01    0.3200438    0.1747484  45.39  0.001256528    1.297    0.229
       310 -10.2717    159.9932    235.6866   7.8743696708e+01   8.4931340552e+00      0.15813    0.1117771  21.59 0.0004341487    1.102    0.093
       311 -10.9241      7.1271     24.8435   8.6365087539e+01   7.4133671615e+01    0.3507278    0.1921398   6.27  0.001032601    2.168    0.539
       312 -11.3598     13.9996     23.0751   8.0228823125e+01   7.3932823033e+01    0.3226935    0.2089251  -5.34 0.0003376174    1.849    0.459
       313 -10.9352      6.0408     20.5032   8.5342715845e+01   7.5200443104e+01    0.2354128    0.1804556  11.94 0.0006471589    1.425    0.298
       314  -9.6448    177.3848    234.7934   7.5541246917e+01   6.5486617283e+00    0.1412638   0.08856248 -21.48  0.000951963    1.690    0.408
       315 -10.8472    165.2874     16.7523   2.6959806517e+01   4.1425103854e+01    0.3733228    0.1583142  49.32  0.001478283    2.696    0.629
       316 -10.8166     86.5961    232.8865   9.2623727575e+01   1.7605825540e+01    0.2455888    0.1031226  43.72  0.001317913    1.987    0.497
       317 -10.5380    165.0345     22.5354   2.8897383980e+01   4.0885983325e+01    0.2523722    0.2095688 -39.49 -5.105966e-06    1.112    0.101
       318 -10.7034    168.3055     21.3079   2.8133221650e+01   4.0213050475e+01    0.2622596    0.2094425 -46.02 0.0007040264    1.145    0.127
       319  -9.9708     76.2175     15.5799   4.2735112565e+01   6.4076196780e+01    0.3524542    0.1581768  44.09  0.001126532    2.292    0.564
       320 -11.4962     59.4039     21.0172   5.2040952760e+01   6.7072186256e+01    0.4176567    0.2823429  31.04 0.0004049913    1.615    0.381
       321 -10.0315     38.5019    232.4471   1.0236688776e+02   2.2737113940e+01    0.1612192    0.1009854 -81.94  0.000112393    1.797    0.444
       322 -10.1598     24.2251    232.1434   1.0522812930e+02   2.4106902429e+01    0.1677253    0.1279785  27.19 0.0005877538    1.334    0.250
       323  -9.3042     58.5120    229.4927   9.8106293647e+01   2.1239351779e+01    0.1117977   0.08744062  44.00 0.0005384776    1.003    0.003
       324 -11.8504     89.0039    249.3582   9.3484367156e+01   1.4813940899e+01    0.3097299    0.1854494  30.27 0.0009355496    1.308    0.236
       325 -11.4366      4.2157    226.5831   1.0905381160e+02   2.6767143805e+01    0.2748066    0.1554143  78.97  0.001879548    1.653    0.395
       326  -9.9512    186.3011     22.7105   2.6769006502e+01   3.5758987053e+01    0.2511649    0.1297065 -36.31 0.0006007128    1.649    0.393
       327  -9.5699    106.8379     23.2653   3.8478562925e+01   5.5600068112e+01     0.252875    0.1365699 -62.59 0.0009441951    2.735    0.634
       328 -11.0413     96.9453     22.5576   4.0492653054e+01   5.8168928379e+01    0.6534964    0.3591791  59.16  0.002709296    1.783    0.439
       329  -9.6108    102.9553     21.0219   3.8331599714e+01   5.6855963392e+01    0.2336164    0.1634177  29.04 0.0003569755    1.645    0.392
       330 -10.9394     85.2550     21.3739   4.3079101949e+01   6.1179571538e+01    0.5316001     0.235063  50.16  0.002128492    2.181    0.541
       331  -9.6677    120.4774     20.9765   3.4734732184e+01   5.2388537828e+01    0.2088583    0.1402241 -24.57 0.0003702533    1.495    0.331
       332 -10.9343    121.3784    226.6797   8.5023235304e+01   1.4448089437e+01     0.232584    0.1447968  63.84  0.001281007    2.625    0.619
       333 -10.2979    172.7755     19.6172   2.7123347646e+01   3.9300179782e+01    0.1885238    0.1236376 -85.11 0.0007755107    1.651    0.394
       334  -9.5948    139.0759     19.5207   3.1143750769e+01   4.7760107964e+01    0.2193947     0.137618  70.77    0.0010359    1.601    0.376
       335  -9.9423    178.0008     17.9672   2.6098136667e+01   3.8209568544e+01    0.1960843    0.1785074 -47.46   0.00120069    1.027    0.026
       336  -9.8648    151.8087     18.0904   2.8934695021e+01   4.4662087514e+01    0.2326685    0.1730694 -56.31  0.001222378    1.319    0.242
       337 -10.1222    108.4602     17.2181   3.5405449972e+01   5.5899071547e+01    0.2243797     0.196569 -10.23  0.000342447    1.187    0.158
       338 -10.7798    194.9234     16.8175   2.4308271526e+01   3.4371715659e+01    0.2047364    0.1779281 -46.71 0.0003239801    1.007    0.007
       339  -9.8760     82.5397     17.0719   4.1632058945e+01   6.2384120287e+01    0.2026777    0.1375305 -24.74 0.0003590017    1.477    0.323
       340 -11.0321     15.7608    221.8214   1.0656480743e+02   2.6674227432e+01    0.3009061   0.07177676  39.29  0.001464489    2.503    0.600
       341 -10.4459    143.6594     16.0695   2.9226557016e+01   4.6945139686e+01    0.2431312    0.1819659  42.56  0.000698137    1.468    0.319
       342 -11.2849    247.0059     15.0364   2.0594667040e+01   2.3781428621e+01    0.2022056    0.1003864 -49.90  0.001115585    1.678    0.404
       343 -10.0156    123.6583    221.6720   8.4000620283e+01   1.4929274552e+01    0.1166891   0.08112731  -0.57 0.0007051335    1.740    0.425
       344 -11.1841     21.3703    220.2332   1.0533860981e+02   2.6477990321e+01    0.1914209    0.1197008  73.34  0.001292412    1.489    0.328
       345  -9.3666    176.3495    219.2806   7.3635600239e+01   8.6129966319e+00    0.1161087   0.07235101   5.92 0.0005219522    1.646    0.392
       346  -9.3807    190.3524    226.3167   7.2166748184e+01   6.0366212749e+00    0.1153523   0.06809961   4.01 0.0007046741    1.738    0.425
       347 -10.0413    192.0000    217.9734   7.0700048425e+01   6.8472083525e+00    0.1625351   0.05837266 -38.26 0.0008060881    2.968    0.663
       348 -10.6863      1.4927    211.0141   1.0921650139e+02   2.9837996468e+01    0.2860855    0.1351538  84.47  0.001573272    2.010    0.503
       349 -11.9803      5.5930    208.7118   1.0827750690e+02   2.9958001190e+01    0.5353598    0.2928131  64.96  0.003151525    1.521    0.343
       350 -11.8798     10.3795    216.8412   1.0751547553e+02   2.8038357818e+01    0.3786611    0.2538217  15.94   0.00256901    1.748    0.428
       351  -9.9815     12.5235    212.5058   1.0691612569e+02   2.8673282930e+01    0.1884744    0.1231741  89.67 0.0008616286    1.523    0.343
       352 -10.6363     11.1595    208.0111   1.0705162995e+02   2.9644288381e+01    0.2372352    0.1771245  77.18 0.0008492834    1.234    0.189
       353 -10.1844     38.2170    217.1884   1.0162117885e+02   2.5477048205e+01    0.1645003     0.100658  52.09 0.0006794409    1.336    0.252
       354 -11.5189     29.4329    215.5390   1.0342035939e+02   2.6616348138e+01    0.2708882    0.1880406  26.33  0.001481948    1.421    0.296
       355 -11.8666    237.9425    209.9473   6.2127425469e+01   2.3852765820e+00    0.2596278    0.1574849 -31.33  0.001323349    1.718    0.418
       356  -9.5220    169.7746    213.0093   7.3943830041e+01   1.0280864624e+01     0.134823   0.09018609 -35.44  0.000593247    1.627    0.385
       357  -9.4606    110.0000    212.0070   8.5696646430e+01   1.8212387479e+01    0.1693148   0.06859222 -56.78 0.0008021499    2.940    0.660
       358 -10.5433     20.6062    211.8602   1.0515387493e+02   2.8104725182e+01     0.229137    0.1184277  58.75  0.001380415    1.628    0.386
       359 -10.4957    246.9382    203.8141   5.9850552281e+01   2.0330975359e+00    0.3410995    0.1717839 -43.32  0.001833847    3.533    0.717
       360  -9.3918    188.2235    204.9736   6.9411801333e+01   8.9720438964e+00    0.1363289    0.0868286 -32.21 0.0005586776    1.606    0.377
       361 -10.8930     20.2854    199.4783   1.0467300819e+02   3.0546511230e+01    0.2785394    0.1687292 -80.31  0.001160891    1.685    0.407
       362 -10.6631    175.3142    202.2977   7.1331761184e+01   1.1033739871e+01    0.2029695    0.1674007  19.95  0.000434716    1.126    0.112
       363  -8.9803     99.6716     13.6741   3.5588750169e+01   5.8527671059e+01    0.1529214    0.1013258  31.62 0.0007050281    1.701    0.412
       364  -9.9933    117.0939    201.5160   8.2907034637e+01   1.9066127739e+01    0.1889768     0.104732  33.05  0.001008645    1.552    0.356
       365  -9.3950    107.5492     10.5244   3.2515360514e+01   5.6834382332e+01    0.1378052    0.1356499  67.11 0.0004942652    1.004    0.004
       366  -9.6990    136.6251    215.6979   8.0679831972e+01   1.4190575215e+01    0.1209046   0.08079168   2.87 0.0007028833    1.759    0.432
       367 -10.0886     58.3771    195.8505   9.5590992125e+01   2.7470898174e+01    0.1614237    0.1051155 -58.05 0.0009483492    1.742    0.426
       368 -11.7586     16.1944    192.9239   1.0531420659e+02   3.2228306032e+01    0.4168338    0.2123241  25.47  0.002261787    1.909    0.476
       369 -10.2053    244.8046    188.1179   5.7577136428e+01   3.9606238633e+00    0.1571989      0.12119 -10.28 0.0004508829    1.166    0.142
       370  -9.2799      2.3234    187.3297   1.0834305992e+02   3.4491960217e+01    0.1057217    0.0829481 -46.60 0.0007049754    1.698    0.411
       371  -9.7258     61.8163    184.8163   9.3751630393e+01   2.9325160994e+01    0.1785275    0.1291004  61.93 0.0009164874    1.334    0.251
       372 -10.3385    168.1496    183.4647   6.9658824311e+01   1.4803160912e+01    0.2342002    0.2009153  78.53  0.001447007    1.922    0.480
       373 -11.6612     15.7544    181.7563   1.0489176279e+02   3.4611501519e+01    0.4221026    0.2005863  61.72  0.002116866    1.878    0.467
       374  -9.7604     58.8679    181.8309   9.4187987213e+01   3.0293216780e+01    0.1775082     0.170259   7.57 0.0007029718    1.223    0.182
       375  -9.8003    244.4985    178.4437   5.5954369944e+01   5.0831687130e+00    0.2071693    0.0842496 -21.10  0.001035026    2.450    0.592
       376  -8.8864    222.6760    178.3473   5.9199267675e+01   7.8689479312e+00     0.100417   0.09083311 -44.85 0.0002167611    1.744    0.427
       377 -10.3141     46.7903    177.1903   9.6797465713e+01   3.2636779898e+01    0.2284734    0.1898966  58.37  0.001392018    1.049    0.046
       378 -10.5326     18.4866    173.0305   1.0374366030e+02   3.6285957907e+01    0.2467579    0.1313018  44.89  0.001129839    1.582    0.368
       379  -9.8332     77.5180    168.5045   8.7943047449e+01   3.0836320817e+01    0.2372724    0.1269083 -81.40  0.001032665    2.577    0.612
       380 -12.4618     37.1090    165.5946   9.8322161274e+01   3.6231538026e+01     0.760435    0.5988165 -12.20  0.002173649    1.720    0.419
       381 -10.5965     35.4687    161.4654   9.8411202843e+01   3.7344318711e+01    0.2815148    0.1814956  10.18 -8.066975e-06    1.991    0.498
       382 -11.8317     51.6851    162.4450   9.4075562697e+01   3.5384342503e+01    0.7057669    0.4124233  79.76  0.003467269    1.971    0.493
       383  -9.3943    177.2580    168.6489   6.5287435353e+01   1.5735912314e+01    0.1119043    0.1013973 -67.02 0.0002717765    1.605    0.377
       384 -10.5903      5.0312    168.4785   1.0697764654e+02   3.8368519508e+01    0.1715338    0.1103237  26.63  0.001029723    1.586    0.370
       385 -10.6638     55.4106    161.2136   9.2925276919e+01   3.5234297664e+01    0.2880476    0.2315148  79.24 0.0009281607    1.214    0.176
       386  -9.1266    210.7726    165.9885   5.8852769152e+01   1.1118497074e+01    0.1534202    0.0874507 -30.20 0.0006185522    1.584    0.369
