#   1 NUMBER                 Running object number                                     
#   2 MAG_AUTO               Kron-like elliptical aperture magnitude                    [mag]
#   3 X_IMAGE                Object position along x                                    [pixel]
#   4 Y_IMAGE                Object position along y                                    [pixel]
#   5 X_WORLD                Barycenter position along world x axis                     [deg]
#   6 Y_WORLD                Barycenter position along world y axis                     [deg]
#   7 A_WORLD                Profile RMS along major axis (world units)                 [deg]
#   8 B_WORLD                Profile RMS along minor axis (world units)                 [deg]
#   9 THETA_WORLD            Position angle (CCW/world-x)                               [deg]
#  10 FWHM_WORLD             FWHM assuming a gaussian core                              [deg]
#  11 ELONGATION             A_IMAGE/B_IMAGE                                           
#  12 ELLIPTICITY            1 - B_IMAGE/A_IMAGE                                       
         1  -8.9480     74.1874     19.1045   3.6038327503e+01   6.1302774714e+01    0.2835356     0.191765 -42.72  0.001060704    2.022    0.505
         2  -7.7860     83.5001     11.0009   3.0178023486e+01   6.0285652336e+01    0.1482428   0.09733724 -50.72 0.0006453122    2.385    0.581
         3  -8.4736     55.7342      9.8874   3.8523882559e+01   6.5430462151e+01     0.181341    0.1494213 -30.71 0.0007586484    1.591    0.371
         4  -7.9190     47.5306      9.9594   4.1639436946e+01   6.6731606498e+01    0.1578203    0.1021375 -18.23 0.0004701324    1.541    0.351
         5  -8.0841     91.0367      8.5358   2.7283406194e+01   5.8982220518e+01     0.184905     0.102087  56.05 0.0005425314    1.549    0.355
         6  -8.0873      6.3123      8.6059   6.0270516354e+01   7.1884903308e+01   0.08823993   0.08333489  -1.44 0.0001139889    1.843    0.458
         7  -7.6943    101.3615      7.7115   2.4536509037e+01   5.6900319370e+01    0.1163134   0.09086089 -87.59  0.000702469    1.691    0.409
         8  -8.4257     70.4767      6.0684   3.2036391102e+01   6.3184755671e+01    0.1559159    0.1100586 -13.94 0.0005047116    1.538    0.350
         9  -8.6511     33.4915      4.9795   4.5208638826e+01   6.9259151531e+01    0.2427029    0.1622453 -44.03  0.001333013    2.601    0.616
        10  -8.2950    216.8527      4.0818   7.7538720704e+00   3.1338217880e+01    0.1628586     0.120654  57.79    0.0005568    1.606    0.377
        11  -8.5579     79.1813      3.5850   2.8543819033e+01   6.1732888649e+01    0.2095993    0.1395843 -38.78   0.00117715    2.001    0.500
        12  -7.6691     44.5617      2.5539   3.9498473932e+01   6.7881422216e+01    0.1126809   0.08636015  19.30 0.0001203183    1.056    0.053
        13  -8.2178     62.5259      1.4600   3.2634089381e+01   6.4991660536e+01    0.1764148    0.1019182  58.41 0.0005937309    1.989    0.497
        14  -8.4663    168.7388    247.4281   6.8119812509e+01  -2.4013550468e+00    0.2588498    0.1120908  39.73  0.001124556    2.067    0.516
        15  -9.7119    246.7865    228.4015   4.9275435872e+01  -1.0798450997e+01    0.4702274    0.1841302 -37.56  0.002121618    2.303    0.566
        16 -10.3478    248.7488    242.2793   5.1374981468e+01  -1.3104578020e+01    0.6269249    0.2083928 -40.72  0.002290057    2.971    0.663
        17  -9.3803    233.2821    246.4486   5.4948491282e+01  -1.1740867798e+01    0.4931694    0.2448441 -32.45  0.002336616    1.908    0.476
        18  -7.5460     86.3095    250.6193   8.6154431867e+01   1.0055233544e+01    0.1402746   0.08471212  67.06 0.0007024773    1.796    0.443
        19  -7.9073     72.4531    250.5019   8.9000105119e+01   1.2081795187e+01    0.1284929    0.1050537  63.41 0.0008087758    1.013    0.013
        20  -9.4943    147.0250    245.1241   7.2425768150e+01   1.5318380859e+00    0.3515827    0.2836877 -42.47    0.0011244    1.396    0.284
        21  -9.0939    120.1646    245.2181   7.8277975296e+01   5.8888890720e+00    0.3694938    0.2334284  70.58  0.001492151    2.198    0.545
        22  -8.7070     67.4958    244.5647   8.9434166197e+01   1.4005200920e+01    0.2412443    0.1192257 -68.54 0.0009692316    2.087    0.521
        23  -8.6204    201.9270    243.0674   6.0505316741e+01  -6.8121809329e+00    0.2684127    0.1795987 -51.72 0.0008815132    1.982    0.496
        24  -8.9311     78.1016    243.0906   8.7066954978e+01   1.2809063234e+01    0.3512263     0.168116  67.10  0.001431073    2.888    0.654
        25  -8.4932    169.0778    243.1747   6.7374481711e+01  -1.7033590110e+00    0.2370663    0.1709092  49.48 0.0007449947    1.533    0.348
        26  -8.4139      9.1783    242.7587   1.0066369014e+02   2.1423620871e+01    0.2068462   0.07517376  65.29 0.0009405425    2.736    0.635
        27  -9.2649    194.1142    239.9825   6.1580523124e+01  -5.1125457681e+00    0.3518192    0.1877242 -47.85  0.001196689    2.192    0.544
        28  -9.1445    183.0778    239.9992   6.3885044121e+01  -3.3860672807e+00    0.3886621    0.2674372  60.67  0.001903652    2.298    0.565
        29  -9.4390    159.9040    239.8882   6.8826448700e+01   3.9220293943e-01    0.3486791    0.2545277 -79.99  0.001396734    2.214    0.548
        30  -7.7420    153.4868    241.9828   7.0547715261e+01   1.0588564104e+00    0.1760707    0.1226171 -85.60 0.0008102572    2.535    0.606
        31  -7.9624     88.3339    242.1540   8.4784817100e+01   1.1493836032e+01    0.1788981    0.1170202 -81.73 0.0007016659    1.726    0.421
        32  -7.4838     49.6721    242.3485   9.2866614416e+01   1.6854153364e+01    0.1381761   0.07589209  66.19 0.0007049239    1.758    0.431
        33  -9.3042    241.8220    237.4013   5.1784091183e+01  -1.1514105991e+01    0.6344612    0.2245898 -25.11  0.002092935    4.923    0.797
        34  -8.8675    146.2303    238.9897   7.1674364026e+01   2.8280819090e+00    0.2270114    0.1817373 -42.75 0.0008648958    1.389    0.280
        35  -8.9490    135.8446    238.8928   7.3949304435e+01   4.5733228721e+00    0.2199033    0.1549104  63.87  0.001111798    1.731    0.422
        36  -9.0147    231.1435    237.1057   5.3728001828e+01  -1.0049451961e+01    0.2874523    0.2485242  85.69  0.001702929    2.329    0.571
        37  -8.1264    209.1290    238.1772   5.8213567687e+01  -7.0858415149e+00    0.1594618    0.1546256 -25.12  0.000454694    1.373    0.272
        38  -8.0165    129.3263    238.6703   7.5358631608e+01   5.6970508085e+00    0.1420451   0.09994725  65.12 0.0007050748    1.705    0.413
        39  -8.5742     25.7747    237.0700   9.7174390325e+01   2.0849114335e+01    0.3484645     0.130005  77.44  0.001297723    3.930    0.746
        40  -8.2202    189.6306    236.8330   6.1975733554e+01  -3.8723769386e+00    0.1744154    0.1265103 -51.33 0.0005601653    1.697    0.411
        41  -9.0508    217.3116    235.6810   5.6150897852e+01  -7.8797750725e+00    0.2218522    0.2019802  48.62 0.0006684641    1.546    0.353
        42  -9.3417    213.6615    231.6316   5.6156269030e+01  -6.6810704946e+00    0.3169544    0.2721286  80.91  0.001660191    2.054    0.513
        43  -9.0244    203.1613    234.6736   5.8808791395e+01  -5.6058615737e+00    0.3044476    0.2205166 -64.12  0.001076234    2.322    0.569
        44  -7.9102     57.9851    237.0000   9.0673522229e+01   1.6914393822e+01    0.2052999   0.06642542  35.07 0.0008037986    2.952    0.661
        45  -8.7993    109.0368    234.2588   7.9259661367e+01   9.9254342062e+00    0.4347868    0.2191557  57.63  0.001398443    2.412    0.585
        46  -8.0876    122.9624    234.0041   7.6105082422e+01   7.6997166156e+00    0.2267175    0.1569313  68.15 0.0008700005    1.775    0.437
        47  -8.1940     99.7523    234.1784   8.1319437100e+01   1.1423063724e+01    0.2372914    0.1275381  68.45 0.0009474437    2.761    0.638
        48  -8.8071     78.4211    233.7719   8.5972386245e+01   1.4756984836e+01     0.239614    0.1263816 -73.30  0.001014593    2.081    0.519
        49  -9.5262     68.6167    232.1516   8.7922565522e+01   1.6518357620e+01    0.5502032    0.2578238  67.55  0.002192632    2.941    0.660
        50  -8.8080    194.2418    232.3247   6.0234877718e+01  -3.8148354017e+00    0.2133924    0.1850587 -30.13  0.000587862    1.220    0.180
        51  -8.6181    144.8071    233.1775   7.1090063892e+01   4.2037434933e+00    0.2990874    0.1585419  62.13  0.001055095    3.596    0.722
        52  -8.7788    140.0654    229.7352   7.1613382220e+01   5.6997224826e+00    0.2958426    0.2291795 -80.06  0.001106089    1.677    0.404
        53  -8.1285    132.8728    232.7191   7.3691042043e+01   6.3087123057e+00    0.2341921    0.1434122  58.58  0.001063185    1.977    0.494
        54  -9.4111    235.7554    230.7438   5.1727191889e+01  -9.6902197442e+00    0.3866557    0.2732441 -11.01  0.001449064    1.279    0.218
        55  -9.4330    186.4859    230.5119   6.1547139955e+01  -2.2500349635e+00    0.3700848    0.2692507 -72.98  0.001613825    2.424    0.587
        56  -8.1844     92.2291    231.2415   8.2622855181e+01   1.3231012100e+01    0.2021822    0.1088922 -78.46 0.0005065833    2.418    0.586
        57  -8.5780      1.4977    230.4417   1.0135492015e+02   2.4766046569e+01    0.2058555   0.08544352  87.00  0.001020384    2.225    0.551
        58 -10.0781    149.6784    226.0895   6.8859476975e+01   4.7929656147e+00    0.6628729    0.4118644 -84.35  0.002463765    3.644    0.726
        59  -8.6730    162.0858    227.6373   6.6344388161e+01   2.3587323045e+00    0.2694983    0.2186041  81.99  0.001188767    1.752    0.429
        60  -8.7545    127.9307    227.1886   7.3972175769e+01   8.2898103101e+00    0.3610151    0.2215071  62.74  0.001592618    2.135    0.532
        61  -8.0305    120.4881    227.9756   7.5787705578e+01   9.3762402442e+00    0.1899397    0.1215768  88.27 0.0008092318    2.450    0.592
        62  -8.2245     49.3981    226.3120   9.1458827050e+01   2.0393318530e+01    0.3097369    0.1586885  85.43  0.001419434    2.263    0.558
        63  -8.9217      8.2280    226.7832   9.9859868000e+01   2.4908693570e+01    0.1874515   0.06668656 -66.11 0.0008884538    2.489    0.598
        64  -9.6877    175.6688    233.1366   6.4308402188e+01  -9.5908318095e-01    0.5032766    0.2795441 -58.58  0.002197826    2.624    0.619
        65  -8.9916    216.4079    223.4170   5.4127639998e+01  -5.7119595874e+00    0.2462321    0.2205246 -54.76 0.0009604924    1.517    0.341
        66  -8.6230    180.2229    223.9439   6.1732918695e+01  -5.0586261722e-03    0.2312346    0.2214823  59.16 0.0007311319    1.274    0.215
        67  -8.8260    104.7524    223.4332   7.8743023160e+01   1.2962223685e+01    0.3491582    0.2208586  79.10  0.001544471    2.192    0.544
        68  -8.6814     93.5973    223.7094   8.1343912474e+01   1.4682567939e+01    0.2711058    0.1820507  75.84 0.0008941928    1.739    0.425
        69  -7.7369     38.3404    224.6646   9.3645543924e+01   2.2123678834e+01    0.1401565   0.07733718  66.50 0.0007051061    1.756    0.431
        70  -8.4823    173.1182    222.7690   6.3072155535e+01   1.4216477080e+00    0.2309814    0.1932038 -59.75 0.0008905379    1.458    0.314
        71  -7.8360    113.5692    223.5014   7.6718590728e+01   1.1496602505e+01    0.1419555     0.127635  59.01 0.0001524498    1.046    0.044
        72  -8.9305      8.1622    234.2264   1.0033941560e+02   2.3315532989e+01    0.1721991     0.104551  69.93  0.001072365    1.341    0.254
        73  -9.1632    238.9101    221.2964   4.9425170629e+01  -8.6248231753e+00    0.2862981    0.1902473 -44.64 0.0009755465    1.684    0.406
        74  -9.4623    225.6949    221.6539   5.1988005939e+01  -6.7985740749e+00    0.2446516    0.2285265 -76.62  0.001107132    1.649    0.394
        75  -9.4181    192.4058    221.2285   5.8642044137e+01  -1.5258190808e+00    0.3020182    0.2625311 -89.47  0.001157291    1.726    0.421
        76  -9.1395    160.1866    221.0522   6.5643360852e+01   3.9894110853e+00    0.5544749    0.2530542  53.79  0.001897974    3.437    0.709
        77  -8.4235     82.5492    220.4507   8.3453809387e+01   1.7118494191e+01    0.3095923    0.1718784  67.94  0.001212745    2.273    0.560
        78  -8.5557    206.1804    225.7758   5.6611181815e+01  -4.5472186331e+00    0.2282106    0.1713352 -45.54 0.0009842217    1.514    0.339
        79  -8.0954    202.5221    220.0726   5.6320467654e+01  -2.9609275911e+00    0.1932283    0.1283439 -38.82 0.0003638086    1.501    0.334
        80  -7.9637     72.9823    220.4826   8.5638848078e+01   1.8520741363e+01    0.1923015   0.09249836  56.64 0.0004276779    2.235    0.553
        81  -7.5063     27.6653    220.6790   9.5531855744e+01   2.4244504929e+01    0.1167148   0.09057886 -47.18 0.0007049892    1.704    0.413
        82  -8.3688    210.0374    219.0041   5.4590092196e+01  -3.9644323544e+00    0.2000243    0.1811203  -5.66 0.0004599479    1.101    0.092
        83  -9.2290    248.5677    217.5486   4.6979687154e+01  -9.3416692877e+00    0.3253101    0.2093774  60.90  0.001383062    4.272    0.766
        84  -8.4730     62.1838    217.2268   8.7705419937e+01   2.0785949767e+01    0.2884366    0.1570771  67.43 0.0009941276    2.094    0.522
        85  -8.9163     51.8890    217.3525   9.0022386276e+01   2.2118784829e+01    0.3075199    0.1783127  79.28  0.001147127    1.863    0.463
        86  -8.7018    169.4892    216.1828   6.2702046863e+01   3.3428580507e+00    0.3039427    0.2329725 -81.70 0.0009947969    2.011    0.503
        87  -8.6833    143.1223    216.5347   6.8762431507e+01   7.9189506659e+00    0.3026862    0.2252205  83.80  0.001283693    1.923    0.480
        88  -8.8525    232.3806    214.7267   4.9427241571e+01  -6.6163741923e+00    0.2695348    0.2209598 -67.55  0.001076183    2.008    0.502
        89  -8.2697     18.5700    215.7575   9.7021009036e+01   2.6324620415e+01     0.231128   0.09766378 -71.12 0.0009138468    2.029    0.507
        90  -9.3124    133.0068    215.7738   7.0990236999e+01   9.8621495124e+00    0.5394889    0.3263973  79.80  0.001912895    3.509    0.715
        91  -9.1465    120.4837    219.0468   7.4442443049e+01   1.1310375705e+01    0.5006612    0.2644528  62.46  0.001854265    2.936    0.659
        92  -9.4161    214.0587    212.0805   5.2486404095e+01  -3.3686098992e+00    0.3923593    0.2834782  58.01  0.001684304    2.125    0.529
        93  -8.3474    185.6683    214.1488   5.8780601375e+01   9.3955246734e-01    0.2095732    0.1810139 -64.67 0.0009640363    1.483    0.326
        94  -8.8560     92.9839    213.7438   8.0131035611e+01   1.7051229880e+01    0.4039518    0.1926258  58.70  0.001484231    2.728    0.633
        95  -9.1356     73.1174    211.7013   8.4533945582e+01   2.0543263224e+01    0.6395193    0.2653173  61.39  0.002089461    3.906    0.744
        96  -7.8267    224.8110    211.9945   5.0357888929e+01  -5.0228526799e+00    0.1914658    0.1490933 -60.04 0.0005609702    1.870    0.465
        97  -8.7913    161.5352    211.8117   6.3704217101e+01   5.6386209315e+00    0.2665983    0.2391765 -84.15 0.0009857134    1.369    0.269
        98  -7.8715    106.3842    212.2632   7.6733239409e+01   1.5216040878e+01    0.1948149    0.1356691 -76.17 0.0006130034    1.638    0.389
        99  -8.9006    204.2158    210.5906   5.4200185366e+01  -1.5069439996e+00    0.2559948    0.2116246 -55.80 0.0007218925    1.514    0.340
       100  -8.3422    192.6105    210.6244   5.6634365471e+01   4.3105247701e-01    0.2535249    0.1714481 -65.55 0.0008439315    2.359    0.576
       101  -9.3649    175.3869    209.7213   6.0206971083e+01   3.6019348112e+00    0.4248075    0.3120559  78.37  0.001357911    2.342    0.573
       102  -8.7062    148.1285    210.5474   6.6564464378e+01   8.3084105002e+00    0.2971125     0.227301  84.99  0.001145826    1.842    0.457
       103  -8.7752    116.1548    210.1187   7.4064385353e+01   1.4054721718e+01     0.334074    0.2324573  81.18 0.0007595912    1.917    0.478
       104  -8.2695     85.4056    209.3639   8.1322057295e+01   1.9260295315e+01    0.2763127    0.1686233  72.86  0.001215004    2.058    0.514
       105  -9.2924    236.5462    207.4460   4.7277003038e+01  -5.9947946393e+00    0.4366989    0.2245529 -46.06  0.001510073    2.054    0.513
       106  -8.1748     46.3821    209.1598   9.0400164842e+01   2.4727944152e+01    0.1932429    0.1105411 -87.18 0.0008094308    1.767    0.434
       107  -9.5208    246.4304    206.9316   4.5383579182e+01  -7.3267853405e+00    0.3225828    0.1944827 -35.72 0.0007177794    1.450    0.310
       108  -9.2971    250.0726    201.6247   4.3736757403e+01  -6.9564556365e+00    0.4586525    0.1774914 -42.91  0.001939481    2.388    0.581
       109  -8.3105    139.1728    207.8847   6.8199299739e+01   1.0499044981e+01    0.2849837    0.2148729  80.81 0.0009411529    1.798    0.444
       110  -8.1217    126.6543    208.2956   7.1250899613e+01   1.2639619623e+01    0.2345245    0.1672935  72.40  0.001040311    1.814    0.449
       111  -8.7882      5.8916    207.4304   9.9013430643e+01   2.9439166285e+01    0.3262056    0.1210817  82.25  0.001295802    3.266    0.694
       112  -9.1352     99.4328    205.9522   7.7450007057e+01   1.7835925982e+01     0.389079      0.24062  79.13  0.001218538    2.320    0.569
       113  -8.4554     56.6668    205.4915   8.7628214854e+01   2.4293335872e+01    0.3091501    0.1609326  72.56  0.001002726    2.473    0.596
       114  -8.9913    183.8760    203.9739   5.7249677494e+01   3.2521093933e+00    0.3474685    0.2701042  76.27  0.001389754    2.012    0.503
       115  -8.0195    108.9895    204.9987   7.4977887381e+01   1.6464385194e+01    0.2354969    0.1692838  75.15 0.0006342998    1.679    0.405
       116  -9.3678    194.7666    203.2393   5.4764116516e+01   1.4862662079e+00    0.4566269    0.2997721 -46.94  0.001451143    1.593    0.372
       117  -9.3326    192.2518    197.1132   5.4101181171e+01   3.1358066086e+00    0.3271374    0.2580938 -55.47 0.0007886925    1.471    0.320
       118  -9.5832    163.9379    202.9820   6.1524931933e+01   7.0554240939e+00    0.5028393    0.2928349  55.77  0.001266841    2.284    0.562
       119  -8.7146    131.2099    203.6718   6.9365702935e+01   1.2875983111e+01    0.3081819     0.225454  80.16   0.00105625    1.851    0.460
       120  -8.2206     24.9860    204.5034   9.4719437628e+01   2.8260751669e+01    0.1801803   0.07756163  55.37 0.0008069364    2.341    0.573
       121  -8.5672    210.9835    201.4998   5.1071681644e+01  -9.3534068855e-01    0.2529005    0.1882234 -54.14 0.0006931531    1.630    0.386
       122  -8.8887    140.6118    200.8915   6.6610423971e+01   1.1797133305e+01    0.4225493    0.2723066  70.33  0.001511968    2.464    0.594
       123  -8.1926     10.1510    202.3616   9.7745861381e+01   3.0216077420e+01    0.1709673   0.09379923  46.77 0.0009497531    1.760    0.432
       124  -9.0001    243.1881    200.4121   4.4725205346e+01  -5.7677978139e+00    0.2845089    0.1788158 -44.93 0.0008818327    1.618    0.382
       125  -8.0637    222.1509    201.2412   4.8812778070e+01  -2.7039200394e+00    0.1771741    0.1570147 -51.39 0.0006029148    1.380    0.275
       126  -8.5057     79.8167    200.9113   8.1494681911e+01   2.2135333437e+01    0.2703661    0.1846644  84.48  0.001059701    1.657    0.396
       127  -9.3530    149.5955    198.5309   6.4032223221e+01   1.0667113322e+01    0.4551635    0.3167944  87.44  0.001458551    2.411    0.585
       128  -8.8273    124.0685    199.0057   7.0287302633e+01   1.5232527155e+01    0.3675248    0.2515233  88.41   0.00130174    2.132    0.531
       129  -9.3340    112.9821    198.3408   7.2906055738e+01   1.7348271746e+01    0.4981157    0.2901231  68.77  0.001723806    2.704    0.630
       130  -9.0833    237.0283    198.1556   4.5407623356e+01  -4.4646521605e+00    0.3051641    0.1722983 -45.28 0.0009554327    1.774    0.436
       131  -8.5031    176.9762    198.7775   5.7767749148e+01   5.5530531099e+00    0.2454528    0.1931458 -64.08 0.0006207727    1.580    0.367
       132  -8.8698     88.6460    198.2508   7.8932715016e+01   2.1419455370e+01    0.4019065    0.2379351  77.76  0.001486305    2.453    0.592
       133  -8.4716    202.4621    197.8029   5.2087740489e+01   1.2099340055e+00    0.2606005    0.2284421  77.67 0.0008824404    1.604    0.377
       134  -9.1318     61.5652    197.1810   8.5444730384e+01   2.5654724327e+01     0.435881    0.2228081  67.88  0.001638431    2.636    0.621
       135  -8.0773     29.3363    197.6772   9.3108821184e+01   2.9422126848e+01    0.1402129   0.08215205  67.97 0.0003609186    1.713    0.416
       136  -8.1971     12.3371    196.7804   9.6827534489e+01   3.1318240146e+01    0.2654522   0.09820773 -84.78  0.001084766    2.746    0.636
       137  -8.8105    215.8459    195.2738   4.8877583532e+01  -5.7870491392e-01    0.2967511    0.1881272 -54.52   0.00109684    1.969    0.492
       138  -9.0597    185.1496    194.7321   5.5165574184e+01   4.8961884367e+00    0.2902541    0.2209295 -65.08 0.0006235234    1.716    0.417
       139  -7.8190     36.3278    196.6287   9.1391952426e+01   2.8910212119e+01     0.146409   0.08446307  69.75 0.0007031018    1.822    0.451
       140  -9.2737    160.8239    194.1583   6.0553510572e+01   9.5328513466e+00    0.3680609    0.2755023  77.47  0.001275044    1.974    0.493
       141  -8.3241    132.8494    195.2019   6.7453407074e+01   1.4522440505e+01     0.229397    0.2034123  79.74 0.0005263367    1.241    0.194
       142  -9.4139    245.6161    193.2448   4.2914118304e+01  -4.8940877237e+00    0.2415944     0.204253 -62.80 0.0007465986    1.657    0.397
       143  -8.0383    230.8391    193.8770   4.5718846349e+01  -2.7514956787e+00    0.1767018    0.1512645 -44.05 0.0004209966    1.284    0.221
       144  -8.4893    224.4864    193.6651   4.6878374102e+01  -1.6988195975e+00    0.2755146     0.124294 -42.33  0.001175613    2.059    0.514
       145  -8.6481     77.1713    193.8575   8.1141184083e+01   2.4256440463e+01    0.2748092    0.2132756  64.97 0.0006497329    1.284    0.221
       146  -8.9288     43.9537    193.2361   8.9218177835e+01   2.8855839006e+01    0.4214061    0.2106038  67.71   0.00177087    2.498    0.600
       147  -8.3088    198.9684    191.5123   5.1562526327e+01   3.0556357528e+00    0.2224306    0.1844782 -37.04 0.0004691205    1.168    0.144
       148  -8.4349    172.4406    191.5735   5.7369232587e+01   7.9089448075e+00    0.2743078    0.2067602 -83.46  0.001079052    2.045    0.511
       149  -9.1442    139.5786    190.4579   6.4918690199e+01   1.4369786927e+01     0.448754    0.3031403  84.16  0.001306504    2.484    0.597
       150  -8.0686    179.1734    191.2528   5.5790405052e+01   6.7184536705e+00    0.1934013    0.1783089  88.87 0.0004983989    1.327    0.246
       151  -9.1962    129.7676    189.0547   6.7076077934e+01   1.6530178570e+01    0.4903401     0.311323  83.59  0.001485553    2.908    0.656
       152  -8.5380     22.4244    191.6338   9.4107642349e+01   3.1582199582e+01    0.2485536   0.06849306  43.24  0.000958683    3.313    0.698
       153 -10.2596     92.2574    188.6547   7.6519853825e+01   2.3196111626e+01    0.9674293    0.3178837  47.53  0.003009957    3.418    0.707
       154  -8.8286    216.5380    187.7938   4.7247798656e+01   7.1765527564e-01     0.283091    0.2184738 -51.46 0.0007534318    1.440    0.306
       155  -9.2983    156.1178    187.4575   6.0341191728e+01   1.1910879394e+01    0.3748115    0.2652719 -63.58 0.0009707413    1.688    0.408
       156  -8.3319    148.6439    189.0953   6.2453353464e+01   1.2967761545e+01     0.236783    0.1914082 -74.70  0.001068322    1.491    0.329
       157  -9.0681     34.2613    187.9073   9.0945024194e+01   3.1262385794e+01    0.3975663    0.1900747  81.27  0.001603066    2.755    0.637
       158  -8.2856    237.2001    188.2359   4.3438603514e+01  -2.7361808719e+00    0.1784273    0.1479335 -49.12 0.0005564558    1.361    0.266
       159  -8.8631    191.4097    187.0638   5.2264460215e+01   5.3216383115e+00    0.3491148    0.2445576 -69.59  0.001264878    2.189    0.543
       160  -9.5590    120.6266    185.9360   6.8793174150e+01   1.8956709799e+01    0.5507561    0.3112788 -73.20  0.002019121    2.632    0.620
       161  -9.1989     54.9906    186.7269   8.5712591806e+01   2.9104795046e+01    0.5001391    0.2567968  70.04  0.001840949    2.722    0.633
       162  -8.1328    230.6690    187.1569   4.4421966670e+01  -1.5051187407e+00    0.2098183    0.1602561 -49.77   0.00076038    1.436    0.303
       163  -8.6944    164.9769    186.5142   5.8068987787e+01   1.0422376993e+01    0.2778878     0.216917 -68.86 0.0006767857    1.586    0.370
       164  -9.0660    109.6710    186.0091   7.1601959481e+01   2.0902067682e+01    0.4221777    0.2719062  74.06  0.001308832    2.249    0.555
       165  -9.1576    249.2856    185.2026   4.0714808339e+01  -4.0439079760e+00    0.3169073    0.1774724 -43.97 0.0008652286    1.646    0.392
       166  -8.9053    210.1714    184.0267   4.7746918690e+01   2.5465987097e+00    0.3388982    0.1913577 -41.89   0.00108924    1.662    0.398
       167  -8.6455    202.8816    184.4615   4.9318032024e+01   3.7588053093e+00    0.2594512    0.1978222 -56.97 0.0007081614    1.537    0.349
       168  -8.7403    182.9393    184.6985   5.3624587648e+01   7.3921380351e+00    0.2869902    0.2146006 -53.41 0.0007823959    1.446    0.309
       169  -8.9779     66.7614    184.6505   8.2443055347e+01   2.8050444524e+01    0.3633623    0.2040938  60.74 0.0009610052    2.101    0.524
       170  -8.3253    197.0998    183.4949   5.0323529385e+01   5.0041718714e+00    0.2334612    0.2007558 -62.95 0.0007333848    1.387    0.279
       171  -8.8316    174.3340    183.5008   5.5304432826e+01   9.2851705199e+00    0.2956675    0.2509835 -85.90 0.0007399623    1.529    0.346
       172  -8.4485    224.1803    183.0383   4.4813171706e+01   3.2599977648e-01    0.2460057    0.1501377 -47.18 0.0007671178    1.640    0.390
       173  -9.0032     44.4867    182.2729   8.7775762228e+01   3.1504280889e+01    0.3850461    0.2135198  66.77  0.001012744    2.132    0.531
       174  -8.2509      1.9433    183.5025   9.8043589395e+01   3.5338463908e+01    0.1623474    0.1148986  39.48  0.001020301    1.580    0.367
       175  -9.1433    147.3757    180.3034   6.1010356083e+01   1.5231588450e+01     0.371525    0.2832431 -86.35  0.001081228    1.793    0.442
       176  -9.6093     25.5109    178.4165   9.2031775841e+01   3.4498195944e+01    0.7249841    0.2920427  82.40  0.002310854    4.578    0.782
       177  -8.5243    137.4928    179.1393   6.3221627799e+01   1.7417394017e+01    0.3135276    0.2272026  74.75 0.0009065226    1.899    0.474
       178  -9.3373    191.4230    178.1894   5.0427372083e+01   7.1533351008e+00    0.3149472    0.2638026  65.76  0.000596202    1.500    0.333
       179  -8.6726     37.0049    178.2567   8.9161321489e+01   3.3351571396e+01    0.4081935    0.1824881  79.38  0.001373342    3.921    0.745
       180  -8.1992     34.6669    174.3472   8.9278990652e+01   3.4578036397e+01    0.2256132    0.1486428  89.17 0.0006994074    1.489    0.328
       181  -9.4461    248.4797    176.3415   3.9113455050e+01  -2.3644618252e+00    0.4384311    0.2254449 -52.47  0.001951504    2.339    0.572
       182  -8.5042    250.5692    172.6984   3.8043312905e+01  -2.0403516615e+00     0.254378    0.1126786 -40.74 0.0005244092    1.914    0.478
       183  -8.5708    217.7807    177.4180   4.4892221822e+01   2.4954878863e+00     0.269917    0.1771678 -55.95 0.0009293576    1.827    0.453
       184  -8.4222    205.1100    177.6421   4.7453085152e+01   4.7190221818e+00    0.2499557    0.1891012 -49.11 0.0005347559    1.356    0.263
       185  -8.1884    169.2337    178.2606   5.5385231460e+01   1.1418576047e+01    0.2060869    0.1816972 -85.23 0.0006086589    1.374    0.272
       186  -8.7369    129.2849    177.2346   6.4915811931e+01   1.9443188498e+01    0.3727039     0.245901  86.16  0.001037142    2.566    0.610
       187  -8.5240    231.1302    176.7501   4.2245998204e+01   3.4172915468e-01    0.2399052    0.1704966 -47.33 0.0006312202    1.400    0.286
       188  -9.2124    183.1168    176.0254   5.1778902617e+01   9.1997397422e+00    0.3324506    0.2399438 -59.07 0.0007623353    1.609    0.379
       189  -8.5593     89.0644    176.6302   7.5334574167e+01   2.6720929962e+01    0.3147087    0.2189649  82.90  0.001085665    1.793    0.442
       190  -9.3762     58.7886    175.3890   8.3167693310e+01   3.1466222036e+01    0.5217947    0.2696886  67.01  0.001939434    2.830    0.647
       191  -9.2235     55.7812    170.3932   8.3230489457e+01   3.3123356619e+01    0.4237641    0.2423921  83.98  0.001754533    2.354    0.575
       192  -8.9302     12.9684    176.5070   9.4870564320e+01   3.6112701144e+01    0.2513544    0.1480283  85.05 0.0008788141    1.616    0.381
       193  -7.7630    211.6742    176.3182   4.5859858186e+01   3.7933891235e+00     0.138895    0.1160159 -81.00 0.0006175402    1.676    0.403
       194  -9.3552    158.7657    174.8615   5.7130332771e+01   1.4244080134e+01    0.4669187    0.3260625  82.02   0.00140247    2.408    0.585
       195 -10.0732    102.2956    175.3218   7.1584499396e+01   2.4836909566e+01    0.5425006    0.3889532  26.54            0    1.566    0.361
       196 -10.5148     75.8895    170.1903   7.7773857469e+01   3.0400787783e+01     1.382166    0.5165055 -72.12  0.003844892    4.530    0.779
       197  -9.7123     80.9417    155.2210   7.3676810751e+01   3.3460366093e+01    0.5601652    0.4966485 -37.34  0.002127504    1.188    0.159
       198  -8.3753    224.3041    174.0765   4.2962815401e+01   2.0032459320e+00    0.2053305    0.1626579 -39.40 0.0006036651    1.158    0.136
       199  -9.7526    175.8048    171.8556   5.2526384973e+01   1.1533667124e+01    0.4629886     0.273187 -46.36  0.001071588    1.668    0.400
       200  -8.3843    143.1255    172.4686   6.0447596000e+01   1.7897284158e+01    0.2492844    0.2152018 -82.19  0.000474623    1.331    0.249
       201  -8.5009    134.7944    171.5319   6.2353678929e+01   1.9754525283e+01    0.2995305    0.2097131 -73.24 0.0008547129    1.831    0.454
       202  -9.6119    121.4701    170.4631   6.5579118911e+01   2.2571091889e+01    0.4361973    0.3178708 -81.96 0.0009576657    1.764    0.433
       203  -9.3726     45.0402    170.9622   8.6160012154e+01   3.4282401297e+01    0.4046643    0.2244739  84.05  0.001261195    2.303    0.566
       204  -7.4032     68.6854    171.3060   7.9905817010e+01   3.1160040531e+01     0.150816    0.1061242  71.61 0.0006969178    1.624    0.384
       205  -8.3120    237.2032    169.1246   3.9610110135e+01   7.4861858057e-01    0.2474148    0.1710277 -53.12 0.0007437718    1.571    0.363
       206  -8.9121    230.5015    169.8947   4.0962027883e+01   1.7329818699e+00    0.2227542    0.1785534 -15.32  0.000714314    1.268    0.212
       207  -8.4247    205.6980    169.8163   4.5689978865e+01   6.1874501978e+00    0.3084626    0.1709638 -49.31 0.0008141152    1.835    0.455
       208  -8.5898    198.3500    169.9912   4.7231111345e+01   7.5384713313e+00    0.2574434    0.2138821  77.06 0.0008184338    1.612    0.380
       209  -8.6391    149.8056    169.2846   5.8119593779e+01   1.7316338821e+01    0.2923104    0.2349335  77.50  0.001080193    1.572    0.364
       210  -7.8156    244.4150    169.1823   3.8377123408e+01  -4.4048331958e-01    0.1929006    0.1124146 -49.38 0.0006623728    1.723    0.420
       211  -9.2581    167.0604    168.4087   5.3793716054e+01   1.4044791435e+01    0.3768772    0.2756358  69.93  0.001165423    1.881    0.468
       212  -8.4742    218.7725    168.1544   4.2778381431e+01   4.1212820021e+00    0.2109987    0.1844445 -51.79 0.0005169439    1.212    0.175
       213  -8.5790    111.7641    167.2783   6.7510415665e+01   2.5162346133e+01    0.2998257    0.2270919  70.21 0.0008605263    1.582    0.368
       214  -8.0186     88.8274    168.5986   7.3973684598e+01   2.8794791765e+01    0.2178852    0.1334361  48.28 0.0009387988    1.710    0.415
       215  -9.3074    191.8867    166.2907   4.7794750550e+01   9.5594236499e+00    0.3450849    0.2110345 -47.06 0.0007541026    1.596    0.374
       216  -9.0142    185.1135    166.2373   4.9242874676e+01   1.0906000259e+01    0.3646818    0.2332644 -56.70 0.0008550206    1.785    0.440
       217  -9.7020    137.4082    164.6625   6.0238879576e+01   2.0888070474e+01    0.7497779    0.3348216  56.06  0.002227483    3.598    0.722
       218  -9.9504     94.9400    162.6641   7.1180763839e+01   2.9290130439e+01    0.8700594    0.4769739  76.11  0.002473814    4.668    0.786
       219  -9.2252     20.5380    166.0512   9.1904532895e+01   3.8017640700e+01     0.326055    0.1550194  53.13  0.001480225    2.385    0.581
       220  -8.1532    233.9228    164.9017   3.9324599145e+01   2.0885268412e+00     0.204915     0.157407 -62.05 0.0005613591    1.591    0.371
       221  -9.6033     33.6448    163.1721   8.8133369533e+01   3.7487374539e+01    0.5699969    0.2552718  56.37  0.002156431    2.909    0.656
       222  -8.0042    240.1893    164.1743   3.8085983786e+01   1.1671804031e+00    0.1833407    0.1486885 -53.63 0.0004704832    1.316    0.240
       223  -8.5826    212.8292    163.3025   4.2895138356e+01   6.1662634606e+00    0.2412181    0.1818361 -48.87 0.0004142431    1.306    0.234
       224  -8.5193    159.5033    164.0118   5.4621923846e+01   1.6574077970e+01    0.2811635    0.2214368  64.01   0.00071789    1.501    0.334
       225  -8.4599     56.6150    163.5692   8.1964768419e+01   3.4757626321e+01    0.4104419    0.2375774  -5.11  0.001500798    3.626    0.724
       226  -8.7557     60.3739    159.8318   8.0321222599e+01   3.5227310482e+01    0.2817858    0.2005493  79.51  0.001029362    1.629    0.386
       227  -8.9178    246.1766    162.6220   3.6762591819e+01   4.6586282104e-01    0.2507174    0.1595787 -40.07 0.0005711294    1.338    0.253
       228  -8.2801    204.9222    162.8863   4.4365459338e+01   7.7421206731e+00    0.2200577     0.177791 -73.92 0.0005443487    1.604    0.377
       229  -9.5385      3.1656    162.2431   9.5874145938e+01   4.0340254642e+01    0.3918033    0.2005142  58.28  0.001822652    2.184    0.542
       230  -9.1780    177.5064    160.3563   4.9635325932e+01   1.3714196008e+01    0.3278626    0.2628703 -68.17 0.0009045119    1.477    0.323
       231  -8.6845    151.6553    160.6991   5.5797266001e+01   1.8944891705e+01    0.3114969    0.2386691 -69.65 0.0009971942    1.558    0.358
       232  -8.7225    227.2705    158.9902   3.9283815549e+01   4.3740545558e+00     0.341129    0.1957721 -53.65  0.001523744    1.926    0.481
       233  -9.6625    250.2379    157.5027   3.5070558752e+01   7.3306969057e-01    0.3556556    0.1625017 -42.59 0.0009572231    1.851    0.460
       234  -9.1266    246.5747    155.4655   3.5251729925e+01   1.7039027462e+00    0.2243819    0.1801313 -20.07 0.0005276466    1.269    0.212
       235  -8.2875    236.8715    158.7998   3.7555290575e+01   2.7271796155e+00    0.1815255    0.1548187 -59.52 0.0004371575    1.306    0.234
       236  -8.4732    128.1543    158.6991   6.1352357807e+01   2.4163417106e+01    0.3313338    0.2475619  89.52  0.001305087    1.818    0.450
       237  -9.5393    105.8093    157.7583   6.7191334004e+01   2.8628003868e+01    0.5105523    0.3469353  81.39  0.001358725    2.191    0.544
       238  -8.6457    196.5236    157.8447   4.4979143407e+01   1.0419340662e+01    0.2775916    0.2348577  89.08  0.001102473    1.511    0.338
       239  -8.2334    188.1646    157.8919   4.6749998235e+01   1.2083130413e+01    0.2298801    0.1990086 -62.25 0.0005339321    1.254    0.203
       240  -9.1782    167.6701    157.1191   5.1160022041e+01   1.6457978786e+01    0.3944133    0.2883968 -89.49  0.001100514    2.096    0.523
       241  -8.4845    218.0274    156.4693   4.0446420145e+01   6.5533464249e+00     0.278673     0.182857 -54.33 0.0007651698    1.633    0.387
       242  -9.0181    157.8309    156.0265   5.3246364055e+01   1.8751403633e+01    0.3677745    0.2209637 -58.00 0.0009581735    1.900    0.474
       243  -9.1982    119.5635    155.0620   6.2854578598e+01   2.6729885283e+01    0.4222962     0.289331  89.99  0.001652613    2.257    0.557
       244  -9.2143     49.8775    155.2016   8.2521384729e+01   3.7722921472e+01     0.426957    0.2394332  64.06  0.001748093    2.424    0.587
       245  -8.7859     23.4290    155.4420   8.9872873005e+01   4.0397663282e+01    0.3071467    0.1519527 -28.29  0.001217554    3.476    0.712
       246  -8.1856    204.8727    155.1819   4.2703269620e+01   9.3255880323e+00     0.222966    0.1952557 -63.92 0.0005198673    1.255    0.203
       247  -8.6707    144.4758    154.6388   5.6232572066e+01   2.1843615010e+01     0.307362     0.235843  75.05 0.0007165465    1.691    0.409
       248  -9.2696     68.2677    153.8660   7.7051978449e+01   3.5682305584e+01    0.4357172     0.272869  68.83  0.001200779    2.185    0.542
       249  -9.1806    242.8498    154.5966   3.5685464434e+01   2.4880270572e+00    0.2342416    0.1688001  86.23 0.0003861301    2.416    0.586
       250  -9.6378    132.7521    152.6263   5.8797991526e+01   2.4718565438e+01    0.4880722    0.3437001  71.62  0.001173245    1.973    0.493
       251  -8.9821    133.4803    148.0318   5.7560381829e+01   2.5675447123e+01    0.3277782    0.2510373 -40.26 0.0009517017    1.326    0.246
       252  -7.7199    232.7655    153.5972   3.7184918732e+01   4.4244901073e+00    0.1721232    0.1358632  61.26 0.0004618265    1.589    0.371
       253 -10.4963    148.9257    145.0650   5.2908323758e+01   2.3157154796e+01    0.6723758    0.4538646 -88.73  0.001638351    2.607    0.616
       254  -8.3859    182.4819    151.3828   4.6520557925e+01   1.4647315682e+01    0.2739794    0.1417798 -54.95 0.0008017622    2.237    0.553
       255  -9.6461     29.7035    150.8480   8.7539674992e+01   4.0972596462e+01    0.4407353    0.2279106  72.09  0.001470433    2.869    0.651
       256  -8.6119     20.2555    152.4181   9.0348914853e+01   4.1425121771e+01    0.2055567    0.1579385  46.29 0.0007129218    1.453    0.312
       257  -8.9470    189.5346    150.1098   4.4717737713e+01   1.3463020617e+01    0.3270987    0.2375121 -67.43  0.000915652    1.735    0.424
       258  -8.6339    162.6891    150.3947   5.0800001351e+01   1.9019137436e+01    0.2798133    0.1956252 -58.78  0.001213533    1.575    0.365
       259  -8.5467     98.3778    150.5192   6.7757718129e+01   3.1771723034e+01    0.3289108    0.2339307  75.99   0.00100971    1.910    0.476
       260  -9.0660      2.9238    149.8227   9.4673540985e+01   4.3365841769e+01    0.3012592    0.1419628 -86.12  0.001414988    2.088    0.521
       261  -9.4566    248.8577    149.1281   3.3602691111e+01   2.4772917350e+00    0.3159424    0.1787933 -42.14 0.0007747333    1.491    0.330
       262  -8.8278    243.1633    149.7636   3.4645099796e+01   3.3261233320e+00    0.2512429    0.1616703 -48.78 0.0009495716    1.434    0.303
       263  -8.1928    212.9422    149.5332   3.9905784296e+01   8.8983384985e+00    0.2259566    0.1804924 -43.80 0.0003895118    1.150    0.131
       264  -8.3754    198.8521    148.6541   4.2465775575e+01   1.1867807706e+01    0.2845292    0.2028937 -50.57 0.0005943114    1.379    0.275
       265  -9.9588     89.2641    145.9792   6.9420959409e+01   3.4472670199e+01    0.8017472    0.4354763 -80.15  0.002534278    3.638    0.725
       266  -9.8870     40.1188    147.7296   8.4125279462e+01   4.0716171586e+01    0.5505739    0.2859327  60.85   0.00189502    2.735    0.634
       267  -8.8008    233.6184    147.6357   3.5791255180e+01   5.4016831034e+00    0.2641365    0.1534377 -43.60 0.0006345743    1.510    0.338
       268 -10.1863    106.7419    143.9619   6.3950752326e+01   3.1903827193e+01    0.8758655    0.5710997  88.86   0.00243319    2.663    0.625
       269 -10.3791     54.9393    144.5139   7.9256458207e+01   3.9831445656e+01    0.8233246    0.4397286  73.56  0.002814421    3.730    0.732
       270  -9.9977     56.7424    135.0961   7.6960973196e+01   4.1985849806e+01    0.5313708    0.2882554  -3.55  0.001831704    3.870    0.742
       271  -8.5133     51.9691    149.0000   8.0906094773e+01   3.9053203137e+01    0.2154454   0.08262286  28.43 0.0005189204    2.917    0.657
       272  -8.3804    223.2397    146.4033   3.7336761742e+01   7.5493539000e+00    0.2415122    0.1844301 -44.35 0.0005336093    1.179    0.152
       273 -10.0144    139.2652    145.0776   5.5366009268e+01   2.5185175798e+01    0.5307636    0.3460493 -76.09  0.001394845    2.414    0.586
       274  -8.6314     77.9929    146.9815   7.2920255031e+01   3.6015003240e+01    0.2412027    0.1790118  76.37  0.000772448    1.681    0.405
       275  -9.6091     13.3752    146.0640   9.1434260626e+01   4.3545370215e+01    0.3355211    0.2079124  63.77  0.001167266    1.875    0.467
       276  -7.8885    206.4333    146.2351   4.0427134614e+01   1.0842224252e+01    0.2056149    0.1330886 -52.34 0.0004586898    1.562    0.360
       277  -8.3706    175.6739    146.0711   4.6809629113e+01   1.7233480211e+01    0.2526805    0.1921196 -66.24 0.0008947302    1.544    0.352
       278  -8.7531    240.4689    145.0380   3.4110772791e+01   4.6694111465e+00    0.2114859    0.1190729 -42.25 0.0004510671    1.528    0.345
       279  -9.7385    125.1288    142.4989   5.8506312026e+01   2.8701230669e+01    0.5668536    0.3767257 -81.97  0.001612737    2.442    0.591
       280  -8.7509    247.1123    143.6610   3.2766759246e+01   3.7687953655e+00     0.255886    0.1671592 -38.27 0.0004764911    1.323    0.244
       281  -9.0222    165.6398    143.7627   4.8564871095e+01   1.9885533393e+01    0.3244767    0.2689328  86.88 0.0009271184    1.484    0.326
       282 -10.7984     69.7495    140.8289   7.4138056612e+01   3.8793614716e+01    0.7976475     0.513335  76.18  0.003304878    2.356    0.576
       283 -10.1834      2.7772    140.7742   9.3710071191e+01   4.5566167006e+01    0.5692788    0.2626686 -79.93  0.002722091    1.971    0.493
       284  -8.3806    181.9348    141.1943   4.4301373278e+01   1.6961498998e+01    0.2399896    0.2071273 -77.97  0.000653568    1.321    0.243
       285  -8.1924     39.6274    141.6775   8.3301247572e+01   4.2294406169e+01    0.1485602   0.09309755 -35.76 0.0007031782    1.810    0.448
       286  -7.6586    250.5216    140.5217   3.1602275592e+01   3.7565924842e+00    0.1354282     0.113683 -42.83 3.535063e-05    1.010    0.010
       287  -7.5028    203.3013    140.6805   3.9795987756e+01   1.2604947394e+01    0.1495164    0.1159228 -75.40   0.00028275    1.624    0.384
       288  -9.8399     23.3601    137.9536   8.7507921882e+01   4.4753839127e+01    0.4816088    0.2620131  66.53  0.001878388    2.606    0.616
       289  -9.3368    242.5233    138.0948   3.2345593361e+01   5.5912049742e+00    0.4728874    0.2241022 -55.21  0.001917513    2.511    0.602
       290  -8.7826    172.3493    138.0594   4.5681381801e+01   1.9701112654e+01    0.3748274    0.2495093 -70.42 0.0009691165    2.133    0.531
       291  -9.3917    139.3029    137.8588   5.3641560972e+01   2.6874591203e+01    0.4751123    0.2836871 -21.92   0.00162577    2.833    0.647
       292  -7.7544    218.5629    138.4694   3.6454716432e+01   9.9963826789e+00    0.1454765    0.1300624 -47.63 0.0008062836    1.032    0.031
       293  -8.4241    207.7572    137.7090   3.8274715311e+01   1.2300360452e+01    0.2717046    0.1800607 -65.08 0.0008670231    1.921    0.480
       294  -8.6326    197.6165    137.4162   4.0175165973e+01   1.4447085531e+01    0.2864386     0.210096 -67.41  0.000877567    1.644    0.392
       295  -8.5252    149.8358    136.4971   5.0638928142e+01   2.4936679380e+01    0.5226329    0.3197208  -7.48  0.001528509    4.213    0.763
       296  -8.7640    248.4908    135.0223   3.0793558098e+01   5.1020002940e+00    0.2637273    0.1765978 -56.02  0.001068748    1.494    0.331
       297  -7.6313    192.3306    136.6467   4.1063350285e+01   1.5716803489e+01    0.1593024    0.1193472 -78.78 0.0007046317    1.778    0.438
       298  -8.2340    187.6325    135.7447   4.1823006062e+01   1.6904656866e+01    0.2163562    0.1378394 -51.61  0.000696279    1.575    0.365
       299  -8.0070    162.6820    136.1929   4.7460119249e+01   2.2214866479e+01    0.2483639    0.1946237 -68.48   0.00066766    1.478    0.323
       300  -9.1647     39.2161    135.7324   8.2430931263e+01   4.3828059915e+01    0.2825813    0.2036448  73.77 0.0009127625    1.682    0.405
       301 -10.3658     83.4309    132.9394   6.8325885754e+01   3.8693898895e+01    0.5477776    0.3491873 -70.56  0.001369462    1.889    0.471
       302  -8.6890    179.3391    133.4839   4.3053097441e+01   1.9172655047e+01    0.3516034    0.2444768 -64.77  0.000940357    1.738    0.425
       303  -9.0376    112.9047    133.0312   5.9652423696e+01   3.3407190515e+01     0.381829    0.2833353  81.30 0.0008877001    1.901    0.474
       304  -7.6446    237.6373    133.3491   3.2132194983e+01   7.3532307839e+00    0.1450441    0.1016578 -71.49 2.109804e-05    1.863    0.463
       305  -7.4845    231.3404    133.7400   3.3235985624e+01   8.4521711753e+00      0.13536    0.1053192 -77.18 0.0002103486    1.587    0.370
       306 -10.0025    132.0862    131.0675   5.3881452894e+01   2.9981718375e+01    0.5226254    0.3290502 -70.65   0.00115179    2.378    0.579
       307  -9.1566    143.0293    131.6200   5.1161679291e+01   2.7521580354e+01    0.3226549    0.2514859 -68.18 0.0007902974    1.485    0.327
       308  -8.5198    250.7448    130.0498   2.9447060175e+01   5.6052617733e+00    0.4177071    0.1027377 -39.20  0.001313255    3.838    0.739
       309  -9.3399    168.3972    129.5310   4.4529098580e+01   2.2423531758e+01    0.3536651    0.2619624 -73.04 0.0007178528    1.716    0.417
       310 -10.1145     12.9285    128.6251   8.9241101819e+01   4.7840262745e+01     0.544232     0.292759  81.38  0.002029612    2.567    0.610
       311  -8.3077    246.9299    129.9508   2.9992185989e+01   6.2959805214e+00     0.211399    0.1676939 -47.75  0.000613037    1.078    0.072
       312  -8.0809    204.4866    130.2106   3.7200803662e+01   1.4479387976e+01    0.2078874    0.1317636 -54.73 0.0004482245    1.629    0.386
       313  -8.0735    192.9549    130.2182   3.9446479686e+01   1.6915892352e+01    0.2086775    0.1959565 -53.46 0.0004214571    1.014    0.014
       314  -9.3404    152.8491    129.0353   4.8070071287e+01   2.5965622996e+01    0.4088895    0.2764247 -63.43 0.0009540525    1.787    0.440
       315  -9.0533     97.9647    127.9558   6.2783191167e+01   3.7434366577e+01    0.4907221    0.2175259 -54.76   0.00175665    2.299    0.565
       316 -10.0806     73.0982    128.7899   7.0582474198e+01   4.1319900011e+01    0.4604799    0.3084217 -79.21  0.001164139    1.965    0.491
       317  -8.4804     24.7250    130.1454   8.5911472977e+01   4.6564996508e+01    0.2714673    0.1362638 -17.48  0.001043682    3.358    0.702
       318  -7.7131    220.5030    129.5382   3.4157778918e+01   1.1351522763e+01     0.144332     0.129806 -49.22 6.569835e-05    1.007    0.007
       319  -8.1996    211.4910    129.0069   3.5634022983e+01   1.3271731441e+01    0.2287064    0.1329616 -46.48  0.001013332    1.585    0.369
       320  -7.7919    186.4774    129.5156   4.0602083266e+01   1.8458795523e+01    0.1543262    0.1446205 -63.40 0.0001062368    1.055    0.052
       321 -10.6685     45.2484    123.6925   7.8339536532e+01   4.6171485744e+01     1.099588    0.6043161  76.87  0.003767407    4.146    0.759
       322 -10.7095     60.1736    125.0915   7.3853189699e+01   4.4033920854e+01    0.7448111    0.4708329  80.25  0.002875551    2.719    0.632
       323  -9.8448    117.8046    124.7929   5.6232617963e+01   3.4392164243e+01    0.5869532    0.4218739 -88.47  0.001603515    2.133    0.531
       324  -8.9656    179.2894    124.6060   4.0939692339e+01   2.1061585026e+01    0.3117867     0.239369 -80.18  0.000775465    1.644    0.392
       325 -10.5167     28.4103    120.7620   8.3187447487e+01   4.8540995490e+01     1.001603    0.5061505 -77.66  0.003895047    2.353    0.575
       326  -8.0678    188.6108    123.8017   3.8812891838e+01   1.9175043124e+01    0.2145822    0.1358684 -53.47 0.0004084385    1.616    0.381
       327  -9.8677    158.6708    121.1079   4.4695548273e+01   2.6412527683e+01    0.4969912    0.3073362 -61.86  0.001285408    2.036    0.509
       328  -8.2834     84.1763    122.6108   6.5704015203e+01   4.1100297741e+01    0.2590302    0.2013273  17.55 0.0007903289    1.444    0.307
       329  -8.0056    195.0081    121.4970   3.7001555657e+01   1.8247755355e+01    0.2692155    0.1446606 -49.72 0.0006998458    1.832    0.454
       330  -8.8600    171.9856    121.4194   4.1743304929e+01   2.3358147499e+01    0.2785839    0.2109893 -61.89 0.0004306049    1.437    0.304
       331  -7.7128    203.0194    121.7534   3.5540000797e+01   1.6473398983e+01    0.1800851     0.127669  52.90 0.0003693097    1.507    0.337
       332  -8.4588     98.9001    120.2409   6.0602612827e+01   3.9107425843e+01    0.3095175    0.1942077 -25.19  0.001225981    2.148    0.534
       333 -10.0879    141.5968    117.7438   4.8022118721e+01   3.0949324503e+01    0.6691902    0.3326859 -51.69  0.001084014    2.162    0.537
       334 -10.0110    130.8285    118.2785   5.0977050020e+01   3.3172728668e+01    0.5349275     0.386881  86.90  0.001918736    2.107    0.525
       335 -10.8023    133.8127    109.5381   4.7881038652e+01   3.4444318342e+01    0.7636576    0.4397449 -47.46  0.002440063    1.758    0.431
       336  -9.5264     71.0669    119.2287   6.9052400308e+01   4.3952687612e+01    0.4123678    0.2362782 -66.87  0.001215921    2.094    0.522
       337  -9.7400      2.9548    117.0125   9.0614167086e+01   5.1239795100e+01    0.4474505     0.246399  77.22  0.002076975    2.539    0.606
       338  -7.7147    231.5151    117.4851   2.9735415326e+01   1.1455717145e+01    0.1417952    0.1213565 -57.30 0.0008095417    1.062    0.058
       339  -7.5714    203.2301    115.9776   3.4168277726e+01   1.7561977028e+01    0.1935086     0.115771 -43.49  0.000427827    1.561    0.359
       340  -8.4233    185.9546    115.9850   3.7478430064e+01   2.1350831670e+01    0.2423202    0.1793667 -74.08 0.0005324007    1.653    0.395
       341  -7.6083    178.6499    116.2890   3.9052164061e+01   2.2925821883e+01    0.1576086    0.1201239 -85.70 0.0007025362    1.666    0.400
       342 -10.1560    109.2634    113.2266   5.5704407944e+01   3.8758566360e+01    0.7681245    0.3562155 -53.16   0.00224592    2.340    0.573
       343  -7.9658    250.4262    114.7693   2.6394091054e+01   8.3804520131e+00    0.1789855     0.113352 -35.69 0.0006106741    1.527    0.345
       344  -8.1068    193.0424    115.0402   3.5857284765e+01   1.9966987892e+01    0.2340451    0.1735853 -72.74 0.0004413683    1.604    0.376
       345 -10.1984     92.7707    111.6823   6.0285932502e+01   4.2206520818e+01    0.8367174    0.3575675 -54.01  0.001680612    2.490    0.598
       346 -10.0061     78.9493    112.2940   6.4826823235e+01   4.4394470294e+01    0.5597913    0.3978976 -89.14  0.001982411    2.244    0.554
       347  -8.1929     78.4419    104.8771   6.3081093554e+01   4.6181374059e+01    0.3283202    0.1913896 -28.48 0.0009971648    2.113    0.527
       348  -8.8046     59.6186    114.8210   7.1762581506e+01   4.6597208107e+01    0.3395276    0.1986799   5.76  0.001393543    2.509    0.601
       349  -8.2450    167.4320    114.2499   4.0965996066e+01   2.5884005222e+01    0.2135094    0.1446761 -54.15 0.0005695632    1.537    0.349
       350  -9.8006    122.0058    112.4621   5.1857998581e+01   3.6338271913e+01    0.3370267    0.2977887  88.71 0.0006536689    1.321    0.243
       351  -8.4199    174.6493    111.5634   3.8728152265e+01   2.4792916693e+01    0.2851393    0.1840006 -48.20  0.000581717    1.525    0.344
       352  -8.7958    159.1335    111.6747   4.2191011187e+01   2.8307779448e+01    0.2681226    0.2074769 -56.77 0.0005940079    1.347    0.257
       353  -9.7844     66.6642    110.4495   6.8392196099e+01   4.6672924581e+01    0.4081421    0.2951931  69.34  0.001367733    2.044    0.511
       354  -9.8381     14.0534    110.9268   8.6128365155e+01   5.1994815926e+01    0.3579677    0.2246044  84.09  0.001567967    2.124    0.529
       355 -10.4614    248.5142    107.7166   2.5224368618e+01   9.9661436585e+00    0.3644036    0.2623467 -63.30  0.001617765    1.355    0.262
       356  -7.7237    182.7758    109.0194   3.6423301865e+01   2.3456443570e+01    0.2006962    0.1212244 -43.20 0.0004323373    1.605    0.377
       357  -8.3145    189.4106    107.6501   3.4786837785e+01   2.2227467075e+01    0.2783712    0.1347115 -47.24 0.0009343308    2.008    0.502
       358  -8.6221     43.7819    108.8313   7.5731187450e+01   4.9905936235e+01    0.2833937    0.1095178  17.81  0.001013134    3.605    0.723
       359 -10.7569     22.8495    102.4934   8.1606048836e+01   5.3324512495e+01    0.6649431    0.4134485  71.78  0.002308774    2.686    0.628
       360  -9.4191    139.9989    104.0757   4.4817948536e+01   3.4225058707e+01    0.4939388    0.3390087 -57.24  0.001359904    1.640    0.390
       361 -10.4911     45.6864    102.0874   7.3539489309e+01   5.1265724515e+01    0.6977983    0.4361396  69.24  0.002906102    3.107    0.678
       362  -8.5565    166.7181    103.8772   3.8488145776e+01   2.8154286198e+01    0.2815339    0.1983287 -59.37 0.0005567338    1.560    0.359
       363  -9.6410    150.4839    102.7354   4.1884698917e+01   3.2121572779e+01    0.4527209    0.2893074 -59.05  0.001145023    1.860    0.462
       364 -10.0038    128.5523    101.8669   4.7197255749e+01   3.7217867100e+01    0.4104688     0.306439 -71.43 0.0008987577    1.756    0.431
       365  -8.7563      6.7472    102.7249   8.7161708381e+01   5.4352987219e+01     0.233734    0.1576218  69.84 0.0008748619    2.038    0.509
       366  -8.0432    175.5365    102.0093   3.6151313574e+01   2.6486749413e+01    0.2298186     0.144869 -45.51  0.000661503    1.556    0.357
       367 -10.9007    109.6403     99.1633   5.1756478348e+01   4.1762571881e+01    0.8356066    0.4614076  62.97  0.002637478    3.207    0.688
       368  -8.3642    159.6607    100.7558   3.9238915625e+01   3.0404660743e+01    0.2652561    0.1895446 -52.98 0.0004531002    1.449    0.310
       369  -9.2819     82.0023     99.8492   6.0560912330e+01   4.6722562590e+01    0.3766436    0.2764174 -75.51 0.0008563438    1.964    0.491
       370  -9.6200     95.1249     96.8007   5.5497194928e+01   4.5073654064e+01    0.3495331    0.2480479 -52.66 0.0006479661    1.499    0.333
       371 -10.1938     63.8653     95.5976   6.5539400833e+01   5.0442117541e+01    0.5482896    0.3842713 -84.74  0.001739454    2.476    0.596
       372  -8.7802     63.7726     88.4700   6.3610844118e+01   5.1992259355e+01    0.5524492    0.2950225 -10.39  0.001857345    3.970    0.748
       373  -8.7694    151.0128     95.2990   3.9769256480e+01   3.3476984201e+01    0.3133607    0.2028107 -11.33  0.001148375    2.718    0.632
       374  -8.6587    193.2278     94.1379   3.0819441272e+01   2.3915121479e+01       0.2034    0.1611491 -72.61 0.0003707095    1.323    0.244
       375  -8.2614    164.7246     93.9785   3.6355768368e+01   3.0540555037e+01    0.2136938    0.1868927 -48.08 0.0003916434    1.145    0.127
       376  -9.1113     46.4687     92.4142   7.0889253861e+01   5.3353615840e+01    0.4791157    0.2844709  13.75  0.002337628    1.954    0.488
       377  -8.0183    188.5381     92.9803   3.1386956524e+01   2.5197341898e+01    0.2216524    0.1395712 -43.41 0.0006015296    1.544    0.352
       378  -8.3430    176.2130     92.9245   3.3720790865e+01   2.8057725589e+01    0.2357254    0.1909491 -72.87 0.0005714137    1.326    0.246
       379  -9.3256    138.9509     91.5734   4.1653209681e+01   3.6968183498e+01    0.4780328    0.3113506 -58.31  0.001468471    1.852    0.460
       380 -10.4577    124.6062     90.6388   4.5106365174e+01   4.0350588766e+01    0.7334653    0.4450604 -35.91  0.002404944    1.742    0.426
       381  -9.9385    120.2311     90.6099   4.6293351076e+01   4.1302978866e+01    0.5245366    0.2604481 -47.02  0.001578231    2.127    0.530
       382  -9.1730    108.7578     91.6814   4.9878852154e+01   4.3486210225e+01    0.6203404    0.2841158  29.88  0.002067127    3.113    0.679
       383  -7.8877    157.8331     91.7564   3.7268422153e+01   3.2571003327e+01    0.2055172    0.1739105 -77.99 0.0005734403    1.303    0.233
       384  -9.2500     22.7755     90.3605   7.9076864380e+01   5.6073342680e+01    0.3606691    0.2164001 -22.00  0.001756474    1.792    0.442
       385  -9.6085      5.1905     91.7539   8.5746680120e+01   5.6916884428e+01    0.3029063    0.1737187  46.14  0.001225927    2.452    0.592
       386  -9.4826     34.7927     89.6785   7.4480621758e+01   5.5179390268e+01    0.3912593    0.2631151 -81.38  0.001485492    2.230    0.552
       387  -8.7433    150.8940     89.0987   3.8116560823e+01   3.4689371811e+01    0.2356288    0.2024444 -77.53 0.0005483283    1.288    0.224
       388 -10.0412     86.5518     86.0526   5.5122826552e+01   4.8850892530e+01     0.557013    0.4041114 -70.65  0.001626765    2.084    0.520
       389  -7.8854    164.1453     87.1164   3.4677767867e+01   3.1953366193e+01     0.209849    0.1711358 -72.94 0.0005553522    1.345    0.257
       390  -9.8870     48.7522     83.6513   6.7719155372e+01   5.4971785223e+01    0.6637366    0.4280877 -62.60  0.002599262    1.868    0.465
       391  -8.3221    158.1071     83.8223   3.5083032433e+01   3.3970517996e+01    0.2223475     0.195396 -82.94 0.0004460932    1.202    0.168
       392  -7.6263    170.6928     83.3621   3.2363156032e+01   3.1087457475e+01    0.1568734    0.1114031 -74.60 0.0007039367    1.739    0.425
       393  -9.1050    141.0371     82.7761   3.8676391778e+01   3.8142183752e+01    0.2958309    0.2373277 -67.49 0.0007323204    1.455    0.313
       394  -9.8023    104.7860     83.0077   4.8495317493e+01   4.5995164846e+01    0.4264396    0.3327914 -79.28  0.000950721    1.894    0.472
       395  -9.5967     24.7511     80.6039   7.6039411822e+01   5.8028601885e+01    0.3980893    0.2810005  88.39  0.001326783    2.357    0.576
       396  -9.0526      9.8132     80.7596   8.1818712854e+01   5.9052717602e+01     0.304556    0.1806147  57.71  0.001332805    3.016    0.668
       397  -8.9049    119.2415     79.8902   4.3425091170e+01   4.3555843823e+01    0.3230085    0.2250902 -62.61  0.001004172    1.924    0.480
       398  -8.7969     74.6014     80.1727   5.7376888270e+01   5.2045379229e+01    0.2966671    0.2310937 -68.92  0.001029161    1.818    0.450
       399  -8.1149    150.4067     80.2636   3.5803329489e+01   3.6414450569e+01    0.2079567    0.1371378 -51.25 0.0009409006    1.635    0.388
       400  -8.1255    166.8861     79.3594   3.2074697050e+01   3.2687375268e+01    0.1997461     0.180921  65.40 0.0004476979    1.063    0.060
       401  -7.8977    184.2196     77.9627   2.8463867094e+01   2.8846897744e+01    0.1888102    0.1145577 -41.61 0.0005681764    1.646    0.393
       402  -7.8363    157.1321     76.1527   3.3216921302e+01   3.5546436079e+01    0.2028864    0.1680523 -81.96 0.0004432947    1.336    0.252
       403  -9.4505    128.2245     74.5643   3.9471435198e+01   4.2522425161e+01    0.5286959    0.2643733 -40.39  0.001541998    2.087    0.521
       404  -8.5179    140.1887     74.9732   3.6660579040e+01   3.9719716297e+01    0.2262355    0.1954062 -80.49 0.0006320985    1.316    0.240
       405  -8.5543     91.9642     75.0814   5.0018119134e+01   4.9978644203e+01    0.2144388    0.1935599   7.12 0.0003613164    1.035    0.034
       406  -9.8719     63.1183     73.4504   5.9394776457e+01   5.5118451048e+01    0.4164662    0.2736225 -56.29  0.001162864    1.880    0.468
       407  -9.6589     82.4553     72.4271   5.2287252211e+01   5.2195277544e+01    0.3825917    0.2913414 -67.51 0.0009082353    1.968    0.492
       408  -8.7680    115.9288     72.5945   4.2132449393e+01   4.5572637408e+01    0.2609219    0.2002632 -56.17 0.0005749063    1.553    0.356
       409  -8.1439     42.8049     72.8311   6.6896841554e+01   5.7870700610e+01    0.1654959    0.1518232 -56.27 0.0005086851    1.345    0.257
       410  -7.5283    175.6817     72.2891   2.8563326416e+01   3.1801070972e+01    0.1470771    0.1068806 -79.34 0.0005799118    1.597    0.374
       411  -8.9467    105.9312     71.5090   4.4630299155e+01   4.7867300837e+01    0.2634921     0.200837 -57.16 0.0007388874    1.629    0.386
       412  -9.3216     95.2425     71.0560   4.7714670153e+01   5.0080567387e+01    0.3584945    0.2436556 -57.57  0.001067361    1.992    0.498
       413  -9.3735     51.6107     69.5119   6.2481643163e+01   5.7452586563e+01    0.3867305    0.2504774 -65.82  0.001431551    2.503    0.600
       414  -8.8744     28.1966     71.2008   7.2218679311e+01   5.9674638614e+01    0.2298466    0.1010427 -26.16 0.0009510692    2.832    0.647
       415  -8.9067    147.0943     68.0221   3.3117265417e+01   3.9268260455e+01    0.2837916    0.2046811 -48.83 0.0005144577    1.483    0.326
       416  -8.8780     16.8946     69.8682   7.6430499718e+01   6.0855031600e+01     0.223765     0.184874 -75.63 0.0008898469    1.587    0.370
       417  -8.6994    138.6632     65.9198   3.4404041423e+01   4.1577106175e+01     0.264466    0.2060939 -71.25   0.00056861    1.579    0.367
       418  -8.7206    121.8636     65.6741   3.8432252807e+01   4.5436786823e+01    0.2599873    0.2050132 -50.18 0.0006634026    1.427    0.299
       419  -8.3829    163.3689     72.9460   3.1077296309e+01   3.4610069702e+01    0.2355488    0.1708524 -57.93  0.001156304    1.487    0.328
       420  -8.9864     37.4332     64.0965   6.6401700048e+01   6.0152920620e+01    0.2816521    0.2134009 -76.75  0.001264771    2.257    0.557
       421  -8.9380    110.0749     63.3352   4.0873514756e+01   4.8374101023e+01    0.2847147    0.2194046 -61.84 0.0006699851    1.710    0.415
       422  -8.5232     65.1945     62.4107   5.5073696281e+01   5.6833400713e+01    0.3206132    0.1782088  11.48  0.001361547    2.560    0.609
       423  -8.2232     17.8019     62.8004   7.4153201412e+01   6.2189708745e+01    0.2286734   0.09152479 -27.42 0.0009641435    2.911    0.656
       424  -7.7919    158.0164     61.5158   2.9052098411e+01   3.7706959891e+01    0.1844775    0.1195439  88.97 0.0005288471    2.113    0.527
       425  -9.2623     97.6828     60.5367   4.3568056993e+01   5.1375142508e+01    0.2773564    0.2258884  50.29 0.0008266457    1.287    0.223
       426  -9.6385     73.4806     59.5798   5.1145441263e+01   5.5986841878e+01    0.3412254    0.2519391 -48.85  0.001089628    1.636    0.389
       427  -8.0727    147.2188     59.0202   3.0543441451e+01   4.0643321594e+01    0.1784296    0.1176734 -35.34 0.0003919307    1.645    0.392
       428  -7.8998     89.1857     59.2229   4.5767122508e+01   5.3238715638e+01    0.1747677    0.1669807 -85.56 0.0006603244    1.359    0.264
       429  -8.3548    130.8365     57.5166   3.3739854991e+01   4.4682149016e+01    0.2611967    0.1757126 -54.54 0.0006954861    1.812    0.448
       430  -9.8504     23.5131     56.2038   6.9780180300e+01   6.2976187631e+01    0.3747622    0.2838385  87.58  0.002049934    2.762    0.638
       431  -9.3623      7.5730     57.1282   7.6951334757e+01   6.3976843003e+01     0.253066    0.1980421 -78.39  0.001212685    1.851    0.460
       432  -8.4067    139.9885     55.7579   3.1148680157e+01   4.2823779838e+01    0.2469771    0.1709459 -51.17 0.0006053174    1.637    0.389
       433  -9.0698    118.9568     55.1413   3.5917074212e+01   4.7711261754e+01    0.3728116    0.1900686 -44.76  0.001326293    2.269    0.559
       434  -8.7059     44.1259     55.3283   6.0837900366e+01   6.0976949499e+01    0.2252751    0.1728933 -42.27 0.0006913749    1.380    0.276
       435  -8.8779     62.8310     54.4769   5.3241624052e+01   5.8539477026e+01    0.2658543      0.18029 -44.67  0.000659967    1.660    0.398
       436  -8.8365     54.1155     53.9218   5.6371759340e+01   5.9908143921e+01    0.2875005    0.1752205 -50.84  0.001171573    2.071    0.517
       437  -8.5056    105.7569     52.8815   3.8710155886e+01   5.0892973977e+01    0.2381409      0.18474 -52.01 0.0007191483    1.590    0.371
       438  -7.4642    163.2820     52.7010   2.5689614813e+01   3.7752456135e+01     0.138144    0.1016377 -76.20 0.0002752233    1.545    0.353
       439  -9.5139     92.4794     50.3954   4.1753241575e+01   5.3956280574e+01    0.3486051    0.2315422 -48.45  0.001140533    1.910    0.476
       440  -8.3734     74.4040     51.7940   4.8134728424e+01   5.7082070738e+01    0.1883788    0.1167322 -21.70 0.0009451604    1.740    0.425
       441  -8.1975    144.6488     48.7417   2.8142194817e+01   4.2721643758e+01    0.1845864    0.1247868 -45.54  0.000359729    1.622    0.383
       442  -8.3790    129.8232     48.8398   3.1352482391e+01   4.6155822141e+01    0.1846434    0.1594166 -88.51 0.0004295942    1.328    0.247
       443  -8.2052    120.8690     47.1689   3.2938497180e+01   4.8411537694e+01    0.1991407    0.1823607 -88.80  0.000639004    1.256    0.204
       444  -8.3831    112.3179     46.7219   3.4937199669e+01   5.0358139172e+01    0.2290343    0.1579243 -45.69 0.0007556297    1.709    0.415
       445  -9.0467     82.2120     46.2169   4.3537398624e+01   5.6515717033e+01    0.2774003    0.2178653 -49.07 0.0006409847    1.653    0.395
       446  -8.6518     45.0294     44.4898   5.6649763945e+01   6.2656612633e+01    0.2066992    0.1660337 -43.03 0.0005762115    1.521    0.342
       447  -9.0210     16.7960     44.4675   6.8993836043e+01   6.5630447703e+01    0.2365901    0.1575277 -52.95 0.0009301049    1.696    0.410
       448  -8.5749    132.7077     43.1428   2.8992180172e+01   4.6249384428e+01    0.2015528    0.1642254 -58.54 0.0003685728    1.425    0.298
       449  -8.4637     92.6847     42.6326   3.9013991706e+01   5.4999120661e+01    0.2176685    0.1426133  19.11 0.0008087222    1.725    0.420
       450  -9.5154     69.6402     40.8425   4.5853493342e+01   5.9501138646e+01    0.4433178    0.2528505 -37.74  0.002238397    1.900    0.474
       451  -8.8632     58.2784     42.3097   5.0575096980e+01   6.1121669462e+01    0.2783738    0.2072707 -48.91  0.001057907    1.839    0.456
       452  -9.5303      5.3904     41.8597   7.3439538362e+01   6.6901522219e+01    0.2858436    0.1980238 -68.42  0.001298105    2.191    0.544
       453  -8.4857    106.0115     41.2607   3.4795027846e+01   5.2434229046e+01    0.2240369    0.1836909 -61.68 0.0007242511    1.613    0.380
       454  -8.0871    140.3690     41.1991   2.6824896566e+01   4.4716809317e+01    0.1841706    0.1209674 -46.17 0.0005843734    1.713    0.416
       455  -8.5309     36.7780     40.5033   5.8660911986e+01   6.4297914456e+01    0.2135904    0.1499844 -32.91 0.0008376741    1.338    0.253
       456  -7.8944    160.6424     39.7563   2.2696163678e+01   4.0114065563e+01    0.1807491    0.1178347 -47.33 0.0004225224    1.649    0.394
       457  -8.5885     95.5930     37.8370   3.6497118904e+01   5.5034295625e+01    0.2257163    0.1910484 -62.49 0.0007008439    1.626    0.385
       458  -8.0805     80.7705     36.4173   4.0474339364e+01   5.8103932093e+01     0.204858    0.1566769 -39.74 0.0005688363    1.577    0.366
       459  -9.3854     26.1655     35.1119   6.1360800701e+01   6.6298323174e+01    0.2660846    0.1863075 -47.43  0.001075027    1.765    0.433
       460  -7.7600    179.4978     35.4910   1.8698437419e+01   3.6195179718e+01    0.1320364    0.1140944  79.55 0.0001310349    1.037    0.036
       461  -8.1425    126.0090     35.2934   2.8051295065e+01   4.8753199059e+01    0.1864818    0.1564359  53.55 0.0004576573    1.043    0.041
       462  -8.4496    111.8296     34.3561   3.1024531585e+01   5.2027175850e+01    0.2017117    0.1788148 -44.96 0.0004664525    1.332    0.249
       463  -8.7628     48.7840     33.3388   5.0877703214e+01   6.3787400174e+01    0.1935629     0.185893  -4.01 0.0008315303    1.470    0.320
       464  -8.6932    119.0566     32.3615   2.8677051882e+01   5.0660738654e+01    0.3035881    0.1453367 -41.66  0.001080245    2.471    0.595
       465  -8.9630     60.8731     32.5386   4.5875486379e+01   6.2062435623e+01    0.2168927    0.1701612 -28.65 0.0005871104    1.393    0.282
       466  -8.5219     72.1810     30.9641   4.1263826578e+01   6.0344629072e+01    0.1717325    0.1673647  17.82 0.0006234939    1.344    0.256
       467  -8.8444     12.9171     30.3536   6.5839208557e+01   6.8255241680e+01    0.2480656    0.1479453 -46.86 0.0009635823    1.771    0.435
       468  -8.4349    101.6789     29.1945   3.1848759139e+01   5.4792440072e+01    0.1822892    0.1613844 -54.42 0.0007699688    1.432    0.302
       469  -8.8563     81.5762     27.1932   3.6813628967e+01   5.9054464040e+01     0.246786    0.2071567 -61.39  0.001005408    1.795    0.443
       470  -8.5260      3.6354     27.1843   6.9283940898e+01   6.9444489697e+01    0.2093677    0.1240499 -53.89  0.001199264    2.061    0.515
       471  -8.7685     91.8095     26.0959   3.3416413678e+01   5.7166174121e+01    0.2244808     0.170453 -40.25 0.0007621008    1.624    0.384
       472  -8.1139     34.5219     22.9998   5.2731132623e+01   6.7062605402e+01    0.1305045    0.1017851 -53.13 0.0006155169    2.307    0.567
       473  -8.2443    104.4930     22.5445   2.8869524085e+01   5.4897334445e+01    0.1284396     0.108463  44.91 0.0001157414    1.025    0.025
       474  -8.9515     63.6866     20.9028   4.0251018547e+01   6.2979127615e+01    0.2580274    0.1746829 -42.07 0.0008681365    2.027    0.507
       475  -8.9067     48.4720     21.4259   4.6175239110e+01   6.5348810094e+01    0.2074898    0.1922279   7.62 0.0007408094    1.407    0.289
       476  -7.7410     19.5697     21.4622   5.9060126647e+01   6.8950028018e+01    0.1144942   0.08437749  -7.69  0.000127373    1.007    0.007
       477  -9.2235    218.6176    247.6862   5.7970054647e+01  -9.9464103704e+00    0.3813746    0.1667548 -39.37  0.001830606    2.323    0.569
       478  -8.0711     38.6926     18.1753   4.8854264242e+01   6.7117255694e+01    0.1594128     0.130662 -22.03 0.0004809277    1.403    0.287
       479  -7.9537    112.7325     16.9765   2.5122479069e+01   5.3648424514e+01    0.1373756    0.1115022 -14.72 0.0003122224    1.437    0.304
       480  -8.2299     87.8807     17.1696   3.1264466850e+01   5.8858391471e+01    0.1710587    0.1602589  53.78 0.0004881877    1.260    0.206
       481  -7.9440     30.0488     15.8106   5.1664794943e+01   6.8511784563e+01    0.1510314    0.1252195  43.53 0.0006573228    1.932    0.482
       482  -8.1685     97.4743     14.9714   2.7974027751e+01   5.7101297422e+01    0.1637777    0.1214217 -21.00 0.0005563002    1.550    0.355
       483  -7.7218      7.5529     15.4678   6.2616910318e+01   7.0871826093e+01    0.1090325   0.08029336 -10.89 0.0002225016    1.062    0.058
       484  -8.0072    191.7875    249.6179   6.3662078875e+01  -6.3557952618e+00    0.1809396    0.1073691  40.87 0.0006808495    1.680    0.405
       485  -9.1900    175.6092    247.6215   6.6699674387e+01  -3.5243456113e+00    0.3065704    0.2486106  79.26  0.001080304    1.965    0.491
       486  -8.8200    132.3822    247.9071   7.5996339947e+01   3.3917735045e+00    0.2774234    0.1962776  72.27 0.0008748602    1.890    0.471
       487  -8.0190    113.0383    248.5717   8.0254070483e+01   6.3644436858e+00    0.2177694    0.1603808  79.90  0.000870574    1.624    0.384
       488  -8.3029     93.8689    249.2521   8.4418505848e+01   9.2000188592e+00     0.230128    0.1133947  64.54 0.0009404477    2.811    0.644
       489  -9.3773    243.1143    246.1257   5.3065650360e+01  -1.2954643283e+01    0.4232639    0.1777489 -32.79  0.002095381    2.221    0.550
       490  -8.3231    156.0561    248.0192   7.0914010493e+01  -4.6907287324e-01    0.2002574     0.153847  62.27 0.0005485166    1.637    0.389
       491  -9.0022    103.8073    246.5720   8.1986695495e+01   8.2132203982e+00    0.4198008    0.2122707 -75.21  0.001790233    2.874    0.652
       492  -9.3560    224.3205    245.3617   5.6468607538e+01  -1.0379323903e+01    0.2805382    0.1737524 -30.41  0.001022411    1.541    0.351
       493  -9.8357    223.6673    242.3451   5.6074955174e+01  -9.8294528258e+00    0.2676202    0.2378196 -56.00  0.001454976    1.724    0.420
       494  -9.2560    210.9619    246.0107   5.9191808806e+01  -8.6066439985e+00    0.2543818    0.1796318 -44.01 0.0009491025    1.675    0.403
