#   1 NUMBER                 Running object number                                     
#   2 MAG_AUTO               Kron-like elliptical aperture magnitude                    [mag]
#   3 X_IMAGE                Object position along x                                    [pixel]
#   4 Y_IMAGE                Object position along y                                    [pixel]
#   5 X_WORLD                Barycenter position along world x axis                     [deg]
#   6 Y_WORLD                Barycenter position along world y axis                     [deg]
#   7 A_WORLD                Profile RMS along major axis (world units)                 [deg]
#   8 B_WORLD                Profile RMS along minor axis (world units)                 [deg]
#   9 THETA_WORLD            Position angle (CCW/world-x)                               [deg]
#  10 FWHM_WORLD             FWHM assuming a gaussian core                              [deg]
#  11 ELONGATION             A_IMAGE/B_IMAGE                                           
#  12 ELLIPTICITY            1 - B_IMAGE/A_IMAGE                                       
         1 -11.5333    132.8879     35.9002   3.4546505871e+01   4.7048448715e+01       1.1469    0.3896246 -39.78  0.003985078    2.813    0.644
         2 -14.4742    192.1501     70.7276   3.5257837200e+01   2.7784098351e+01     2.131636     1.077149 -37.61  0.009840542    1.765    0.433
         3 -14.4287    208.1650     59.1268   3.0243132260e+01   2.6008143057e+01     2.757843     1.485508  76.15   0.01315738    2.394    0.582
         4 -11.9523    129.6532     48.6320   3.9751434527e+01   4.6002231616e+01     2.012359     1.277463 -48.78  0.009030513    1.651    0.394
         5 -13.5586    174.0935     42.3826   2.9980150507e+01   3.5807567879e+01     1.388741     1.163362  -0.25  0.004769803    1.448    0.309
         6 -13.1924    118.6128     65.0713   4.8145007594e+01   4.5916998028e+01     1.800443     1.046406 -65.95  0.006438322    2.845    0.648
         7 -12.8416    154.4110     62.7545   3.9251672176e+01   3.7615667193e+01     1.782892    0.8319988 -51.18  0.006672086    2.524    0.604
         8 -13.2414    228.4955     46.2946   2.5101160906e+01   2.3536305509e+01    0.8800684    0.5368916 -39.37  0.001781466    1.336    0.252
         9  99.0000     45.7096     19.3713   5.6538726769e+01   7.0464549469e+01     1.601574    0.9921783  40.27  0.007880501    1.548    0.354
        10 -13.3302     56.9867     59.6197   6.8819289723e+01   6.0170619493e+01     2.507628     1.527606  86.23   0.00828134    3.927    0.745
        11 -14.4225      4.1774     53.4937   9.6975507116e+01   6.7243296355e+01     3.584537     2.400191  89.97   0.01911535    1.513    0.339
        12 -13.2434     16.8703     35.4884   8.4107070816e+01   7.0989833587e+01     0.721923    0.3855423 -46.37  0.001516394    1.699    0.411
        13 -14.2301     38.3711     56.5067   7.7374966235e+01   6.3660542135e+01     2.998842     1.327543 -56.06   0.01210869    2.113    0.527
        14 -12.6932     63.1947     15.0413   4.5057925300e+01   6.7500219361e+01     1.996943    0.4480102  46.16  0.005789606    4.166    0.760
        15 -13.4488    194.0107     43.2183   2.7758003565e+01   3.1084859531e+01     1.610511    0.8317253  44.82  0.002826128    2.463    0.594
        16 -14.2239     79.0378     43.2451   5.2654608805e+01   5.9281283926e+01     2.067006     1.348462  49.40  0.007352619    1.487    0.328
        17 -13.4031     75.6510     22.9432   4.4378106573e+01   6.3466646787e+01     3.423154    0.8401783  47.75   0.01017774    3.727    0.732
        18 -12.7000     66.5778      7.8246   3.9385366284e+01   6.7646293659e+01      1.53827    0.6341563  58.13  0.006144113    2.226    0.551
        19 -12.8312    159.7681     37.5715   3.0542376762e+01   3.9942848918e+01    0.8272871    0.6774616  78.89  0.001825083    1.206    0.171
        20 -11.2620    125.9747     22.5501   3.0878878897e+01   5.0585802821e+01    0.6162046    0.3331434 -15.75  0.002469452    2.353    0.575
        21 -12.7736     20.0824     27.6658   7.8719696541e+01   7.2514902312e+01     1.046584    0.4442869  28.54  0.004334502    2.312    0.567
        22 -11.5299    147.6285     26.1800   2.8617333144e+01   4.4459614281e+01    0.5803157    0.3922122  12.49  0.002656276    2.155    0.536
        23 -10.9872    102.4601     14.7852   3.2448793902e+01   5.7734807781e+01    0.2861315    0.2011756 -12.25    0.0010906    1.679    0.405
        24 -11.9164    163.2738     21.4525   2.4997095390e+01   4.1002066492e+01    0.3375072    0.2731773  11.47 0.0004737879    1.577    0.366
        25 -10.5677    139.3991     17.3653   2.6743728929e+01   4.7617983719e+01    0.2867025    0.2196451 -54.02  0.001111759    1.288    0.224
        26 -10.8286    148.9491     11.4385   2.3407104402e+01   4.5727399615e+01    0.4272789    0.1949731 -70.32  0.001350282    2.846    0.649
        27 -11.8271    222.0807     11.9098   1.7465336927e+01   2.8508674300e+01    0.3856598    0.1770694 -44.65  0.001238886    1.715    0.417
        28 -10.7067    227.6333      9.6347   1.6622398541e+01   2.7607594965e+01    0.2500783    0.1840671  -2.13 0.0009762098    1.803    0.445
        29  -9.8259     88.5734     11.2612   3.4219283658e+01   6.1762227651e+01    0.2652281    0.2196482  26.79  0.001155747    1.295    0.228
        30 -11.3826     84.9595      7.9141   3.3477929381e+01   6.3058288728e+01     0.489005    0.2202242 -28.08 0.0009515214    2.328    0.570
        31  -9.6639    129.6722     10.8550   2.5754424575e+01   5.0880720782e+01    0.2036493    0.1172116 -37.36 0.0009365326    1.733    0.423
        32 -11.7512    115.5122      9.0363   2.7303389116e+01   5.4858121014e+01    0.4759825    0.3819689 -55.90  0.002020902    1.285    0.222
        33 -11.2369    108.3737      4.2294   2.6477443291e+01   5.7230490946e+01    0.4418471    0.2502222  82.02 0.0007484665    1.785    0.440
        34  -9.9887    168.2087      9.9772   2.0907376973e+01   4.0956951507e+01     0.194153    0.1758527  41.83  0.001057887    1.302    0.232
        35  -9.5168    161.6592     10.2353   2.1622377462e+01   4.2577657708e+01    0.1831338    0.1287363 -12.31  0.000949164    1.689    0.408
        36 -10.3675     26.1824      9.8632   6.4074753366e+01   7.5425509766e+01    0.2322167    0.1732861   0.07 0.0003769033    1.408    0.290
        37 -10.6588     47.4301      7.9505   4.8273041500e+01   7.1925175280e+01    0.3672956    0.2385816 -43.84  0.001770484    1.772    0.436
        38 -10.7831     46.6202      1.8200   4.4372276174e+01   7.2906896314e+01    0.2255195    0.1718263  43.24 0.0003936842    1.190    0.160
        39 -10.4800    241.0884      7.6263   1.5503056834e+01   2.5194224989e+01    0.3188256    0.1443318 -59.39  0.001598988    1.988    0.497
        40  -9.3784    215.5758      8.4343   1.7005278229e+01   3.0191512818e+01    0.1219635   0.09829132 -53.54 0.0001535193    1.009    0.009
        41 -10.1429    193.7862      7.6758   1.8187455023e+01   3.5052720131e+01    0.2417083     0.173431  47.61 0.0009786247    1.715    0.417
        42  -9.5763    173.6363      6.9199   1.9503528002e+01   3.9907349123e+01    0.1781146    0.1439874 -56.42 0.0005671675    1.104    0.094
        43 -10.7889    101.9965      6.3080   2.8641890272e+01   5.8744121632e+01    0.3968009    0.2347275  50.87  0.001540133    1.592    0.372
        44  -8.5503    100.4455      2.4648   2.7143852009e+01   5.9512761643e+01    0.1952609    0.1286948  87.60 1.414734e-05    1.569    0.363
        45  -9.3861    211.7590      6.0238   1.6631814456e+01   3.1228064184e+01    0.1603919    0.1152516  58.29 0.0009806112    1.650    0.394
        46 -10.0616      2.7537      6.6234   8.5056502805e+01   7.8532634443e+01    0.2391672    0.1136698   5.72  0.001141502    2.200    0.545
        47  -9.4384    146.4892      5.0391   2.1482840356e+01   4.6977636292e+01    0.1788009    0.1107299  24.14 0.0008047082    2.287    0.563
        48 -10.5501    125.9871      3.0594   2.3241725444e+01   5.2597159483e+01    0.3344625    0.1944659  -1.53  0.001267898    2.318    0.569
        49  -9.5318     93.8121      4.9616   2.9752802535e+01   6.1045452991e+01    0.1755221    0.1121344 -20.31            0    1.740    0.425
        50 -11.6581    208.8911      2.2557   1.5853849518e+01   3.2191816801e+01    0.1902331    0.1615775 -48.42 0.0003128024    1.088    0.081
        51 -10.7683    155.4637      2.2838   1.9649854586e+01   4.4895159916e+01    0.2623226    0.1910776  51.76 0.0006041906    1.497    0.332
        52 -10.3635     85.0283      1.6079   3.0105046995e+01   6.3661794666e+01    0.2400033    0.1597782  53.30 0.0005005642    1.347    0.257
        53 -11.4837    147.7898     38.4113   3.2709773900e+01   4.2860614961e+01     1.357464    0.3249589 -36.53  0.004243981    3.526    0.716
        54 -11.1383    228.9498    249.2200   6.3312015370e+01  -1.6206078015e+00    0.1841313    0.1107499 -15.16 0.0003795538    1.424    0.298
        55 -13.1649     37.6876    248.9810   1.0028414764e+02   1.9145826307e+01    0.6647382    0.4079298  17.13  0.004335971    1.660    0.398
        56 -12.1503    162.5663     83.8784   4.3756698086e+01   3.2233600646e+01    0.7903809    0.5457197 -59.27  0.003727689    1.718    0.418
        57 -12.1184    169.4738     79.2767   4.1198730385e+01   3.1450173769e+01    0.6493253    0.5534559 -54.91  0.003587558    1.196    0.164
        58 -11.3749    112.2360    249.2365   8.4702852945e+01   1.1162621016e+01    0.1822403    0.1652801 -35.74  0.001445452    1.447    0.309
        59 -11.9906     12.4246    246.8819   1.0542522124e+02   2.1736456738e+01    0.4336389    0.1902455 -88.24  0.002606526    2.611    0.617
        60 -13.6708    123.3276     84.6837   5.3056871385e+01   4.1015871731e+01     1.439441    0.8088499  22.76   0.00469202    3.465    0.711
        61 -11.3324     15.8521    238.4984   1.0450202364e+02   2.2882935571e+01    0.2350495    0.1695118 -56.55 0.0005987532    1.926    0.481
        62 -10.1658    235.3154    244.3094   6.1672255884e+01  -1.7532545566e+00    0.1045628    0.0551607   1.29 0.0004452798    1.632    0.387
        63 -12.8007    142.4501     61.4979   4.1259048579e+01   4.0728653192e+01     1.102406    0.8808199  83.83  0.003515388    1.394    0.283
        64 -11.4327    237.5767     51.2496   2.5446918042e+01   2.1257061215e+01    0.5104384    0.2507161 -35.09  0.001099453    1.607    0.378
        65 -11.5852    180.2244    243.0686   7.0748341738e+01   4.1267964057e+00     0.164776    0.1523559   8.11   0.00104852    1.550    0.355
        66 -11.5075    200.4913     96.9895   4.0513379166e+01   2.2210976521e+01    0.3465268    0.2036723 -36.21   0.00126345    1.525    0.344
        67 -11.3934     86.9157     98.0829   6.8177072008e+01   4.5669517112e+01    0.3810063    0.3262943  18.31  0.001915087    1.266    0.210
        68  -9.4813    226.3360     98.3201   3.7169321649e+01   1.7306439140e+01     0.125292   0.08955158   4.69 0.0007049702    1.705    0.414
        69 -11.5345    140.3624     97.1367   5.2222246225e+01   3.4760898934e+01    0.3901739    0.2800938 -44.08 0.0007038406    1.403    0.287
        70 -11.7400     11.9206     97.4219   9.8408731432e+01   5.5322633585e+01    0.3568014    0.2173675 -60.71 0.0003509305    1.542    0.351
        71 -10.1106    102.7746     83.3838   5.8716678523e+01   4.5840234618e+01     0.297795    0.1561496  39.75    0.0007156    1.936    0.483
        72 -11.4936    107.0087     89.2223   5.9115048370e+01   4.3664235709e+01    0.3291539    0.2440849  35.68   0.00111151    1.379    0.275
        73 -11.3519    104.3976     86.7828   5.9216550111e+01   4.4753037218e+01    0.3887392    0.3100722 -17.12  0.001507516    1.536    0.349
        74 -11.1841    106.7850     96.4311   6.1212901679e+01   4.2127129318e+01    0.2876961    0.2234485 -29.13 0.0006136379    1.461    0.315
        75 -12.4394    105.5072     93.0188   6.0662481591e+01   4.3148733088e+01    0.7677374    0.3022359  39.92  0.002054058    2.575    0.612
        76 -12.5224     62.2444     93.0765   7.6197017933e+01   5.1120552615e+01    0.7048007    0.2871043 -67.48  0.002302454    3.139    0.681
        77 -10.0878     68.9518     94.7438   7.3947444334e+01   4.9637609555e+01    0.2182315    0.1869406  37.65 0.0004567173    1.150    0.130
        78  -9.8475    246.6012     94.2644   3.3881477120e+01   1.4483606334e+01    0.1683904   0.09506665 -23.05 0.0009458852    1.606    0.377
        79 -12.2588    188.6890     93.2953   4.1505607443e+01   2.5110362512e+01    0.4521269    0.2723806  56.45  0.000415656    1.854    0.461
        80 -12.1851    186.9170     88.0711   4.0495617894e+01   2.6288115368e+01    0.6338351    0.4041348   9.70  0.002726893    2.610    0.617
        81 -11.8227    214.3749     92.0355   3.7344799467e+01   2.0308415265e+01    0.3989918    0.2259075 -45.33  0.002042525    1.731    0.422
        82 -12.0496     95.3480     89.2760   6.2885309628e+01   4.6083163436e+01    0.3775411    0.3532074 -79.50  0.001982429    1.130    0.115
        83 -12.4463     57.0520     90.9325   7.7816334158e+01   5.2443035190e+01    0.4514129    0.3252547 -35.55  0.001506889    1.565    0.361
        84 -12.2633     48.6751     85.0429   8.0035262583e+01   5.5123297798e+01    0.4322583    0.3129732 -76.62  0.001127637    1.485    0.326
        85 -12.0986     52.8201     89.8404   7.9345658605e+01   5.3323706444e+01    0.3754258    0.3047691  70.48 0.0007174117    1.355    0.262
        86 -12.0750     52.5853     86.4619   7.8653994756e+01   5.4226084807e+01    0.5527512    0.2404715  21.52  0.001821521    2.826    0.646
        87 -10.6782      1.8463     91.2004   1.0225231974e+02   5.7472130491e+01    0.2417127    0.1756575 -77.75 0.0006798963    1.242    0.195
        88 -12.3640      3.3827     85.8612   1.0113633161e+02   5.8816682154e+01    0.5343353    0.3995968 -36.72  0.001669351    1.416    0.294
        89  -9.2814    241.3633     91.1614   3.3811422335e+01   1.5717543079e+01     0.163502   0.08716922 -39.68 0.0008974099    1.594    0.373
        90 -11.3108    224.0698     87.1594   3.4974050019e+01   1.9209796746e+01     0.397519    0.1666979 -34.56  0.000393748    1.978    0.495
        91 -11.0861    221.8345     83.6084   3.4444157483e+01   2.0092210981e+01    0.2539647    0.1522274 -45.04  0.001230799    1.569    0.363
        92 -11.2199    169.1109     97.3660   4.6045260612e+01   2.8507399875e+01    0.4706464    0.3650824  81.88  0.002372622    1.729    0.422
        93 -11.3137    174.4145     90.0740   4.3169728394e+01   2.8603558902e+01    0.5661873    0.2445908  43.73  0.002213567    2.558    0.609
        94 -11.8071    175.8597     85.8027   4.1797720489e+01   2.8989361538e+01    0.5801451    0.4009632   5.70   0.00260967    2.116    0.527
        95 -11.0058     40.1394     90.1374   8.4927353481e+01   5.4842324343e+01    0.2196781    0.2077869  80.84 0.0002717354    1.048    0.046
        96 -12.0161     38.4094     86.7454   8.5025532485e+01   5.5929535988e+01    0.4717718    0.3407065   6.34  0.001925025    1.590    0.371
        97 -11.6524    148.5418     85.5261   4.7128932354e+01   3.5111785446e+01    0.5959669    0.4394495 -85.36  0.002714241    1.911    0.477
        98 -11.0441    148.5190     81.0873   4.5871939134e+01   3.5913470355e+01     0.488652    0.3161637 -64.72  0.001613937    2.124    0.529
        99 -12.5017    137.8746     88.0529   5.0310071140e+01   3.7061478253e+01    0.4968175    0.3097942  47.83  0.002199523    1.595    0.373
       100 -11.8163    139.5549     80.4454   4.7709176566e+01   3.8103807700e+01    0.5178221    0.3357592 -41.16  0.001268644    1.536    0.349
       101 -12.0525     26.2241     36.1523   7.7701023145e+01   6.9937681605e+01    0.8262115    0.3260477 -38.12  0.003024244    2.983    0.665
       102 -13.2275     66.5946     82.6486   7.1725786172e+01   5.3032182587e+01     1.100719     0.715081  69.99  0.003750424    2.253    0.556
       103 -13.9518     54.2892     71.0910   7.3789568585e+01   5.7852412941e+01     1.321335     1.152121  -8.30   0.00561746    1.255    0.203
       104 -12.6645     24.7424     43.2529   8.1258963911e+01   6.8418875036e+01     1.422474    0.8802181 -35.09  0.006928923    1.657    0.397
       105 -11.4984     86.3819     28.3542   4.3261089742e+01   6.0069792236e+01    0.3411022    0.2514991  52.23 0.0005433041    1.270    0.212
       106 -11.6311    227.4231    242.4715   6.2651178334e+01  -8.0708215659e-01    0.1944963    0.1409643  28.53  0.001536346    1.708    0.415
       107 -11.2929    214.6234    246.7745   6.5281711256e+01   3.4906565197e-02    0.1962452    0.1318696 -20.65 0.0009350906    1.472    0.321
       108 -13.1191     79.8976     60.7321   5.9265920806e+01   5.5594456868e+01    0.9241571     0.742447  73.87  0.004464669    1.517    0.341
       109 -14.2185      6.7281     67.2239   9.7471109181e+01   6.3579799527e+01     1.401096     1.084775  46.82  0.006989165    1.379    0.275
       110 -11.7700    219.3005    240.1490   6.3635355296e+01   2.4622548418e-01    0.3032669    0.1788719   1.54  0.002164455    1.390    0.280
       111 -13.4941     52.7360     43.7388   6.4831756837e+01   6.4447128305e+01     1.167845    0.6838664  10.08  0.002591222    3.009    0.668
       112 -13.1750     61.0528     35.6603   5.6999015681e+01   6.4526768474e+01     1.331463    0.5503151  41.71  0.003299355    2.364    0.577
       113 -10.2600    110.4482    240.4870   8.4248944137e+01   1.2665961612e+01     0.118149    0.0886879  28.42 3.597161e-05    1.018    0.017
       114 -11.0538     23.9867     86.7440   9.1666156229e+01   5.7319596873e+01    0.3367826    0.2043223 -89.16  0.001487563    1.755    0.430
       115 -10.9469    237.5604     86.3552   3.3206817883e+01   1.6961703087e+01    0.2248807    0.2033242 -70.17 0.0005899784    1.324    0.245
       116 -10.5430    232.9806     86.1417   3.3681394349e+01   1.7772529518e+01     0.226008    0.1695871 -36.56 0.0004637663    1.131    0.116
       117 -10.5788    207.4745     85.5139   3.6766653129e+01   2.2537902325e+01    0.2290568    0.1191738 -21.62 0.0009242418    2.180    0.541
       118 -10.1118    217.3787     84.2811   3.5158436480e+01   2.0825257462e+01    0.1264635   0.09358761  14.81 0.0007009838    1.715    0.417
       119 -12.2664    212.4981     82.7285   3.5428412926e+01   2.1961532855e+01    0.4596931    0.1924917 -38.76  0.001717984    2.050    0.512
       120 -10.7794     82.7094     78.8155   6.4257136547e+01   5.1006187481e+01    0.4575658    0.2654783  26.79  0.001394488    2.134    0.531
       121 -11.9739     93.3979     60.0112   5.4052714106e+01   5.2806971257e+01    0.9023969    0.3436017 -42.37   0.00223104    2.702    0.630
       122 -10.6600     90.4180     53.6206   5.2683839634e+01   5.4740498991e+01    0.4649492    0.3034829 -28.45  0.002015594    1.803    0.445
       123 -12.4801     88.3765     73.0728   6.0351383925e+01   5.1151952097e+01    0.7870048    0.5503905 -18.85  0.000559083    2.003    0.501
       124 -11.9466     95.5639     74.8826   5.8429606121e+01   4.9232746710e+01    0.8406116    0.4094655 -58.98  0.002851185    2.894    0.654
       125 -12.9422     96.8751     69.8614   5.6330511766e+01   5.0013049976e+01      1.01973    0.5678498  30.84  0.003826667    2.328    0.570
       126 -12.1131    104.0885     75.1915   5.5743160285e+01   4.7296328150e+01    0.5202029    0.3934742   8.95 0.0003610155    1.817    0.450
       127 -11.7906    100.0166     74.4674   5.6814697393e+01   4.8351221801e+01    0.7886214    0.2899201 -39.84 0.0008259124    3.031    0.670
       128 -10.7477    232.4949     79.6268   3.2296727472e+01   1.8697136323e+01    0.1998178    0.1862374 -62.51 0.0007780252    1.211    0.174
       129 -11.8910    114.0919     80.6898   5.4443910708e+01   4.3913085192e+01    0.4226179    0.3862459  45.25  0.001447101    1.075    0.070
       130 -12.2117     20.3730     75.3892   9.1556288823e+01   6.0612844513e+01    0.3227922    0.2852141 -46.66  0.001011567    1.111    0.100
       131 -11.9385    222.0064     77.7448   3.3077083273e+01   2.0842446436e+01     0.264048    0.2005115 -76.19  0.001575354    1.674    0.403
       132 -12.3463     72.0043     74.4917   6.7098579780e+01   5.4047494456e+01    0.7054272    0.5103033  70.04  0.001450443    1.821    0.451
       133 -11.7060     79.7583     73.1369   6.3587536787e+01   5.2886377377e+01    0.4835705    0.3731882  35.89  0.001403495    1.294    0.227
       134 -10.2826    155.1069     76.7731   4.3249657460e+01   3.5141224913e+01    0.3406261    0.1831979  48.05  0.001140509    1.901    0.474
       135  -9.9838    247.0435     74.8273   2.9736694501e+01   1.6801569846e+01      0.18487    0.1355612 -51.16    0.0012202    1.354    0.262
       136 -11.7332    214.6785     74.8889   3.3295340553e+01   2.2614338018e+01      0.20154    0.1764401  38.06 0.0005156969    1.312    0.238
       137 -11.1008    237.2504     72.9118   3.0300390324e+01   1.8708190883e+01    0.2370497     0.170842 -23.76 0.0002047084    1.262    0.208
       138 -11.7633    236.4130     61.3500   2.7813935917e+01   2.0272800221e+01    0.3199165    0.2920299  81.77  0.002308336    1.292    0.226
       139  -9.6216    244.1058     65.3997   2.7987229419e+01   1.8430689134e+01    0.1664751    0.1424809 -13.85  0.001170788    1.233    0.189
       140 -11.4986    240.1784     66.7708   2.8656836613e+01   1.8948288226e+01    0.4608083    0.2503119 -31.85   0.00259987    1.496    0.332
       141 -11.0527    113.2038     73.4234   5.2415038143e+01   4.5584916265e+01    0.3722153    0.2695483  14.86  0.001502599    1.953    0.488
       142 -12.0284      3.1453    247.5589   1.0731362714e+02   2.2373466870e+01    0.4644559    0.2287265  72.15  0.003048025    1.940    0.484
       143 -12.5977    228.7779     70.8608   3.0732687776e+01   2.0484553583e+01    0.4047635    0.2386777  29.70  0.001655804    2.604    0.616
       144 -10.6594    249.9922     68.0339   2.8014507829e+01   1.7121641022e+01    0.2710391    0.1483068 -22.19   0.00127562    1.752    0.429
       145 -12.0080    108.7719     66.7599   5.1513992071e+01   4.7930191640e+01    0.4801704    0.3210075 -76.58  0.001883792    2.386    0.581
       146 -12.1248    105.4831     60.8379   5.0446738091e+01   4.9847462090e+01    0.6753704    0.5365776  43.84  0.002384455    1.244    0.196
       147 -12.5007    155.7026     41.6446   3.2458276131e+01   4.0419022404e+01    0.4169354    0.3256846  23.04 0.0009884067    1.627    0.385
       148 -10.3372    247.3825     57.0013   2.5880379572e+01   1.8850511790e+01    0.2091928    0.1180272  84.75  0.001153419    2.529    0.605
       149 -10.8328    159.9057    219.7236   7.1570296263e+01   9.6082724390e+00    0.1784023    0.1563973  -4.18 0.0003247948    1.230    0.187
       150 -11.3738    101.1888     53.1371   4.8942803414e+01   5.2310443785e+01    0.7513921    0.3483059  53.16  0.002008266    2.115    0.527
       151  -9.4777    223.0174    123.0071   4.2909924147e+01   1.4467635497e+01      0.15073    0.1237758 -19.71 0.0004818361    1.022    0.022
       152 -10.9418    204.1637     51.1388   2.8686957022e+01   2.7872888613e+01    0.1806673    0.1636739 -23.35 0.0002489699    1.156    0.135
       153 -13.4172    170.8438     55.5762   3.4293853034e+01   3.4772111193e+01     1.423672    0.5144573  56.02  0.003841406    2.715    0.632
       154 -11.3840    211.2342     50.8647   2.7852973040e+01   2.6427088120e+01    0.2921313     0.268233  48.07  0.001042797    1.273    0.214
       155 -10.5988    160.1234     50.4391   3.4483267743e+01   3.8091305430e+01     0.306172     0.232514  -9.60 0.0005706614    1.613    0.380
       156 -10.1163    227.2908    119.1282   4.1492516169e+01   1.4315683551e+01    0.2452006    0.1513938  46.00 0.0009858643    1.862    0.463
       157 -10.5093    100.2424     46.4881   4.6659989415e+01   5.3726692433e+01    0.4456353    0.2861429  62.17  0.001948231    1.634    0.388
       158  -9.7916    104.5907     43.3420   4.4120181501e+01   5.3187968762e+01    0.2915934    0.2031433  53.56  0.001358572    1.368    0.269
       159  -9.2518    164.0001    118.4840   5.2266637873e+01   2.5838072074e+01    0.1817931    0.1279453  73.55  0.000679544    2.274    0.560
       160 -10.4671    248.5895     42.8685   2.2735697447e+01   2.0230019155e+01    0.1973341    0.1513118 -85.42 0.0004208283    1.496    0.331
       161  -8.3294    242.2941     41.9368   2.2995880932e+01   2.1454837221e+01    0.3708578   0.09551944 -35.52  0.001589137    2.639    0.621
       162 -10.6992    213.7224     41.9555   2.5400697822e+01   2.6993695750e+01    0.3563181    0.1683386 -43.51  0.001444077    1.795    0.443
       163  -9.7162    210.5280     38.5443   2.4851191411e+01   2.8061319919e+01    0.2224398     0.192904  42.21 0.0007525703    1.403    0.287
       164 -10.1674    112.4501     39.9796   4.0660498862e+01   5.1740975517e+01    0.4057625    0.2658782  14.35 0.0009790363    2.439    0.590
       165 -10.0149    204.6927    116.5860   4.4330835963e+01   1.8490416494e+01    0.2052075    0.1684589  56.84   0.00120817    1.492    0.330
       166 -10.5383     39.9842     39.5792   7.0226157019e+01   6.7394612067e+01    0.3457314    0.2373105  21.05  0.001713319    1.529    0.346
       167 -11.6973    132.6852    111.5679   5.7883596687e+01   3.3513077970e+01     0.348199    0.3192033  78.61 0.0006703693    1.235    0.190
       168  -9.3446    217.2652     38.6672   2.4271421411e+01   2.6649026459e+01    0.1321778   0.07686348 -52.36 0.0006971316    1.581    0.367
       169  -9.3437    211.3677    112.2369   4.2331215430e+01   1.7956394592e+01    0.1254359   0.09118999  13.66 0.0004506776    1.603    0.376
       170  -9.9176    122.0338     18.5971   3.0053349819e+01   5.2095666469e+01    0.2955366    0.2318377  17.28  0.001510355    1.567    0.362
       171 -10.8047    111.7443     33.5374   3.8277275882e+01   5.2884084976e+01    0.4242973     0.316558  -3.97  0.002013527    1.718    0.418
       172 -12.3290    114.0031     28.1063   3.5539784294e+01   5.3048295072e+01    0.4736096    0.3697305  69.63  0.000907596    1.228    0.186
       173 -11.1568    119.5327     22.4342   3.2066635683e+01   5.2310070623e+01    0.3632534    0.2409794  71.56  0.001017344    1.449    0.310
       174 -10.8291     93.3862     30.4699   4.2004398005e+01   5.8017623225e+01    0.2670229    0.2444466  -9.70 0.0004988794    1.187    0.157
       175 -10.6180    203.1787    111.9333   4.3536766305e+01   1.9461065856e+01     0.190499     0.176986   3.02 0.0002601396    1.093    0.085
       176 -10.6386    226.0054     22.8409   1.9803936256e+01   2.6615239182e+01    0.2754476    0.1581053  72.18  0.001582408    1.913    0.477
       177 -12.4852    219.2135     29.6450   2.1917962162e+01   2.7263234268e+01    0.4029737    0.3653119  39.21  0.001899412    1.384    0.278
       178 -10.7900    219.5701     23.9779   2.0520881330e+01   2.7798703158e+01    0.2786743    0.1731232  71.86  0.001152736    1.751    0.429
       179 -10.2049    206.3108     31.8874   2.3550981976e+01   2.9726684282e+01    0.1951758    0.1417181 -48.34 0.0005139804    1.190    0.160
       180 -10.9112     36.1593     24.3631   6.5408985614e+01   7.1168255886e+01    0.4465123     0.313595  19.32  0.002080638    1.486    0.327
       181 -10.7329     39.0406     31.1058   6.6969494101e+01   6.9354804635e+01    0.2867507    0.2645083  -2.28 0.0006966861    1.019    0.018
       182 -10.9509     42.8157     28.3153   6.3228954898e+01   6.9314848116e+01    0.4832787    0.2560827  47.95  0.001237222    2.166    0.538
       183 -11.2939    198.0133     26.7002   2.2943273257e+01   3.2133303380e+01    0.3192957    0.2305117 -17.70 0.0009407635    1.535    0.349
       184 -10.5726    140.7232     29.3346   3.0795131157e+01   4.5869407414e+01    0.2754242    0.1988764 -70.92 0.0008226244    1.485    0.327
       185 -10.7642    185.2267     27.6103   2.4419527883e+01   3.4964992978e+01    0.4160701    0.1759574 -44.03  0.001808952    2.091    0.522
       186 -11.0496     96.9090    110.0846   6.7831824298e+01   4.0958542438e+01    0.2557809    0.2377558 -32.18  0.001351636    1.135    0.119
       187 -11.0889    216.8221    109.4012   4.0901500673e+01   1.7413598406e+01    0.2304628    0.1823333 -30.31 0.0003754026    1.106    0.095
       188 -10.4717    105.6550     28.1810   3.7579508343e+01   5.5216570489e+01    0.4323258    0.2825868  89.83  0.001865393    1.987    0.497
       189  -9.6299    102.4108     23.8017   3.6506122855e+01   5.6647368886e+01    0.2911599    0.1486554 -16.68  0.001106379    2.648    0.622
       190  -9.8375     98.1693     21.9549   3.6780277015e+01   5.7988324404e+01    0.3160179    0.2919717  46.59  0.001479803    1.068    0.063
       191  -9.7641    103.0426     18.7173   3.4088310534e+01   5.7121841998e+01    0.3799253    0.2126604  21.40  0.001423712    2.922    0.658
       192 -10.9649    191.6301     24.0027   2.2796916701e+01   3.3879576288e+01    0.3471121    0.2276705 -55.97  0.001186943    1.404    0.288
       193 -10.7161    155.7053     24.2877   2.6852261909e+01   4.2602031317e+01    0.3552547    0.2473823  33.76  0.001285893    1.822    0.451
       194 -10.4014    155.2569     21.2116   2.5903309249e+01   4.3065461347e+01    0.2923796    0.2008166 -74.80  0.001077261    1.500    0.333
       195 -10.2171     26.7470    109.0111   9.3561243143e+01   5.1159979565e+01    0.1967927    0.1708057 -89.18 0.0003251422    1.093    0.085
       196 -11.1623    133.9533     23.8190   2.9949865410e+01   4.8321548283e+01     0.541011    0.3386274  79.64  0.002476864    1.634    0.388
       197 -10.2772    137.7477     22.7533   2.8937846638e+01   4.7446649854e+01    0.3795616    0.1690376  69.24  0.001507968    2.146    0.534
       198 -11.6496     91.4923     33.5257   4.3961660858e+01   5.8018788998e+01    0.4211042    0.3163092  73.81   0.00164743    1.487    0.328
       199  -8.5796     29.2918     15.6027   6.5308712007e+01   7.3903523180e+01    0.2261619    0.1271121 -55.47 0.0005140689    2.144    0.533
       200 -10.5663     31.6581     20.1312   6.6214216279e+01   7.2681729612e+01    0.3688805    0.2646175 -27.13  0.001977458    1.428    0.300
       201  -9.9367     27.9188     18.9828   6.8346726793e+01   7.3440335448e+01    0.2632096    0.1900742  18.94 0.0007418048    1.379    0.275
       202  -9.3336    210.4149     21.4422   2.0567157813e+01   2.9984163400e+01    0.1262653     0.102891 -52.41 -5.559226e-06    1.030    0.029
       203  -9.6048    238.0909     19.0438   1.8184068413e+01   2.4653314601e+01     0.185559   0.09923537 -55.33 0.0005961054    1.634    0.388
       204 -10.2015    129.9262     19.1602   2.8886879705e+01   4.9929715517e+01    0.2146628    0.1786527 -79.88 0.0003541199    1.182    0.154
       205 -10.4745    112.9588     18.1139   3.1623464136e+01   5.4569232675e+01    0.4336164    0.2271309  89.64  0.001620297    2.661    0.624
       206 -13.4512     11.5525     39.5975   8.9188570251e+01   7.0376330785e+01    0.5931386    0.3256623 -70.71 0.0006213236    1.767    0.434
       207  -9.7486    226.0508     18.5201   1.8786357314e+01   2.7049369735e+01    0.1668706    0.1123239  84.92  0.001030274    1.586    0.369
       208 -10.3495    172.0016     17.8124   2.2919990049e+01   3.9222857595e+01    0.2513314     0.179264   9.25  0.001150088    1.948    0.487
       209 -10.7536    195.6382    106.5530   4.3531580485e+01   2.1681224311e+01    0.3485375    0.2124212 -37.56  0.001776938    1.507    0.336
       210  -9.5234    204.9397     16.7956   1.9792040890e+01   3.1651021186e+01    0.1448317   0.09501967  78.80 0.0004149235    1.571    0.363
       211  -9.8865     91.9935    106.9905   6.8685213445e+01   4.2604512969e+01    0.1827277    0.1763293 -60.47 0.0003815385    1.067    0.063
       212  -9.6162    153.3935     16.1561   2.4464708539e+01   4.4092505999e+01     0.204521    0.1314088 -32.28 0.0008281461    1.545    0.353
       213  -9.9482    155.2250     13.0053   2.3206362568e+01   4.3945716912e+01    0.1878113    0.1728963  54.72  0.001120151    1.198    0.165
       214 -10.2721    200.0105    106.2367   4.2747190027e+01   2.0906288430e+01    0.1727399    0.1602109 -13.21 0.0002991187    1.048    0.046
       215 -10.4920    184.1561    105.9257   4.5356945806e+01   2.4002945267e+01    0.2144984    0.1989312  41.37  0.000500174    1.156    0.135
       216  -9.4034     32.6549     14.7456   6.2269407950e+01   7.3549026722e+01    0.1362469   0.09788683   2.83 0.0003653391    1.587    0.370
       217  -9.3450    189.3613     15.1962   2.0574283827e+01   3.5335247874e+01    0.1209863     0.088788  55.02 0.0001800114    1.547    0.354
       218 -11.0027    109.8812    103.4170   6.2137192488e+01   3.9940808348e+01    0.2609956     0.219028 -63.85  0.000717511    1.304    0.233
       219 -10.1249    241.0421    102.6564   3.6270010398e+01   1.4302914433e+01    0.1997599    0.1358783 -35.88 0.0006580342    1.249    0.199
       220  -9.7623    179.4171     11.6262   2.0398522613e+01   3.8048703187e+01    0.1322931      0.11067 -66.12 8.437324e-05    1.053    0.051
       221 -10.8569    165.7391    102.5169   4.8020442095e+01   2.8323352392e+01    0.2768382    0.1976161 -36.10 0.0008062415    1.357    0.263
       222 -10.1035    144.0143    103.2129   5.2956447385e+01   3.2796925324e+01    0.3069991    0.1674825  29.97  0.001163141    2.456    0.593
       223 -11.6631    115.2732     99.0518   5.9391022146e+01   3.9780425068e+01    0.2978349    0.2145191  44.20 0.0005452235    1.357    0.263
       224 -12.8831    117.7241     96.0584   5.7870300146e+01   3.9900659890e+01    0.9261835    0.4394985 -61.32   0.00282687    3.764    0.734
       225 -11.1882     75.7151    102.0319   7.3160927996e+01   4.6697214877e+01    0.2152932    0.2027825 -59.65 0.0004886026    1.081    0.075
       226 -10.8113    217.4465     99.5493   3.8629356317e+01   1.8695218474e+01    0.3370643    0.1965782  -7.58  0.001549655    2.507    0.601
       227  -9.8784    208.5571    100.5475   4.0125021261e+01   2.0165186330e+01    0.2666774    0.1688346  -3.47 0.0006645027    2.213    0.548
       228 -10.7581    185.6987    101.1022   4.3923122744e+01   2.4476130247e+01     0.204149    0.1923509  63.28 0.0004199609    1.198    0.166
       229 -11.8824     53.2741     99.6693   8.1290587119e+01   5.0713879539e+01    0.3070012    0.2657638 -32.69 0.0002457679    1.257    0.205
       230 -11.4185    193.0107     99.4116   4.2279410268e+01   2.3295531375e+01     0.357673    0.2439234  50.92  0.001059144    1.597    0.374
       231 -11.5052    149.9967     99.5181   5.0609272293e+01   3.2213747229e+01    0.5267007    0.2934673  34.43 -9.567115e-05    2.126    0.530
       232 -10.3199    151.6800     95.6848   4.9219455659e+01   3.2558371801e+01    0.4083644    0.2531471  54.78  0.001828892    1.716    0.417
       233 -13.9412    127.3171     90.7019   5.3734850029e+01   3.8911906352e+01     1.560218    0.7015263 -49.17  0.005657037    2.426    0.588
       234 -10.5426    247.9999    250.0000   6.0531460827e+01  -3.4540728556e+00    0.1485495   0.04169017  29.06 0.0008080827    2.982    0.665
       235 -12.6010    164.0679     67.5498   3.8887233862e+01   3.4563509377e+01    0.9298588    0.6847157 -26.49  0.004700658    1.412    0.292
       236 -13.0295    176.0789     69.7972   3.7467743830e+01   3.1455001377e+01     1.372161    0.8189601 -75.00  0.005506292    2.805    0.643
       237 -11.5326    159.8048    248.9204   7.5250285286e+01   5.7238260211e+00    0.3731219    0.1410522  38.85  0.001902439    2.534    0.605
       238 -13.4369    204.9228     69.6716   3.3257145907e+01   2.5263198548e+01    0.7265981     0.542284 -88.12  0.003248123    1.662    0.398
       239 -13.0425    138.1788     71.1633   4.5229778274e+01   4.0107841038e+01      1.43593    0.8116277  43.70  0.006001044    1.867    0.464
       240 -10.8323    154.9041    249.1944   7.6214241826e+01   6.2477636180e+00    0.2165484    0.1239077  13.97  0.001357957    1.541    0.351
       241 -12.6524    188.1169     34.3474   2.5995236703e+01   3.3507511870e+01    0.5912758    0.2792114  71.40  0.001337021    2.222    0.550
