#   1 NUMBER                 Running object number                                     
#   2 MAG_AUTO               Kron-like elliptical aperture magnitude                    [mag]
#   3 X_IMAGE                Object position along x                                    [pixel]
#   4 Y_IMAGE                Object position along y                                    [pixel]
#   5 X_WORLD                Barycenter position along world x axis                     [deg]
#   6 Y_WORLD                Barycenter position along world y axis                     [deg]
#   7 A_WORLD                Profile RMS along major axis (world units)                 [deg]
#   8 B_WORLD                Profile RMS along minor axis (world units)                 [deg]
#   9 THETA_WORLD            Position angle (CCW/world-x)                               [deg]
#  10 FWHM_WORLD             FWHM assuming a gaussian core                              [deg]
#  11 ELONGATION             A_IMAGE/B_IMAGE                                           
#  12 ELLIPTICITY            1 - B_IMAGE/A_IMAGE                                       
         1 -16.5400    237.7540    167.1714   4.9255689698e+01   6.5275247053e+00     4.938576     2.547015 -19.89   0.02830311    1.802    0.445
         2 -18.4949    236.8844     63.5712   2.8265026761e+01   1.9919519716e+01     5.673125     4.693727  16.07   0.03809861    1.507    0.337
         3 -15.0898    167.3958     89.8494   4.4424760337e+01   3.0155279893e+01     2.554139      1.58589  22.88   0.01066601    2.442    0.590
         4 -14.9630    130.3012     66.6445   4.5665592316e+01   4.2808313971e+01     2.151689    0.5195332 -33.92  0.005302761    5.322    0.812
         5 -15.2407    140.0693     60.1818   4.1345854985e+01   4.1530830252e+01     2.127932     1.262271  -8.97  0.007729149    3.034    0.670
         6 -15.3337    135.6041     38.4180   3.4916494412e+01   4.5994233433e+01     1.656632    0.9037053  60.97  0.007156126    1.748    0.428
         7 -14.2625    153.4965     43.2121   3.3319472793e+01   4.0757187928e+01     1.264118    0.5664908 -23.56  0.004735993    2.684    0.627
         8 -14.7244    145.7171     41.4093   3.4068063087e+01   4.2977288798e+01     1.235549    0.8464454   4.11  0.005489385    2.161    0.537
         9 -12.5976    151.5696     21.1173   2.6353150393e+01   4.4024874541e+01    0.4410999    0.2543087  -2.21  0.001829535    2.659    0.624
        10 -10.4627    201.6301     11.9191   1.8766978503e+01   3.2870798730e+01    0.2110247    0.1613746  58.14 0.0009500369    1.510    0.338
        11 -11.6066    105.4693      9.2638   2.9292806473e+01   5.7526137526e+01    0.2603558     0.148399 -14.67 0.0009358255    2.101    0.524
        12 -14.0894    192.5512    194.5904   6.1497155974e+01   8.8687513616e+00    0.8842209    0.5207399 -57.11  0.004008165    4.059    0.754
        13 -11.9501    184.0362    123.2062   4.9382144137e+01   2.1195208149e+01    0.6662571    0.3079139 -39.50  0.002914363    2.066    0.516
        14 -11.5275    165.7957    199.6755   6.7484724671e+01   1.1770395016e+01    0.4681125    0.2809406  57.67  0.002029336    3.808    0.737
        15 -10.7311    228.9612    123.3925   4.2140768381e+01   1.3471916527e+01     0.198124    0.1474881 -25.85 0.0004200219    1.126    0.112
        16 -11.8627    143.9726    146.4618   6.2914722224e+01   2.4375094732e+01    0.3447447    0.2414791 -72.67  0.001561176    2.365    0.577
        17 -12.2921    142.6905    121.5279   5.7794779053e+01   2.9488001487e+01    0.4466701    0.2389078  56.36  0.001734922    2.467    0.595
        18 -12.6386    165.7274    116.8697   5.1525285784e+01   2.5785850680e+01    0.4719737    0.2937528  33.08  0.002209308    1.744    0.427
        19 -14.4166    185.4061    172.6039   5.9079954553e+01   1.3067483636e+01    0.7641391    0.6049283  79.57   0.00406789    2.725    0.633
        20 -14.0383    177.0326    171.3363   6.0486657176e+01   1.4530535057e+01    0.8325812    0.3385745 -46.68  0.003517448    2.984    0.665
        21 -12.0463    206.1284    160.9084   5.3152680212e+01   1.1710478623e+01     0.221879    0.1608528  12.53 0.0004465251    1.303    0.232
        22 -10.2119    192.0567    108.0671   4.4484952562e+01   2.2126391040e+01    0.2498903    0.1995735 -68.96 0.0008668852    1.676    0.403
        23 -14.5177     17.0148    148.8113   1.0051662950e+02   4.1713475121e+01    0.8936712     0.755828  62.81   0.00374544    1.036    0.035
        24 -11.8743    177.3061     96.6309   4.4315331298e+01   2.6913528128e+01    0.2518371    0.2342358 -20.57 0.0002486526    1.025    0.025
        25 -12.7152    133.8025     81.0568   4.9272204989e+01   3.9323044567e+01    0.3349152    0.2865513 -44.24 0.0008408272    1.175    0.149
        26 -13.6476    227.5517    104.1182   3.8272096120e+01   1.6314671328e+01    0.6551187    0.3646921 -23.18   0.00264948    1.723    0.419
        27 -12.1500    197.6461     53.5726   3.0070381975e+01   2.8958720739e+01    0.3182122    0.2127535 -29.59  0.000829141    1.409    0.290
        28 -12.8791    198.4384     72.7307   3.4884869394e+01   2.6172255853e+01    0.9137264    0.3172257 -34.52  0.003589211    2.498    0.600
        29 -11.8466    197.3703     61.7254   3.2220251586e+01   2.7928752054e+01    0.6082554    0.2202182 -28.86  0.002332577    2.717    0.632
        30 -12.3297    133.5641    145.4404   6.5240476144e+01   2.6428367728e+01    0.9396793    0.2452681 -52.48  0.002570564    5.282    0.811
        31 -12.8894     45.3780    139.8825   9.0513083610e+01   4.1277773496e+01    0.4092991    0.3226704  13.00 0.0009935956    1.396    0.284
        32 -15.2130     56.8503    136.3776   8.6233256367e+01   4.0792719987e+01     2.294769     1.380456   7.70  0.005111699    2.218    0.549
        33 -14.7435    124.4787     37.6545   3.6924959518e+01   4.8987132277e+01     1.499678     0.490404  54.63  0.005072427    2.756    0.637
        34 -11.8578    158.9882     41.1620   3.1788515784e+01   3.9662894939e+01    0.3989832    0.2353854 -25.90  0.000554231    1.802    0.445
        35 -12.6042    178.4909    140.9848   5.4295940884e+01   1.9242264768e+01    0.2796318     0.257646 -80.98  0.001691267    1.493    0.330
        36 -10.4972    169.0246     69.8732   3.8675288779e+01   3.3050015530e+01    0.2638877    0.1973252 -35.58 0.0007751798    1.282    0.220
        37 -10.6757    204.8323     64.9360   3.2090620868e+01   2.5925609665e+01    0.1985773    0.1724281 -40.40 0.0007518767    1.019    0.019
        38 -11.5314    185.9716     64.1329   3.4410575810e+01   3.0076595634e+01    0.2316492    0.1772578 -35.85 0.0005085117    1.210    0.173
        39 -11.4475    132.0000    138.9656   6.4311401272e+01   2.8020926272e+01    0.3588161    0.1856484 -44.68  0.001077951    2.018    0.505
        40 -10.5957    182.1451     72.1321   3.7128609575e+01   2.9749506905e+01    0.1912582    0.1787874  -4.62 0.0003047359    1.144    0.126
        41 -13.0702    142.3221    136.5630   6.1251707107e+01   2.6597817066e+01    0.6328338    0.3484562 -36.93  0.002764166    1.947    0.487
        42 -11.6432    158.4439     70.0097   4.0637770368e+01   3.5488328354e+01    0.2868223    0.2475783 -35.28  0.000378565    1.140    0.123
        43 -11.4497    208.9189     54.8387   2.9090397300e+01   2.6405052433e+01     0.218717    0.1611599 -39.80 0.0002713102    1.177    0.151
        44 -12.1265    206.5438     47.4634   2.7494646098e+01   2.7829174442e+01    0.2976583    0.2226211 -55.23 0.0001047508    1.252    0.201
        45 -13.1166    192.3183    154.0353   5.4296131854e+01   1.4846888139e+01     0.522374    0.2622862 -42.74  0.002390408    2.115    0.527
        46 -11.9478    168.5036     35.4679   2.8669680733e+01   3.8046708973e+01    0.4001393    0.2535091 -62.03 0.0006183627    1.677    0.404
        47 -13.5477    115.5592     29.8327   3.5883720947e+01   5.2408343946e+01    0.4463286    0.4055662 -19.04   0.00177932    1.207    0.172
        48 -10.7320    184.3394     30.3016   2.5270956437e+01   3.4863799125e+01    0.2013354    0.1532869   0.50 0.0005621128    1.702    0.412
        49 -11.2856    185.7218     26.9698   2.4189049458e+01   3.4921456610e+01    0.2796043    0.2200944  18.20 0.0004904859    1.685    0.407
        50 -10.1929    194.5535     27.7232   2.3535042570e+01   3.2799406583e+01    0.3005757    0.1637065 -68.34  0.001091124    2.053    0.513
        51 -13.8359    157.1178     49.6445   3.4741148774e+01   3.8944539168e+01    0.9129573    0.6040218  81.52  0.003480457    1.737    0.424
        52 -11.2655    208.3250    211.4314   6.1342307954e+01   4.6982784603e+00    0.1540233    0.1314202 -32.94 0.0005697933    1.669    0.401
        53 -13.3717      3.3183    148.3722   1.0475482423e+02   4.2774942339e+01     1.287891    0.3437941  87.41  0.004419106    3.925    0.745
        54 -13.0481     67.5710    144.2413   8.3885690536e+01   3.7431021287e+01    0.8953001    0.4617306  53.28  0.003587377    2.129    0.530
        55 -11.0974    201.0081    131.4256   4.8148998251e+01   1.6885636773e+01    0.2850314    0.2210152 -68.67  0.001558191    2.078    0.519
        56 -13.2344    160.9744    128.4204   5.5194328679e+01   2.4626117783e+01    0.4835488    0.4124401  40.47  0.001913167    1.195    0.163
