#   1 NUMBER                 Running object number                                     
#   2 MAG_AUTO               Kron-like elliptical aperture magnitude                    [mag]
#   3 X_IMAGE                Object position along x                                    [pixel]
#   4 Y_IMAGE                Object position along y                                    [pixel]
#   5 X_WORLD                Barycenter position along world x axis                     [deg]
#   6 Y_WORLD                Barycenter position along world y axis                     [deg]
#   7 A_WORLD                Profile RMS along major axis (world units)                 [deg]
#   8 B_WORLD                Profile RMS along minor axis (world units)                 [deg]
#   9 THETA_WORLD            Position angle (CCW/world-x)                               [deg]
#  10 FWHM_WORLD             FWHM assuming a gaussian core                              [deg]
#  11 ELONGATION             A_IMAGE/B_IMAGE                                           
#  12 ELLIPTICITY            1 - B_IMAGE/A_IMAGE                                       
         1 -11.0914    110.6212     39.6311   1.3841050489e+01   5.2526933841e+01      1.19746    0.4661851 -33.05  0.004304387    2.691    0.628
         2 -12.4456    119.2470     39.1614   1.1646399005e+01   5.0376196264e+01    0.9615487    0.6295437 -24.89  0.003054349    1.761    0.432
         3 -12.1915    104.6913     12.8097   4.0359597810e+00   5.7487131138e+01     1.698959    0.6162616 -12.54  0.005081683    5.111    0.804
         4 -12.7811    105.7790     19.9696   6.9021795845e+00   5.6418187867e+01    0.5689932    0.3665251 -59.41 0.0004019883    1.758    0.431
         5 -12.1568     58.3158     29.3068   2.6963017683e+01   6.6573512635e+01    0.8915033    0.4176007 -28.13  0.003428315    2.761    0.638
         6 -12.0526    164.6789     18.0457   3.5741669559e+02   4.1357151326e+01    0.5653732    0.3261544  41.99  0.002600135    2.386    0.581
         7 -12.6502    164.2676     27.3115   2.6416208835e-01   4.0390218203e+01     0.417819    0.3582825  87.23  0.000730809    1.110    0.099
         8 -11.5106     20.4409     21.6570   4.6273944701e+01   7.4332960876e+01    0.5754807    0.3540601 -33.63  0.001807841    1.607    0.378
         9 -11.2751    144.0463     25.5386   2.3156977079e+00   4.5736439077e+01    0.6352662    0.3927755 -80.01  0.002966825    1.740    0.425
        10 -11.2810    134.5682     21.5103   2.3104695229e+00   4.8676758082e+01    0.6981722    0.3878362 -46.43  0.002869148    1.766    0.434
        11 -11.7703    127.5268     16.3489   1.4959325269e+00   5.1099167001e+01    0.5788368    0.4688061  -9.82  0.001448121    1.504    0.335
        12 -11.3361    135.5611     14.4883   3.5966376345e+02   4.9186470214e+01    0.5619249    0.2815298  69.80  0.002517804    1.804    0.446
        13 -11.6065     36.1626     18.0996   3.2706013174e+01   7.2659977790e+01    0.6376403    0.4253195 -44.12  0.002132372    1.620    0.383
        14  -9.9453     12.5762      2.1883   4.0292095098e+01   7.8848261997e+01    0.6039589    0.1700792 -40.39  0.002297093    3.559    0.719
        15  -8.0556      5.7164      9.8504   5.2881558712e+01   7.8180538233e+01    0.6025531    0.4154644 -34.88   0.00363291    1.287    0.223
        16 -10.6918      9.4410     19.4290   5.4507341311e+01   7.5919707276e+01    0.3914135    0.2306388 -18.67  0.001191226    1.821    0.451
        17 -11.9601     15.9778     14.3126   4.5719407727e+01   7.6282813689e+01    0.7535171    0.4606525 -51.41  0.003820252    1.695    0.410
        18 -11.8775     22.8369     10.8175   3.7526309289e+01   7.6005415053e+01    0.5654944    0.3677647   3.81  0.002205952    1.848    0.459
        19 -10.7066     68.4881     20.3941   1.7851859909e+01   6.5675172677e+01    0.3980817    0.3062404 -29.55  0.001443913    1.389    0.280
        20 -11.2327     85.9728     14.5959   9.1968632830e+00   6.2130843939e+01    0.5946672    0.3848883   9.39  0.002681569    2.150    0.535
        21 -10.8849     88.7617      8.0557   5.2569450713e+00   6.2097608715e+01    0.3492109    0.3172789 -58.39  0.001125488    1.180    0.153
        22 -11.5368    241.9135     15.1517   3.5119903923e+02   2.4803024491e+01    0.2782817    0.1993693  68.88  0.000468624    1.708    0.415
        23 -11.6632    227.9982     14.9310   3.5186783585e+02   2.7496097615e+01    0.4066856    0.1942941 -66.03  0.001200538    1.938    0.484
        24 -12.3206     48.7022     12.8228   2.2077399463e+01   7.1056314831e+01    0.6947287    0.2886371  49.62  0.002922844    2.207    0.547
        25 -11.2736    120.9274     12.2147   9.3590239550e-01   5.3268729307e+01     0.408239    0.2827995 -53.20  0.001501138    1.459    0.315
        26 -11.4649    191.2974     10.7054   3.5309342450e+02   3.5778988491e+01    0.4324485    0.2608747 -10.03  0.002165752    2.392    0.582
        27 -10.1675    223.7994      2.4520   3.4927348650e+02   2.9617531045e+01    0.2220317    0.1782372 -56.53 0.0005239864    1.089    0.082
        28 -11.6426    212.2697      9.3033   3.5143516556e+02   3.1307018607e+01     0.500482    0.3097173 -10.30   0.00226271    2.363    0.577
        29 -10.8880    218.5798      3.3955   3.4972654375e+02   3.0587160896e+01    0.2800029    0.2028672  78.40 0.0009223241    1.486    0.327
        30 -12.5256    108.7558     28.9261   9.9906027308e+00   5.4527997525e+01     1.055633    0.5752436  24.22  0.003663371    3.573    0.720
        31 -11.6791    168.7890      9.3950   3.5445284551e+02   4.1250679909e+01    0.5626501    0.2247361  67.55  0.002449353    2.329    0.571
        32 -11.5211    155.6150      6.1752   3.5463202292e+02   4.4844097664e+01    0.6693902    0.3461218  53.18  0.003121078    2.152    0.535
        33 -10.3300    145.0133      9.4640   3.5677096768e+02   4.7235840422e+01    0.2659461    0.1968709   8.92 0.0009690195    1.877    0.467
        34 -11.6462     63.8893      9.0422   1.3121100422e+01   6.8143027268e+01    0.4216457    0.3082496 -42.34 0.0006433389    1.545    0.353
        35  -9.9346      1.1369      7.3394   5.6367373377e+01   7.9030890190e+01    0.2707192   0.07700239 -57.01  0.000878474    2.995    0.666
        36 -10.1502      1.8679      2.1059   5.2134055717e+01   7.9991907257e+01     0.250575    0.1477177 -31.52  0.001039308    1.556    0.357
        37 -11.3152    184.8759      6.0272   3.5228648530e+02   3.7734713394e+01    0.4268938    0.2000134 -55.08  0.001785432    1.840    0.456
        38 -10.2759    122.5829      6.5819   3.5849998569e+02   5.3371293388e+01    0.2965782     0.157065 -33.20  0.001383947    1.914    0.478
        39  -9.5848     77.9268      7.2093   7.5846285089e+00   6.4925075381e+01    0.2079947    0.1758963 -86.30 0.0006697439    1.271    0.213
        40 -10.5103    247.0736      5.5181   3.4896237386e+02   2.4850410938e+01     0.199918    0.1477968 -89.59 0.0008471032    1.438    0.304
        41 -10.1686    175.8676      5.8604   3.5287468305e+02   3.9882493163e+01    0.1909226     0.169604  69.63 0.0006779003    1.283    0.221
        42 -10.1458    164.8521      4.4197   3.5330053109e+02   4.2702077474e+01    0.3368667    0.2062969  27.73  0.001583547    2.650    0.623
        43  -9.7144    148.3581      5.6409   3.5514991679e+02   4.6739966160e+01    0.2201709    0.1296602 -62.89  0.001084593    1.619    0.382
        44 -10.6592    142.0179      2.5102   3.5472975936e+02   4.8653074156e+01    0.3303865    0.2777086 -66.84  0.001277128    1.083    0.077
        45  -9.9599    128.9838      4.9432   3.5704223591e+02   5.1834587216e+01    0.2022443    0.1785526 -88.64            0    1.020    0.019
        46 -11.2167    137.9119      4.0032   3.5567223684e+02   4.9585175946e+01     0.319102     0.236078  86.68 0.0003748848    1.197    0.165
        47 -11.6309    133.5349      2.4881   3.5561317514e+02   5.0858078204e+01    0.6711707    0.2560121  77.64  0.002676568    2.388    0.581
        48  -9.4627     70.3340      5.1774   8.6745028314e+00   6.6997053379e+01    0.2439169    0.1694065  41.77  0.001295244    1.374    0.272
        49  -9.7666     75.1384      2.8675   5.9711027573e+00   6.6024531599e+01    0.4102006    0.1846331  71.11  0.001712281    2.202    0.546
        50 -10.8529     41.2979      3.9148   1.9852025062e+01   7.3711305373e+01    0.3897772    0.2216748  28.29  0.001874548    1.974    0.493
        51 -10.0695    235.5005      4.4762   3.4921375006e+02   2.7116910791e+01     0.117959   0.08518343 -55.01 0.0001485639    1.015    0.014
        52 -11.0708    113.7822      2.3509   3.5805374839e+02   5.6061755700e+01    0.5189119    0.2740909 -86.58  0.001930743    2.012    0.503
        53 -10.1917     28.7738      1.4073   2.5728643589e+01   7.6440072469e+01    0.2205938    0.1556229  46.91 0.0003000769    1.419    0.295
        54 -10.3939    105.4634      1.9499   3.5915067018e+02   5.8286368863e+01    0.3222322    0.2106541 -76.67  0.001124671    1.606    0.377
        55  -8.7309     21.6238      3.2963   3.2831789352e+01   7.7384809018e+01    0.1170375    0.1010758  69.30  0.000702492    1.747    0.428
        56  -8.9149     52.4967      1.9536   1.3067992614e+01   7.1509780636e+01    0.1785236    0.1296205 -20.53 0.0004907547    1.490    0.329
        57 -11.1364    205.6561      1.9859   3.5002736755e+02   3.3454113089e+01    0.4399984    0.1883787 -86.96 0.0009284983    2.326    0.570
        58  -9.6636    152.4333      1.4086   3.5339994746e+02   4.6084469395e+01    0.2508017    0.1162534  79.96  0.000518974    1.957    0.489
        59  -9.8618    124.1101      1.3555   3.5628877640e+02   5.3423552512e+01    0.2793678     0.114837  74.74   0.00111975    2.140    0.533
        60  -9.6662     82.3838      1.2487   3.2752349373e+00   6.4336140337e+01    0.2226447    0.1060116  69.59 0.0003533104    1.891    0.471
        61 -10.9440      7.8273    114.8436   7.5626807575e+01   5.1691609026e+01    0.3305268    0.2246244 -59.27 0.0008662886    1.420    0.296
        62 -12.6316      3.3581    110.0819   7.7009206530e+01   5.3239236475e+01    0.9098599    0.4088106 -73.78  0.002658387    1.928    0.481
        63 -11.5846     22.1162    113.9887   6.9888685679e+01   5.0902203881e+01    0.5447113    0.3300194  -1.92   0.00217739    2.130    0.530
        64 -12.4306     27.1885    111.4357   6.7517285093e+01   5.1162236155e+01     1.343653    0.5888544 -89.88   0.00444195    2.804    0.643
        65  -9.8882     79.2791    114.7131   4.8194053523e+01   4.3233126749e+01     0.288332    0.2660959 -31.27 0.0007192776    1.181    0.153
        66 -10.0575     48.9673    111.7938   5.8856255675e+01   4.8648870543e+01    0.2699038    0.2387967  34.88 0.0005540487    1.160    0.138
        67 -11.8015     79.8860    107.8425   4.6350901667e+01   4.4896723298e+01    0.5459511    0.3768296  24.40 0.0009224015    1.659    0.397
        68  -9.3972     73.3706    107.1826   4.8544219261e+01   4.6207014687e+01    0.2271122    0.1984646 -73.96 0.0001384106    1.154    0.133
        69  -9.6872    105.8043    107.4135   3.7669474328e+01   3.9979401351e+01    0.2197305    0.1523772  30.08  0.000937565    1.629    0.386
        70 -11.2469     50.1366    101.2207   5.6256718604e+01   5.1364019866e+01    0.7987225    0.4482647 -33.67   0.00255207    2.387    0.581
        71 -10.3503     91.7981    102.4743   4.0849677467e+01   4.4000704750e+01    0.4579724    0.3842423 -49.22   0.00223594    1.201    0.167
        72  -9.7615     85.9183    103.4641   4.3121732374e+01   4.4893283912e+01    0.2849496    0.2389004  36.07  0.000703382    1.214    0.177
        73  -9.5619     57.0245    102.7827   5.3797350950e+01   4.9971630819e+01    0.2900291    0.1980376 -82.51  0.001270294    1.680    0.405
        74  -9.0058     64.6860    101.6744   5.0508870127e+01   4.9087343696e+01    0.1601933     0.119536 -25.98  0.000404217    1.666    0.400
        75 -11.8558     68.1868     95.0626   4.7470363611e+01   5.0228814649e+01    0.6203279    0.4144805  29.02  0.001683496    1.598    0.374
        76 -10.4469     17.1459    100.0483   7.0199860651e+01   5.5130681869e+01    0.3134449    0.1866593 -72.91  0.001021791    1.519    0.342
        77 -11.7119      9.1556     97.0270   7.3347382318e+01   5.6482781268e+01    0.4740846    0.4010928  56.39 0.0003622965    1.205    0.170
        78 -12.3546    210.4557     98.1258   1.2866819149e+01   1.9779655749e+01    0.2430054    0.2234446 -37.09 0.0003127993    1.077    0.071
        79  -9.2372    132.9761    100.0000   2.8078099448e+01   3.5775255544e+01    0.2538183   0.08855473  47.76 0.0007977812    2.910    0.656
        80 -10.3595     30.3468     96.8408   6.3887413249e+01   5.4878291682e+01    0.4663538    0.4026634 -69.01  0.002550644    1.084    0.077
        81 -10.1698     58.0477     77.9301   4.6869185755e+01   5.6265481674e+01     0.255935    0.2164318 -55.94 0.0004876144    1.162    0.139
        82 -11.8975     75.2992     78.5186   3.9835913725e+01   5.3037797673e+01    0.6173288    0.5371571  78.03  0.001402255    1.276    0.216
        83 -12.4711     60.9725     83.4218   4.7217145217e+01   5.4407700596e+01    0.3202144    0.3042018 -82.27 0.0003777569    1.064    0.060
        84  -9.9612     67.3114     81.2348   4.3906108809e+01   5.3865464364e+01    0.4020646    0.2941926 -26.31  0.001807243    1.685    0.407
        85 -11.6150     79.6026     93.1840   4.2599692942e+01   4.8652078662e+01    0.8251957    0.7748897  33.12  0.003855765    1.097    0.088
        86 -10.2997     80.9215     84.1762   3.9458806653e+01   5.0592153173e+01    0.5839916    0.4290036   2.56  0.002478014    2.001    0.500
        87 -11.0365    247.0410     96.0764   7.9289878910e+00   1.3754602606e+01    0.3031894    0.1761663  28.35  0.001540078    2.992    0.666
        88 -11.2839     23.1677     94.4169   6.6697945555e+01   5.6200019189e+01    0.7243217     0.323449 -41.61  0.002782385    2.524    0.604
        89 -10.8832     18.8572     87.8746   6.7643462930e+01   5.8330193285e+01    0.7011813    0.3843202 -65.46  0.003200693    1.620    0.383
        90 -10.9576     43.2626     90.4255   5.6815513334e+01   5.5164877314e+01    0.6543198    0.3047047 -72.74  0.001745966    2.449    0.592
        91 -10.4044     35.6038     92.2846   6.0666302912e+01   5.5570268236e+01    0.5789667    0.3021839  85.83   0.00189042    2.805    0.644
        92 -10.6051     39.1053     89.9754   5.8590131984e+01   5.5793631110e+01    0.7002366    0.4413656  85.89  0.002679619    1.994    0.499
        93 -11.4167     28.2112     84.6998   6.2577945155e+01   5.8382107173e+01    0.5898933     0.434716  26.74  0.000770628    1.424    0.298
        94 -10.1364     50.2189     91.2000   5.3928642857e+01   5.4032274265e+01    0.3603538     0.284011  23.59  0.001786274    1.349    0.259
        95 -10.2631     98.2210     90.7127   3.5397919553e+01   4.5493774434e+01    0.2758314     0.244842  48.88 0.0005742876    1.120    0.108
        96 -11.6639      7.0282     88.4207   7.3330574215e+01   5.8941049980e+01    0.7835422    0.4226835  20.16  0.003679925    1.987    0.497
        97 -10.8646      2.3635     80.7819   7.4696960581e+01   6.1217750052e+01    0.5896838    0.2984724 -84.97  0.001439318    1.861    0.463
        98 -10.1260      1.8263     71.2638   7.3807836787e+01   6.3768588652e+01     2.862278    0.2551517 -55.63   0.00817432    4.667    0.786
        99 -12.5207      7.2775     63.3422   6.9523027671e+01   6.5596113572e+01      0.65906    0.2519249 -44.42 0.0004150296    2.439    0.590
       100 -12.4273      4.3265     61.2698   7.0890196780e+01   6.6273931929e+01    0.3925761    0.2371471 -37.67 0.0002351839    1.609    0.378
       101 -10.1036     66.5851     88.4116   4.6300991942e+01   5.2200200443e+01    0.3860961    0.2729411 -17.85  0.001189297    1.986    0.496
       102 -10.7449    113.5237     83.4995   2.8501394928e+01   4.3704572701e+01    0.5542891    0.3621799  77.09  0.002146789    2.278    0.561
       103  -9.4274    104.6009     86.6667   3.2146052211e+01   4.5028549561e+01    0.2311307    0.1909042  -4.37 0.0004568833    1.573    0.364
       104 -10.1118     90.5614     85.5786   3.6421736875e+01   4.8302057466e+01    0.3828055    0.2912116 -86.52  0.001695428    1.692    0.409
       105  -9.9930     52.1532     86.8178   5.1978317426e+01   5.4907372203e+01    0.2235729    0.2008547  79.84 0.0003720974    1.172    0.146
       106 -11.2723     45.0199     84.0257   5.4474030663e+01   5.6632651910e+01    0.5120457    0.4323031  83.62  0.001927136    1.289    0.224
       107 -10.0283     37.7751     85.3136   5.8156918131e+01   5.7196933568e+01    0.4027278    0.2044748  13.04  0.001547999    2.526    0.604
       108  -9.0708    139.0694     85.5303   2.2496283288e+01   3.7334005685e+01    0.2218712    0.1514813  54.58 0.0005259162    1.494    0.331
       109  -9.7265    143.2671     84.2125   2.1155656055e+01   3.6606612884e+01    0.2127128     0.201845 -35.03 0.0005648267    1.101    0.092
       110  -9.0124    162.4237     81.3603   1.6416039770e+01   3.2674220831e+01    0.1421901    0.1360131 -68.06 0.0001314125    1.036    0.035
       111  -9.7745    119.3644     79.1143   2.5498682920e+01   4.3259196057e+01    0.4477544    0.2407578 -60.21  0.001362216    2.527    0.604
       112  -9.7271    103.1021     79.3623   3.0319107357e+01   4.6969580030e+01    0.2648596    0.2115095 -39.03 0.0005802928    1.304    0.233
       113 -10.8887     89.1600     77.1016   3.4210514937e+01   5.0538353092e+01    0.5135902    0.3319732  51.60  0.001476828    1.586    0.369
       114 -10.7452     94.6367     75.4202   3.1768825951e+01   4.9719671853e+01    0.5915833    0.4288206 -77.41   0.00231296    1.836    0.455
       115 -10.9111     53.2904     76.1491   4.8480395493e+01   5.7466662082e+01    0.4908103    0.3871641 -84.66  0.002169746    1.481    0.325
       116  -9.7138     46.7596     75.0740   5.1228275916e+01   5.8705442329e+01    0.3902642    0.2225622 -42.93  0.001058353    1.823    0.451
       117 -10.8663     14.1829     74.1847   6.7651150186e+01   6.2341853019e+01     0.448542    0.2729092 -78.35  0.001726523    1.590    0.371
       118 -10.0811    245.6727     75.3349   3.7434747931e+00   1.6809940041e+01    0.1273385    0.0731115 -55.37 0.0007051744    1.721    0.419
       119  -9.5193    102.9174     74.3657   2.8737876367e+01   4.8078476750e+01    0.2822084     0.220043 -59.35  0.001324245    1.356    0.263
       120 -11.1460     27.6966     73.3462   6.0345483741e+01   6.1446254803e+01    0.4329319     0.307903 -26.77  0.001175777    1.553    0.356
       121  -9.5482     41.4946     72.4921   5.3057954939e+01   6.0079503012e+01    0.2653745    0.2502864 -28.39  0.001090821    1.063    0.059
       122 -11.2869     40.3873     68.8157   5.2543560833e+01   6.1153757843e+01    0.7216439    0.2619876  33.82  0.002607357    2.672    0.626
       123 -10.2034     80.7122     71.6698   3.5465443918e+01   5.3535258928e+01    0.4293778    0.3249132 -41.36  0.001806438    1.360    0.265
       124  -9.3913     78.4901     67.3385   3.4796456170e+01   5.4957603488e+01    0.2839545    0.1424033  43.27  0.001091807    1.976    0.494
       125  -9.3627    153.8982     72.3418   1.5468653947e+01   3.6263662233e+01    0.2150717    0.1305734  47.95 0.0007958834    1.782    0.439
       126 -10.7338     35.4327     71.7357   5.5919400433e+01   6.1027524146e+01    0.6223106    0.2362167  39.64  0.002095846    2.734    0.634
       127  -9.8620     86.2885     69.3963   3.2610193114e+01   5.2856578717e+01    0.3382699    0.2648397  -3.05  0.001534032    1.743    0.426
       128 -11.0470    122.5608     68.4616   2.1219097131e+01   4.4587466374e+01    0.4963283    0.2630143  48.70  0.001201896    1.901    0.474
       129  -9.9319    102.0473     66.5294   2.6322182931e+01   4.9891920042e+01    0.3336977    0.2426201 -32.62 0.0004948405    1.518    0.341
       130 -10.2420    105.4509     63.4914   2.4216003235e+01   4.9683944947e+01    0.3408068    0.2361964  37.32  0.001208637    1.615    0.381
       131  -9.6146     13.6084     67.3794   6.6674117897e+01   6.4171910388e+01    0.5069635    0.1679256   9.76  0.001737635    3.696    0.729
       132  -9.0603     51.7294     65.6400   4.5864964861e+01   6.0287826469e+01    0.2048711    0.1343507  42.16 0.0003622929    1.568    0.362
       133 -11.2668     92.7745     62.6388   2.7912977335e+01   5.2825682106e+01    0.5098705    0.3010439  61.65 0.0008884002    1.987    0.497
       134 -12.3484     43.7391     60.7885   4.8231977355e+01   6.2662122763e+01    0.8264739    0.4673858  26.23  0.002339342    1.882    0.469
       135 -11.1473     39.8806     56.5172   4.8807515459e+01   6.4224017838e+01    0.3454239    0.2314308  28.65 0.0008972863    1.522    0.343
       136  -9.3744    202.0435     63.3169   5.6286047153e+00   2.6770240257e+01    0.1883308    0.1658103 -57.73  0.000795595    1.046    0.044
       137 -10.3472    159.0807     62.7532   1.1691799686e+01   3.6634269181e+01     0.338167    0.2192775  46.33 0.0008777212    1.754    0.430
       138  -9.9306     58.3961     62.3653   4.1542698956e+01   5.9939585156e+01    0.3516589    0.3106628  79.89  0.001851124    1.307    0.235
       139  -9.6712     64.9735     60.9500   3.8037605377e+01   5.9056174753e+01    0.3650058     0.311159 -63.89  0.001445277    1.265    0.210
       140  -8.7731    169.3042     62.2960   9.8643083650e+00   3.4264172006e+01     0.136003    0.1134892  21.25 0.0001939837    1.582    0.368
       141  -9.2732    151.1158     60.7766   1.2527184631e+01   3.8899286534e+01     0.190572    0.1761029  15.77  0.000514178    1.308    0.235
       142  -9.9756    113.6011     60.6594   2.0905123317e+01   4.8240168479e+01    0.3001656    0.2582368 -63.24 0.0009808831    1.191    0.160
       143 -10.1286     50.7693     56.4276   4.3031128638e+01   6.2592797543e+01     0.363361    0.2674411 -53.13  0.001176921    1.366    0.268
       144 -11.8088     75.2664     55.2608   3.1496718192e+01   5.8193783490e+01    0.8045772    0.3938837 -47.72  0.003150142    2.125    0.529
       145 -11.2110     25.6647     57.2733   5.7188523240e+01   6.5747290428e+01    0.7109357    0.5074271  44.51  0.002465464    1.560    0.359
       146  -9.3331    172.4958    247.4749   4.7074026157e+01   1.9280821901e+00    0.1147633   0.08583295  11.74 0.0002164311    1.005    0.005
       147 -10.7866    124.9156     56.6068   1.6637462141e+01   4.6143549379e+01    0.4752841    0.3838547  19.36   0.00173868    1.616    0.381
       148 -10.1680    127.0664     50.6334   1.4073055794e+01   4.6595088375e+01    0.4352352    0.2297497 -30.00  0.001747167    2.119    0.528
       149 -11.7511    116.7920     48.0409   1.5526184018e+01   4.9631158059e+01    0.7102502    0.4067698  38.26   0.00164345    2.208    0.547
       150 -10.0838    125.7055    240.2679   5.5588906494e+01   8.6216804805e+00    0.2800837    0.1411957  57.11  0.001152782    3.995    0.750
       151 -10.2268    106.5563     58.1025   2.1948757044e+01   5.0436702106e+01    0.2849664    0.2085757  73.07 0.0003976554    1.531    0.347
       152 -10.0995     88.0000     56.4841   2.7222934256e+01   5.5139384949e+01    0.4383508    0.1916828 -44.40  0.001214795    2.343    0.573
       153 -10.4025     88.8474     51.6325   2.5014876547e+01   5.5868982256e+01    0.6406753    0.2340208 -45.16  0.001995514    2.885    0.653
       154 -11.2984     72.6746     46.6280   2.8949367164e+01   6.0446064787e+01    0.5086899    0.3331445 -60.94  0.002224445    1.980    0.495
       155  -9.7660    237.9089     55.6614   2.1601524086e-01   2.0764170471e+01    0.1965278     0.140185 -32.29 0.0003865945    1.280    0.219
       156 -10.3509    157.2478     54.4109   9.5072387641e+00   3.8403208352e+01    0.4906241    0.3062794 -71.81  0.001999194    1.943    0.485
       157 -10.1811    155.1160     48.6499   8.0933336215e+00   3.9802910167e+01    0.3136006    0.2083628 -24.57 0.0009916232    1.727    0.421
       158  -9.1067     33.9313     56.5469   5.2148891696e+01   6.4996334464e+01    0.2165018    0.1382233  26.98  0.001032049    1.605    0.377
       159  -9.1942     67.4228     55.0415   3.4670788000e+01   5.9854699493e+01    0.2186254    0.1455823 -45.62 0.0005564714    1.522    0.343
       160 -10.6482     60.4998     51.7024   3.6419609916e+01   6.1902601407e+01    0.8652288    0.4022948 -62.03  0.002720153    3.908    0.744
       161 -10.1447     61.5061     46.4955   3.3735962039e+01   6.2775920522e+01    0.3689342     0.249281 -24.47   0.00135301    1.816    0.449
       162  -9.3070    201.6777     52.6819   3.0059298181e+00   2.8354582944e+01    0.1889554    0.1540287  15.16 0.0009950565    1.754    0.430
       163 -10.7494     31.9463     52.6559   5.1966824611e+01   6.6170258618e+01    0.4573915    0.2541373  10.44   0.00194116    2.275    0.560
       164 -10.4470    242.9985     50.7900   3.5874868265e+02   2.0464548612e+01    0.3289242    0.1843821 -88.96   0.00183756    2.269    0.559
       165 -10.3682    145.2623     49.8284   1.0156700222e+01   4.2097712020e+01    0.5609738    0.3023549 -16.18  0.002044248    3.054    0.673
       166  -9.1879    145.6936     42.7018   7.7650681654e+00   4.3046419760e+01    0.2621066    0.1426958 -55.20 0.0002299317    1.962    0.490
       167  -9.4143     54.8661     50.5419   3.8641250909e+01   6.3186418942e+01    0.2438504    0.1932896 -16.23 0.0008420305    1.447    0.309
       168  -9.7116     52.0382     48.0101   3.8997652587e+01   6.4225365838e+01    0.2255231    0.1922119  -6.60 0.0004966593    1.266    0.210
       169  -9.4221     97.6757     49.9254   2.1478545988e+01   5.4076904780e+01    0.2042298    0.1924262 -58.12 0.0004345338    1.085    0.078
       170  -9.5396    188.8885     49.1978   3.5615786033e+00   3.1661066919e+01    0.2119689    0.1574316 -63.48 0.0004806074    1.253    0.202
       171  -8.5836    137.2956     49.3199   1.1491926095e+01   4.4196942485e+01    0.1456105     0.116671  25.70 0.0005350329    1.613    0.380
       172 -10.2607     83.1376     46.9049   2.5068887646e+01   5.8060532105e+01    0.3862084    0.2625979 -17.21  0.001407235    1.998    0.500
       173  -9.7306     27.2126     47.4600   5.3005951533e+01   6.7948892859e+01    0.2734081    0.1802587  -9.06  0.001311683    1.817    0.450
       174 -12.7241     40.9767     44.5399   4.3514264742e+01   6.6782719325e+01    0.9492217     0.373181  33.94    0.0036299    2.542    0.607
       175 -10.8566     20.3355     46.1226   5.6983368695e+01   6.8974077027e+01    0.4321725     0.253254 -37.75  0.002085592    1.682    0.405
       176 -11.0812     26.5140     42.5905   5.1619276621e+01   6.9153309251e+01    0.4014234    0.3135184  54.13 0.0008429558    1.565    0.361
       177 -10.0885     22.9038     36.9900   5.1801283495e+01   7.0819392987e+01    0.4573706    0.1862866  36.60  0.001414451    2.566    0.610
       178  -9.2163    220.4867     48.4567   1.0843377645e-01   2.5021235911e+01    0.1280611     0.102558 -51.83 0.0001350906    1.008    0.008
       179 -10.0607     12.9806     46.6735   6.2084666884e+01   6.9450836931e+01     0.444421    0.1613834 -41.17  0.001703063    2.719    0.632
       180 -10.2550     17.9638     40.6610   5.6696467781e+01   7.0478049214e+01    0.3216701    0.1565326 -42.60  0.001045459    1.935    0.483
       181  -9.1159      2.0275     48.5138   6.9951285568e+01   6.9608316407e+01    0.1850954    0.1283301   6.48   0.00101909    1.552    0.356
       182  -8.8445    161.7308     47.0041   6.5592194794e+00   3.8405595310e+01    0.1771588    0.1193099 -37.00 0.0006161271    1.435    0.303
       183  -9.7714    199.4414     44.9607   1.2866114682e+00   2.9884997057e+01    0.2868749     0.149674 -85.40  0.001271883    2.478    0.596
       184  -9.7349    138.6901     44.1101   9.4743523705e+00   4.4630945502e+01    0.3542743    0.1885041  35.94  0.001298047    2.959    0.662
       185 -10.2965    117.3524     55.2329   1.7997883748e+01   4.8279753874e+01    0.5570977    0.3578614 -85.71  0.002211229    2.302    0.566
       186 -10.0264    155.9333     42.3693   6.0148188755e+00   4.0505853246e+01     0.262296    0.2118432 -23.53 0.0008913743    1.408    0.290
       187  -9.3242     99.3415     41.6177   1.7640678533e+01   5.5069628460e+01    0.2344899    0.1737956 -78.02 0.0009173538    1.668    0.400
       188 -10.4336     56.5306     41.6312   3.3914228600e+01   6.4699960395e+01    0.3208806    0.2383872  54.41 0.0009316984    1.486    0.327
       189  -9.3419     90.9003     41.0985   1.9974856761e+01   5.7230171109e+01    0.2194513     0.195615 -82.20 0.0003410614    1.208    0.172
       190  -9.2181     68.5428     41.5133   2.8386806402e+01   6.2286331608e+01    0.1443653    0.1402324  42.32 3.336182e-05    1.034    0.033
       191 -11.4558     78.9552     35.4108   2.1488789856e+01   6.1004931316e+01    0.7460306     0.530672 -33.17  0.003498227    1.492    0.330
       192  -9.5713      3.9871     39.4708   6.6451384312e+01   7.1737007457e+01     0.266753    0.1416245  35.98  0.001289857    2.130    0.531
       193 -10.5597      3.7127     35.3259   6.5506348994e+01   7.2738420779e+01    0.4377165    0.3051983 -41.73   0.00223606    1.260    0.206
       194  -9.7840    249.6216     39.0316   3.5578717933e+02   2.0719103309e+01    0.2063703    0.1284947 -66.66 0.0006940794    1.543    0.352
       195 -10.4159     61.3743     35.5630   2.8722518954e+01   6.4865445154e+01    0.5093108    0.3026022 -26.63  0.002020019    2.044    0.511
       196 -10.1120     68.3332     32.4359   2.4154782743e+01   6.3907494040e+01    0.4607784     0.273258  54.08  0.002094571    1.671    0.402
       197 -10.6287    153.3866     35.8415   4.3399957829e+00   4.2039760472e+01    0.2865449    0.2307707 -57.60 0.0005991485    1.155    0.134
       198  -9.2737    220.1879     35.3882   3.5707388974e+02   2.6725351332e+01    0.1599374    0.1040312 -79.64 0.0002629493    1.570    0.363
       199 -10.0978    177.4040     28.7545   3.5922932284e+02   3.7011626138e+01    0.2398133    0.2235112 -22.05 0.0007992349    1.290    0.225
       200 -10.4223    175.2906     34.2703   1.0311857354e+00   3.6831871107e+01    0.4558036    0.2445365 -68.14 0.0007132812    2.075    0.518
       201 -10.5846    172.7222     30.4317   2.1781643217e-01   3.7933710156e+01    0.4906641    0.1850679  75.04  0.001888771    2.802    0.643
       202 -10.8957    146.9672    238.2927   5.0925011317e+01   6.2783784366e+00    0.3262587    0.2394361  72.60  0.001852465    2.697    0.629
       203 -10.4050    131.9537    240.4935   5.4297353659e+01   7.8068943425e+00    0.1927156   0.09646835  29.07  0.001024573    1.591    0.372
       204 -11.5276    114.9549     24.6486   6.9255602834e+00   5.3455677205e+01     0.410299    0.2727287  52.52   0.00111828    1.474    0.322
       205 -10.4679     10.1303     31.3011   5.9092158518e+01   7.3274362869e+01    0.5273976    0.2509827 -43.14  0.002179303    1.885    0.469
       206  -9.8793    239.2702     32.5549   3.5507998612e+02   2.3354102502e+01    0.3418017     0.135738  60.45  0.001699878    3.022    0.669
       207  -9.5762    217.0257     32.0183   3.5652444314e+02   2.7777890157e+01    0.1896955    0.1495357 -54.40 0.0003366322    1.006    0.006
       208  -8.9872    201.9787     32.4627   3.5786677689e+02   3.0921748657e+01    0.1723695    0.1198195  82.90 6.112747e-05    1.468    0.319
       209 -10.0273     45.4210     24.7885   3.1121207764e+01   6.9874860930e+01    0.3620251    0.1542542 -33.92  0.001058375    2.664    0.625
       210 -10.0796     76.6114    239.4135   6.6261238545e+01   1.4792399893e+01    0.2669824    0.2034784  15.03  0.001716275    1.366    0.268
       211 -11.5822     49.1295     29.9373   3.1914423501e+01   6.8285156069e+01    0.7178617    0.3534851  34.31  0.002393991    2.168    0.539
       212 -10.4558    169.4201     22.9922   3.5840147497e+02   3.9629343082e+01    0.2716309    0.1809998  78.21 0.0005966669    1.439    0.305
       213 -10.6025     67.9312    240.0755   6.8254453967e+01   1.5682797822e+01    0.2548019    0.1541655   3.38  0.001301491    2.426    0.588
       214 -10.3292     72.2171    238.1424   6.7145920378e+01   1.5539674316e+01    0.2521414    0.2037155  88.65  0.001703666    1.467    0.318
       215 -10.6902    157.0099     28.9962   1.6783144751e+00   4.2001252869e+01    0.3483997    0.2861364 -64.00 0.0006856331    1.103    0.093
       216  -9.6906    135.8051     30.5649   5.3199376719e+00   4.7250604853e+01    0.2477729    0.1933659 -54.95 0.0007362894    1.246    0.198
       217 -12.2038    127.0801     28.5129   6.0970155205e+00   4.9792105908e+01    0.7659148    0.4085771  79.73  0.001493484    2.046    0.511
       218  -9.2254     36.2687     30.9576   3.9981698686e+01   7.0311118002e+01    0.1868082    0.1635933 -29.31 0.0005438426    1.110    0.099
       219 -11.6216     26.5482     27.8481   4.4949667741e+01   7.2325842350e+01    0.4849491    0.3497165 -61.93  0.002028623    1.659    0.397
       220  -9.2263     15.5061    233.5296   7.9619286203e+01   2.2381971638e+01     0.117701   0.09074146  48.41 0.0001539123    1.041    0.040
       221  -9.8294     13.7211     22.7689   5.2410673835e+01   7.4834151030e+01    0.2077672    0.1999377  56.83 0.0006720058    1.290    0.225
       222  -9.2319      6.6199     30.6932   6.1701205742e+01   7.3652905177e+01    0.2740331    0.1478796 -19.25 0.0008498878    2.004    0.501
       223 -10.6292    188.9679     27.3490   3.5770468308e+02   3.4464102040e+01    0.3631582     0.290354  41.76  0.001541247    1.650    0.394
       224 -11.1296    183.4961     25.8549   3.5781112205e+02   3.5914333964e+01    0.3990451    0.2525546 -58.88  0.001351539    1.415    0.294
       225 -10.4472    229.7296     27.2290   3.5452315470e+02   2.5790779029e+01    0.2254196    0.1907349  67.92 0.0008162505    1.466    0.318
       226  -9.9291    200.5085     28.0044   3.5686199617e+02   3.1781856205e+01    0.1582889    0.1116784   5.67  0.000472202    2.337    0.572
       227 -10.5723    155.2169     22.9060   3.5998014862e+02   4.3184509596e+01    0.5107741    0.3174604 -52.20  0.002551875    1.507    0.337
       228 -10.5146    149.5241     22.4805   5.5556561386e-01   4.4686065225e+01     0.445767    0.2030329  78.18  0.001830774    2.224    0.550
       229 -10.4512    150.9034     27.3721   1.9685967980e+00   4.3751548375e+01    0.3917937    0.2080547  54.50   0.00175263    1.962    0.490
       230  -8.7516     23.6589    231.3085   7.7720600362e+01   2.2057747002e+01     0.133448   0.06143822  51.33 0.0003045556    1.690    0.408
       231  -9.7608    250.5677     27.0450   3.5323818580e+02   2.1931123706e+01    0.1657678   0.08845299 -35.13 0.0003263296    1.498    0.332
       232  -9.5501     97.9185     26.0968   1.1419518361e+01   5.7695496401e+01    0.2252219    0.1913449 -81.46 0.0005664359    1.239    0.193
       233  -8.8078    189.7195    229.6483   4.1440423663e+01   2.3206082853e+00     0.118863   0.07278335  -5.60 0.0004245685    1.651    0.394
       234 -10.5346      8.8778    211.1070   8.0391023149e+01   2.7568221603e+01    0.2073542    0.1298752  53.79 0.0009334028    1.249    0.199
       235  -9.0277    171.3556    208.3141   4.1768331705e+01   7.7699850527e+00    0.1321566   0.08470163  -1.62 0.0004396911    1.740    0.425
       236  -9.3523     86.0086     23.6701   1.3608159846e+01   6.1020293089e+01      0.19744    0.1651323  56.99 0.0002339309    1.105    0.095
       237 -10.8103    178.3727     21.0064   3.5694355705e+02   3.7689009082e+01    0.4124456    0.2591035  44.51  0.001938631    2.121    0.529
       238  -9.7685     40.0133    207.1888   7.2551183615e+01   2.5429089376e+01     0.199808    0.1177635  64.88  0.001053346    1.635    0.388
       239 -10.2593      4.1926    204.9173   8.1321881110e+01   2.9301813987e+01    0.2101963    0.1523201 -66.67 0.0009057894    1.620    0.383
       240 -10.9414      6.0121    198.9448   8.0684351543e+01   3.0479718637e+01    0.3879891   0.09954926 -67.50  0.001473556    3.934    0.746
       241 -10.3865      4.9376     22.2497   5.9899894864e+01   7.5651264155e+01    0.4090852    0.2272518  18.28  0.002150581    1.822    0.451
       242  -9.5575     16.0212    190.2542   7.7762670746e+01   3.1623533770e+01    0.2454768    0.1359383  69.85 0.0009395086    1.652    0.395
       243 -12.2376      4.7478    183.8860   8.0482362270e+01   3.4054555120e+01    0.6516605    0.4258196  74.43  0.003764916    1.336    0.251
       244  -8.8253    139.6748    182.7148   4.4448617753e+01   1.6952597093e+01    0.1393975    0.1018583  -2.40  0.000391656    1.603    0.376
       245  -9.5351     28.1645    175.8448   7.3576389815e+01   3.3959869137e+01    0.1774944    0.1589867 -52.10 0.0008149281    1.327    0.247
       246 -10.3010    245.7719     20.6851   3.5217052477e+02   2.3496479959e+01     0.215067    0.1601532  33.13  0.001383417    2.256    0.557
       247  -9.9074    216.6755     19.9819   3.5370158395e+02   2.9239805941e+01    0.1750989    0.1296386 -47.09 0.0003741104    1.112    0.101
       248  -9.7479     46.2088     19.9393   2.7841028130e+01   7.0518347495e+01    0.2492816    0.1833736  41.90  0.001087784    1.287    0.223
       249  -9.7417     74.9564     19.0503   1.4810337106e+01   6.4322905231e+01    0.2275759    0.1580953  27.29 0.0008461723    1.666    0.400
       250  -9.5153     89.2957     16.3424   9.1669935401e+00   6.1091528368e+01    0.2237298    0.1478212  37.11 0.0007076965    1.655    0.396
       251 -10.3859     15.9247    173.7541   7.6939184330e+01   3.5596729388e+01    0.3001167    0.1738521  86.18  0.001523336    1.635    0.388
       252 -11.8824      8.8720    166.7253   7.8603764912e+01   3.7917666875e+01    0.5912388    0.2715038  34.34  0.002513547    1.893    0.472
       253 -12.2982     12.6819    160.8141   7.7158240793e+01   3.9114819557e+01    0.5336949    0.4162832 -46.33  0.002416542    1.533    0.348
       254 -10.3709     18.1636    165.1885   7.5778711326e+01   3.7547508646e+01     0.330718    0.2009686 -70.21  0.001687702    1.632    0.387
       255  -9.8016    147.7231     15.8634   3.5859737830e+02   4.5884037154e+01    0.2541592    0.1720359  64.59  0.001322037    1.432    0.302
       256 -10.7370    186.6751     14.8855   3.5454673079e+02   3.6405328272e+01    0.2349772    0.1697993 -83.32  0.000715138    1.262    0.207
       257  -8.8480    156.7029    165.6755   3.7503133976e+01   1.7485986406e+01    0.1426222    0.1035458  -7.43 0.0007023599    1.626    0.385
       258 -10.3137    205.0657    162.9426   2.7459728706e+01   1.0217212535e+01    0.1961872    0.1634767 -16.06 0.0006313755    1.017    0.016
       259 -10.0224    214.9828    161.4824   2.5508972311e+01   8.9852006478e+00    0.1884848    0.1443897 -25.09 0.0004295969    1.107    0.097
       260  -9.8702    211.0492     16.0161   3.5311724229e+02   3.0856222976e+01    0.1855695    0.1436819 -57.03            0    1.016    0.016
       261 -10.6494     28.2672    160.3898   7.2366269981e+01   3.7852265967e+01    0.2972952    0.2050798  67.81  0.001550605    1.350    0.259
       262  -9.6687    104.5706    154.2684   4.8397355024e+01   2.8939280857e+01    0.2761382    0.1511753 -61.95  0.001124714    2.055    0.513
       263 -10.2955      9.5046    154.9100   7.7794367933e+01   4.0875662541e+01    0.2395713    0.1603331  55.82  0.001287549    1.320    0.243
       264 -11.1662     47.0952    147.7126   6.5052964726e+01   3.9149192134e+01    0.7494793    0.4144273 -53.79  0.003282923    1.896    0.472
       265 -11.4829     16.7513    148.2660   7.5067778700e+01   4.2046531818e+01     1.008219    0.3165434  85.70  0.003136076    4.034    0.752
       266 -11.2731     21.2172    150.5662   7.3797242952e+01   4.1063721847e+01    0.2896417    0.2425061 -56.98 0.0003894774    1.309    0.236
       267 -11.2797     23.9934    147.9856   7.2682762394e+01   4.1499335761e+01    0.3336306    0.2710212  72.40 0.0007159337    1.110    0.099
       268 -10.8022      4.1356    153.2207   7.9369497917e+01   4.1693540678e+01    0.3442071    0.1777183  30.56  0.001599708    1.823    0.452
       269  -9.2688     55.4243    152.7114   6.3000931507e+01   3.6800937926e+01    0.1948323    0.1330471 -58.75 0.0008586165    1.507    0.336
       270  -9.5818     61.2949    151.4537   6.0961640012e+01   3.6354437876e+01    0.2816219    0.1478106  23.00  0.001136275    2.084    0.520
       271 -11.3852     12.3547    135.7231   7.5616689716e+01   4.5726965391e+01    0.6978732    0.4796655 -63.81  0.003670204    1.431    0.301
       272 -10.2852    104.1758    147.2536   4.7186939964e+01   3.0678446907e+01    0.2619822    0.2304009 -86.33  0.001358592    1.245    0.197
       273 -12.1603      3.2209    142.2613   7.9110105087e+01   4.4607191233e+01    0.8946289    0.5163499  44.43  0.004545026    1.587    0.370
       274 -10.5201     33.1062    143.9790   6.9273222193e+01   4.1693739682e+01    0.3115586    0.2756756 -87.26 0.0008158454    1.080    0.074
       275 -11.0002     40.9915    138.3053   6.5923885253e+01   4.2377293839e+01     0.438649    0.3675782  50.83  0.001434167    1.135    0.119
       276  -9.6467     26.4314    131.4685   7.0256503418e+01   4.5724754549e+01    0.2564626    0.2144429 -51.35 0.0005394769    1.283    0.221
       277 -11.3193     24.4643    136.2199   7.1442973091e+01   4.4611682389e+01    0.5942382    0.3639528 -29.10  0.002667704    2.199    0.545
       278 -10.2239     20.4828    134.0084   7.2630556186e+01   4.5555215340e+01    0.3452308    0.2888087 -58.33  0.001196072    1.250    0.200
       279 -10.6920     30.4496    132.5406   6.8934817936e+01   4.5051841117e+01     0.390799     0.285573 -25.12 0.0009276706    1.724    0.420
       280  -9.0324    103.9608    130.5418   4.3801456615e+01   3.4761039014e+01    0.2257087    0.1510395  37.61 0.0003511854    1.475    0.322
       281 -10.8645     11.2909    124.9549   7.5153496431e+01   4.8713603101e+01    0.5651593      0.26994 -49.94  0.002412397    2.230    0.552
       282 -10.5066     22.6744    125.5241   7.0990918318e+01   4.7682920324e+01    0.5986981     0.272623  56.67  0.002048583    2.355    0.575
       283  -9.9432     26.7128    127.0468   6.9664168988e+01   4.6907628103e+01     0.272556    0.2308117 -72.97 0.0002692595    1.131    0.116
       284  -9.5891     27.3322    123.7215   6.9045026111e+01   4.7762987116e+01    0.2172655    0.1399393  31.00 0.0003328325    1.558    0.358
       285  -9.6146      2.1347    125.7012   7.8547875867e+01   4.9078716941e+01    0.2558551    0.1632208  78.29  0.001308218    1.423    0.297
       286  -8.7328     97.5928    124.4848   4.4389165656e+01   3.7439249489e+01    0.1536072    0.1512088 -83.15 0.0001451098    1.026    0.025
       287 -10.6884    104.8621    122.4270   4.1688480155e+01   3.6561309577e+01    0.3634044     0.329093  69.54  0.000918505    1.143    0.125
       288  -9.8862     49.1146    122.7188   6.0733874741e+01   4.5647488659e+01    0.3502285    0.2363476   4.47  0.001542821    1.932    0.482
       289 -10.2199     43.6086    116.9277   6.1853775350e+01   4.7910908208e+01      0.45374    0.2437228 -79.27  0.001327455    2.004    0.501
       290 -10.3986     58.6193    115.3220   5.5828148126e+01   4.6368706090e+01    0.3272176    0.2508143 -70.51 0.0002839601    1.291    0.225
       291 -10.3045    244.0051    116.5028   1.2441952241e+01   1.1354829476e+01    0.1469131    0.1035657 -82.50 0.0008105946    2.570    0.611
       292 -11.5882     15.4000    109.3315   7.2059297621e+01   5.2704634928e+01    0.7560572    0.5040879 -34.38  0.002174334    1.722    0.419
       293 -10.8762     35.4977    102.8155   6.2711981063e+01   5.2709346679e+01    0.7650122    0.3227584  10.17  0.002118439    3.595    0.722
