#   1 NUMBER                 Running object number                                     
#   2 MAG_AUTO               Kron-like elliptical aperture magnitude                    [mag]
#   3 X_IMAGE                Object position along x                                    [pixel]
#   4 Y_IMAGE                Object position along y                                    [pixel]
#   5 X_WORLD                Barycenter position along world x axis                     [deg]
#   6 Y_WORLD                Barycenter position along world y axis                     [deg]
#   7 A_WORLD                Profile RMS along major axis (world units)                 [deg]
#   8 B_WORLD                Profile RMS along minor axis (world units)                 [deg]
#   9 THETA_WORLD            Position angle (CCW/world-x)                               [deg]
#  10 FWHM_WORLD             FWHM assuming a gaussian core                              [deg]
#  11 ELONGATION             A_IMAGE/B_IMAGE                                           
#  12 ELLIPTICITY            1 - B_IMAGE/A_IMAGE                                       
         1 -14.0240    192.3744     23.4516   6.7807830492e+01   3.4416026596e+01     1.798607     1.311921  -0.98  0.007701916    2.010    0.502
         2 -13.8357    198.9037     18.1182   6.5623693955e+01   3.3429050276e+01     1.517194    0.9981387 -42.44  0.005642549    1.575    0.365
         3 -13.8284    205.1308     10.8139   6.3122874859e+01   3.2726035020e+01     1.357006    0.7643397  51.69  0.001717201    1.879    0.468
         4 -13.3088      4.3597     11.1778   1.1637868469e+02   7.0582492133e+01     1.482868    0.3895381 -41.70  0.007430774    2.758    0.637
         5 -11.0845     16.9745      2.4795   1.0677200988e+02   7.0712250739e+01    0.1797715    0.1461362 -10.95  0.001460973    1.291    0.226
         6 -14.3408    103.0005    246.3504   1.3508037715e+02   1.0383053319e+01     2.726084    0.7974277  45.47   0.01130255    2.728    0.633
         7 -11.3386    248.4520    249.8510   1.0864808603e+02  -1.4042851786e+01    0.3855942    0.1800257  36.80   0.00210926    1.855    0.461
         8 -11.7203     85.5004    239.9945   1.3762349063e+02   1.4262768716e+01    0.2331447    0.1786071  87.16 0.0007162589    1.203    0.169
         9 -13.1335     81.5376    235.5440   1.3790280137e+02   1.5704019641e+01    0.9556127    0.4245173  67.65  0.002706402    2.902    0.655
        10 -15.0859     34.4349    247.2792   1.4703999496e+02   1.9798374869e+01     9.135526     2.672729  33.56   0.03204219    6.741    0.852
        11 -14.9003      5.9628    150.5692   1.4460701625e+02   4.2811064258e+01     2.315218     1.332165 -83.92   0.00159982    1.416    0.294
        12 -13.8746     45.4442    227.9591   1.4375356182e+02   2.2151593903e+01    0.7291019    0.4124897  70.49  0.002052441    1.529    0.346
        13 -15.4936     53.1754    214.2550   1.4112632510e+02   2.3952354010e+01     4.641742     1.910333  55.69   0.02242121    2.266    0.559
        14 -10.1674    229.3007    206.7073   1.0445620485e+02  -5.1000186398e+00    0.2707162     0.214603 -61.29  0.001012087    1.857    0.461
        15 -15.4507      3.3910    231.9386   1.5107080505e+02   2.6067031122e+01     10.09267          nan -70.69   0.03110571    7.926    0.874
        16 -10.3927    192.6228    194.2702   1.0924104861e+02   3.8094540599e+00     0.814665    0.3807887 -62.28  0.002108412    6.919    0.855
        17 -11.7779     69.1137    193.6441   1.3570597129e+02   2.6228882518e+01    0.3952036    0.2525896 -45.84  0.002059347    2.082    0.520
        18 -11.8094     73.9403    186.6056   1.3377563020e+02   2.7111700436e+01    0.3096534    0.2278477 -54.17 0.0007183033    1.500    0.333
        19  -8.7551    181.4813    192.4522   1.1119163085e+02   6.3450878512e+00    0.1435767    0.1333215  35.18 0.0001300146    1.008    0.008
        20 -11.1472     82.7027    174.7840   1.3013934405e+02   2.8504960885e+01    0.2521202    0.2141089 -69.02 0.0004531384    1.146    0.127
        21 -13.4012     70.3061    172.0974   1.3259714557e+02   3.0951658236e+01    0.5052243    0.2826456 -44.39  0.001930112    2.293    0.564
        22 -12.1956     67.6180    233.8908   1.4029092349e+02   1.8037041465e+01    0.4093581    0.2709317  65.64   0.00180761    1.235    0.190
        23 -12.6388     57.9540    131.3396   1.2914697367e+02   4.2163607732e+01     2.026646    0.6741784 -72.31  0.004691423    7.941    0.874
        24 -13.1856     67.7553    144.8140   1.2894523232e+02   3.7714655981e+01     1.173791    0.6555624 -87.96  0.002500958    2.589    0.614
        25 -12.1261     33.5311    156.3738   1.3899745875e+02   3.9065362191e+01     0.449164    0.2447651 -72.71  0.002429875    1.527    0.345
        26  -9.5299    104.1110    145.7826   1.1982780247e+02   3.1776685588e+01    0.3385609    0.1857791 -35.51   0.00129584    2.599    0.615
        27 -12.1774     90.1815    149.2985   1.2404607856e+02   3.3307579874e+01    0.2901738     0.247822 -40.64 0.0005292572    1.316    0.240
        28 -11.6898     42.9030    148.8532   1.3578370488e+02   3.9813686099e+01    0.3800583    0.2330284  61.60  0.001628638    1.822    0.451
        29 -10.1588    101.3503    149.9415   1.2135140419e+02   3.1281718877e+01    0.2900691    0.2587061 -58.04 0.0006945967    1.113    0.102
        30  -9.7452    111.6450    135.6763   1.1575620596e+02   3.2772841968e+01    0.3123823    0.2391593 -16.40  0.001249433    1.831    0.454
        31 -10.6384     99.2538    132.7908   1.1837396051e+02   3.5682152207e+01     0.284165    0.2268806 -33.37 0.0004421273    1.424    0.298
        32 -14.3660     10.3394    206.6857   1.4837148627e+02   3.0369502981e+01      1.59036     1.084417 -68.47  0.002423125    1.485    0.326
        33 -11.9474     44.2182    128.5781   1.3234248079e+02   4.4389677654e+01    0.4427298    0.2265982 -74.91  0.002065386    2.038    0.509
        34 -10.6233    173.3450    220.5275   1.1785547502e+02   2.7670137079e+00    0.2517298    0.1779261 -40.80  0.001364503    1.618    0.382
        35  -9.4723    108.1900    123.0709   1.1379336940e+02   3.6333153282e+01     0.207572    0.1913039 -30.07 0.0003077719    1.156    0.135
        36 -11.2415    168.0551    113.0491   9.6344516036e+01   2.5672692480e+01    0.3738344    0.3163628 -80.64 0.0007246828    1.338    0.253
        37 -12.6046     88.5592    165.9271   1.2736672337e+02   2.9649812881e+01      1.94218    0.6561248  52.71  0.006169544    3.986    0.749
        38  -9.5696    204.5428    110.8418   8.8233642040e+01   1.7468674039e+01    0.3295901    0.1945598  37.73  0.001335305    2.049    0.512
        39 -12.0127      2.4078     78.3791   1.3573064167e+02   5.8722337865e+01    0.7186283   0.07155716 -59.48  0.002618484    3.929    0.746
        40  -9.5425    155.5399     76.5053   8.9197177086e+01   3.5759566860e+01    0.1506325    0.1465834  75.00 4.340405e-05    1.021    0.021
        41 -10.1941    128.4177     54.6744   8.8988383808e+01   4.5731640182e+01     0.266488    0.2304218  86.39 0.0005862152    1.407    0.289
        42 -10.9867    121.1863     50.1532   8.9350806358e+01   4.8016022776e+01    0.4132843    0.2796802  77.15 0.0009166441    2.292    0.564
        43 -12.3517    139.2401    248.3194   1.2857255832e+02   4.0642227459e+00    0.4519868     0.369309  81.78  0.002934511    1.338    0.253
        44 -10.1510    202.4931    249.5096   1.1686922399e+02  -6.8748279371e+00    0.1247729    0.1012454  29.16 0.0008105777    1.004    0.004
        45 -11.4206     89.6351    245.1090   1.3738549912e+02   1.2684630042e+01    0.4139817     0.219621  68.57  0.002163666    1.984    0.496
        46 -12.7403     57.2678    225.6636   1.4142242679e+02   2.1081292844e+01    0.7584208    0.4574964 -45.16  0.003997121    2.843    0.648
        47  -8.7309     33.3188     24.6771   1.0895989040e+02   6.6126250317e+01    0.0950931   0.09085038 -46.81 0.0004187359    1.670    0.401
