#   1 NUMBER                 Running object number                                     
#   2 MAG_AUTO               Kron-like elliptical aperture magnitude                    [mag]
#   3 X_IMAGE                Object position along x                                    [pixel]
#   4 Y_IMAGE                Object position along y                                    [pixel]
#   5 X_WORLD                Barycenter position along world x axis                     [deg]
#   6 Y_WORLD                Barycenter position along world y axis                     [deg]
#   7 A_WORLD                Profile RMS along major axis (world units)                 [deg]
#   8 B_WORLD                Profile RMS along minor axis (world units)                 [deg]
#   9 THETA_WORLD            Position angle (CCW/world-x)                               [deg]
#  10 FWHM_WORLD             FWHM assuming a gaussian core                              [deg]
#  11 ELONGATION             A_IMAGE/B_IMAGE                                           
#  12 ELLIPTICITY            1 - B_IMAGE/A_IMAGE                                       
         1 -16.8229      9.8384    104.3909   1.3269187023e+02   5.3301363286e+01      6.55324    0.8587651 -61.53   0.02192442    4.025    0.752
         2 -14.0672    145.8001     65.9687   8.1497045117e+01   3.9810966245e+01     1.324686     1.125383 -60.37   0.00204176    1.274    0.215
         3 -13.7459    155.6503     51.6405   7.5396791449e+01   3.9683180051e+01     1.457154      1.04252  66.56  0.005486528    1.346    0.257
         4 -14.6136    125.4041     43.4964   7.9396100125e+01   4.7791333484e+01     1.763543     1.411144 -64.42  0.009850893    1.557    0.358
         5 -13.3302    166.7371     21.9966   6.5462606635e+01   4.0784405375e+01    0.9065433    0.7552696  78.55  0.004017284    1.052    0.049
         6  99.0000     97.7717      8.0069   7.4137866783e+01   5.7530943841e+01     7.254675     1.739498  60.28   0.02397521    4.575    0.781
         7 -12.0696    174.8880    220.0625   1.1066208518e+02   1.7856660936e+00    0.3435104    0.2926232 -65.76  0.001175401    1.422    0.297
         8 -10.3795    134.9803    250.0462   1.2358477514e+02   3.0917765976e+00    0.1932355    0.1674365  46.55 0.0003680333    1.022    0.021
         9 -14.7772     56.5853    244.9935   1.3847008436e+02   1.6068826185e+01    0.4421491    0.3317482 -66.37  0.001675422    1.480    0.324
        10 -19.5533     79.9301    224.9070   1.3177879958e+02   1.6971438046e+01     5.924135      4.91994  48.04   0.02479411    1.214    0.177
        11 -12.8323    188.8648    178.2903   9.9706632891e+01   7.4630245093e+00    0.7074555    0.4839673 -53.05  0.001713036    1.566    0.362
        12 -11.7228    185.1643    170.2752   9.8813308243e+01   9.8677309980e+00    0.4809536    0.3277143 -61.00  0.001525626    1.762    0.432
        13 -10.8825     17.3981    188.9778   1.4127718557e+02   3.2956088655e+01    0.2847422    0.1704561 -71.89  0.001088691    1.381    0.276
        14 -12.1311    165.7834    217.4018   1.1213288437e+02   3.9245618707e+00    0.3296271    0.2962998   4.21 0.0004103785    1.173    0.147
        15 -11.3798    195.0007    173.5891   9.7437052390e+01   7.2217109664e+00    0.5123872    0.3270962 -53.29  0.001769317    1.703    0.413
        16 -12.7196    189.9213    158.6764   9.5292112514e+01   1.1338829525e+01     1.244277    0.5583761 -51.83  0.004121898    2.468    0.595
        17 -12.5725    177.3085    171.0312   1.0067971416e+02   1.1295880995e+01    0.9499597    0.3945949 -60.39  0.002422397    5.464    0.817
        18 -10.5407    207.4509    172.2895   9.4631016373e+01   5.0644820363e+00    0.3580297    0.2271808 -59.71  0.001249991    2.036    0.509
        19 -10.8022      9.3863    212.9893   1.4482996914e+02   2.8355391738e+01    0.2113979    0.1627228 -84.04 0.0005024678    1.157    0.136
        20 -11.0516    151.6337    240.8287   1.1888047765e+02   1.9760219886e+00    0.3243048     0.288361 -12.06  0.001212982    1.311    0.237
        21 -10.7657     57.0244    165.1352   1.2915695663e+02   3.4244042667e+01    0.2468124    0.2266052  -9.90 0.0003502335    1.393    0.282
        22 -11.1238     15.3097    196.5009   1.4237659018e+02   3.1438820826e+01    0.2160805    0.1708807 -67.45 0.0006127936    1.309    0.236
        23 -10.8456     48.8355    158.4413   1.3025194869e+02   3.6903426697e+01      0.38885    0.2228854 -59.80  0.001307048    1.519    0.342
        24 -10.8366     37.1066    160.0233   1.3346660464e+02   3.7840093118e+01    0.4194226    0.2173952 -69.52  0.001164322    1.653    0.395
        25 -13.0037     11.4520    207.0496   1.4399563637e+02   2.9454016986e+01    0.4686205    0.3832002  31.43  0.001930396    1.632    0.387
        26 -10.0622     67.8933    156.6192   1.2497621026e+02   3.4888379814e+01    0.3324157    0.1859059 -62.32  0.001519122    1.622    0.383
        27 -12.0952    134.0805    148.1020   1.0585233627e+02   2.5416427249e+01     1.487489    0.3875427 -55.70  0.003264299    6.196    0.839
        28 -10.2933    215.4402    153.1181   8.8974301048e+01   7.3025503310e+00    0.2335102    0.2077755  56.81 0.0003443141    1.244    0.196
        29 -10.8719     23.0738    192.5735   1.4040170154e+02   3.1563222313e+01     0.219967    0.1432559 -68.21 0.0005570828    1.358    0.263
        30 -11.8171    143.7779    146.9035   1.0316690010e+02   2.3689781279e+01    0.6775897    0.3633715 -67.93  0.002197848    3.164    0.684
        31 -12.0580     47.1193    147.1392   1.2895978231e+02   3.9876638061e+01    0.4920365    0.3763425  26.66  0.002090698    1.557    0.358
        32  -9.8326     91.0897    147.9183   1.1712459696e+02   3.3492771028e+01     0.236592    0.1939784  89.85 0.0009570573    1.325    0.245
        33 -12.4647    174.3877    186.6956   1.0454347425e+02   8.5485596586e+00    0.6470285    0.3447919 -63.27  0.002324457    2.986    0.665
        34 -10.2328     41.1887    147.6300   1.3062865579e+02   4.0420111217e+01    0.2533871    0.1864473 -43.56 0.0007681718    1.444    0.308
        35 -11.9944    135.9973    132.6460   1.0176969497e+02   2.8621799354e+01     1.168484     0.222081 -50.22  0.002546188    6.023    0.834
        36 -11.0283    135.2464    122.2547   9.9405001984e+01   3.1142363831e+01    0.5380345     0.201885 -51.28  0.001713875    2.858    0.650
        37  -9.1568    234.7778    135.3651   8.1682395915e+01   6.9374962139e+00    0.1812816    0.1331554  38.28 0.0005480607    1.590    0.371
        38 -11.4798    160.7565    129.3316   9.4942785327e+01   2.3985731574e+01    0.4446218    0.3428205 -58.67  0.001933137    1.351    0.260
        39 -11.5061    210.0118    188.5187   9.7455980978e+01   1.4397511956e+00     0.273108    0.1994163 -56.07  0.001274903    1.620    0.383
        40 -11.9005    164.6560    188.5226   1.0706209481e+02   1.0058423553e+01    0.3041279    0.2860601 -47.01 0.0002480862    1.088    0.081
        41 -11.2744    122.7019    127.5827   1.0399874334e+02   3.2538469849e+01    0.3473425    0.2959065  42.85 0.0009609723    1.204    0.169
        42 -10.2397    101.9489    127.8350   1.0973413941e+02   3.6469441411e+01    0.4758997    0.2051057  49.04  0.001671266    2.719    0.632
        43  -9.7946    140.0352    121.4859   9.7998330476e+01   3.0283209161e+01    0.2381711    0.1548952  48.65 0.0006976669    1.567    0.362
        44  -9.9068    115.6660    117.8585   1.0348283510e+02   3.6177553396e+01    0.2213774    0.1906076 -51.70 0.0007855229    1.138    0.121
        45  -9.8766    106.0313    115.4866   1.0556649932e+02   3.8581568709e+01    0.2836195    0.2088601 -64.09 0.0008970938    1.510    0.338
        46 -10.8114    134.6475    113.0592   9.7207926601e+01   3.3303113696e+01    0.5637091    0.1524097 -46.37  0.001580854    3.687    0.729
        47 -11.0961    134.4876    106.5123   9.5526263951e+01   3.4743299841e+01    0.5516965    0.1500186 -45.29  0.001566858    3.663    0.727
        48  -9.7857    167.4709    113.5232   8.9499331968e+01   2.5844497840e+01    0.3592441    0.2379421 -81.80  0.001376359    2.427    0.588
        49  -9.9483     62.4291    109.3460   1.1711998886e+02   4.7042891504e+01     0.478184    0.2482411 -36.96  0.002053714    2.123    0.529
        50 -11.5296     14.9227    219.3730   1.4424600053e+02   2.6421759134e+01    0.4256027    0.2375841 -71.96   0.00170353    1.562    0.360
        51  -9.8880    231.1144     79.9898   7.0152355060e+01   1.7657311391e+01     0.203851     0.177726 -67.75 0.0003488627    1.015    0.014
        52 -12.0314    241.4823    242.5109   1.0152694138e+02  -1.2491470775e+01    0.2209023    0.1933822   0.50 6.393473e-05    1.186    0.157
        53 -11.1906     16.4369    211.8592   1.4339531387e+02   2.7898463432e+01    0.5457588    0.2085443 -84.00  0.002491514    2.512    0.602
        54 -12.4725    160.0675     42.5279   7.2052065728e+01   3.9890773076e+01    0.4790938    0.4296192  78.80 0.0007345223    1.044    0.042
        55 -11.1856    117.9552     71.7420   8.9980115297e+01   4.5066756563e+01    0.2026015    0.1827821  43.16  0.000292536    1.083    0.076
        56 -15.3403     51.9189    216.5130   1.3669555442e+02   2.2748705260e+01    0.7132559    0.5514287 -46.02  0.004283745    1.740    0.425
        57 -11.6498      4.8303    226.5908   1.4657335163e+02   2.5907598688e+01    0.4413533    0.2438158  81.34  0.002514527    1.462    0.316
