#   1 NUMBER                 Running object number                                     
#   2 MAG_AUTO               Kron-like elliptical aperture magnitude                    [mag]
#   3 X_IMAGE                Object position along x                                    [pixel]
#   4 Y_IMAGE                Object position along y                                    [pixel]
#   5 X_WORLD                Barycenter position along world x axis                     [deg]
#   6 Y_WORLD                Barycenter position along world y axis                     [deg]
#   7 A_WORLD                Profile RMS along major axis (world units)                 [deg]
#   8 B_WORLD                Profile RMS along minor axis (world units)                 [deg]
#   9 THETA_WORLD            Position angle (CCW/world-x)                               [deg]
#  10 FWHM_WORLD             FWHM assuming a gaussian core                              [deg]
#  11 ELONGATION             A_IMAGE/B_IMAGE                                           
#  12 ELLIPTICITY            1 - B_IMAGE/A_IMAGE                                       
         1 -12.3408    248.9457     91.0407   8.3786051180e+01   1.2506919462e+01     2.293264    0.4730794 -25.89  0.006623437    5.006    0.800
         2 -10.2511    250.2097     38.9361   7.0976852132e+01   1.8298781317e+01    0.6013128    0.1421506 -27.33  0.002105216    3.307    0.698
         3  -9.1388    249.3596      4.9319   6.2629084498e+01   2.1855893921e+01    0.3608287    0.1389642 -29.48   0.00164776    2.101    0.524
         4  -8.0408    243.6624      5.6836   6.3180768709e+01   2.3031239026e+01    0.1257944    0.0921837  31.54 0.0007048203    1.700    0.412
         5  -7.7501    181.6324    237.7900   1.2199955797e+02   5.7208506616e+00     0.116013    0.1036106 -44.06 0.0009460172    1.657    0.396
         6  -7.4148      7.0360    233.2433   1.5224800802e+02   2.7475731023e+01    0.1128533   0.06097207  39.48 0.0003995645    1.496    0.332
         7  -8.3111    138.5234    228.4417   1.2845263861e+02   1.2878911490e+01    0.1126716   0.08385522  40.34 0.0001204812    1.036    0.035
         8  -7.7509     65.6513    228.2984   1.4177647115e+02   2.2342301192e+01     0.113519   0.05613977  56.42 0.0001914502    1.684    0.406
         9  -7.9558     49.7332    222.1995   1.4431749063e+02   2.5088481738e+01    0.1743913   0.09954476  47.71 0.0002833279    1.283    0.221
        10  -7.8667    211.3139    215.3426   1.1401346545e+02   3.9590613730e+00      0.11716   0.06966308  13.14 0.0007047316    1.706    0.414
        11  -8.1563    221.6534    203.3282   1.1047788768e+02   3.7458044610e+00   0.09981396    0.0878299  51.86 0.0007049975    1.754    0.430
        12  -8.3949    223.3157    199.6532   1.0962009649e+02   3.8968744422e+00    0.0976411   0.09057929  52.20 0.0007047852    1.721    0.419
        13  -7.2159     68.4658    198.5499   1.3906534678e+02   2.6939800395e+01    0.1124949    0.0904653  54.92 3.284211e-05    1.040    0.038
        14  -9.1845    231.2556    192.7422   1.0719615471e+02   3.4674529551e+00    0.1985973    0.1060876  12.10  0.001056586    2.140    0.533
        15 -10.0475    233.3761    187.2850   1.0593215964e+02   3.7392724989e+00    0.3180314    0.1657518  47.33  0.001724845    2.246    0.555
        16  -9.4873    191.6914    187.9245   1.1317446636e+02   1.0186384801e+01    0.2126384    0.1545296  29.14 0.0003188299    1.128    0.113
        17  -7.5005     66.5240    157.5521   1.3553607817e+02   3.5047363066e+01    0.1221035    0.1068812  65.86  7.89628e-05    1.036    0.035
        18  -7.3342     19.3615    151.2814   1.4639207821e+02   4.1353689187e+01    0.1034305   0.08293409 -44.24  0.000701563    1.675    0.403
        19  -8.5148    135.9494    135.5924   1.1515722518e+02   2.8491919672e+01    0.2183965    0.1991459 -59.79   0.00127635    1.198    0.166
        20  -8.1171    200.1197    123.9597   9.9150734865e+01   1.7739706342e+01    0.1978188    0.1779072   8.54 -0.0009232552    1.008    0.008
        21  -7.7701    132.7967    120.7552   1.1277257706e+02   3.1977231048e+01    0.2040843    0.1859676  13.44 0.0009253651    1.167    0.143
        22 -11.1672    246.1357    114.6170   8.9563252414e+01   1.0148877155e+01    0.5489832    0.3816768 -40.01 0.0006699482    1.591    0.372
        23  -9.1701    249.7722    249.0841   1.1274175795e+02  -4.1227323071e+00    0.1845604     0.146416  15.76  0.001633096    1.390    0.281
        24  -7.4338    191.8113    101.5982   9.5324029337e+01   2.2903348277e+01    0.1851897    0.1390926  61.66 0.0003988932    1.547    0.353
        25  -7.7721    195.4800     96.0144   9.3229986664e+01   2.2959584170e+01    0.2143453    0.1374469 -29.37  0.000886347    1.524    0.344
        26  -6.9882    215.4423     74.5117   8.4320511643e+01   2.1603467933e+01    0.1414549    0.1287982  -6.49 0.0001315421    1.038    0.037
        27  -7.1802    174.7047    108.6504   1.0043526263e+02   2.5481610864e+01    0.1512478    0.1104059   8.27 0.0007032826    1.679    0.404
        28  -7.5240    242.3012     65.3510   7.8396258223e+01   1.6949788049e+01    0.1378509   0.09593493  13.60   0.00070385    1.696    0.410
        29  -7.5283    160.0692     58.4709   8.9268256909e+01   3.7245915252e+01     0.218834    0.1479333  54.40 0.0003283693    1.473    0.321
        30  -8.4280    197.8609     53.1339   8.1014106434e+01   2.8606278872e+01    0.2090634    0.2000529  -8.78 0.0003953499    1.026    0.025
        31  -8.2254    137.6227     44.4128   8.9354597258e+01   4.5063375441e+01    0.2527391    0.2314608 -42.69 0.0004858565    1.121    0.108
        32  -8.3819    120.0084    244.7560   1.3334450210e+02   1.3239847336e+01    0.1790021   0.09135842  66.67 0.0009016222    3.596    0.722
        33  -9.0959    246.1725     27.8486   6.8564619393e+01   2.0328502901e+01    0.1723126    0.1465174  13.07 0.0004754841    1.332    0.249
        34  -7.4227    192.9702     26.9331   7.3832398870e+01   3.3065999730e+01    0.1675032    0.1640791 -52.94 0.0003616767    1.009    0.009
        35  -7.8894    164.0386     21.0128   7.5925725546e+01   4.1305543923e+01     0.174945    0.1677816 -22.78 0.0004344912    1.058    0.055
        36 -10.0985    146.0632     20.3395   7.8682349732e+01   4.6157815081e+01    0.2744943    0.2425202  -3.32 0.0006488298    1.178    0.151
        37  -7.4304    156.9371     14.9679   7.4869541322e+01   4.3861062903e+01    0.1771687    0.1657262  63.59 0.0006253232    1.042    0.040
        38  -9.0351     72.1898    243.0751   1.4155072146e+02   1.9379839853e+01    0.1688098     0.124186  44.76 0.0003385936    1.125    0.111
